# Input file       =  1178958166.128444_cleaned.dat
# Candidate        =  PSR_0332+5434
# Telescope        =  AR
# Epoch_topo       =  57889.348936671806
# Epoch_bary       =  N/A
# T_sample         =  0.002
# Data Folded      =  7340032
# Data Avg         =  0.0348351044361766
# Data StdDev      =  1.00005317641168 
# Profile Bins     =  512
# Profile Avg      =  499.396500623119 
# Profile StdDev   =  119.73940335     
# Reduced chi-sqr  =  1.175
# Prob(Noise)      <  0.00375   (~2.7 sigma)
# P_topo (ms)      =  714.531965544195  +/- 0.000281
# P'_topo (s/s)    =  -0                +/- 1.48e-10
# P''_topo (s/s^2) =  0                 +/- 6.55e-14
# P_bary (ms)      =  N/A
# P'_bary (s/s)    =  N/A
# P''_bary (s/s^2) =  N/A
# P_orb (s)        =  N/A
# asin(i)/c (s)    =  N/A
# eccentricity     =  N/A
# w (rad)          =  N/A
# T_peri           =  N/A
######################################################
   0  907.0588
   1  808.5537
   2  771.8675
   3  673.7635
   4  629.8412
   5  485.6985
   6  404.0953
   7  426.4204
   8  485.8315
   9  437.4321
  10  487.4205
  11  572.1058
  12  538.4987
  13  544.7125
  14  459.1064
  15  515.3619
  16  509.7858
  17  515.7682
  18  555.3813
  19  592.395
  20  599.8901
  21  523.5987
  22  503.0929
  23  549.7151
  24  497.4355
  25  556.578
  26  636.6514
  27  584.9749
  28  571.0197
  29  459.834
  30  537.2314
  31  513.8961
  32  553.0613
  33  537.8977
  34  431.8741
  35  451.4577
  36  492.5612
  37  520.3719
  38  481.5127
  39  471.5085
  40  615.7077
  41  414.1685
  42  368.5805
  43  421.1586
  44  452.2287
  45  439.7604
  46  543.3956
  47  515.5088
  48  519.4603
  49  612.3991
  50  619.206
  51  499.2852
  52  314.2845
  53  313.0269
  54  413.4715
  55  532.0134
  56  569.9708
  57  476.6956
  58  586.1357
  59  573.7385
  60  539.6025
  61  454.2043
  62  408.2614
  63  489.2411
  64  480.1379
  65  372.5587
  66  509.2115
  67  442.4658
  68  263.795
  69  328.0305
  70  409.1387
  71  429.7842
  72  401.615
  73  377.7312
  74  385.5719
  75  402.2067
  76  519.8042
  77  478.8918
  78  524.4263
  79  556.0767
  80  534.7969
  81  489.4259
  82  455.4679
  83  411.6138
  84  536.2183
  85  513.3042
  86  444.9737
  87  368.1877
  88  292.9502
  89  272.1656
  90  314.2273
  91  427.6882
  92  418.7213
  93  343.2445
  94  326.2972
  95  389.1608
  96  469.6711
  97  427.9499
  98  384.5545
  99  449.8302
 100  539.392
 101  443.3087
 102  473.2568
 103  559.462
 104  460.0996
 105  414.0074
 106  437.973
 107  514.5723
 108  450.2972
 109  483.3652
 110  582.4156
 111  544.8842
 112  390.9682
 113  418.0916
 114  441.5219
 115  428.2337
 116  483.8438
 117  588.2985
 118  477.4256
 119  425.6515
 120  317.0545
 121  365.2285
 122  412.538
 123  459.7751
 124  462.6085
 125  528.1507
 126  541.1752
 127  438.9029
 128  492.4181
 129  471.4741
 130  514.4802
 131  558.7999
 132  560.6533
 133  484.7812
 134  504.5967
 135  466.8373
 136  451.3168
 137  452.1866
 138  579.2689
 139  608.4415
 140  502.7605
 141  526.274
 142  572.1683
 143  606.8856
 144  612.3698
 145  642.9343
 146  639.0328
 147  543.5564
 148  494.5869
 149  552.6962
 150  525.0773
 151  495.0407
 152  522.1436
 153  600.3258
 154  545.6905
 155  450.7157
 156  490.0279
 157  522.3349
 158  527.513
 159  418.864
 160  581.2143
 161  568.7388
 162  389.7102
 163  492.5611
 164  658.3909
 165  513.5791
 166  499.817
 167  515.3105
 168  618.2094
 169  625.3588
 170  498.517
 171  495.0356
 172  549.7381
 173  637.9771
 174  556.819
 175  287.1467
 176  334.2198
 177  400.5104
 178  507.9616
 179  515.3413
 180  317.5084
 181  443.5869
 182  649.0696
 183  591.8674
 184  551.8557
 185  540.2524
 186  511.2204
 187  530.6628
 188  495.9332
 189  561.6852
 190  628.7253
 191  634.2805
 192  506.6272
 193  537.6272
 194  659.1644
 195  592.632
 196  467.1628
 197  513.1545
 198  546.4455
 199  562.8874
 200  437.5187
 201  472.4719
 202  349.9281
 203  431.0398
 204  436.1823
 205  496.1246
 206  550.5132
 207  593.6946
 208  553.8986
 209  454.2541
 210  524.6021
 211  573.5555
 212  548.7078
 213  488.1943
 214  550.821
 215  661.2622
 216  695.1747
 217  543.0966
 218  535.8464
 219  655.3584
 220  612.8051
 221  536.5259
 222  563.3345
 223  531.6815
 224  470.0969
 225  682.6871
 226  740.2934
 227  701.9792
 228  657.7158
 229  576.0133
 230  432.7612
 231  539.3273
 232  633.2828
 233  552.8421
 234  504.9676
 235  587.6117
 236  663.376
 237  668.5443
 238  474.4343
 239  435.6251
 240  595.5092
 241  629.163
 242  578.8668
 243  601.4021
 244  482.0805
 245  519.3917
 246  552.0875
 247  551.2441
 248  522.4512
 249  423.1101
 250  415.8476
 251  368.3452
 252  415.8127
 253  504.1287
 254  474.1652
 255  392.776
 256  390.6832
 257  447.7625
 258  453.0285
 259  455.2081
 260  565.6108
 261  453.9999
 262  429.8451
 263  483.9369
 264  453.376
 265  330.4679
 266  293.6156
 267  464.6027
 268  583.8585
 269  494.3812
 270  551.2175
 271  639.1832
 272  710.4488
 273  687.079
 274  613.5679
 275  584.9559
 276  527.2726
 277  448.0005
 278  406.959
 279  450.2617
 280  480.0814
 281  563.5095
 282  655.1511
 283  539.8007
 284  496.2859
 285  619.2182
 286  607.4026
 287  528.5771
 288  557.3977
 289  576.5818
 290  461.3022
 291  472.8581
 292  491.9741
 293  538.269
 294  611.8011
 295  607.8903
 296  533.9504
 297  463.4063
 298  507.8705
 299  604.0339
 300  498.8928
 301  451.2078
 302  485.4572
 303  599.4232
 304  545.2275
 305  415.6009
 306  482.0575
 307  561.4153
 308  414.1945
 309  414.986
 310  434.2029
 311  459.2085
 312  331.8675
 313  287.2018
 314  403.6941
 315  464.6101
 316  540.0217
 317  567.9392
 318  592.8002
 319  537.4273
 320  509.7827
 321  486.7466
 322  479.1336
 323  389.3349
 324  408.098
 325  432.5612
 326  534.8676
 327  519.4667
 328  527.8112
 329  481.6588
 330  558.6175
 331  647.16
 332  510.0297
 333  523.5189
 334  446.126
 335  479.772
 336  495.475
 337  552.7855
 338  470.4953
 339  534.628
 340  576.0969
 341  460.834
 342  466.9783
 343  541.5079
 344  448.1837
 345  403.8474
 346  497.4151
 347  446.3082
 348  391.8218
 349  444.7739
 350  551.0797
 351  570.1341
 352  579.1944
 353  539.7903
 354  548.3749
 355  434.873
 356  439.7692
 357  549.1831
 358  379.8957
 359  414.1575
 360  619.6711
 361  543.5312
 362  376.0689
 363  351.9349
 364  332.0478
 365  429.3946
 366  514.7182
 367  385.9265
 368  434.7971
 369  492.1186
 370  388.2699
 371  458.7411
 372  534.3958
 373  600.1012
 374  447.8521
 375  413.7983
 376  487.7571
 377  432.9333
 378  387.1749
 379  471.9569
 380  498.5776
 381  506.5688
 382  446.9933
 383  415.7936
 384  528.7964
 385  518.9373
 386  519.0955
 387  451.6623
 388  308.6428
 389  327.3751
 390  425.9861
 391  464.3418
 392  465.5614
 393  413.9476
 394  452.9164
 395  429.9383
 396  418.1928
 397  578.6109
 398  466.7404
 399  524.6281
 400  514.4322
 401  500.8081
 402  546.8522
 403  497.8978
 404  327.1177
 405  449.5195
 406  522.4402
 407  481.5884
 408  500.9816
 409  430.2306
 410  478.2754
 411  504.5006
 412  560.2274
 413  555.5775
 414  494.4227
 415  569.8887
 416  606.3164
 417  459.045
 418  548.4772
 419  492.5467
 420  454.4117
 421  471.4696
 422  296.6933
 423  385.2063
 424  480.9515
 425  516.4151
 426  542.8289
 427  520.8983
 428  594.5178
 429  571.1684
 430  474.3157
 431  444.0915
 432  568.7046
 433  453.9662
 434  478.9658
 435  394.8871
 436  467.6984
 437  395.4608
 438  306.6706
 439  462.0911
 440  456.7549
 441  456.2705
 442  469.0684
 443  493.0738
 444  472.2672
 445  496.3631
 446  528.7952
 447  436.7516
 448  351.9659
 449  512.3869
 450  518.8348
 451  485.741
 452  421.8043
 453  527.5019
 454  468.4971
 455  313.7886
 456  330.2965
 457  382.5326
 458  448.1608
 459  523.7797
 460  547.6827
 461  516.5348
 462  515.8046
 463  452.0042
 464  522.6187
 465  465.5237
 466  456.5941
 467  562.8896
 468  651.405
 469  612.5548
 470  470.4924
 471  378.9132
 472  400.2346
 473  447.9715
 474  420.6763
 475  390.1315
 476  499.95
 477  297.0471
 478  400.3985
 479  562.4556
 480  456.1148
 481  496.1953
 482  474.0846
 483  373.6851
 484  406.5991
 485  443.3464
 486  502.0548
 487  397.2306
 488  324.7311
 489  405.8685
 490  472.3575
 491  439.1959
 492  447.0176
 493  441.3595
 494  527.3253
 495  550.3456
 496  493.3791
 497  479.9439
 498  563.5809
 499  456.0646
 500  479.5906
 501  475.8912
 502  595.7618
 503  695.8401
 504  560.6602
 505  604.7901
 506  694.0947
 507  749.4996
 508  740.5472
 509  837.0668
 510  1018.215
 511  946.1345
