# Input file       =  1178527507.106305_cleaned.dat
# Candidate        =  PSR_0332+5434
# Telescope        =  AR
# Epoch_topo       =  57884.364457248899
# Epoch_bary       =  N/A
# T_sample         =  0.002
# Data Folded      =  7340032
# Data Avg         =  0.0338018296770894
# Data StdDev      =  1.00012501443111 
# Profile Bins     =  512
# Profile Avg      =  484.552368412577 
# Profile StdDev   =  119.748004734194 
# Reduced chi-sqr  =  1.303
# Prob(Noise)      <  4.41e-06   (~4.4 sigma)
# P_topo (ms)      =  714.536760817543  +/- 0.000187
# P'_topo (s/s)    =  -0                +/- 9.85e-11
# P''_topo (s/s^2) =  0                 +/- 4.35e-14
# P_bary (ms)      =  N/A
# P'_bary (s/s)    =  N/A
# P''_bary (s/s^2) =  N/A
# P_orb (s)        =  N/A
# asin(i)/c (s)    =  N/A
# eccentricity     =  N/A
# w (rad)          =  N/A
# T_peri           =  N/A
######################################################
   0  554.1467
   1  525.4868
   2  512.389
   3  486.4294
   4  492.5264
   5  477.5135
   6  464.636
   7  517.1507
   8  518.3065
   9  540.6324
  10  554.4219
  11  515.8817
  12  572.8397
  13  400.5824
  14  335.8289
  15  459.7222
  16  468.4136
  17  532.2196
  18  449.5197
  19  455.3329
  20  349.5693
  21  368.3588
  22  373.0352
  23  328.8487
  24  407.3721
  25  495.3217
  26  598.9562
  27  387.019
  28  358.6838
  29  433.7518
  30  550.6016
  31  661.4989
  32  562.0828
  33  504.2447
  34  491.4369
  35  505.3148
  36  494.4607
  37  546.5487
  38  516.9824
  39  343.8959
  40  362.5497
  41  393.006
  42  389.3138
  43  498.8504
  44  554.1315
  45  553.9061
  46  459.5669
  47  453.4827
  48  407.2078
  49  513.2332
  50  553.7712
  51  636.5859
  52  754.002
  53  905.4747
  54  957.1857
  55  1119.17
  56  1179.944
  57  1064.688
  58  922.323
  59  660.0461
  60  488.4431
  61  500.9002
  62  525.5212
  63  556.4874
  64  489.6377
  65  478.4091
  66  440.3415
  67  519.0085
  68  536.4106
  69  480.2952
  70  484.6956
  71  533.6901
  72  410.6799
  73  413.5988
  74  467.4822
  75  433.4264
  76  330.0629
  77  382.0509
  78  370.8839
  79  498.9608
  80  491.8625
  81  505.1574
  82  503.5873
  83  574.5961
  84  529.4175
  85  540.167
  86  525.406
  87  571.0074
  88  423.9265
  89  401.2343
  90  404.5322
  91  409.1507
  92  378.9449
  93  369.0072
  94  423.1783
  95  302.7697
  96  262.7102
  97  424.699
  98  325.8405
  99  255.0093
 100  336.8029
 101  426.7551
 102  407.1534
 103  309.4676
 104  423.5617
 105  462.4784
 106  515.3454
 107  393.6461
 108  393.8243
 109  429.7959
 110  516.6552
 111  574.4271
 112  620.0071
 113  704.7719
 114  628.8286
 115  623.1115
 116  542.0217
 117  392.1135
 118  456.3426
 119  590.9752
 120  605.9863
 121  485.5839
 122  453.0963
 123  329.9813
 124  460.0806
 125  404.067
 126  443.556
 127  445.0178
 128  514.8026
 129  478.2973
 130  488.9882
 131  415.5013
 132  372.5525
 133  343.6376
 134  407.7694
 135  545.7003
 136  479.6225
 137  487.2699
 138  495.4259
 139  510.7813
 140  425.5208
 141  560.966
 142  463.7995
 143  540.0563
 144  541.4797
 145  498.3104
 146  534.507
 147  587.3729
 148  531.1928
 149  428.6285
 150  508.5583
 151  500.103
 152  547.6988
 153  438.4677
 154  476.2003
 155  391.1086
 156  443.7504
 157  519.4883
 158  540.9583
 159  614.0719
 160  661.0848
 161  475.333
 162  462.5106
 163  631.3759
 164  525.6974
 165  427.2497
 166  449.4382
 167  407.867
 168  476.7421
 169  610.8515
 170  540.7012
 171  414.3275
 172  507.2559
 173  596.1
 174  516.2131
 175  459.6054
 176  410.8693
 177  393.4336
 178  433.9424
 179  548.832
 180  546.3917
 181  407.6244
 182  383.8571
 183  405.335
 184  500.296
 185  551.2015
 186  474.6842
 187  575.9095
 188  498.9133
 189  415.4042
 190  359.0769
 191  493.2367
 192  474.227
 193  422.1698
 194  436.1519
 195  409.097
 196  375.7045
 197  383.2398
 198  355.5727
 199  462.4146
 200  521.282
 201  571.2188
 202  616.8196
 203  560.6788
 204  430.9717
 205  564.8947
 206  449.3518
 207  376.8084
 208  390.2563
 209  427.4785
 210  600.1889
 211  621.2886
 212  604.4789
 213  513.1938
 214  488.984
 215  444.5296
 216  402.3192
 217  428.0156
 218  510.2293
 219  544.2589
 220  504.3453
 221  494.7427
 222  418.8667
 223  545.196
 224  475.8844
 225  433.5081
 226  536.5484
 227  510.8489
 228  565.0194
 229  486.1848
 230  585.2764
 231  508.2781
 232  526.1937
 233  468.6602
 234  426.8244
 235  431.6588
 236  608.0843
 237  630.915
 238  489.0089
 239  426.1373
 240  238.2352
 241  259.0484
 242  497.7608
 243  597.4943
 244  559.2473
 245  604.1865
 246  613.2371
 247  564.9395
 248  528.2463
 249  598.8914
 250  634.6527
 251  596.9435
 252  529.5389
 253  419.1367
 254  445.5259
 255  468.1575
 256  484.8964
 257  398.1158
 258  463.6756
 259  599.3543
 260  496.7879
 261  346.5101
 262  339.4573
 263  451.4061
 264  472.3477
 265  551.2973
 266  436.5896
 267  441.2742
 268  438.8619
 269  457.2969
 270  461.0029
 271  425.7805
 272  382.2166
 273  415.745
 274  459.8626
 275  501.4063
 276  502.6059
 277  487.8026
 278  487.208
 279  445.8471
 280  423.1182
 281  380.9543
 282  395.8355
 283  378.7865
 284  440.3501
 285  380.5144
 286  461.9337
 287  490.9259
 288  444.0214
 289  394.5769
 290  412.8859
 291  373.9042
 292  341.3275
 293  422.3887
 294  563.0714
 295  582.5888
 296  459.4304
 297  404.8469
 298  458.3647
 299  551.6496
 300  532.5984
 301  596.1858
 302  619.7145
 303  683.1337
 304  532.1581
 305  482.3737
 306  490.4498
 307  406.1024
 308  430.0868
 309  430.6466
 310  413.0571
 311  432.774
 312  440.8534
 313  505.2536
 314  401.5629
 315  363.4201
 316  366.2349
 317  364.896
 318  400.6855
 319  488.6364
 320  516.0931
 321  396.4742
 322  476.8056
 323  492.8007
 324  434.6061
 325  450.4618
 326  430.4049
 327  528.4725
 328  635.8307
 329  607.414
 330  548.3315
 331  460.6224
 332  356.1629
 333  300.6693
 334  335.6405
 335  349.6367
 336  402.6978
 337  388.3134
 338  436.3842
 339  469.8947
 340  418.731
 341  433.2194
 342  489.7174
 343  371.4938
 344  287.0421
 345  408.8999
 346  522.1939
 347  347.1222
 348  431.8713
 349  547.2839
 350  509.1452
 351  455.1606
 352  546.8745
 353  536.6514
 354  491.2054
 355  519.5475
 356  517.2697
 357  475.4771
 358  410.3328
 359  374.4304
 360  401.1163
 361  442.2015
 362  410.5081
 363  305.1358
 364  380.3303
 365  384.2702
 366  268.632
 367  383.1678
 368  505.5974
 369  438.9218
 370  353.0146
 371  516.4971
 372  481.2169
 373  397.4542
 374  429.567
 375  445.8905
 376  493.3974
 377  530.5007
 378  571.4102
 379  532.9634
 380  417.3833
 381  553.8476
 382  537.0469
 383  507.7039
 384  511.7023
 385  463.0304
 386  405.4899
 387  496.7784
 388  535.7487
 389  490.2225
 390  496.6813
 391  373.1425
 392  421.5648
 393  463.8848
 394  561.3433
 395  545.9948
 396  479.8443
 397  355.3315
 398  450.783
 399  578.9364
 400  613.2256
 401  585.0905
 402  413.2704
 403  399.676
 404  417.8554
 405  456.1546
 406  512.2764
 407  456.5313
 408  436.4113
 409  451.2271
 410  381.4674
 411  437.0439
 412  628.7485
 413  537.2076
 414  374.4214
 415  456.8145
 416  396.4896
 417  426.698
 418  450.7477
 419  441.2333
 420  476.6624
 421  488.7499
 422  482.3528
 423  407.8723
 424  412.4301
 425  380.9406
 426  356.8513
 427  511.3503
 428  500.4248
 429  364.0468
 430  437.4434
 431  446.9245
 432  459.0676
 433  452.5441
 434  409.4777
 435  449.7191
 436  528.3091
 437  606.5322
 438  531.1466
 439  370.8342
 440  396.3632
 441  407.354
 442  494.0709
 443  451.4014
 444  534.0236
 445  494.5355
 446  437.5898
 447  518.155
 448  586.9302
 449  579.0708
 450  527.4791
 451  537.2563
 452  590.4601
 453  564.0957
 454  548.6672
 455  491.2602
 456  570.3144
 457  568.7085
 458  578.5786
 459  612.1846
 460  568.9271
 461  541.5276
 462  596.8203
 463  544.9874
 464  531.1965
 465  590.3101
 466  503.0391
 467  417.7322
 468  452.2164
 469  548.2501
 470  507.3015
 471  509.2913
 472  551.762
 473  585.1458
 474  482.3241
 475  423.1842
 476  518.7843
 477  585.0969
 478  461.41
 479  544.8555
 480  495.4936
 481  486.8722
 482  459.2271
 483  546.0209
 484  567.6385
 485  556.11
 486  603.2857
 487  532.8538
 488  510.1616
 489  461.922
 490  548.4841
 491  576.0381
 492  525.5876
 493  587.1151
 494  640.2176
 495  564.2064
 496  527.0462
 497  529.3841
 498  520.0538
 499  385.6285
 500  503.5892
 501  577.5929
 502  513.8607
 503  528.984
 504  533.0818
 505  485.8127
 506  523.4282
 507  465.8668
 508  422.9571
 509  468.8086
 510  462.9279
 511  566.0924
