# Input file       =  1178527507.106305_cleaned.dat
# Candidate        =  PSR_0332+5434
# Telescope        =  AR
# Epoch_topo       =  57884.364457248899
# Epoch_bary       =  N/A
# T_sample         =  0.002
# Data Folded      =  7340032
# Data Avg         =  0.0338018296770894
# Data StdDev      =  1.00012501443111 
# Profile Bins     =  512
# Profile Avg      =  484.552390146204 
# Profile StdDev   =  119.748004734194 
# Reduced chi-sqr  =  1.304
# Prob(Noise)      <  4.07e-06   (~4.5 sigma)
# P_topo (ms)      =  714.536759622128  +/- 0.000188
# P'_topo (s/s)    =  -0                +/- 9.91e-11
# P''_topo (s/s^2) =  0                 +/- 4.37e-14
# P_bary (ms)      =  N/A
# P'_bary (s/s)    =  N/A
# P''_bary (s/s^2) =  N/A
# P_orb (s)        =  N/A
# asin(i)/c (s)    =  N/A
# eccentricity     =  N/A
# w (rad)          =  N/A
# T_peri           =  N/A
######################################################
   0  1161.102
   1  1147.595
   2  1039.572
   3  863.7514
   4  593.3918
   5  487.405
   6  507.9536
   7  537.5651
   8  554.0727
   9  474.5867
  10  468.0993
  11  443.1688
  12  548.6145
  13  522.6684
  14  457.4883
  15  509.1236
  16  500.4861
  17  404.7387
  18  431.6975
  19  474.2834
  20  388.5162
  21  352.2109
  22  369.1205
  23  408.709
  24  505.3568
  25  489.5085
  26  502.5909
  27  519.136
  28  572.9715
  29  522.209
  30  532.4803
  31  545.881
  32  555.2977
  33  389.1776
  34  415.3589
  35  387.6755
  36  423.8833
  37  352.8017
  38  405.2595
  39  395.7073
  40  280.3457
  41  294.0102
  42  431.4866
  43  283.9058
  44  273.3818
  45  351.5941
  46  432.2773
  47  372.2007
  48  328.1401
  49  456.1029
  50  476.8602
  51  490.947
  52  375.6447
  53  408.5586
  54  435.2178
  55  547.1305
  56  574.8523
  57  650.5602
  58  708.7585
  59  606.73
  60  625.3966
  61  498.3617
  62  379.5592
  63  496.4746
  64  611.1517
  65  584.2581
  66  460.8855
  67  433.7129
  68  331.1006
  69  482.3224
  70  388.7349
  71  457.0481
  72  463.1856
  73  505.4001
  74  473.4187
  75  478.4731
  76  402.3651
  77  365.3573
  78  345.5555
  79  443.9665
  80  544.0349
  81  481.6411
  82  491.3715
  83  508.5404
  84  467.8921
  85  469.7501
  86  537.3963
  87  480.3729
  88  533.5654
  89  539.4158
  90  491.2642
  91  562.8817
  92  585.9916
  93  497.3447
  94  436.8602
  95  516.2997
  96  511.8729
  97  526.0118
  98  436.7143
  99  457.0225
 100  388.2819
 101  466.7683
 102  540.8384
 103  539.7596
 104  647.4553
 105  621.6307
 106  444.9199
 107  512.1682
 108  632.6767
 109  481.2304
 110  427.1635
 111  451.9915
 112  408.3795
 113  506.7975
 114  624.7217
 115  492.7256
 116  418.7753
 117  544.6968
 118  587.56
 119  489.5584
 120  458.6281
 121  391.7433
 122  407.7169
 123  450.6623
 124  571.4302
 125  514.2148
 126  397.0278
 127  372.6568
 128  422.756
 129  528.765
 130  534.8848
 131  480.6785
 132  587.4944
 133  457.7888
 134  401.6233
 135  376.7968
 136  520.9066
 137  447.6681
 138  427.2229
 139  433.5778
 140  392.7275
 141  382.4546
 142  369.2065
 143  381.2562
 144  486.7953
 145  528.5243
 146  594.2639
 147  607.2158
 148  514.274
 149  447.4614
 150  568.8478
 151  411.1015
 152  376.9567
 153  391.1696
 154  483.5969
 155  623.9578
 156  612.6693
 157  577.5256
 158  504.3542
 159  477.4151
 160  435.6347
 161  400.1827
 162  446.2722
 163  525.4441
 164  530.9155
 165  502.3745
 166  470.6799
 167  442.6381
 168  550.6154
 169  448.1933
 170  463.7254
 171  532.4063
 172  523.9476
 173  549.8133
 174  506.8187
 175  578.9737
 176  506.3433
 177  514.9984
 178  455.7614
 179  417.6065
 180  457.1193
 181  653.467
 182  585.8019
 183  487.3655
 184  378.6815
 185  218.1545
 186  296.717
 187  554.0999
 188  578.22
 189  578.3839
 190  603.3396
 191  612.3775
 192  539.4783
 193  541.9015
 194  617.7074
 195  624.4185
 196  594.2977
 197  491.4616
 198  417.4847
 199  445.6741
 200  485.8249
 201  458.6303
 202  418.5689
 203  483.2803
 204  611.8316
 205  440.007
 206  332.3024
 207  362.7055
 208  462.1159
 209  493.4457
 210  548.1324
 211  402.3199
 212  454.3237
 213  438.0757
 214  466.2201
 215  455.4545
 216  413.5891
 217  381.2604
 218  432.9328
 219  473.7209
 220  497.3286
 221  498.2809
 222  482.3424
 223  495.9757
 224  425.9311
 225  418.8727
 226  364.8805
 227  402.8323
 228  390.8051
 229  432.0142
 230  393.4159
 231  480.5102
 232  481.2376
 233  427.2505
 234  403.5422
 235  402.2368
 236  364.8664
 237  341.0348
 238  459.7724
 239  581.7305
 240  566.0453
 241  420.2208
 242  428.1917
 243  470.3915
 244  564.0049
 245  539.3016
 246  600.066
 247  634.7753
 248  669.8338
 249  492.3711
 250  497.8646
 251  466.5398
 252  420.2877
 253  426.2472
 254  420.4236
 255  412.9547
 256  435.6475
 257  467.2238
 258  489.0356
 259  379.9121
 260  358.8405
 261  368.2905
 262  376.0926
 263  416.5564
 264  513.7064
 265  481.1692
 266  391.9044
 267  512.2586
 268  457.0212
 269  453.5226
 270  437.6784
 271  441.5454
 272  562.1714
 273  640.8899
 274  574.576
 275  546.204
 276  427.6244
 277  342.313
 278  310.7392
 279  335.7211
 280  358.2776
 281  407.8761
 282  387.8052
 283  457.7012
 284  459.9479
 285  397.9171
 286  459.2969
 287  474.118
 288  344.1953
 289  293.9192
 290  460.1339
 291  484.4915
 292  335.0306
 293  482.0564
 294  546.4177
 295  498.667
 296  463.0927
 297  565.913
 298  507.2936
 299  521.1933
 300  494.8819
 301  522.6719
 302  445.9522
 303  406.9454
 304  364.6085
 305  425.4818
 306  437.0495
 307  400.5718
 308  287.9136
 309  414.3443
 310  335.4792
 311  284.1239
 312  420.3703
 313  512.8817
 314  394.1158
 315  389.7131
 316  542.3265
 317  443.0919
 318  399.5392
 319  432.7855
 320  445.8773
 321  518.6627
 322  526.3488
 323  591.8323
 324  478.7448
 325  451.5688
 326  560.5128
 327  531.5686
 328  506.2603
 329  509.141
 330  437.9533
 331  411.3347
 332  530.4866
 333  511.4177
 334  509.0724
 335  458.1699
 336  374.7687
 337  432.2203
 338  479.653
 339  581.2654
 340  524.8938
 341  457.7227
 342  343.3582
 343  507.5953
 344  584.7635
 345  614.3096
 346  565.6004
 347  374.1798
 348  416.5281
 349  401.552
 350  490.8803
 351  503.5665
 352  443.745
 353  437.9417
 354  439.2529
 355  369.8069
 356  487.9341
 357  654.3611
 358  452.041
 359  414.2973
 360  435.3855
 361  405.7535
 362  438.3359
 363  438.5826
 364  447.5101
 365  475.7679
 366  502.2775
 367  477.628
 368  388.9199
 369  416.3469
 370  350.494
 371  389.4245
 372  540.5125
 373  457.6726
 374  365.507
 375  449.1613
 376  450.3307
 377  470.5338
 378  438.9037
 379  402.7989
 380  470.7038
 381  537.9606
 382  621.7585
 383  478.786
 384  363.3435
 385  404.2629
 386  426.6169
 387  492.6129
 388  471.5443
 389  534.9194
 390  470.3598
 391  444.0539
 392  542.0137
 393  586.3577
 394  579.1274
 395  514.5943
 396  563.5132
 397  580.8366
 398  557.4927
 399  533.731
 400  503.4735
 401  586.8996
 402  555.6746
 403  599.7552
 404  596.212
 405  560.4685
 406  549.7243
 407  605.5154
 408  525.6105
 409  546.6805
 410  580.1374
 411  476.4484
 412  409.4348
 413  482.1618
 414  551.4116
 415  491.6603
 416  528.4392
 417  560.6003
 418  582.4069
 419  446.2491
 420  436.0116
 421  550.0694
 422  548.4869
 423  476.0854
 424  549.7675
 425  481.5443
 426  480.1133
 427  474.4605
 428  558.3693
 429  553.0478
 430  576.078
 431  588.2769
 432  534.184
 433  485.9896
 434  483.2916
 435  569.6683
 436  550.8969
 437  535.4478
 438  604.1397
 439  631.0795
 440  543.9403
 441  532.8836
 442  536.6555
 443  482.5652
 444  386.7684
 445  536.9277
 446  569.3251
 447  504.8354
 448  552.1888
 449  507.8615
 450  510.7866
 451  511.9921
 452  438.1441
 453  434.0698
 454  451.8088
 455  507.2904
 456  562.6146
 457  556.2732
 458  503.396
 459  519.8646
 460  482.4826
 461  502.3191
 462  460.8272
 463  479.7577
 464  521.6452
 465  517.2306
 466  547.8717
 467  521.2025
 468  560.5021
 469  536.2612
 470  382.3573
 471  348.7063
 472  471.2215
 473  478.4758
 474  524.9966
 475  442.218
 476  440.1238
 477  341.5408
 478  378.7459
 479  357.7449
 480  329.0592
 481  433.9037
 482  525.3138
 483  574.885
 484  342.5724
 485  388.3016
 486  439.6041
 487  601.2997
 488  639.2709
 489  554.4877
 490  489.933
 491  490.4413
 492  512.1108
 493  488.2703
 494  569.4465
 495  474.9107
 496  334.0775
 497  377.3644
 498  370.4048
 499  420.6998
 500  519.5566
 501  567.255
 502  533.5897
 503  458.6446
 504  421.2326
 505  441.1816
 506  507.8056
 507  584.1169
 508  639.7351
 509  820.151
 510  907.4799
 511  997.2337
