# Input file       =  1178699751.103657_cleaned.dat
# Candidate        =  PSR_0332+5434
# Telescope        =  AR
# Epoch_topo       =  57886.358022033070
# Epoch_bary       =  N/A
# T_sample         =  0.002
# Data Folded      =  7340032
# Data Avg         =  0.0219740802666193
# Data StdDev      =  1.00005499157266 
# Profile Bins     =  512
# Profile Avg      =  315.091960813595 
# Profile StdDev   =  119.739620684736 
# Reduced chi-sqr  =  1.480
# Prob(Noise)      <  8.46e-12   (~6.7 sigma)
# P_topo (ms)      =  714.534853312318  +/- 0.000209
# P'_topo (s/s)    =  -0                +/- 1.1e-10
# P''_topo (s/s^2) =  0                 +/- 4.87e-14
# P_bary (ms)      =  N/A
# P'_bary (s/s)    =  N/A
# P''_bary (s/s^2) =  N/A
# P_orb (s)        =  N/A
# asin(i)/c (s)    =  N/A
# eccentricity     =  N/A
# w (rad)          =  N/A
# T_peri           =  N/A
######################################################
   0  286.174
   1  223.7733
   2  363.4223
   3  428.9425
   4  485.8345
   5  621.1483
   6  823.4388
   7  978.7821
   8  1079.345
   9  1055.874
  10  938.9664
  11  652.0269
  12  326.6251
  13  298.8548
  14  293.8394
  15  286.2835
  16  274.7867
  17  367.0964
  18  420.7524
  19  367.5805
  20  351.2424
  21  481.44
  22  514.7369
  23  515.7232
  24  494.1916
  25  454.5866
  26  438.3189
  27  233.9178
  28  279.8051
  29  246.7675
  30  267.7607
  31  358.6974
  32  307.8579
  33  275.7689
  34  268.9243
  35  221.0161
  36  273.5679
  37  272.5509
  38  322.2703
  39  313.0478
  40  190.1982
  41  291.635
  42  386.231
  43  404.0385
  44  332.6409
  45  304.3262
  46  172.8001
  47  266.8925
  48  331.0989
  49  298.5174
  50  363.4221
  51  395.733
  52  355.6644
  53  254.7846
  54  202.0164
  55  357.0992
  56  475.1066
  57  396.6963
  58  300.2622
  59  264.5232
  60  197.7043
  61  275.9403
  62  269.0694
  63  307.2128
  64  306.1837
  65  381.2258
  66  295.4235
  67  156.5898
  68  99.90334
  69  261.6828
  70  351.6674
  71  305.637
  72  198.1819
  73  213.784
  74  283.3771
  75  426.1268
  76  382.3119
  77  299.0217
  78  286.8422
  79  388.9404
  80  296.455
  81  271.6826
  82  349.834
  83  165.1938
  84  140.2252
  85  277.9375
  86  347.8501
  87  330.47
  88  194.629
  89  103.9252
  90  220.8391
  91  224.2629
  92  198.6866
  93  279.8498
  94  311.9222
  95  420.4313
  96  396.5329
  97  389.5054
  98  207.1081
  99  265.4506
 100  348.8096
 101  285.8517
 102  216.5385
 103  272.9891
 104  263.8855
 105  314.059
 106  352.1259
 107  267.2771
 108  304.7176
 109  268.9977
 110  308.5351
 111  291.8752
 112  314.7329
 113  320.2944
 114  366.7871
 115  407.4325
 116  312.4056
 117  240.0472
 118  415.699
 119  388.7072
 120  219.3675
 121  389.3047
 122  355.9179
 123  269.762
 124  368.7072
 125  303.6526
 126  288.8628
 127  358.1071
 128  284.3605
 129  293.464
 130  305.3163
 131  298.9252
 132  295.6439
 133  246.2939
 134  266.1588
 135  205.7332
 136  232.6178
 137  312.9314
 138  262.8816
 139  334.6783
 140  334.0852
 141  314.9502
 142  329.5047
 143  306.1506
 144  164.3139
 145  196.5646
 146  314.813
 147  415.5909
 148  398.2865
 149  201.0493
 150  305.8272
 151  356.9667
 152  417.345
 153  229.1742
 154  272.2386
 155  365.7366
 156  258.3344
 157  266.9524
 158  337.1519
 159  217.1997
 160  103.9428
 161  248.4276
 162  293.4401
 163  328.0453
 164  342.1462
 165  270.2314
 166  155.7632
 167  151.0293
 168  416.1039
 169  483.2005
 170  385.6701
 171  162.9794
 172  120.4816
 173  262.8011
 174  352.9331
 175  326.3349
 176  348.8769
 177  363.5625
 178  391.8329
 179  347.8154
 180  384.4786
 181  432.938
 182  382.3167
 183  475.7808
 184  414.6435
 185  194.6649
 186  222.935
 187  355.3336
 188  338.8244
 189  240.9927
 190  276.7943
 191  335.04
 192  334.2703
 193  316.7983
 194  363.3181
 195  314.0552
 196  293.3337
 197  216.918
 198  239.951
 199  333.9118
 200  340.3482
 201  478.5553
 202  504.8031
 203  402.8453
 204  354.0516
 205  440.6088
 206  458.8424
 207  275.7234
 208  310.7247
 209  312.6551
 210  314.6285
 211  290.9803
 212  295.4682
 213  325.0396
 214  469.5484
 215  359.8784
 216  315.6996
 217  174.7821
 218  226.0956
 219  404.3017
 220  527.251
 221  465.6381
 222  338.6778
 223  416.3245
 224  352.1713
 225  258.3855
 226  339.2415
 227  351.0651
 228  260.2456
 229  249.9953
 230  311.0972
 231  277.7934
 232  245.4639
 233  260.8657
 234  234.9509
 235  239.3543
 236  228.9996
 237  201.2356
 238  179.3539
 239  312.4217
 240  367.8152
 241  302.4061
 242  279.8198
 243  232.5323
 244  275.817
 245  334.6418
 246  491.3236
 247  367.6554
 248  231.0117
 249  219.7858
 250  207.756
 251  282.6731
 252  261.6015
 253  363.6494
 254  393.1993
 255  374.2254
 256  274.2948
 257  255.1349
 258  186.8793
 259  121.408
 260  240.8805
 261  135.3907
 262  258.121
 263  240.1428
 264  250.7641
 265  212.2292
 266  270.1544
 267  341.8753
 268  507.3082
 269  497.4765
 270  396.2457
 271  315.0304
 272  265.8493
 273  334.7314
 274  375.6189
 275  424.7165
 276  420.0443
 277  310.966
 278  277.0756
 279  326.1011
 280  440.6924
 281  309.8238
 282  268.9163
 283  381.8758
 284  434.7759
 285  386.8492
 286  302.5981
 287  301.918
 288  306.0017
 289  301.309
 290  178.3384
 291  226.088
 292  231.6014
 293  173.1898
 294  264.0391
 295  299.9155
 296  309.3632
 297  389.0662
 298  435.5167
 299  438.4429
 300  339.6069
 301  381.9847
 302  346.8338
 303  339.9262
 304  271.9824
 305  294.1344
 306  366.8073
 307  467.2211
 308  258.9971
 309  314.5155
 310  296.597
 311  322.8237
 312  387.616
 313  443.1277
 314  303.3661
 315  232.6594
 316  328.3092
 317  268.2352
 318  334.958
 319  389.9432
 320  280.4973
 321  173.498
 322  308.998
 323  322.3238
 324  340.674
 325  330.7528
 326  192.9607
 327  239.1483
 328  171.7558
 329  264.4666
 330  246.4228
 331  156.8746
 332  185.8969
 333  201.5053
 334  195.2098
 335  206.035
 336  237.0406
 337  353.6244
 338  353.7263
 339  302.5625
 340  311.9694
 341  252.1488
 342  277.2225
 343  274.8405
 344  272.3744
 345  306.5972
 346  249.1308
 347  297.9486
 348  438.3018
 349  374.9761
 350  254.3932
 351  328.5951
 352  239.5183
 353  304.1823
 354  314.4076
 355  398.6711
 356  395.4976
 357  276.9173
 358  370.0007
 359  303.4837
 360  322.7817
 361  356.7964
 362  237.1322
 363  321.8007
 364  255.2818
 365  268.8941
 366  258.3313
 367  187.2666
 368  298.1841
 369  349.0115
 370  241.8022
 371  78.16073
 372  78.38701
 373  243.4787
 374  210.0703
 375  176.7394
 376  177.0832
 377  215.1909
 378  229.2121
 379  250.4053
 380  352.2298
 381  388.845
 382  377.2262
 383  420.695
 384  313.5959
 385  398.6598
 386  370.6017
 387  250.4587
 388  286.4147
 389  254.6444
 390  287.6741
 391  353.1903
 392  415.7409
 393  435.697
 394  260.5777
 395  292.6039
 396  355.1994
 397  293.9831
 398  252.5946
 399  343.0617
 400  350.6463
 401  330.9063
 402  399.725
 403  373.3874
 404  401.4055
 405  339.67
 406  371.8666
 407  382.9035
 408  369.4938
 409  380.1959
 410  352.1254
 411  320.9613
 412  339.7708
 413  356.0144
 414  465.5973
 415  386.5456
 416  373.79
 417  257.1262
 418  120.9652
 419  223.5316
 420  373.7612
 421  300.6449
 422  327.0876
 423  362.5475
 424  221.3119
 425  132.2858
 426  188.5704
 427  403.8646
 428  404.8942
 429  285.9223
 430  229.2616
 431  277.1694
 432  271.7525
 433  296.5718
 434  211.8892
 435  330.1611
 436  354.962
 437  188.9461
 438  212.2866
 439  426.0397
 440  357.334
 441  259.8428
 442  294.7315
 443  300.8114
 444  230.9318
 445  266.0725
 446  234.6174
 447  322.6074
 448  257.5821
 449  145.2046
 450  224.5796
 451  256.3866
 452  336.2012
 453  231.2219
 454  260.0129
 455  165.5533
 456  204.3215
 457  392.0107
 458  446.7625
 459  377.2816
 460  320.21
 461  367.1667
 462  319.1083
 463  280.2242
 464  324.514
 465  309.1176
 466  170.3796
 467  172.1148
 468  209.8821
 469  327.2133
 470  309.6955
 471  368.4442
 472  330.7161
 473  284.1379
 474  309.8792
 475  313.4979
 476  347.81
 477  462.0144
 478  469.2934
 479  427.5458
 480  278.7018
 481  321.2992
 482  296.1826
 483  228.2199
 484  370.5091
 485  401.6184
 486  360.1024
 487  338.584
 488  410.8193
 489  294.1696
 490  205.4576
 491  408.082
 492  430.2374
 493  378.4093
 494  320.3217
 495  244.8572
 496  270.9655
 497  273.0404
 498  258.5282
 499  266.8504
 500  281.9054
 501  291.0613
 502  289.4958
 503  170.9205
 504  250.8253
 505  297.6635
 506  403.6157
 507  405.6646
 508  248.9951
 509  344.9988
 510  392.6586
 511  374.7965
