# Input file       =  1178629155.093812_cleaned.dat
# Candidate        =  PSR_0332+5434
# Telescope        =  AR
# Epoch_topo       =  57885.540938585786
# Epoch_bary       =  N/A
# T_sample         =  0.002
# Data Folded      =  7340032
# Data Avg         =  0.0156284393180501
# Data StdDev      =  0.99988609019954 
# Profile Bins     =  512
# Profile Avg      =  224.054249022993 
# Profile StdDev   =  119.719397610484 
# Reduced chi-sqr  =  1.265
# Prob(Noise)      <  4.32e-05   (~3.9 sigma)
# P_topo (ms)      =  714.535985961582  +/- 0.000123
# P'_topo (s/s)    =  -0                +/- 6.49e-11
# P''_topo (s/s^2) =  0                 +/- 2.86e-14
# P_bary (ms)      =  N/A
# P'_bary (s/s)    =  N/A
# P''_bary (s/s^2) =  N/A
# P_orb (s)        =  N/A
# asin(i)/c (s)    =  N/A
# eccentricity     =  N/A
# w (rad)          =  N/A
# T_peri           =  N/A
######################################################
   0  741.608
   1  861.4809
   2  725.5015
   3  389.0916
   4  205.9615
   5  136.037
   6  173.7184
   7  182.9574
   8  233.7757
   9  227.7445
  10  243.3596
  11  231.4648
  12  204.1103
  13  73.93663
  14  145.6665
  15  227.928
  16  324.1347
  17  369.3818
  18  291.8541
  19  271.8928
  20  129.7985
  21  53.05824
  22  123.9584
  23  283.1411
  24  231.4865
  25  110.8226
  26  247.0196
  27  155.1179
  28  205.2389
  29  268.5539
  30  222.141
  31  187.0946
  32  275.4072
  33  300.3568
  34  196.0961
  35  252.6464
  36  230.3965
  37  274.9118
  38  407.7866
  39  347.7003
  40  259.8667
  41  193.1039
  42  329.2566
  43  250.7269
  44  119.9818
  45  174.5713
  46  217.5697
  47  266.0451
  48  243.987
  49  235.3691
  50  188.4191
  51  173.2891
  52  225.2718
  53  152.029
  54  179.4031
  55  162.1178
  56  294.0048
  57  275.057
  58  297.7504
  59  245.5788
  60  302.1848
  61  369.4239
  62  277.988
  63  113.6261
  64  190.4892
  65  265.5529
  66  300.8732
  67  296.8743
  68  292.5982
  69  257.3221
  70  254.3867
  71  288.921
  72  146.358
  73  180.3385
  74  142.7155
  75  163.6782
  76  153.3446
  77  193.6483
  78  217.753
  79  295.7523
  80  290.7331
  81  183.078
  82  158.4976
  83  291.297
  84  207.9397
  85  89.8716
  86  176.0151
  87  116.3476
  88  193.962
  89  138.0346
  90  100.6227
  91  254.3489
  92  177.0761
  93  79.22625
  94  173.1756
  95  141.1347
  96  84.64002
  97  100.0288
  98  193.0493
  99  212.6568
 100  204.6843
 101  288.5449
 102  213.5921
 103  163.7582
 104  278.2993
 105  205.3421
 106  231.0195
 107  355.6917
 108  335.9918
 109  305.5893
 110  308.0372
 111  256.076
 112  241.7517
 113  261.2121
 114  378.3928
 115  297.9648
 116  237.7211
 117  278.1627
 118  302.4763
 119  164.5164
 120  65.93803
 121  232.2213
 122  204.8758
 123  206.2557
 124  215.5139
 125  278.1985
 126  277.1847
 127  280.0443
 128  165.3294
 129  111.4672
 130  259.5527
 131  288.2997
 132  315.3664
 133  133.765
 134  185.1264
 135  376.1329
 136  250.6198
 137  183.2066
 138  208.4373
 139  286.884
 140  318.1709
 141  265.0128
 142  319.0714
 143  168.7077
 144  -30.38399
 145  98.84216
 146  135.5342
 147  230.879
 148  174.9213
 149  279.5304
 150  355.6682
 151  112.2672
 152  41.84105
 153  273.7924
 154  346.3621
 155  188.7183
 156  289.0671
 157  320.9581
 158  143.1066
 159  134.1935
 160  135.5406
 161  204.1332
 162  252.8664
 163  92.4749
 164  85.10432
 165  150.2037
 166  324.9868
 167  141.9805
 168  123.388
 169  228.5582
 170  250.1431
 171  372.4909
 172  254.2725
 173  173.3852
 174  110.9389
 175  279.5659
 176  300.1055
 177  199.0947
 178  232.567
 179  362.3936
 180  293.0985
 181  337.2964
 182  216.8777
 183  232.8274
 184  106.0531
 185  201.2256
 186  276.0573
 187  298.8536
 188  336.2857
 189  116.2589
 190  46.99449
 191  164.8876
 192  179.8463
 193  134.0315
 194  144.7602
 195  192.6726
 196  234.8295
 197  268.906
 198  219.1884
 199  302.2592
 200  332.4394
 201  324.5199
 202  385.2907
 203  386.161
 204  270.8757
 205  268.1123
 206  312.0045
 207  205.1067
 208  225.2706
 209  224.4006
 210  292.6005
 211  287.0884
 212  226.7311
 213  192.9437
 214  282.221
 215  348.0152
 216  481.4079
 217  309.2981
 218  79.1703
 219  241.4476
 220  261.8263
 221  131.2881
 222  167.2685
 223  246.3958
 224  246.1051
 225  111.5458
 226  228.5569
 227  299.7438
 228  369.7008
 229  424.585
 230  379.2629
 231  293.6587
 232  343.7358
 233  362.5123
 234  294.2196
 235  254.1705
 236  400.3313
 237  407.8587
 238  275.8218
 239  185.2639
 240  176.9
 241  240.1923
 242  397.3145
 243  280.4355
 244  204.8694
 245  177.5449
 246  183.5515
 247  267.6855
 248  284.3467
 249  236.7575
 250  255.7419
 251  222.8952
 252  165.0625
 253  155.2102
 254  166.4759
 255  297.0678
 256  144.1608
 257  131.357
 258  142.4252
 259  222.049
 260  169.1624
 261  100.7059
 262  214.6853
 263  296.875
 264  176.6311
 265  194.3932
 266  305.05
 267  212.5399
 268  233.0415
 269  201.3596
 270  181.2816
 271  182.904
 272  145.6971
 273  77.71607
 274  275.0562
 275  211.1315
 276  195.3784
 277  126.6613
 278  221.6165
 279  129.4908
 280  213.057
 281  349.8349
 282  217.371
 283  212.6332
 284  162.0464
 285  169.6406
 286  163.9324
 287  71.6154
 288  70.36363
 289  274.3427
 290  232.9531
 291  214.5886
 292  164.2099
 293  127.9425
 294  84.04861
 295  62.06587
 296  114.463
 297  179.936
 298  91.4486
 299  37.62302
 300  104.1108
 301  200.4286
 302  146.2588
 303  237.5712
 304  51.7864
 305  45.87255
 306  82.72707
 307  265.1475
 308  217.4699
 309  140.1446
 310  301.4752
 311  237.0745
 312  86.1982
 313  203.1432
 314  107.6367
 315  156.4099
 316  249.0541
 317  231.9852
 318  185.2429
 319  180.3597
 320  307.0378
 321  362.9374
 322  144.337
 323  17.48491
 324  27.17383
 325  311.6068
 326  345.1655
 327  177.6884
 328  129.9386
 329  147.906
 330  164.7442
 331  233.3884
 332  139.3205
 333  144.3015
 334  250.9601
 335  280.6884
 336  180.7718
 337  209.438
 338  278.7111
 339  218.6526
 340  272.4953
 341  257.6496
 342  225.2637
 343  285.062
 344  292.1124
 345  191.4791
 346  96.52966
 347  194.5423
 348  203.094
 349  168.07
 350  226.0594
 351  326.0385
 352  332.5776
 353  346.3426
 354  223.4268
 355  182.3501
 356  235.2156
 357  185.9059
 358  157.5545
 359  180.1694
 360  268.5708
 361  248.798
 362  244.1133
 363  244.1685
 364  208.2227
 365  205.8332
 366  259.315
 367  239.7208
 368  260.4233
 369  207.9969
 370  77.15689
 371  209.0704
 372  230.308
 373  135.9757
 374  126.9619
 375  51.67407
 376  148.4332
 377  111.6164
 378  116.4263
 379  8.330697
 380  84.95251
 381  188.172
 382  241.8928
 383  284.1371
 384  238.8524
 385  212.3912
 386  88.43331
 387  109.8984
 388  129.6756
 389  63.43149
 390  153.8724
 391  241.2678
 392  290.4515
 393  117.2276
 394  73.16594
 395  145.3135
 396  141.5746
 397  178.7016
 398  129.0209
 399  204.331
 400  124.4049
 401  123.7073
 402  242.0924
 403  215.372
 404  292.3674
 405  271.4591
 406  214.7319
 407  235.1397
 408  105.9971
 409  81.00578
 410  120.7986
 411  236.3217
 412  414.6297
 413  181.1576
 414  123.5451
 415  199.9103
 416  200.1052
 417  98.82078
 418  281.5954
 419  210.5108
 420  130.5526
 421  236.8642
 422  294.1237
 423  193.9729
 424  165.1574
 425  279.6146
 426  266.0298
 427  139.2396
 428  144.0241
 429  222.9644
 430  251.1512
 431  245.7842
 432  221.6389
 433  143.8059
 434  162.4642
 435  73.92796
 436  213.5092
 437  425.6461
 438  303.3753
 439  262.0384
 440  252.7972
 441  236.2482
 442  289.2674
 443  382.3344
 444  242.0934
 445  272.8478
 446  318.3929
 447  258.8307
 448  304.4739
 449  315.2851
 450  434.2927
 451  283.1234
 452  296.4285
 453  342.2094
 454  214.9639
 455  231.1818
 456  221.8077
 457  299.6086
 458  241.0394
 459  214.9712
 460  282.6749
 461  185.8521
 462  241.4469
 463  279.775
 464  220.5188
 465  184.358
 466  247.5292
 467  316.3803
 468  316.0846
 469  284.8156
 470  194.5302
 471  188.8672
 472  217.7654
 473  68.49003
 474  159.8456
 475  278.2653
 476  120.6629
 477  -17.6768
 478  26.63724
 479  157.5896
 480  198.1224
 481  231.36
 482  207.3117
 483  258.7444
 484  302.0544
 485  146.3157
 486  177.8587
 487  318.8288
 488  352.4102
 489  400.1097
 490  170.2947
 491  124.1014
 492  298.0969
 493  275.8122
 494  270.9997
 495  298.039
 496  233.5798
 497  141.7621
 498  248.8382
 499  211.5099
 500  226.5276
 501  132.5699
 502  204.5637
 503  237.7167
 504  243.8458
 505  318.3607
 506  366.2632
 507  322.0058
 508  362.5013
 509  455.0166
 510  665.0274
 511  688.1871
