# Input file       =  1178872053.113042_cleaned.dat
# Candidate        =  PSR_0332+5434
# Telescope        =  AR
# Epoch_topo       =  57888.352258252802
# Epoch_bary       =  N/A
# T_sample         =  0.002
# Data Folded      =  7340032
# Data Avg         =  0.0223395321179353
# Data StdDev      =  1.00006591130752 
# Profile Bins     =  512
# Profile Avg      =  320.262039932091 
# Profile StdDev   =  119.740928137747 
# Reduced chi-sqr  =  1.654
# Prob(Noise)      <  7.04e-19   (~8.8 sigma)
# P_topo (ms)      =  714.532932287799  +/- 0.000189
# P'_topo (s/s)    =  -0                +/- 9.99e-11
# P''_topo (s/s^2) =  0                 +/- 4.41e-14
# P_bary (ms)      =  N/A
# P'_bary (s/s)    =  N/A
# P''_bary (s/s^2) =  N/A
# P_orb (s)        =  N/A
# asin(i)/c (s)    =  N/A
# eccentricity     =  N/A
# w (rad)          =  N/A
# T_peri           =  N/A
######################################################
   0  478.3125
   1  462.6886
   2  420.0931
   3  368.8203
   4  360.9321
   5  355.039
   6  288.7061
   7  366.8984
   8  318.6526
   9  318.8221
  10  431.8743
  11  447.5973
  12  349.2916
  13  345.1041
  14  344.5668
  15  393.3041
  16  321.2582
  17  270.2078
  18  408.5037
  19  371.3216
  20  387.9212
  21  373.4039
  22  334.3007
  23  283.7499
  24  169.6573
  25  311.9879
  26  324.2901
  27  273.8497
  28  363.3886
  29  330.4698
  30  262.631
  31  344.791
  32  411.9432
  33  384.9474
  34  407.1432
  35  388.8921
  36  422.8559
  37  377.282
  38  471.7109
  39  428.7901
  40  493.3897
  41  520.3207
  42  501.7492
  43  639.8039
  44  881.8891
  45  938.116
  46  1019.165
  47  985.2913
  48  906.8559
  49  590.2996
  50  459.6744
  51  460.961
  52  495.4342
  53  332.4341
  54  296.1809
  55  384.4384
  56  513.8456
  57  494.2927
  58  388.0996
  59  286.9659
  60  458.3897
  61  467.0562
  62  434.4744
  63  279.8501
  64  296.2889
  65  420.0406
  66  298.9622
  67  341.7267
  68  284.1852
  69  296.2608
  70  351.6398
  71  417.6379
  72  414.2388
  73  473.4638
  74  442.8849
  75  419.2252
  76  312.389
  77  150.0874
  78  200.2139
  79  296.2911
  80  415.8876
  81  397.2387
  82  332.9826
  83  423.9613
  84  441.6695
  85  379.8489
  86  351.2243
  87  321.7939
  88  212.3582
  89  296.6278
  90  252.5274
  91  272.8271
  92  236.1029
  93  206.8605
  94  278.6945
  95  363.0585
  96  428.8883
  97  272.9751
  98  366.8212
  99  381.9767
 100  306.0047
 101  234.3082
 102  202.7382
 103  209.8236
 104  191.4926
 105  223.0423
 106  237.4717
 107  292.1719
 108  388.5981
 109  410.4416
 110  429.3084
 111  464.7448
 112  466.6403
 113  497.1024
 114  372.4647
 115  358.6527
 116  526.5484
 117  478.6095
 118  250.2134
 119  156.5835
 120  173.0652
 121  307.8153
 122  419.7831
 123  365.8163
 124  334.0106
 125  308.6364
 126  306.5173
 127  367.7578
 128  309.2479
 129  384.8407
 130  407.6185
 131  404.9755
 132  558.1791
 133  534.6438
 134  359.7682
 135  372.2351
 136  379.6606
 137  269.5073
 138  308.5366
 139  509.2025
 140  583.9972
 141  467.9016
 142  354.0418
 143  307.8415
 144  298.9987
 145  360.0869
 146  328.3405
 147  214.4029
 148  314.6733
 149  399.7767
 150  396.7716
 151  326.3613
 152  266.4482
 153  291.2069
 154  285.824
 155  316.8276
 156  344.0004
 157  305.4117
 158  376.8339
 159  324.9766
 160  326.1429
 161  254.6047
 162  246.6266
 163  371.344
 164  401.4756
 165  409.1027
 166  333.0805
 167  239.7038
 168  330.5262
 169  330.1805
 170  248.7173
 171  271.7726
 172  235.953
 173  319.0964
 174  460.5339
 175  348.0246
 176  315.6771
 177  412.915
 178  288.3638
 179  310.5571
 180  343.833
 181  362.0334
 182  362.703
 183  319.801
 184  280.5333
 185  414.3663
 186  422.4301
 187  353.9974
 188  284.6803
 189  328.7997
 190  300.9414
 191  256.1595
 192  306.7046
 193  467.7606
 194  288.6065
 195  169.9447
 196  371.55
 197  455.7594
 198  500.9073
 199  531.2292
 200  363.1904
 201  319.4249
 202  271.3998
 203  281.4508
 204  309.8436
 205  214.2557
 206  93.81835
 207  208.7476
 208  243.9295
 209  254.6243
 210  171.3621
 211  243.5111
 212  330.6465
 213  215.8157
 214  251.5075
 215  344.6228
 216  379.177
 217  374.5664
 218  362.446
 219  324.3982
 220  410.6652
 221  373.9145
 222  341.9536
 223  287.8922
 224  269.9558
 225  217.7405
 226  233.4855
 227  327.2689
 228  316.5909
 229  178.062
 230  271.6002
 231  289.0405
 232  338.2266
 233  221.6659
 234  211.2732
 235  315.1191
 236  436.2653
 237  358.0703
 238  240.5582
 239  243.3051
 240  265.3401
 241  250.587
 242  306.1537
 243  324.3609
 244  253.6785
 245  194.0096
 246  193.2343
 247  173.266
 248  66.28543
 249  212.8584
 250  315.1847
 251  219.2921
 252  253.9735
 253  309.8728
 254  324.968
 255  247.2161
 256  243.9126
 257  299.5871
 258  340.2531
 259  278.7508
 260  299.197
 261  259.9805
 262  289.3634
 263  276.8612
 264  168.8761
 265  203.9902
 266  194.2124
 267  108.2058
 268  209.6227
 269  214.0001
 270  186.9115
 271  303.02
 272  283.338
 273  375.6389
 274  212.5249
 275  263.1301
 276  352.0002
 277  383.9346
 278  377.5609
 279  214.8287
 280  45.5284
 281  139.3366
 282  199.5997
 283  250.2027
 284  268.7289
 285  168.5216
 286  137.3412
 287  231.7463
 288  195.146
 289  253.4005
 290  259.4961
 291  193.8694
 292  188.6038
 293  274.369
 294  189.1794
 295  141.7764
 296  192.4967
 297  309.6412
 298  401.7073
 299  261.1281
 300  309.4179
 301  253.95
 302  274.0851
 303  247.9992
 304  323.3922
 305  319.0253
 306  298.3627
 307  321.4078
 308  426.1898
 309  421.0723
 310  336.781
 311  330.8267
 312  347.7765
 313  333.7606
 314  343.0648
 315  303.3946
 316  348.5818
 317  289.4621
 318  179.5481
 319  234.4235
 320  280.8769
 321  315.2154
 322  251.2524
 323  324.1261
 324  320.0352
 325  267.2021
 326  446.5702
 327  471.7205
 328  358.2445
 329  300.5417
 330  233.9014
 331  388.3553
 332  426.7521
 333  377.6389
 334  299.784
 335  300.8542
 336  384.7002
 337  337.0084
 338  231.8756
 339  136.4367
 340  183.1529
 341  164.9141
 342  322.9689
 343  347.3501
 344  409.4419
 345  289.2726
 346  153.4644
 347  239.0978
 348  275.9415
 349  378.5273
 350  429.113
 351  421.5648
 352  338.4055
 353  236.2749
 354  147.266
 355  181.3433
 356  328.2432
 357  376.528
 358  273.3458
 359  297.8769
 360  407.7881
 361  316.9975
 362  311.8728
 363  285.6476
 364  250.5179
 365  258.4354
 366  297.823
 367  330.557
 368  307.7037
 369  126.464
 370  134.8433
 371  324.5782
 372  329.2959
 373  309.8015
 374  254.5388
 375  226.4657
 376  355.7167
 377  409.2971
 378  357.484
 379  338.1605
 380  267.1166
 381  251.7851
 382  326.9071
 383  308.7215
 384  308.8054
 385  288.9986
 386  327.3951
 387  312.2971
 388  197.0186
 389  253.0621
 390  279.7613
 391  408.0148
 392  327.6803
 393  289.9426
 394  220.8254
 395  197.6957
 396  133.4131
 397  136.8772
 398  127.7898
 399  246.3113
 400  376.493
 401  206.9986
 402  188.1098
 403  167.9337
 404  82.75052
 405  58.81485
 406  239.0925
 407  302.5028
 408  244.6454
 409  185.3914
 410  283.2502
 411  242.4014
 412  258.2268
 413  242.4199
 414  193.0858
 415  177.706
 416  147.0169
 417  192.0092
 418  257.7566
 419  355.6759
 420  277.183
 421  171.1207
 422  350.3227
 423  223.7668
 424  252.4275
 425  312.3256
 426  172.8185
 427  185.6125
 428  222.1416
 429  317.3971
 430  316.5045
 431  272.9034
 432  219.9563
 433  192.954
 434  219.3996
 435  168.2137
 436  112.6053
 437  235.5098
 438  391.4641
 439  293.0614
 440  281.1463
 441  361.0962
 442  367.7073
 443  336.3779
 444  339.1109
 445  297.9135
 446  411.5708
 447  318.8225
 448  437.3855
 449  495.1281
 450  264.1355
 451  152.7212
 452  199.0593
 453  304.435
 454  271.5224
 455  207.9772
 456  391.5668
 457  296.623
 458  322.1948
 459  366.3643
 460  326.7608
 461  224.4401
 462  277.0566
 463  317.8491
 464  336.893
 465  394.9671
 466  350.389
 467  311.3021
 468  258.6216
 469  270.8002
 470  441.3977
 471  477.2608
 472  457.342
 473  324.6154
 474  293.5611
 475  293.1745
 476  338.3311
 477  440.5123
 478  330.9858
 479  292.3701
 480  360.3483
 481  333.774
 482  271.8012
 483  354.116
 484  399.5131
 485  245.3324
 486  306.466
 487  323.5428
 488  439.8459
 489  349.2218
 490  211.2462
 491  195.4561
 492  325.1986
 493  364.5227
 494  228.1969
 495  288.6917
 496  347.2414
 497  385.6199
 498  566.7194
 499  542.1103
 500  432.7352
 501  521.5726
 502  479.7243
 503  449.5123
 504  429.9995
 505  379.1501
 506  349.7465
 507  424.6022
 508  368.7125
 509  251.6691
 510  258.9123
 511  394.6178
