# Input file       =  1178973071.099241_cleaned.dat
# Candidate        =  PSR_0332+5434
# Telescope        =  AR
# Epoch_topo       =  57889.521447907879
# Epoch_bary       =  N/A
# T_sample         =  0.002
# Data Folded      =  7340032
# Data Avg         =  0.0345789988845163
# Data StdDev      =  1.00073562688474 
# Profile Bins     =  512
# Profile Avg      =  495.722395398912 
# Profile StdDev   =  119.821115217317 
# Reduced chi-sqr  =  0.828
# Prob(Noise)      <  0.998   (~0.0 sigma)
# P_topo (ms)      =  714.532132179556  +/- 0.000822
# P'_topo (s/s)    =  -0                +/- 4.34e-10
# P''_topo (s/s^2) =  0                 +/- 1.92e-13
# P_bary (ms)      =  N/A
# P'_bary (s/s)    =  N/A
# P''_bary (s/s^2) =  N/A
# P_orb (s)        =  N/A
# asin(i)/c (s)    =  N/A
# eccentricity     =  N/A
# w (rad)          =  N/A
# T_peri           =  N/A
######################################################
   0  460.9823
   1  490.9383
   2  528.7661
   3  548.2609
   4  488.1236
   5  485.2198
   6  476.4403
   7  496.6015
   8  437.454
   9  510.4532
  10  639.6992
  11  563.0434
  12  536.3019
  13  589.977
  14  693.2526
  15  581.4335
  16  534.7305
  17  684.303
  18  560.8959
  19  545.4044
  20  528.0666
  21  579.2855
  22  587.7867
  23  514.423
  24  552.97
  25  491.4037
  26  537.2653
  27  556.7723
  28  499.3822
  29  591.2018
  30  485.9107
  31  519.9924
  32  531.9796
  33  489.6425
  34  408.6003
  35  439.3682
  36  450.3859
  37  492.06
  38  512.455
  39  571.6326
  40  487.1694
  41  310.2767
  42  513.7539
  43  602.6602
  44  551.3406
  45  523.1304
  46  495.3529
  47  463.6818
  48  443.1105
  49  534.6151
  50  517.7714
  51  586.4317
  52  663.6876
  53  466.7699
  54  422.5784
  55  381.1846
  56  486.5836
  57  524.7449
  58  447.9281
  59  423.5803
  60  518.3571
  61  371.7308
  62  440.1276
  63  525.5465
  64  503.0807
  65  481.8354
  66  493.1121
  67  462.4587
  68  404.0096
  69  401.3463
  70  544.9937
  71  545.7102
  72  498.2332
  73  396.674
  74  433.7801
  75  483.8687
  76  537.5134
  77  549.9651
  78  558.7709
  79  551.344
  80  522.4609
  81  512.6943
  82  485.7951
  83  466.4948
  84  451.2959
  85  432.8972
  86  374.501
  87  439.6908
  88  448.1389
  89  442.7544
  90  474.9102
  91  368.9821
  92  465.0744
  93  511.5582
  94  474.0899
  95  485.4523
  96  546.9002
  97  459.1181
  98  463.0189
  99  551.9767
 100  456.0461
 101  413.0636
 102  488.0612
 103  528.4001
 104  598.3122
 105  456.896
 106  345.4177
 107  438.6288
 108  545.1108
 109  481.177
 110  530.8808
 111  600.144
 112  559.5334
 113  574.8135
 114  582.594
 115  494.0643
 116  387.8584
 117  520.4706
 118  514.7121
 119  477.2494
 120  490.9154
 121  523.8152
 122  550.3914
 123  506.682
 124  470.5974
 125  467.2636
 126  499.7665
 127  572.1645
 128  626.5502
 129  558.6331
 130  442.2793
 131  435.7476
 132  596.8621
 133  534.4669
 134  470.3365
 135  634.5626
 136  595.7643
 137  523.8153
 138  577.7855
 139  497.8409
 140  472.2546
 141  607.2264
 142  570.9615
 143  623.8191
 144  589.293
 145  583.1833
 146  518.5312
 147  598.6401
 148  467.9328
 149  431.6073
 150  477.2105
 151  546.9927
 152  493.1882
 153  629.7108
 154  629.8365
 155  555.8193
 156  492.5125
 157  407.1638
 158  391.7357
 159  447.8512
 160  458.6326
 161  480.8786
 162  441.5537
 163  501.6323
 164  414.42
 165  341.428
 166  385.8933
 167  409.883
 168  400.0363
 169  350.6323
 170  377.7764
 171  400.8842
 172  425.1833
 173  462.1018
 174  397.5949
 175  323.1575
 176  411.2351
 177  481.2821
 178  521.086
 179  640.3527
 180  580.9747
 181  511.2383
 182  513.2429
 183  456.3093
 184  519.5741
 185  534.3529
 186  509.2759
 187  580.7744
 188  607.0797
 189  370.7012
 190  319.9994
 191  460.943
 192  518.0031
 193  497.922
 194  391.5758
 195  474.7478
 196  558.4717
 197  674.7955
 198  573.2247
 199  461.6351
 200  554.7134
 201  497.7487
 202  462.9582
 203  496.6559
 204  505.9267
 205  432.9445
 206  477.1742
 207  649.4977
 208  586.9562
 209  512.7726
 210  574.9174
 211  581.6722
 212  556.0698
 213  435.881
 214  517.0664
 215  511.9102
 216  564.532
 217  506.1541
 218  448.6199
 219  423.2943
 220  350.0757
 221  493.7538
 222  582.0608
 223  608.8356
 224  625.5613
 225  488.1634
 226  560.8477
 227  534.105
 228  621.6264
 229  696.4794
 230  560.1144
 231  507.2176
 232  553.3179
 233  569.6989
 234  590.9868
 235  528.4753
 236  582.0914
 237  575.7153
 238  556.8577
 239  515.8099
 240  514.9869
 241  553.3964
 242  522.5405
 243  513.5962
 244  527.2076
 245  595.9382
 246  630.7918
 247  556.6967
 248  454.4045
 249  480.0201
 250  610.8605
 251  602.8339
 252  542.0517
 253  449.028
 254  514.407
 255  478.5615
 256  497.6132
 257  476.5776
 258  533.4315
 259  590.3205
 260  537.684
 261  565.1241
 262  535.569
 263  480.3186
 264  510.4933
 265  624.472
 266  543.6983
 267  483.037
 268  527.8784
 269  435.7292
 270  396.9027
 271  578.7847
 272  409.8692
 273  455.77
 274  428.7606
 275  452.7381
 276  549.2726
 277  516.1355
 278  402.0887
 279  398.9082
 280  356.6835
 281  324.6528
 282  343.2108
 283  395.0077
 284  430.9968
 285  394.9616
 286  372.4647
 287  463.863
 288  482.3741
 289  499.352
 290  472.2954
 291  278.1737
 292  352.2546
 293  445.7872
 294  484.0593
 295  355.4158
 296  353.4023
 297  480.2965
 298  506.1548
 299  547.2332
 300  584.9858
 301  542.3839
 302  400.2392
 303  406.4615
 304  382.4776
 305  488.8567
 306  548.9841
 307  571.2231
 308  568.0864
 309  555.2001
 310  539.6376
 311  438.7368
 312  479.8597
 313  451.5759
 314  505.0327
 315  460.8586
 316  386.9026
 317  381.4995
 318  534.8393
 319  422.1184
 320  441.924
 321  512.7983
 322  439.0559
 323  434.1341
 324  403.7561
 325  456.8783
 326  511.3254
 327  471.8931
 328  550.4461
 329  597.8093
 330  488.3015
 331  495.125
 332  483.2854
 333  447.2216
 334  533.5115
 335  478.4024
 336  477.5647
 337  510.5274
 338  533.7619
 339  422.1232
 340  456.2195
 341  598.5121
 342  646.5662
 343  533.0437
 344  404.1283
 345  463.0719
 346  416.2217
 347  338.4159
 348  437.8641
 349  493.649
 350  500.8534
 351  436.8716
 352  427.6051
 353  520.9127
 354  579.7676
 355  473.9818
 356  419.5872
 357  375.9185
 358  484.6581
 359  418.1479
 360  378.8871
 361  357.1967
 362  446.5758
 363  526.5819
 364  496.2764
 365  493.0988
 366  465.8427
 367  494.2928
 368  376.9358
 369  496.2011
 370  513.7299
 371  521.0034
 372  538.2539
 373  517.3173
 374  430.1526
 375  403.6114
 376  462.0124
 377  391.0785
 378  375.0209
 379  388.1318
 380  474.2006
 381  408.8476
 382  347.8659
 383  455.9634
 384  559.8738
 385  441.3716
 386  475.6811
 387  515.3867
 388  545.7067
 389  670.1499
 390  553.7171
 391  519.7827
 392  495.4724
 393  543.8245
 394  496.2244
 395  573.3947
 396  547.0454
 397  593.2053
 398  621.9401
 399  708.545
 400  867.0208
 401  769.9539
 402  754.5942
 403  642.2395
 404  587.3826
 405  483.216
 406  540.8275
 407  612.8303
 408  571.5695
 409  468.8198
 410  444.1053
 411  464.5977
 412  548.6385
 413  561.8837
 414  648.6456
 415  624.9394
 416  598.5263
 417  586.844
 418  507.7359
 419  525.4837
 420  581.4673
 421  473.7207
 422  366.3789
 423  475.224
 424  516.1918
 425  475.8128
 426  527.4296
 427  490.5876
 428  357.8461
 429  428.9309
 430  534.4819
 431  458.6234
 432  333.5551
 433  337.6523
 434  498.1732
 435  484.1296
 436  514.3975
 437  569.5015
 438  539.2018
 439  430.247
 440  420.8347
 441  431.7854
 442  502.1059
 443  437.5677
 444  383.8357
 445  324.2115
 446  451.47
 447  482.0925
 448  396.5125
 449  441.1388
 450  420.2022
 451  447.4342
 452  352.7719
 453  417.3399
 454  475.0767
 455  459.5449
 456  408.7724
 457  428.1351
 458  542.182
 459  534.2352
 460  560.456
 461  472.9632
 462  468.8652
 463  462.9295
 464  394.622
 465  508.6029
 466  457.1849
 467  515.3539
 468  487.4906
 469  407.5799
 470  378.818
 471  288.6771
 472  375.9801
 473  408.719
 474  435.9361
 475  457.0326
 476  599.905
 477  593.2484
 478  450.0327
 479  437.1657
 480  562.2904
 481  534.7429
 482  578.3947
 483  609.8588
 484  437.6381
 485  272.8875
 486  385.4726
 487  505.812
 488  401.8708
 489  450.1545
 490  483.2084
 491  512.0645
 492  479.3682
 493  521.309
 494  559.4954
 495  579.7908
 496  473.6833
 497  470.5758
 498  543.3094
 499  560.9346
 500  490.4821
 501  522.7479
 502  488.017
 503  438.1159
 504  399.6416
 505  514.8214
 506  607.9868
 507  645.4368
 508  675.8732
 509  573.3804
 510  460.3795
 511  380.1935
