# Input file       =  1178886977.099836_cleaned.dat
# Candidate        =  PSR_0332+5434
# Telescope        =  AR
# Epoch_topo       =  57888.524989581434
# Epoch_bary       =  N/A
# T_sample         =  0.002
# Data Folded      =  7340032
# Data Avg         =  0.0160919694589484
# Data StdDev      =  0.999888847278711
# Profile Bins     =  512
# Profile Avg      =  230.635104305718 
# Profile StdDev   =  119.719727723945 
# Reduced chi-sqr  =  1.373
# Prob(Noise)      <  4.01e-08   (~5.4 sigma)
# P_topo (ms)      =  714.533097704913  +/- 0.000252
# P'_topo (s/s)    =  -0                +/- 1.33e-10
# P''_topo (s/s^2) =  0                 +/- 5.87e-14
# P_bary (ms)      =  N/A
# P'_bary (s/s)    =  N/A
# P''_bary (s/s^2) =  N/A
# P_orb (s)        =  N/A
# asin(i)/c (s)    =  N/A
# eccentricity     =  N/A
# w (rad)          =  N/A
# T_peri           =  N/A
######################################################
   0  998.5749
   1  919.8676
   2  585.448
   3  361.6313
   4  316.132
   5  267.8691
   6  254.716
   7  221.4785
   8  266.0479
   9  234.3156
  10  187.944
  11  269.1027
  12  443.3948
  13  358.2947
  14  394.3128
  15  227.1677
  16  144.4809
  17  247.8885
  18  360.2858
  19  92.94246
  20  154.2578
  21  221.1682
  22  150.6691
  23  71.008
  24  204.7414
  25  189.4725
  26  6.035876
  27  262.3593
  28  296.6246
  29  253.1901
  30  227.2188
  31  258.5488
  32  161.6888
  33  157.9119
  34  237.7891
  35  176.338
  36  157.0538
  37  223.3178
  38  254.1192
  39  176.9695
  40  113.187
  41  163.4544
  42  153.61
  43  118.4222
  44  163.01
  45  101.3524
  46  23.11229
  47  139.2517
  48  91.29781
  49  179.5863
  50  271.8348
  51  174.1814
  52  180.9938
  53  151.8675
  54  194.5552
  55  171.2522
  56  130.4543
  57  134.5285
  58  148.8512
  59  191.5008
  60  163.8117
  61  212.3314
  62  284.5027
  63  224.8772
  64  254.2864
  65  292.1185
  66  297.4885
  67  196.3974
  68  227.9077
  69  227.6803
  70  175.1634
  71  104.3327
  72  208.8918
  73  274.2763
  74  222.3544
  75  311.6715
  76  246.2046
  77  201.5089
  78  210.7521
  79  261.6429
  80  287.2131
  81  221.7304
  82  284.7884
  83  379.9406
  84  303.686
  85  278.0388
  86  245.5283
  87  241.006
  88  336.1807
  89  367.9468
  90  433.6804
  91  443.2678
  92  388.8968
  93  279.5372
  94  287.7776
  95  252.8783
  96  223.8407
  97  234.9196
  98  372.216
  99  305.4536
 100  230.0397
 101  147.4124
 102  208.1817
 103  215.0377
 104  277.2801
 105  290.9926
 106  190.9624
 107  197.4368
 108  159.2431
 109  224.7459
 110  211.6681
 111  156.7596
 112  250.8538
 113  198.4948
 114  133.7938
 115  171.9262
 116  206.3209
 117  222.5932
 118  290.9175
 119  258.5817
 120  184.5304
 121  171.3651
 122  277.4641
 123  330.3284
 124  249.3779
 125  304.3745
 126  278.7192
 127  392.0315
 128  404.112
 129  230.7519
 130  258.9929
 131  358.9682
 132  220.9954
 133  232.2518
 134  188.5158
 135  159.6306
 136  124.9314
 137  250.0829
 138  387.8312
 139  286.4328
 140  225.1345
 141  251.5117
 142  179.7047
 143  164.9903
 144  192.9487
 145  334.7237
 146  408.6548
 147  432.8545
 148  375.2632
 149  293.2317
 150  224.0873
 151  339.2022
 152  317.0975
 153  269.9064
 154  243.0499
 155  284.9753
 156  322.4951
 157  278.782
 158  124.497
 159  174.3935
 160  340.1831
 161  194.9505
 162  227.4387
 163  361.9186
 164  294.442
 165  307.6747
 166  202.6476
 167  264.5188
 168  236.1123
 169  230.3903
 170  192.5762
 171  173.7275
 172  272.8688
 173  301.6632
 174  299.5232
 175  364.0352
 176  295.4055
 177  331.4968
 178  261.7577
 179  285.7913
 180  294.7361
 181  279.5205
 182  242.4512
 183  248.6359
 184  95.01861
 185  178.9935
 186  184.4634
 187  271.5144
 188  139.9597
 189  109.2503
 190  137.8318
 191  98.04521
 192  220.2063
 193  303.0224
 194  395.8732
 195  201.1452
 196  116.3632
 197  207.2176
 198  167.4701
 199  205.6661
 200  254.069
 201  328.1643
 202  296.2485
 203  269.1266
 204  166.7511
 205  192.3328
 206  119.8131
 207  185.2563
 208  333.4877
 209  214.2362
 210  208.0388
 211  227.0675
 212  283.2366
 213  178.7139
 214  245.9361
 215  288.3161
 216  203.6263
 217  280.7978
 218  244.5421
 219  176.6352
 220  285.66
 221  216.9867
 222  175.1512
 223  46.32673
 224  98.98989
 225  246.4029
 226  170.8461
 227  197.5992
 228  192.9763
 229  243.525
 230  307.3274
 231  109.0534
 232  108.4725
 233  209.0698
 234  253.1432
 235  269.5306
 236  213.9545
 237  156.8165
 238  163.4247
 239  76.78281
 240  161.4144
 241  286.0492
 242  306.5871
 243  235.0269
 244  293.3474
 245  294.1044
 246  304.1931
 247  199.5394
 248  217.661
 249  159.7543
 250  143.3164
 251  251.6525
 252  268.7748
 253  244.7851
 254  198.8892
 255  136.2241
 256  217.9355
 257  271.1736
 258  187.218
 259  263.261
 260  219.0127
 261  154.0093
 262  201.6405
 263  319.8097
 264  378.914
 265  232.475
 266  341.1701
 267  393.6633
 268  254.2472
 269  225.0011
 270  254.2405
 271  224.1763
 272  254.5744
 273  301.2238
 274  322.6815
 275  226.0672
 276  154.4231
 277  29.03043
 278  54.13895
 279  203.6883
 280  249.5944
 281  278.9491
 282  219.1706
 283  75.05919
 284  168.9798
 285  224.1091
 286  251.5026
 287  317.4003
 288  262.8053
 289  216.4066
 290  103.6759
 291  142.938
 292  218.7393
 293  272.0446
 294  246.6131
 295  306.4571
 296  295.2355
 297  140.2712
 298  331.1167
 299  258.035
 300  74.5283
 301  103.5051
 302  148.6464
 303  208.3863
 304  237.0425
 305  141.8155
 306  128.1357
 307  39.77048
 308  -24.34785
 309  125.8683
 310  101.0233
 311  182.5973
 312  220.2263
 313  187.4477
 314  227.9788
 315  134.093
 316  195.8159
 317  333.6046
 318  175.1115
 319  67.07443
 320  126.2449
 321  128.9027
 322  203.5292
 323  300.6044
 324  219.8528
 325  108.5133
 326  127.9297
 327  277.5646
 328  379.6929
 329  354.6869
 330  293.6991
 331  352.6828
 332  360.5531
 333  312.7385
 334  228.2393
 335  288.9207
 336  228.7008
 337  235.3824
 338  194.5374
 339  379.7775
 340  350.8761
 341  271.2018
 342  292.0046
 343  228.6796
 344  201.2483
 345  173.0432
 346  156.1371
 347  294.1393
 348  281.8828
 349  210.8065
 350  166.8866
 351  178.6236
 352  232.505
 353  225.1679
 354  212.4786
 355  190.7256
 356  256.2068
 357  161.9614
 358  160.6348
 359  124.447
 360  146.3369
 361  116.086
 362  66.91115
 363  176.7646
 364  147.2357
 365  92.46004
 366  159.9599
 367  208.8108
 368  221.5552
 369  243.9093
 370  241.0083
 371  269.7096
 372  115.0785
 373  117.1166
 374  276.6286
 375  288.6099
 376  184.2176
 377  142.0768
 378  286.8305
 379  288.5904
 380  180.7429
 381  214.1125
 382  326.006
 383  245.542
 384  264.6078
 385  265.9387
 386  315.9747
 387  185.1763
 388  193.2464
 389  260.6409
 390  220.2775
 391  215.9343
 392  274.3722
 393  248.6355
 394  190.9334
 395  234.1261
 396  309.385
 397  220.0808
 398  321.0847
 399  358.1748
 400  487.7021
 401  315.1967
 402  223.4607
 403  220.6489
 404  188.8523
 405  187.96
 406  213.3137
 407  233.4504
 408  254.0451
 409  145.6659
 410  199.2124
 411  217.5642
 412  253.8285
 413  114.6406
 414  123.738
 415  238.0941
 416  303.2753
 417  209.6833
 418  67.11098
 419  71.6197
 420  96.21999
 421  166.5467
 422  110.1859
 423  194.2236
 424  189.868
 425  153.0782
 426  201.4217
 427  212.0617
 428  251.2696
 429  225.1063
 430  207.0271
 431  94.08787
 432  126.1699
 433  349.0369
 434  260.1612
 435  166.9481
 436  207.0699
 437  224.7779
 438  160.453
 439  237.9514
 440  230.7265
 441  142.7652
 442  231.643
 443  342.879
 444  247.9712
 445  292.1712
 446  180.3397
 447  133.7634
 448  95.18064
 449  214.6756
 450  218.3573
 451  133.1558
 452  90.52809
 453  154.3154
 454  107.9841
 455  132.8933
 456  161.0713
 457  285.9217
 458  177.6152
 459  187.41
 460  216.9813
 461  286.1755
 462  313.0327
 463  255.7614
 464  166.3128
 465  263.8405
 466  119.6487
 467  180.5585
 468  178.0576
 469  243.9993
 470  52.98677
 471  87.23463
 472  160.1567
 473  150.8469
 474  296.7247
 475  113.5278
 476  158.7092
 477  266.9385
 478  235.7373
 479  185.9057
 480  325.8729
 481  274.848
 482  138.3791
 483  65.10026
 484  -31.21543
 485  147.0453
 486  158.8848
 487  170.5774
 488  229.3132
 489  89.07822
 490  198.6855
 491  228.3814
 492  212.318
 493  165.9599
 494  155.5254
 495  320.3871
 496  221.4315
 497  346.2431
 498  226.926
 499  315.4266
 500  364.6321
 501  205.6135
 502  296.408
 503  412.878
 504  403.7206
 505  337.0052
 506  397.6923
 507  404.3682
 508  392.5204
 509  534.0819
 510  702.4734
 511  894.7742
