# Input file       =  1178800781.100998_cleaned.dat
# Candidate        =  PSR_0332+5434
# Telescope        =  AR
# Epoch_topo       =  57887.527350705997
# Epoch_bary       =  N/A
# T_sample         =  0.002
# Data Folded      =  7340032
# Data Avg         =  0.016585535646067
# Data StdDev      =  1.00006195733943 
# Profile Bins     =  512
# Profile Avg      =  237.825758063664 
# Profile StdDev   =  119.740454717142 
# Reduced chi-sqr  =  1.146
# Prob(Noise)      <  0.0122   (~2.3 sigma)
# P_topo (ms)      =  714.534060041783  +/- 0.00023
# P'_topo (s/s)    =  -0                +/- 1.22e-10
# P''_topo (s/s^2) =  0                 +/- 5.37e-14
# P_bary (ms)      =  N/A
# P'_bary (s/s)    =  N/A
# P''_bary (s/s^2) =  N/A
# P_orb (s)        =  N/A
# asin(i)/c (s)    =  N/A
# eccentricity     =  N/A
# w (rad)          =  N/A
# T_peri           =  N/A
######################################################
   0  817.389
   1  811.0992
   2  658.1304
   3  390.2054
   4  197.4632
   5  259.5534
   6  298.6399
   7  119.3797
   8  104.1502
   9  214.0346
  10  215.6139
  11  321.498
  12  282.4175
  13  232.5245
  14  249.2627
  15  277.9741
  16  348.2323
  17  215.0514
  18  100.1882
  19  182.3215
  20  159.6899
  21  290.3217
  22  326.9977
  23  254.1654
  24  262.3215
  25  239.4996
  26  262.9131
  27  271.9818
  28  266.8414
  29  148.8187
  30  282.2221
  31  376.1341
  32  244.8784
  33  117.713
  34  132.7387
  35  197.0078
  36  251.479
  37  321.5771
  38  224.9195
  39  233.3659
  40  211.229
  41  260.7023
  42  132.4849
  43  106.222
  44  114.0819
  45  219.2938
  46  280.4119
  47  140.7938
  48  29.64505
  49  146.9724
  50  254.5947
  51  188.2567
  52  326.4491
  53  218.0864
  54  189.0028
  55  261.2602
  56  82.91263
  57  225.3205
  58  244.6008
  59  190.1136
  60  295.326
  61  228.3769
  62  315.3214
  63  180.6674
  64  72.04359
  65  192.1774
  66  281.3926
  67  218.4307
  68  222.6731
  69  342.9656
  70  217.3422
  71  186.2392
  72  297.114
  73  379.3738
  74  342.0503
  75  324.2097
  76  363.4784
  77  406.8456
  78  273.6791
  79  285.1739
  80  292.2951
  81  279.4353
  82  264.0744
  83  246.3122
  84  208.7588
  85  227.2522
  86  215.7446
  87  253.999
  88  178.615
  89  309.0012
  90  225.2691
  91  214.3857
  92  246.6571
  93  226.6505
  94  144.6985
  95  126.1464
  96  92.9603
  97  24.1444
  98  258.529
  99  275.5198
 100  207.7819
 101  185.7827
 102  246.5417
 103  285.3276
 104  402.5546
 105  357.5525
 106  289.3609
 107  196.0821
 108  236.588
 109  151.0425
 110  104.1166
 111  224.043
 112  217.139
 113  372.7116
 114  441.2057
 115  312.2036
 116  180.3059
 117  187.6762
 118  226.6868
 119  283.6628
 120  216.4677
 121  256.1534
 122  360.8596
 123  400.8916
 124  193.2067
 125  225.524
 126  317.9831
 127  291.7535
 128  116.9168
 129  48.56473
 130  186.9804
 131  191.912
 132  143.7352
 133  243.0941
 134  221.8227
 135  137.2519
 136  63.99123
 137  177.6851
 138  275.3337
 139  393.9602
 140  335.7096
 141  222.1632
 142  339.4977
 143  390.3187
 144  357.2202
 145  389.4631
 146  286.0676
 147  219.3284
 148  249.992
 149  204.6682
 150  259.4816
 151  324.7674
 152  235.022
 153  203.6155
 154  222.7637
 155  135.0029
 156  174.7045
 157  268.5368
 158  329.8185
 159  344.8392
 160  177.4482
 161  212.5409
 162  237.7826
 163  204.5919
 164  292.6719
 165  226.4915
 166  220.3505
 167  184.0269
 168  209.5608
 169  217.2258
 170  113.7686
 171  158.3352
 172  80.79925
 173  248.4335
 174  158.0002
 175  219.5626
 176  254.2481
 177  341.6292
 178  272.0033
 179  214.1141
 180  311.5619
 181  274.4093
 182  244.2996
 183  259.1599
 184  212.4177
 185  245.9975
 186  432.2585
 187  441.405
 188  200.7265
 189  30.81297
 190  83.64188
 191  218.9565
 192  187.6396
 193  161.2657
 194  198.1386
 195  55.98872
 196  95.61789
 197  207.5285
 198  202.8622
 199  230.987
 200  117.8462
 201  190.5151
 202  266.0535
 203  181.424
 204  252.6483
 205  206.9523
 206  77.02101
 207  53.18409
 208  187.9616
 209  130.0883
 210  106.857
 211  107.0334
 212  175.0295
 213  127.339
 214  143.2706
 215  141.7488
 216  71.33862
 217  156.2163
 218  194.6781
 219  116.7011
 220  163.6541
 221  237.5464
 222  313.4845
 223  292.4316
 224  236.7754
 225  162.2212
 226  94.18579
 227  191.562
 228  169.2638
 229  211.734
 230  318.1491
 231  279.1521
 232  201.4096
 233  301.6636
 234  291.9907
 235  265.9581
 236  222.0814
 237  320.4878
 238  366.3977
 239  298.3011
 240  338.8223
 241  221.4957
 242  238.6458
 243  389.9775
 244  368.9216
 245  396.5328
 246  269.7398
 247  170.7202
 248  199.7309
 249  144.6889
 250  168.5947
 251  246.0753
 252  235.861
 253  343.8057
 254  287.1132
 255  260.0893
 256  269.2525
 257  295.0392
 258  486.9022
 259  398.0932
 260  318.3632
 261  410.5066
 262  387.2628
 263  301.5272
 264  221.7042
 265  357.1372
 266  356.2682
 267  290.6973
 268  231.6929
 269  246.1716
 270  348.8383
 271  320.0332
 272  225.9751
 273  133.855
 274  232.3883
 275  330.0331
 276  301.398
 277  262.6955
 278  236.5367
 279  330.2016
 280  187.0189
 281  212.1061
 282  337.983
 283  285.2758
 284  313.7255
 285  264.6075
 286  272.3087
 287  213.4754
 288  274.1762
 289  278.9698
 290  248.8669
 291  322.0234
 292  286.6569
 293  247.0975
 294  269.4365
 295  233.6363
 296  194.0083
 297  301.0513
 298  367.3791
 299  260.7683
 300  246.1937
 301  209.9925
 302  314.0453
 303  279.233
 304  345.2123
 305  144.0983
 306  209.1869
 307  273.5489
 308  244.4617
 309  178.3726
 310  205.5792
 311  236.5197
 312  261.3296
 313  297.1189
 314  347.7816
 315  405.6688
 316  315.5486
 317  171.2721
 318  154.256
 319  328.2735
 320  241.9541
 321  173.5912
 322  226.9706
 323  106.5317
 324  190.8706
 325  329.8794
 326  326.5686
 327  291.7938
 328  308.1046
 329  264.5477
 330  205.3975
 331  219.3391
 332  250.5298
 333  313.0401
 334  242.5295
 335  317.7222
 336  265.9123
 337  281.1502
 338  310.2183
 339  309.4597
 340  335.4366
 341  348.9985
 342  332.4175
 343  347.2831
 344  234.4925
 345  189.8514
 346  160.6349
 347  369.3325
 348  302.9952
 349  295.8902
 350  341.8862
 351  280.5996
 352  319.5964
 353  267.2298
 354  247.3295
 355  300.0393
 356  257.7592
 357  225.5053
 358  256.5856
 359  268.5642
 360  163.7903
 361  131.6097
 362  207.8005
 363  247.2951
 364  143.0113
 365  137.8285
 366  150.0308
 367  168.0555
 368  212.0968
 369  265.5999
 370  189.375
 371  269.4814
 372  148.8354
 373  128.5642
 374  322.5119
 375  304.6442
 376  367.8341
 377  319.3656
 378  162.1519
 379  82.42633
 380  163.5087
 381  159.6322
 382  264.5458
 383  243.2556
 384  160.6717
 385  47.12199
 386  174.9728
 387  300.2882
 388  176.9607
 389  181.3267
 390  257.9838
 391  270.8827
 392  147.7341
 393  185.4554
 394  153.6924
 395  205.3108
 396  298.8303
 397  260.884
 398  341.703
 399  258.325
 400  359.0637
 401  226.645
 402  113.8299
 403  229.8508
 404  288.8372
 405  311.0421
 406  265.3377
 407  280.3483
 408  285.0762
 409  212.6785
 410  297.6462
 411  229.7481
 412  200.6944
 413  143.954
 414  153.8301
 415  99.95637
 416  169.7619
 417  281.3568
 418  246.1234
 419  256.6464
 420  262.2933
 421  178.2336
 422  103.6548
 423  150.3779
 424  172.8431
 425  76.24568
 426  23.54376
 427  2.734208
 428  133.8211
 429  119.1119
 430  265.8203
 431  388.1086
 432  311.2427
 433  237.8836
 434  247.3342
 435  238.787
 436  238.1972
 437  161.714
 438  255.3005
 439  215.8411
 440  171.7095
 441  332.568
 442  258.7019
 443  302.604
 444  235.0267
 445  218.0605
 446  191.7177
 447  178.6707
 448  217.9646
 449  273.4735
 450  274.5938
 451  319.8387
 452  235.3745
 453  112.6686
 454  134.8283
 455  76.99447
 456  169.9562
 457  132.4169
 458  139.4485
 459  132.9923
 460  56.8763
 461  121.3377
 462  218.9391
 463  191.7475
 464  178.8884
 465  13.63106
 466  111.7216
 467  87.92383
 468  146.3698
 469  209.3617
 470  199.6026
 471  260.581
 472  235.776
 473  216.3818
 474  90.76591
 475  203.6038
 476  95.07975
 477  185.4921
 478  128.8208
 479  55.56509
 480  221.6816
 481  297.1842
 482  192.7402
 483  180.479
 484  153.0841
 485  247.433
 486  230.1328
 487  288.2282
 488  272.7112
 489  306.7664
 490  171.5692
 491  168.2965
 492  148.6344
 493  200.7762
 494  250.8439
 495  336.854
 496  309.588
 497  279.4933
 498  200.0844
 499  234.0183
 500  226.3762
 501  193.9607
 502  361.693
 503  223.1062
 504  187.9191
 505  254.6843
 506  344.9533
 507  360.5515
 508  333.6626
 509  348.0339
 510  436.9103
 511  639.6306
