# Input file       =  1178785873.103783_cleaned.dat
# Candidate        =  PSR_0332+5434
# Telescope        =  AR
# Epoch_topo       =  57887.354804441929
# Epoch_bary       =  N/A
# T_sample         =  0.002
# Data Folded      =  7340032
# Data Avg         =  0.0294190555147868
# Data StdDev      =  1.00001634239354 
# Profile Bins     =  512
# Profile Avg      =  421.89254653531  
# Profile StdDev   =  119.734993101166 
# Reduced chi-sqr  =  1.241
# Prob(Noise)      <  0.000155   (~3.6 sigma)
# P_topo (ms)      =  714.533893267205  +/- 0.000254
# P'_topo (s/s)    =  -0                +/- 1.34e-10
# P''_topo (s/s^2) =  0                 +/- 5.91e-14
# P_bary (ms)      =  N/A
# P'_bary (s/s)    =  N/A
# P''_bary (s/s^2) =  N/A
# P_orb (s)        =  N/A
# asin(i)/c (s)    =  N/A
# eccentricity     =  N/A
# w (rad)          =  N/A
# T_peri           =  N/A
######################################################
   0  1110.899
   1  1003.402
   2  831.7976
   3  645.2186
   4  549.6391
   5  485.8644
   6  410.7329
   7  428.1577
   8  441.8809
   9  403.3844
  10  397.9997
  11  454.286
  12  547.7018
  13  429.5385
  14  355.5723
  15  353.8784
  16  399.2801
  17  567.6374
  18  495.4947
  19  469.7743
  20  370.7993
  21  326.8127
  22  250.4637
  23  278.7442
  24  346.0208
  25  319.6247
  26  313.358
  27  451.6991
  28  527.7903
  29  367.3926
  30  231.8377
  31  386.8208
  32  347.7867
  33  381.7196
  34  365.0014
  35  404.7346
  36  328.3549
  37  387.579
  38  363.2237
  39  338.92
  40  332.9464
  41  353.3152
  42  513.7203
  43  373.1861
  44  359.9109
  45  410.3257
  46  382.156
  47  267.258
  48  390.2075
  49  392.5307
  50  309.0116
  51  408.3353
  52  429.245
  53  383.7988
  54  362.4315
  55  365.1511
  56  369.5485
  57  392.9053
  58  290.3745
  59  319.4657
  60  392.1221
  61  476.14
  62  433.9184
  63  361.8221
  64  401.3138
  65  405.3847
  66  425.4995
  67  437.1957
  68  328.4876
  69  272.2898
  70  319.6628
  71  351.7764
  72  345.8829
  73  400.822
  74  437.3415
  75  343.0067
  76  345.325
  77  435.3123
  78  517.3918
  79  373.0187
  80  271.1285
  81  447.567
  82  439.8838
  83  452.648
  84  497.8659
  85  478.5987
  86  324.5641
  87  329.8793
  88  460.8707
  89  458.0004
  90  485.3517
  91  524.3646
  92  408.8904
  93  356.7611
  94  483.084
  95  417.506
  96  495.0146
  97  336.3854
  98  405.4539
  99  532.2111
 100  500.6303
 101  488.2224
 102  511.8032
 103  490.3664
 104  471.0703
 105  342.7206
 106  430.0567
 107  480.5152
 108  436.2444
 109  402.629
 110  419.0955
 111  386.6805
 112  434.8908
 113  394.8801
 114  375.5529
 115  495.1327
 116  455.7019
 117  427.1303
 118  485.1719
 119  481.9437
 120  407.6114
 121  422.0269
 122  453.4443
 123  523.1333
 124  493.257
 125  463.8405
 126  425.8074
 127  431.0811
 128  363.3602
 129  376.7848
 130  336.9997
 131  329.3067
 132  424.8645
 133  492.8056
 134  456.7065
 135  500.8315
 136  504.1673
 137  480.177
 138  402.1089
 139  418.972
 140  458.4304
 141  384.276
 142  303.1369
 143  352.2646
 144  380.2303
 145  371.43
 146  411.9642
 147  358.613
 148  443.0668
 149  526.6343
 150  396.303
 151  343.6709
 152  419.1042
 153  490.2614
 154  370.1569
 155  500.9707
 156  584.4276
 157  564.3223
 158  540.7708
 159  448.1031
 160  383.2193
 161  369.15
 162  386.4553
 163  461.9852
 164  429.1269
 165  344.0769
 166  468.7007
 167  485.0987
 168  390.9073
 169  461.4079
 170  458.3762
 171  353.0841
 172  372.0991
 173  332.6362
 174  350.9851
 175  371.7634
 176  356.5887
 177  245.5616
 178  313.9186
 179  414.1876
 180  418.7885
 181  447.0389
 182  492.2362
 183  344.6925
 184  299.5957
 185  270.9731
 186  270.4315
 187  337.7785
 188  368.9497
 189  364.8276
 190  225.1076
 191  305.2696
 192  437.5238
 193  429.7287
 194  298.7501
 195  327.2455
 196  448.0568
 197  529.5545
 198  527.097
 199  373.7011
 200  350.2602
 201  349.7889
 202  405.2357
 203  375.4974
 204  443.9415
 205  399.2815
 206  474.9485
 207  542.2715
 208  553.7943
 209  579.86
 210  395.0997
 211  454.8678
 212  507.5527
 213  430.7665
 214  496.1117
 215  484.8854
 216  468.6467
 217  393.9142
 218  393.7685
 219  333.955
 220  406.851
 221  423.7234
 222  440.8391
 223  376.8913
 224  418.8906
 225  388.9406
 226  343.2303
 227  343.3423
 228  344.3436
 229  450.9652
 230  369.877
 231  301.008
 232  278.5806
 233  172.4701
 234  243.9218
 235  321.8306
 236  394.6317
 237  321.41
 238  371.8225
 239  422.1249
 240  237.1504
 241  286.265
 242  244.2422
 243  346.0045
 244  405.6802
 245  402.3116
 246  412.1829
 247  412.8429
 248  456.3324
 249  286.3877
 250  330.434
 251  417.8282
 252  376.4669
 253  301.9534
 254  355.2033
 255  473.5081
 256  441.5654
 257  384.8744
 258  403.6447
 259  495.3732
 260  522.7778
 261  511.4617
 262  483.8198
 263  508.8494
 264  551.7462
 265  474.7975
 266  410.4496
 267  448.3605
 268  330.3062
 269  360.0019
 270  321.8736
 271  415.5741
 272  413.8045
 273  298.1764
 274  282.6495
 275  342.9043
 276  411.1064
 277  429.0349
 278  412.6372
 279  523.3042
 280  522.282
 281  386.7326
 282  195.9088
 283  341.522
 284  530.3518
 285  488.2943
 286  451.3926
 287  311.8818
 288  407.5846
 289  420.5317
 290  354.2511
 291  412.4409
 292  508.3491
 293  449.1472
 294  354.3732
 295  396.452
 296  446.3791
 297  373.3247
 298  525.7034
 299  482.8314
 300  394.9291
 301  477.4424
 302  454.9323
 303  369.6183
 304  393.6284
 305  525.68
 306  532.9004
 307  503.8553
 308  365.3328
 309  402.0828
 310  442.4278
 311  525.5712
 312  653.8803
 313  570.4718
 314  333.2904
 315  334.1636
 316  408.1401
 317  402.8806
 318  379.0928
 319  357.8175
 320  471.1873
 321  436.4026
 322  324.3015
 323  429.2249
 324  534.7607
 325  388.4538
 326  312.2975
 327  465.1849
 328  459.5719
 329  316.385
 330  177.2777
 331  367.7079
 332  413.1169
 333  417.5864
 334  378.1246
 335  306.0084
 336  360.7312
 337  431.3014
 338  547.7424
 339  418.8271
 340  400.891
 341  379.3868
 342  478.7945
 343  448.3846
 344  345.7649
 345  379.1898
 346  441.3758
 347  394.9853
 348  367.9929
 349  364.8849
 350  368.244
 351  311.1029
 352  175.1813
 353  275.4598
 354  347.8463
 355  239.921
 356  264.6316
 357  308.5173
 358  224.4203
 359  295.5151
 360  394.8055
 361  379.1236
 362  397.5972
 363  315.6298
 364  357.3245
 365  416.8483
 366  343.1911
 367  437.0182
 368  431.2259
 369  384.3253
 370  311.5916
 371  285.7332
 372  369.0524
 373  438.7652
 374  389.7935
 375  511.1693
 376  489.1009
 377  548.8132
 378  617.7667
 379  545.4897
 380  471.9992
 381  410.6041
 382  308.659
 383  302.3534
 384  372.5231
 385  406.1635
 386  382.6452
 387  341.8941
 388  393.747
 389  513.1207
 390  439.9946
 391  345.3669
 392  390.4491
 393  482.9056
 394  517.9863
 395  450.3967
 396  435.1628
 397  328.7423
 398  372.4367
 399  525.3833
 400  504.9773
 401  525.7607
 402  438.2422
 403  410.1977
 404  418.2059
 405  508.4424
 406  478.2231
 407  426.5651
 408  459.2762
 409  496.3537
 410  478.2959
 411  511.1805
 412  486.6805
 413  462.1533
 414  456.0573
 415  429.829
 416  386.0305
 417  336.2376
 418  387.0709
 419  404.4832
 420  360.9432
 421  461.4518
 422  475.6456
 423  590.2055
 424  519.3137
 425  536.3798
 426  541.1646
 427  555.3433
 428  520.0831
 429  399.9723
 430  424.534
 431  466.9597
 432  435.2035
 433  455.1479
 434  373.3174
 435  469.0286
 436  492.7042
 437  440.8919
 438  561.8806
 439  443.5154
 440  400.4853
 441  463.0369
 442  432.8218
 443  420.8037
 444  353.3218
 445  449.5014
 446  363.3497
 447  356.6461
 448  352.9427
 449  391.9113
 450  371.6127
 451  436.2427
 452  388.8443
 453  545.1771
 454  571.8771
 455  533.9635
 456  440.2537
 457  395.5137
 458  507.9734
 459  482.4207
 460  492.543
 461  409.8234
 462  470.4659
 463  535.5855
 464  529.0795
 465  470.0775
 466  443.0594
 467  482.2618
 468  387.4607
 469  391.0946
 470  421.9833
 471  443.9479
 472  514.0739
 473  507.5576
 474  502.8101
 475  479.1287
 476  491.9909
 477  479.0263
 478  536.7811
 479  439.4464
 480  345.2241
 481  294.5388
 482  310.6539
 483  367.4767
 484  296.2397
 485  301.4993
 486  443.5532
 487  428.9471
 488  365.9892
 489  537.3493
 490  602.8124
 491  546.4612
 492  446.1277
 493  411.7102
 494  537.1424
 495  480.8956
 496  497.2774
 497  496.4033
 498  471.8605
 499  566.9368
 500  506.6035
 501  465.1655
 502  336.9606
 503  435.5427
 504  574.6616
 505  602.2179
 506  545.7358
 507  503.3091
 508  529.061
 509  688.9057
 510  789.8228
 511  1040.638
