# Input file       =  1178699751.103657_cleaned.dat
# Candidate        =  PSR_0332+5434
# Telescope        =  AR
# Epoch_topo       =  57886.358022033070
# Epoch_bary       =  N/A
# T_sample         =  0.002
# Data Folded      =  7340032
# Data Avg         =  0.0219740802666193
# Data StdDev      =  1.00005499157266 
# Profile Bins     =  512
# Profile Avg      =  315.091947232221 
# Profile StdDev   =  119.739620684736 
# Reduced chi-sqr  =  1.480
# Prob(Noise)      <  8.46e-12   (~6.7 sigma)
# P_topo (ms)      =  714.534851907559  +/- 0.000208
# P'_topo (s/s)    =  -0                +/- 1.1e-10
# P''_topo (s/s^2) =  0                 +/- 4.83e-14
# P_bary (ms)      =  N/A
# P'_bary (s/s)    =  N/A
# P''_bary (s/s^2) =  N/A
# P_orb (s)        =  N/A
# asin(i)/c (s)    =  N/A
# eccentricity     =  N/A
# w (rad)          =  N/A
# T_peri           =  N/A
######################################################
   0  1078.15
   1  1056.566
   2  942.7294
   3  657.6374
   4  330.5639
   5  298.4005
   6  294.0589
   7  286.6242
   8  273.5787
   9  365.295
  10  421.5866
  11  368.9269
  12  349.2171
  13  478.4417
  14  516.8913
  15  514.4536
  16  497.3798
  17  452.479
  18  442.3922
  19  234.3871
  20  277.5124
  21  249.0203
  22  265.2117
  23  358.6454
  24  310.5654
  25  274.076
  26  271.7055
  27  220.0301
  28  273.8258
  29  273.0098
  30  318.6888
  31  315.4178
  32  189.876
  33  290.5854
  34  384.2191
  35  404.1576
  36  333.9352
  37  306.2354
  38  175.0938
  39  263.1591
  40  332.7318
  41  297.2223
  42  362.5197
  43  394.5943
  44  357.6649
  45  256.7455
  46  201.3907
  47  352.6687
  48  475.2726
  49  398.065
  50  302.1958
  51  264.6263
  52  198.5357
  53  274.2249
  54  270.6158
  55  305.4124
  56  305.6345
  57  381.5837
  58  297.5346
  59  158.879
  60  98.26164
  61  259.0221
  62  352.3242
  63  306.4711
  64  198.5027
  65  214.3159
  66  280.6026
  67  425.2592
  68  383.796
  69  299.282
  70  285.8636
  71  388.6642
  72  299.4634
  73  269.4718
  74  351.2973
  75  168.1861
  76  138.911
  77  275.0407
  78  348.0512
  79  331.4115
  80  197.8822
  81  102.7005
  82  219.5022
  83  226.8882
  84  197.7185
  85  277.0589
  86  311.231
  87  417.5536
  88  398.8729
  89  390.2571
  90  210.113
  91  262.4401
  92  347.8493
  93  288.8997
  94  216.2177
  95  273.3074
  96  262.4184
  97  313.0143
  98  352.5608
  99  267.4572
 100  304.9108
 101  268.9046
 102  308.0928
 103  292.6008
 104  313.601
 105  320.293
 106  366.322
 107  408.1777
 108  314.2279
 109  240.5641
 110  410.8487
 111  393.217
 112  217.7898
 113  387.0801
 114  358.6514
 115  268.9703
 116  369.2127
 117  305.1478
 118  288.2174
 119  357.1024
 120  284.0533
 121  292.0905
 122  307.2031
 123  298.7825
 124  296.6573
 125  246.105
 126  264.7363
 127  208.3444
 128  231.2528
 129  312.0955
 130  262.4348
 131  333.8687
 132  335.2013
 133  315.3783
 134  329.1579
 135  307.9051
 136  165.5599
 137  194.4079
 138  313.0117
 139  414.084
 140  401.8843
 141  201.6357
 142  303.2742
 143  356.3254
 144  418.1057
 145  232.9742
 146  267.6745
 147  367.0368
 148  260.2346
 149  265.3815
 150  337.7339
 151  221.1783
 152  101.9122
 153  246.1912
 154  294.0294
 155  326.5765
 156  342.89
 157  272.5887
 158  157.7902
 159  148.3005
 160  410.5913
 161  484.3848
 162  388.9729
 163  165.5887
 164  119.6658
 165  259.1596
 166  354.0626
 167  324.9295
 168  349.6444
 169  363.3011
 170  391.2318
 171  348.8994
 172  381.1916
 173  434.7273
 174  381.9134
 175  475.368
 176  418.5908
 177  196.3056
 178  219.4466
 179  355.0432
 180  340.0757
 181  241.0174
 182  276.8647
 183  334.9624
 184  334.4115
 185  315.4594
 186  362.6482
 187  316.0643
 188  293.3309
 189  219.3166
 190  238.1663
 191  332.5708
 192  339.2573
 193  475.5674
 194  506.339
 195  404.0697
 196  354.4483
 197  438.909
 198  460.149
 199  278.25
 200  310.482
 201  312.5168
 202  313.6372
 203  291.1038
 204  296.0005
 205  324.5008
 206  468.4037
 207  361.0083
 208  317.2889
 209  177.7253
 210  221.2597
 211  401.8016
 212  526.0358
 213  468.6549
 214  339.3672
 215  415.5941
 216  353.7213
 217  258.8453
 218  337.2771
 219  352.549
 220  261.9437
 221  248.4864
 222  310.7068
 223  278.5629
 224  246.1046
 225  260.47
 226  235.8233
 227  237.8203
 228  230.6692
 229  200.3594
 230  179.8077
 231  308.2412
 232  371.007
 233  302.3532
 234  280.4477
 235  232.9205
 236  274.7481
 237  332.9424
 238  488.9246
 239  372.9651
 240  230.7609
 241  221.0833
 242  204.9246
 243  283.7679
 244  259.619
 245  364.0712
 246  393.009
 247  376.876
 248  274.3512
 249  254.581
 250  188.0753
 251  120.374
 252  241.5176
 253  136.2421
 254  255.8153
 255  239.5099
 256  252.3857
 257  210.0957
 258  271.1806
 259  339.9142
 260  505.0598
 261  499.0146
 262  396.8859
 263  316.3761
 264  265.0005
 265  334.0553
 266  375.2462
 267  423.9303
 268  422.825
 269  310.5577
 270  278.3439
 271  324.5151
 272  440.4304
 273  312.1312
 274  267.0635
 275  380.9303
 276  434.5402
 277  389.2231
 278  302.4586
 279  302.5466
 280  304.3267
 281  303.6414
 282  178.7126
 283  224.9706
 284  231.9952
 285  172.6656
 286  263.0817
 287  299.6499
 288  309.294
 289  387.2717
 290  434.7428
 291  439.4521
 292  341.3373
 293  381.0026
 294  347.5207
 295  341.1503
 296  272.1924
 297  294.9413
 298  362.718
 299  468.6805
 300  261.2816
 301  313.055
 302  297.2733
 303  322.9196
 304  385.3795
 305  442.537
 306  306.8726
 307  231.9039
 308  327.5037
 309  268.3887
 310  333.0545
 311  391.0316
 312  281.9482
 313  174.5947
 314  306.6131
 315  324.4321
 316  337.7864
 317  333.1451
 318  192.2761
 319  241.0014
 320  169.8499
 321  264.3522
 322  247.6388
 323  156.9969
 324  185.7499
 325  201.722
 326  195.0825
 327  207.1674
 328  234.7476
 329  352.4555
 330  353.7757
 331  303.2451
 332  311.8046
 333  254.1081
 334  275.1924
 335  276.1765
 336  269.438
 337  309.3468
 338  248.6841
 339  296.7401
 340  436.1762
 341  378.8096
 342  255.2358
 343  326.3441
 344  241.587
 345  301.2747
 346  315.198
 347  397.086
 348  398.9486
 349  275.2722
 350  369.0185
 351  305.2639
 352  321.9404
 353  357.7678
 354  236.4541
 355  321.8271
 356  257.1541
 357  267.0445
 358  260.0699
 359  185.9352
 360  296.4626
 361  349.7176
 362  245.2452
 363  79.82439
 364  77.21466
 365  242.0905
 366  210.5249
 367  176.7249
 368  175.9797
 369  215.6209
 370  228.8322
 371  249.7466
 372  350.185
 373  388.8063
 374  376.6002
 375  420.7755
 376  315.8544
 377  396.0965
 378  373.1344
 379  250.8085
 380  286.1644
 381  256.1646
 382  285.3503
 383  354.6688
 384  411.9062
 385  438.1475
 386  261.6529
 387  290.4873
 388  357.1585
 389  293.9066
 390  252.7333
 391  340.9639
 392  352.2451
 393  329.1327
 394  400.424
 395  372.3475
 396  402.7541
 397  339.9846
 398  369.4803
 399  384.2184
 400  370.4511
 401  379.0605
 402  353.5704
 403  320.6645
 404  341.7482
 405  352.4802
 406  464.8344
 407  387.4681
 408  374.9532
 409  259.6889
 410  122.1158
 411  220.7859
 412  372.0161
 413  302.2144
 414  326.0446
 415  363.4005
 416  224.0017
 417  133.1914
 418  184.8607
 419  401.9109
 420  406.5555
 421  287.291
 422  229.2133
 423  276.4512
 424  272.4907
 425  295.5859
 426  214.6303
 427  324.8633
 428  357.9471
 429  192.2481
 430  207.2949
 431  424.7652
 432  360.5938
 433  261.0577
 434  291.8672
 435  302.9489
 436  230.5159
 437  267.319
 438  233.1034
 439  321.7676
 440  259.1046
 441  146.5746
 442  222.6924
 443  255.805
 444  337.1591
 445  230.5082
 446  261.5463
 447  167.6765
 448  202.0427
 449  387.7397
 450  446.1833
 451  379.0604
 452  320.1976
 453  368.0558
 454  320.254
 455  281.3944
 456  320.7814
 457  313.9059
 458  168.2648
 459  174.7663
 460  206.5324
 461  326.6446
 462  309.4229
 463  369.3434
 464  331.4366
 465  284.3297
 466  308.9164
 467  313.2233
 468  346.2004
 469  462.5225
 470  467.9283
 471  430.6829
 472  278.7333
 473  320.6379
 474  296.901
 475  228.5113
 476  369.6361
 477  401.3851
 478  359.8226
 479  336.4124
 480  412.5625
 481  296.7968
 482  204.7196
 483  404.7525
 484  432.6007
 485  378.1808
 486  320.8924
 487  245.6763
 488  271.6502
 489  272.0257
 490  260.225
 491  263.7298
 492  283.367
 493  291.3085
 494  290.6748
 495  171.8158
 496  248.8961
 497  296.7308
 498  400.3044
 499  408.9971
 500  248.9194
 501  344.2892
 502  391.4279
 503  375.605
 504  289.2547
 505  222.8036
 506  361.1361
 507  428.1977
 508  483.6156
 509  617.8901
 510  820.0488
 511  977.6788
