# Input file       =  1178714656.122629_cleaned.dat
# Candidate        =  PSR_0332+5434
# Telescope        =  AR
# Epoch_topo       =  57886.530533826721
# Epoch_bary       =  N/A
# T_sample         =  0.002
# Data Folded      =  7340032
# Data Avg         =  0.0146749571390289
# Data StdDev      =  1.00002085010361 
# Profile Bins     =  512
# Profile Avg      =  210.315839961191 
# Profile StdDev   =  119.73553282298  
# Reduced chi-sqr  =  1.154
# Prob(Noise)      <  0.00902   (~2.4 sigma)
# P_topo (ms)      =  714.535020057406  +/- 0.000103
# P'_topo (s/s)    =  -0                +/- 5.41e-11
# P''_topo (s/s^2) =  0                 +/- 2.39e-14
# P_bary (ms)      =  N/A
# P'_bary (s/s)    =  N/A
# P''_bary (s/s^2) =  N/A
# P_orb (s)        =  N/A
# asin(i)/c (s)    =  N/A
# eccentricity     =  N/A
# w (rad)          =  N/A
# T_peri           =  N/A
######################################################
   0  710.2224
   1  519.2302
   2  469.3677
   3  426.3002
   4  243.2971
   5  185.7431
   6  240.1196
   7  114.5044
   8  134.071
   9  304.3415
  10  266.6188
  11  315.2955
  12  336.0894
  13  230.9783
  14  176.5464
  15  231.462
  16  189.5835
  17  114.9789
  18  266.7899
  19  340.8418
  20  252.1471
  21  157.2468
  22  83.46465
  23  252.4831
  24  258.3458
  25  197.409
  26  96.03748
  27  157.6481
  28  204.9921
  29  231.641
  30  97.58572
  31  112.9001
  32  258.1794
  33  339.1427
  34  262.5098
  35  140.9741
  36  210.8392
  37  200.9741
  38  186.2372
  39  248.7009
  40  152.9241
  41  143.7131
  42  160.3834
  43  130.8216
  44  194.1846
  45  183.095
  46  159.6902
  47  109.8383
  48  180.1964
  49  137.4358
  50  176.5125
  51  62.48225
  52  191.6718
  53  118.6863
  54  228.7903
  55  298.9909
  56  152.1437
  57  -52.17469
  58  -17.62502
  59  38.4061
  60  167.637
  61  328.2396
  62  251.0701
  63  50.42266
  64  -82.82863
  65  -32.03624
  66  104.5974
  67  247.4261
  68  274.6246
  69  189.2695
  70  95.45912
  71  132.0542
  72  274.436
  73  166.9763
  74  204.6403
  75  182.2997
  76  21.7786
  77  84.68784
  78  150.3076
  79  181.9349
  80  158.4094
  81  195.6754
  82  166.8096
  83  223.9021
  84  82.64867
  85  49.81648
  86  157.6361
  87  283.0835
  88  174.4377
  89  135.5643
  90  127.2856
  91  100.9853
  92  264.7004
  93  246.7083
  94  196.7458
  95  109.4504
  96  281.9903
  97  229.6251
  98  251.8748
  99  166.7529
 100  173.0418
 101  237.9173
 102  147.7735
 103  53.71743
 104  242.6079
 105  272.4556
 106  283.4323
 107  262.8941
 108  176.8108
 109  170.0105
 110  289.2811
 111  186.2978
 112  122.4948
 113  323.2592
 114  484.282
 115  322.0027
 116  127.3538
 117  240.519
 118  219.7836
 119  203.0053
 120  140.9256
 121  145.2095
 122  123.212
 123  158.4169
 124  265.3788
 125  354.2757
 126  217.152
 127  162.0482
 128  198.6688
 129  279.9052
 130  178.8174
 131  335.2522
 132  216.9409
 133  88.53246
 134  212.0151
 135  277.8445
 136  247.4924
 137  156.9108
 138  287.71
 139  237.2037
 140  166.1111
 141  139.0171
 142  184.8989
 143  232.3904
 144  181.9398
 145  54.28278
 146  84.93668
 147  168.9714
 148  276.1392
 149  242.6962
 150  201.83
 151  347.3186
 152  302.0571
 153  171.6394
 154  183.7441
 155  142.0132
 156  60.82987
 157  107.2505
 158  54.51665
 159  176.5788
 160  362.8181
 161  220.0782
 162  160.7615
 163  249.7242
 164  242.425
 165  182.5112
 166  207.2739
 167  167.7649
 168  210.7033
 169  102.5528
 170  80.35168
 171  195.5814
 172  120.784
 173  154.4447
 174  99.27629
 175  97.62279
 176  222.3984
 177  329.1865
 178  399.6012
 179  297.2628
 180  140.9692
 181  162.8508
 182  228.3645
 183  208.2444
 184  230.1617
 185  222.6701
 186  298.1672
 187  271.2773
 188  191.7882
 189  151.9731
 190  186.9366
 191  268.7562
 192  298.1679
 193  262.6392
 194  253.2745
 195  203.9549
 196  373.4301
 197  357.1746
 198  249.8566
 199  268.0241
 200  269.9113
 201  236.27
 202  184.1407
 203  95.38717
 204  198.4892
 205  190.2583
 206  221.2622
 207  261.3615
 208  302.2582
 209  296.8369
 210  325.4589
 211  288.0795
 212  222.9933
 213  39.89559
 214  85.61311
 215  131.1222
 216  157.5759
 217  199.8559
 218  218.0038
 219  246.6748
 220  185.3854
 221  -55.8969
 222  120.5409
 223  164.3189
 224  98.15287
 225  295.4287
 226  270.1911
 227  267.4824
 228  267.5967
 229  299.5805
 230  206.1084
 231  213.7951
 232  219.6029
 233  239.1924
 234  293.3445
 235  228.4899
 236  351.8599
 237  404.1989
 238  249.2806
 239  223.4774
 240  216.7119
 241  253.9352
 242  143.478
 243  90.82224
 244  95.28693
 245  69.98202
 246  105.9809
 247  212.4255
 248  185.8727
 249  273.2771
 250  350.3264
 251  234.8453
 252  104.1959
 253  337.0432
 254  237.7727
 255  315.4648
 256  255.3469
 257  222.5666
 258  116.8545
 259  68.67367
 260  298.8063
 261  353.5473
 262  310.3091
 263  288.3866
 264  297.8577
 265  293.2155
 266  259.2331
 267  417.6714
 268  372.2326
 269  279.4484
 270  201.2982
 271  232.6144
 272  195.0585
 273  207.0813
 274  269.5619
 275  138.9462
 276  243.0489
 277  204.3137
 278  178.6543
 279  221.0056
 280  218.5436
 281  105.6274
 282  188.8736
 283  419.0258
 284  298.9603
 285  218.3367
 286  221.7565
 287  325.9339
 288  314.5497
 289  199.3873
 290  280.8773
 291  221.2121
 292  125.4429
 293  68.26463
 294  80.49065
 295  175.1064
 296  227.1698
 297  124.8296
 298  64.3956
 299  175.4921
 300  212.2017
 301  332.0804
 302  173.9455
 303  198.8825
 304  92.26583
 305  123.9877
 306  155.997
 307  171.986
 308  133.9216
 309  140.422
 310  97.51816
 311  190.3571
 312  240.4957
 313  345.5258
 314  218.2936
 315  153.7731
 316  247.5921
 317  258.1026
 318  286.0863
 319  299.6383
 320  131.9048
 321  114.7836
 322  129.8609
 323  212.2343
 324  296.4478
 325  230.177
 326  256.3547
 327  260.8142
 328  150.3706
 329  224.9182
 330  101.1631
 331  194.9466
 332  326.2757
 333  199.9927
 334  148.0765
 335  193.9821
 336  259.4168
 337  175.5664
 338  134.2679
 339  222.7925
 340  289.0005
 341  200.5247
 342  53.56674
 343  222.39
 344  258.1543
 345  67.10271
 346  146.8751
 347  171.475
 348  89.52633
 349  58.32349
 350  158.869
 351  296.5925
 352  271.8874
 353  305.9643
 354  223.8158
 355  172.6642
 356  184.9123
 357  244.2567
 358  264.1784
 359  185.458
 360  106.6971
 361  187.0411
 362  218.4255
 363  215.7293
 364  313.6111
 365  351.0201
 366  225.497
 367  215.3579
 368  118.0067
 369  33.03199
 370  186.6376
 371  246.9521
 372  100.1921
 373  86.8918
 374  95.537
 375  191.6147
 376  140.7124
 377  171.9847
 378  304.2195
 379  106.8072
 380  182.2988
 381  275.4362
 382  216.4124
 383  246.5613
 384  253.0685
 385  160.4874
 386  165.3591
 387  94.92407
 388  176.4688
 389  144.4768
 390  258.5509
 391  266.7688
 392  182.9946
 393  134.2157
 394  346.8806
 395  197.6678
 396  128.0701
 397  211.3986
 398  183.7928
 399  235.0854
 400  182.1012
 401  157.7234
 402  184.2689
 403  275.7116
 404  230.7485
 405  281.3112
 406  202.2151
 407  321.3532
 408  330.8835
 409  174.2311
 410  55.62625
 411  220.1739
 412  171.7565
 413  236.8487
 414  198.8476
 415  199.5039
 416  171.1383
 417  134.56
 418  120.347
 419  204.6411
 420  308.9833
 421  160.6035
 422  150.9597
 423  280.6379
 424  191.5838
 425  65.76179
 426  243.3732
 427  156.1757
 428  92.72041
 429  147.3701
 430  162.4077
 431  207.6183
 432  102.8338
 433  290.5872
 434  257.3593
 435  245.0395
 436  163.1346
 437  256.45
 438  262.9574
 439  267.6673
 440  134.456
 441  154.3714
 442  271.3305
 443  377.2485
 444  296.874
 445  195.369
 446  304.4787
 447  355.2426
 448  331.5417
 449  170.68
 450  150.5446
 451  229.1968
 452  212.3032
 453  152.8326
 454  132.0256
 455  220.7698
 456  142.9527
 457  245.0255
 458  248.8785
 459  182.2175
 460  207.923
 461  208.4583
 462  276.7075
 463  373.1438
 464  211.3349
 465  168.3705
 466  142.1445
 467  293.1839
 468  481.3375
 469  307.8139
 470  265.6264
 471  205.7675
 472  154.7388
 473  258.4273
 474  39.27275
 475  246.7957
 476  412.4259
 477  181.1585
 478  154.6228
 479  197.8375
 480  248.5308
 481  226.9719
 482  163.3391
 483  169.705
 484  50.98582
 485  168.5691
 486  238.6056
 487  163.3129
 488  200.7439
 489  154.7954
 490  153.8568
 491  176.9357
 492  212.2042
 493  210.3543
 494  228.0476
 495  292.7843
 496  324.9256
 497  345.3925
 498  330.5264
 499  93.5918
 500  230.9243
 501  232.8326
 502  195.1233
 503  146.8526
 504  170.8307
 505  366.1841
 506  321.7082
 507  384.3819
 508  366.6582
 509  584.2834
 510  619.9117
 511  696.4207
