# Input file       =  1178614237.09254_cleaned.dat
# Candidate        =  PSR_0332+5434
# Telescope        =  AR
# Epoch_topo       =  57885.368276534027
# Epoch_bary       =  N/A
# T_sample         =  0.002
# Data Folded      =  7340032
# Data Avg         =  0.0302489315880465
# Data StdDev      =  1.0000252960562  
# Profile Bins     =  512
# Profile Avg      =  433.495272776907 
# Profile StdDev   =  119.736065150383 
# Reduced chi-sqr  =  1.228
# Prob(Noise)      <  0.000313   (~3.4 sigma)
# P_topo (ms)      =  714.535809719857  +/- 0.000274
# P'_topo (s/s)    =  -0                +/- 1.45e-10
# P''_topo (s/s^2) =  0                 +/- 6.39e-14
# P_bary (ms)      =  N/A
# P'_bary (s/s)    =  N/A
# P''_bary (s/s^2) =  N/A
# P_orb (s)        =  N/A
# asin(i)/c (s)    =  N/A
# eccentricity     =  N/A
# w (rad)          =  N/A
# T_peri           =  N/A
######################################################
   0  1001.205
   1  937.0443
   2  724.9401
   3  571.3546
   4  518.2061
   5  489.7974
   6  508.3781
   7  460.3562
   8  444.9144
   9  401.3387
  10  456.8626
  11  457.2177
  12  520.3824
  13  562.9739
  14  631.908
  15  394.0278
  16  412.1615
  17  471.4836
  18  500.9287
  19  473.8897
  20  446.3465
  21  424.0273
  22  478.0848
  23  485.1946
  24  497.5987
  25  514.5944
  26  474.0619
  27  454.1476
  28  491.4563
  29  539.0869
  30  363.7128
  31  343.9865
  32  370.8997
  33  354.6805
  34  270.4715
  35  392.1855
  36  434.9658
  37  478.9138
  38  445.1373
  39  470.3796
  40  508.7959
  41  430.1639
  42  540.7115
  43  653.3934
  44  544.3126
  45  515.7574
  46  584.8723
  47  535.3097
  48  528.5142
  49  606.8994
  50  563.1547
  51  508.3936
  52  483.4864
  53  415.9096
  54  362.7293
  55  493.2652
  56  448.605
  57  327.3385
  58  268.7074
  59  375.2786
  60  494.35
  61  692.8402
  62  574.0168
  63  386.2352
  64  378.8726
  65  382.3341
  66  333.3922
  67  451.1589
  68  450.2752
  69  369.6383
  70  443.5235
  71  384.3563
  72  299.8335
  73  303.2802
  74  423.1618
  75  412.9846
  76  368.2326
  77  362.9433
  78  274.4817
  79  460.4839
  80  366.1682
  81  362.881
  82  434.5457
  83  429.8082
  84  455.7689
  85  539.2956
  86  392.6378
  87  327.0049
  88  463.5932
  89  456.2878
  90  404.2746
  91  354.659
  92  475.1422
  93  444.7737
  94  461.8015
  95  484.5662
  96  459.6691
  97  369.1548
  98  306.2547
  99  346.536
 100  439.6024
 101  410.6687
 102  411.8494
 103  548.554
 104  430.7401
 105  467.2877
 106  523.4625
 107  425.9592
 108  429.1485
 109  468.1173
 110  505.7547
 111  455.8642
 112  420.5271
 113  319.129
 114  333.9193
 115  435.1257
 116  394.7334
 117  397.1608
 118  411.8984
 119  373.1973
 120  348.7718
 121  401.7524
 122  360.3983
 123  397.5725
 124  316.3417
 125  231.1311
 126  358.4556
 127  255.3801
 128  355.6186
 129  440.0472
 130  484.6375
 131  513.7919
 132  389.6331
 133  406.0512
 134  379.5266
 135  419.1115
 136  439.0766
 137  381.9074
 138  341.8228
 139  383.0639
 140  422.2222
 141  359.2018
 142  298.719
 143  355.1967
 144  446.4993
 145  348.7326
 146  358.1873
 147  490.313
 148  435.5399
 149  324.7808
 150  389.3603
 151  270.1276
 152  357.086
 153  371.5187
 154  392.1922
 155  475.5828
 156  480.3118
 157  305.151
 158  425.7661
 159  426.2218
 160  346.6371
 161  374.8767
 162  408.732
 163  395.8718
 164  447.1843
 165  497.132
 166  374.6764
 167  331.3154
 168  410.7249
 169  390.4456
 170  339.342
 171  443.481
 172  430.1532
 173  271.1088
 174  272.7736
 175  333.9546
 176  371.5909
 177  428.0466
 178  332.877
 179  299.8361
 180  363.207
 181  353.8312
 182  211.943
 183  297.3738
 184  381.8661
 185  378.1591
 186  447.2004
 187  489.0012
 188  438.7642
 189  406.0358
 190  300.6101
 191  385.9119
 192  450.6383
 193  448.3155
 194  420.9473
 195  326.002
 196  311.8022
 197  260.6286
 198  372.1645
 199  385.1012
 200  372.1991
 201  452.769
 202  366.7937
 203  354.0325
 204  472.6631
 205  406.3729
 206  383.3663
 207  400.3578
 208  462.8002
 209  326.4581
 210  375.6272
 211  462.5063
 212  408.0722
 213  457.0855
 214  346.6947
 215  379.1583
 216  377.0537
 217  347.9124
 218  415.0371
 219  368.5152
 220  345.7566
 221  480.2631
 222  510.8228
 223  480.843
 224  457.8668
 225  427.7906
 226  437.8161
 227  478.4849
 228  539.191
 229  563.8411
 230  438.3188
 231  550.7166
 232  505.8702
 233  474.6895
 234  550.0681
 235  503.148
 236  502.8047
 237  392.7561
 238  315.3712
 239  322.8803
 240  384.6528
 241  479.0637
 242  508.326
 243  562.9599
 244  418.9995
 245  347.3904
 246  462.703
 247  504.1475
 248  470.0391
 249  361.3254
 250  353.9752
 251  424.8897
 252  394.1142
 253  326.4584
 254  426.1499
 255  444.887
 256  436.7573
 257  451.4048
 258  411.2992
 259  297.5052
 260  498.404
 261  497.5827
 262  475.117
 263  417.4607
 264  462.5203
 265  525.3321
 266  479.2225
 267  485.8381
 268  531.9995
 269  473.2916
 270  511.4962
 271  509.4846
 272  377.7278
 273  391.4974
 274  497.713
 275  515.9333
 276  405.1073
 277  379.5411
 278  558.3225
 279  645.4085
 280  601.9756
 281  429.4008
 282  384.0029
 283  504.3225
 284  561.4839
 285  515.8134
 286  456.633
 287  544.7608
 288  564.243
 289  446.5128
 290  509.013
 291  588.2831
 292  582.2856
 293  462.7902
 294  384.3426
 295  401.5368
 296  391.802
 297  456.0107
 298  383.1545
 299  411.7643
 300  428.0949
 301  318.8459
 302  391.6824
 303  534.5746
 304  512.1934
 305  454.5725
 306  380.461
 307  395.965
 308  349.0119
 309  464.1411
 310  437.3503
 311  414.6518
 312  406.2698
 313  365.9614
 314  323.0865
 315  425.7859
 316  265.5178
 317  261.3349
 318  358.2104
 319  326.1305
 320  348.1967
 321  313.1429
 322  362.3943
 323  407.5204
 324  492.7234
 325  454.076
 326  310.0848
 327  494.0417
 328  465.8824
 329  346.6094
 330  353.7455
 331  404.567
 332  377.9182
 333  371.0765
 334  304.4958
 335  287.1944
 336  246.3748
 337  340.9272
 338  388.1053
 339  298.7094
 340  350.5703
 341  323.6296
 342  279.3994
 343  433.4346
 344  411.4916
 345  458.1117
 346  340.7545
 347  260.7896
 348  258.6435
 349  367.7192
 350  462.0153
 351  474.4698
 352  324.3238
 353  234.7644
 354  279.2889
 355  436.4702
 356  477.2231
 357  429.7456
 358  442.2158
 359  422.9268
 360  417.9268
 361  456.3452
 362  402.1769
 363  410.7736
 364  485.4515
 365  484.099
 366  472.2586
 367  431.0577
 368  285.5664
 369  249.21
 370  443.5427
 371  497.9585
 372  489.526
 373  485.3744
 374  415.0939
 375  237.1617
 376  327.8351
 377  399.2187
 378  383.994
 379  347.7337
 380  427.3195
 381  367.7235
 382  299.2597
 383  372.2235
 384  478.0876
 385  356.9388
 386  406.3762
 387  536.2422
 388  461.2428
 389  385.3941
 390  395.2027
 391  418.9961
 392  448.959
 393  466.6808
 394  430.7158
 395  445.1766
 396  423.2584
 397  416.327
 398  503.2836
 399  545.6011
 400  470.0001
 401  487.4799
 402  504.9871
 403  609.3729
 404  498.8935
 405  419.909
 406  415.3777
 407  444.0953
 408  487.6232
 409  441.318
 410  377.9872
 411  411.9122
 412  416.2035
 413  360.8892
 414  393.1954
 415  517.3456
 416  495.5564
 417  314.3118
 418  276.737
 419  502.2682
 420  428.0094
 421  486.6206
 422  448.0319
 423  465.1602
 424  419.6169
 425  366.8481
 426  330.5611
 427  362.8451
 428  473.2313
 429  529.146
 430  421.6284
 431  423.4095
 432  423.7243
 433  350.6892
 434  439.0612
 435  491.9955
 436  498.3997
 437  421.5646
 438  552.5596
 439  556.8517
 440  481.3249
 441  390.0644
 442  456.6151
 443  499.9951
 444  394.4051
 445  390.8821
 446  561.2468
 447  610.0536
 448  533.2657
 449  455.8121
 450  479.4821
 451  373.0482
 452  414.5295
 453  531.3263
 454  505.547
 455  416.9979
 456  364.8958
 457  535.0734
 458  601.8743
 459  487.016
 460  478.2395
 461  421.3858
 462  509.4469
 463  388.8039
 464  498.7
 465  631.3873
 466  699.139
 467  607.6617
 468  564.8032
 469  437.3555
 470  461.0988
 471  421.4264
 472  407.2363
 473  391.0791
 474  353.0248
 475  409.1757
 476  453.5872
 477  471.1666
 478  350.2461
 479  451.4281
 480  448.2434
 481  477.9415
 482  483.7349
 483  383.5911
 484  369.1911
 485  357.8019
 486  380.0444
 487  431.8391
 488  472.7128
 489  402.227
 490  396.0209
 491  307.2126
 492  504.7917
 493  521.675
 494  573.3441
 495  566.524
 496  527.4825
 497  462.8875
 498  354.5798
 499  285.84
 500  382.6753
 501  382.9279
 502  510.1019
 503  538.0743
 504  589.7016
 505  616.632
 506  525.1519
 507  573.9789
 508  689.3281
 509  792.0248
 510  968.0567
 511  974.2072
