# Input file       =  1178886977.099836_cleaned.dat
# Candidate        =  PSR_0332+5434
# Telescope        =  AR
# Epoch_topo       =  57888.524989581434
# Epoch_bary       =  N/A
# T_sample         =  0.002
# Data Folded      =  7340032
# Data Avg         =  0.0160919694589484
# Data StdDev      =  0.999888847278711
# Profile Bins     =  512
# Profile Avg      =  230.635107874253 
# Profile StdDev   =  119.719727723945 
# Reduced chi-sqr  =  1.370
# Prob(Noise)      <  4.84e-08   (~5.3 sigma)
# P_topo (ms)      =  714.533098979039  +/- 0.000233
# P'_topo (s/s)    =  -0                +/- 1.23e-10
# P''_topo (s/s^2) =  0                 +/- 5.43e-14
# P_bary (ms)      =  N/A
# P'_bary (s/s)    =  N/A
# P''_bary (s/s^2) =  N/A
# P_orb (s)        =  N/A
# asin(i)/c (s)    =  N/A
# eccentricity     =  N/A
# w (rad)          =  N/A
# T_peri           =  N/A
######################################################
   0  220.0256
   1  169.6629
   2  160.432
   3  145.3496
   4  331.9266
   5  362.3828
   6  247.1314
   7  218.8144
   8  255.0857
   9  141.4256
  10  185.8438
  11  230.4401
  12  369.2727
  13  436.0862
  14  414.1119
  15  352.7634
  16  243.8281
  17  273.6405
  18  338.9454
  19  292.0895
  20  247.2911
  21  259.877
  22  304.6869
  23  323.3768
  24  228.6754
  25  87.51042
  26  266.7862
  27  310.2626
  28  161.9518
  29  304.8202
  30  343.0865
  31  273.2384
  32  298.4809
  33  192.2354
  34  294.8244
  35  204.8213
  36  245.2725
  37  159.2805
  38  220.3278
  39  282.2141
  40  303.5589
  41  309.5199
  42  351.8922
  43  289.1497
  44  327.6638
  45  251.5181
  46  298.1446
  47  297.3644
  48  258.0532
  49  273.9269
  50  182.0414
  51  111.3793
  52  175.0179
  53  225.319
  54  225.3903
  55  113.5651
  56  130.561
  57  112.3
  58  136.2113
  59  240.9015
  60  362.2484
  61  349.5545
  62  144.0268
  63  144.6009
  64  209.3644
  65  150.8012
  66  237.027
  67  287.4613
  68  335.1033
  69  281.8216
  70  220.2408
  71  172.5626
  72  168.3165
  73  120.669
  74  251.0042
  75  307.4601
  76  203.8348
  77  220.2421
  78  248.5657
  79  249.9392
  80  176.2615
  81  282.2105
  82  243.4639
  83  226.6845
  84  303.7921
  85  198.3289
  86  212.2835
  87  279.5547
  88  193.8499
  89  126.533
  90  32.29429
  91  170.1305
  92  227.7106
  93  168.065
  94  208.7571
  95  198.6226
  96  296.4474
  97  244.9301
  98  63.09327
  99  157.0459
 100  221.034
 101  280.853
 102  257.451
 103  178.5789
 104  170.2713
 105  100.0689
 106  105.8885
 107  209.5966
 108  318.2972
 109  269.1476
 110  247.4755
 111  300.2019
 112  307.1639
 113  267.577
 114  201.8494
 115  214.4671
 116  131.3383
 117  174.3678
 118  263.2065
 119  260.4292
 120  238.4588
 121  166.6353
 122  153.1552
 123  266.7386
 124  229.1704
 125  197.8235
 126  274.9542
 127  179.4237
 128  167.6745
 129  227.1494
 130  385.5602
 131  332.6122
 132  238.8486
 133  405.5182
 134  311.5623
 135  237.4711
 136  232.2829
 137  253.8472
 138  214.5339
 139  279.2907
 140  320.8361
 141  301.4809
 142  190.4363
 143  108.8639
 144  3.109563
 145  121.8636
 146  235.1144
 147  250.553
 148  284.027
 149  130.6116
 150  96.33656
 151  214.7953
 152  226.2907
 153  297.8982
 154  295.3513
 155  246.7921
 156  172.8717
 157  103.5779
 158  183.2314
 159  236.7787
 160  267.145
 161  245.6352
 162  331.4286
 163  217.8699
 164  173.5131
 165  376.4731
 166  158.6897
 167  72.19447
 168  114.6576
 169  172.9928
 170  241.699
 171  202.501
 172  114.465
 173  121.2461
 174  -8.476758
 175  41.47888
 176  134.5882
 177  98.85935
 178  221.8059
 179  190.0825
 180  213.676
 181  214.3452
 182  120.0784
 183  274.8555
 184  286.2867
 185  107.7425
 186  91.86623
 187  129.8887
 188  146.6423
 189  243.1397
 190  302.6062
 191  152.85
 192  113.7998
 193  169.7183
 194  342.8562
 195  379.561
 196  321.6121
 197  299.4688
 198  369.4489
 199  335.2816
 200  278.9852
 201  248.0864
 202  279.0535
 203  216.942
 204  211.062
 205  260.0318
 206  401.3128
 207  310.9293
 208  271.5619
 209  279.7918
 210  199.4016
 211  199.6712
 212  151.3511
 213  218.1849
 214  295.236
 215  275.7798
 216  170.7002
 217  183.5685
 218  173.3734
 219  249.6315
 220  218.5595
 221  205.9046
 222  220.4935
 223  233.9851
 224  143.4558
 225  141.7323
 226  132.1805
 227  130.8376
 228  111.3193
 229  76.35003
 230  202.9932
 231  98.70154
 232  120.5695
 233  188.539
 234  206.166
 235  243.0559
 236  224.7585
 237  287.2364
 238  211.8004
 239  81.6854
 240  166.7567
 241  315.7299
 242  238.7966
 243  154.8868
 244  187.0824
 245  331.9488
 246  236.1393
 247  168.8488
 248  282.163
 249  297.3023
 250  247.0938
 251  249.2234
 252  291.549
 253  284.3989
 254  159.0009
 255  235.9446
 256  254.5226
 257  214.8809
 258  223.4125
 259  293.364
 260  208.3564
 261  189.7786
 262  271.0918
 263  287.4303
 264  235.1294
 265  365.6151
 266  403.6984
 267  450.9983
 268  249.9117
 269  220.5521
 270  203.8846
 271  174.7617
 272  204.3137
 273  215.8838
 274  254.3239
 275  205.1523
 276  171.2623
 277  198.0701
 278  248.7476
 279  192.009
 280  105.9171
 281  162.5397
 282  279.2049
 283  274.5481
 284  159.7652
 285  44.04399
 286  95.9378
 287  112.5939
 288  159.6528
 289  129.038
 290  204.4034
 291  170.3276
 292  159.3585
 293  222.36
 294  221.6366
 295  250.8499
 296  221.4547
 297  165.8904
 298  62.40434
 299  231.9006
 300  356.3975
 301  194.4608
 302  169.2958
 303  221.1049
 304  207.3703
 305  184.5287
 306  253.2688
 307  200.5184
 308  140.075
 309  303.3911
 310  300.9331
 311  260.4918
 312  269.9209
 313  147.382
 314  118.8495
 315  132.854
 316  235.6023
 317  182.1513
 318  96.35179
 319  117.0118
 320  149.66
 321  104.5981
 322  130.0754
 323  221.0777
 324  258.4596
 325  177.8389
 326  170.3122
 327  276.0687
 328  273.6545
 329  333.7944
 330  182.6039
 331  209.3045
 332  215.4922
 333  124.8329
 334  192.0524
 335  215.7332
 336  172.5325
 337  37.98166
 338  128.6887
 339  156.3404
 340  201.5035
 341  269.2686
 342  79.74773
 343  223.6469
 344  260.2398
 345  198.9099
 346  230.691
 347  338.0031
 348  199.4486
 349  132.7903
 350  6.597732
 351  30.27087
 352  166.876
 353  144.8304
 354  226.6464
 355  164.3069
 356  119.6588
 357  220.3732
 358  207.0767
 359  214.1886
 360  127.6899
 361  247.0502
 362  295.2198
 363  244.6243
 364  332.5169
 365  202.4494
 366  384.8396
 367  283.3229
 368  214.2163
 369  354.7744
 370  432.9135
 371  367.0583
 372  347.3044
 373  410.1914
 374  381.0633
 375  445.2532
 376  598.7979
 377  780.7119
 378  958.6146
 379  994.1898
 380  816.2878
 381  467.1761
 382  325.6929
 383  291.1473
 384  259.8439
 385  246.8249
 386  242.5453
 387  249.5564
 388  223.9567
 389  176.4173
 390  378.2389
 391  413.6697
 392  373.8128
 393  352.4062
 394  167.5992
 395  153.4752
 396  340.1313
 397  267.5957
 398  78.59634
 399  186.6513
 400  220.245
 401  89.86777
 402  113.0986
 403  224.8095
 404  95.71414
 405  70.41615
 406  338.0566
 407  267.2494
 408  235.1796
 409  253.1557
 410  214.2835
 411  139.6746
 412  209.8754
 413  214.9306
 414  166.4222
 415  161.2322
 416  268.2346
 417  213.7852
 418  147.568
 419  116.9834
 420  181.4796
 421  131.3609
 422  140.292
 423  161.9575
 424  44.59352
 425  62.50365
 426  120.8196
 427  116.2651
 428  224.6333
 429  257.1289
 430  160.3895
 431  174.3226
 432  162.0799
 433  193.0083
 434  148.3648
 435  142.1381
 436  131.6905
 437  162.4755
 438  192.6351
 439  145.0792
 440  282.1342
 441  244.3845
 442  245.7045
 443  264.1735
 444  306.0579
 445  268.9745
 446  177.5282
 447  242.3772
 448  204.9211
 449  139.6783
 450  123.056
 451  254.9333
 452  252.6367
 453  267.3842
 454  297.2793
 455  221.0491
 456  197.0844
 457  222.4421
 458  288.8244
 459  263.1532
 460  212.218
 461  363.8715
 462  342.2503
 463  294.8262
 464  251.9752
 465  231.2201
 466  293.4235
 467  350.8708
 468  405.4874
 469  422.4226
 470  446.4097
 471  321.4849
 472  291.4733
 473  259.9658
 474  266.1628
 475  188.7766
 476  303.1355
 477  370.2918
 478  262.8521
 479  197.2979
 480  141.0892
 481  230.8899
 482  220.2309
 483  317.4468
 484  242.8126
 485  182.7895
 486  184.346
 487  174.6463
 488  255.0111
 489  178.2736
 490  176.7495
 491  267.8815
 492  138.6628
 493  164.0485
 494  172.9802
 495  222.8822
 496  246.0243
 497  300.388
 498  203.9032
 499  156.6168
 500  212.9914
 501  320.8592
 502  299.9916
 503  258.1688
 504  314.9689
 505  303.3292
 506  424.7324
 507  333.5982
 508  201.416
 509  336.875
 510  311.3922
 511  205.572
