# Input file       =  1178629155.093812_cleaned.dat
# Candidate        =  PSR_0332+5434
# Telescope        =  AR
# Epoch_topo       =  57885.540938585786
# Epoch_bary       =  N/A
# T_sample         =  0.002
# Data Folded      =  7340032
# Data Avg         =  0.0156284393180501
# Data StdDev      =  0.99988609019954 
# Profile Bins     =  512
# Profile Avg      =  224.054233962318 
# Profile StdDev   =  119.719397610484 
# Reduced chi-sqr  =  1.263
# Prob(Noise)      <  4.79e-05   (~3.9 sigma)
# P_topo (ms)      =  714.535987155342  +/- 0.000114
# P'_topo (s/s)    =  -0                +/- 6.02e-11
# P''_topo (s/s^2) =  0                 +/- 2.66e-14
# P_bary (ms)      =  N/A
# P'_bary (s/s)    =  N/A
# P''_bary (s/s^2) =  N/A
# P_orb (s)        =  N/A
# asin(i)/c (s)    =  N/A
# eccentricity     =  N/A
# w (rad)          =  N/A
# T_peri           =  N/A
######################################################
   0  291.9549
   1  295.0705
   2  211.2889
   3  317.3831
   4  185.6168
   5  170.6128
   6  163.9121
   7  145.9582
   8  152.8858
   9  183.4505
  10  193.0061
  11  272.8487
  12  300.0508
  13  237.3909
  14  132.8149
  15  253.9648
  16  277.523
  17  100.7999
  18  146.3126
  19  149.3024
  20  152.1017
  21  186.9244
  22  74.64978
  23  188.04
  24  258.7558
  25  66.65102
  26  163.9537
  27  160.59
  28  104.3455
  29  78.61321
  30  151.419
  31  216.5746
  32  202.7171
  33  254.9625
  34  279.6483
  35  143.3472
  36  251.2148
  37  234.738
  38  198.375
  39  308.9578
  40  366.3573
  41  303.4427
  42  328.8914
  43  247.5131
  44  263.1472
  45  228.2554
  46  343.5749
  47  349.3824
  48  233.9053
  49  265.1618
  50  316.3047
  51  239.556
  52  52.28501
  53  185.1158
  54  205.8476
  55  226.5287
  56  199.4976
  57  256.9316
  58  279.9335
  59  281.2079
  60  247.4141
  61  68.96233
  62  221.676
  63  265.6331
  64  332.567
  65  203.7922
  66  113.8197
  67  343.7749
  68  303.9639
  69  191.5468
  70  185.0936
  71  261.4389
  72  327.6409
  73  277.9892
  74  296.829
  75  261.7046
  76  9.589736
  77  40.18549
  78  128.1386
  79  195.3101
  80  199.1488
  81  213.1022
  82  370.6087
  83  216.4639
  84  28.9113
  85  165.8312
  86  369.7686
  87  225.56
  88  247.2621
  89  329.5911
  90  216.0875
  91  105.4426
  92  143.8107
  93  170.075
  94  270.8417
  95  157.6012
  96  65.68622
  97  105.707
  98  263.9428
  99  254.9287
 100  84.25021
 101  207.4313
 102  219.9335
 103  336.4316
 104  317.1043
 105  192.6078
 106  115.8739
 107  218.7544
 108  315.6871
 109  236.5733
 110  198.3166
 111  329.6509
 112  318.6376
 113  319.0404
 114  271.689
 115  220.7002
 116  162.2388
 117  123.5083
 118  292.4692
 119  264.2038
 120  349.4262
 121  217.4089
 122  20.07136
 123  126.9461
 124  183.1393
 125  162.0435
 126  122.3707
 127  178.534
 128  213.8821
 129  284.3903
 130  236.0412
 131  253.7187
 132  333.4868
 133  314.1455
 134  363.2012
 135  402.8943
 136  317.8055
 137  241.9469
 138  321.1248
 139  240.9202
 140  202.7536
 141  216.6342
 142  280.3015
 143  291.3354
 144  260.667
 145  181.1072
 146  267.8004
 147  305.5444
 148  445.366
 149  405.5311
 150  138.4798
 151  144.7585
 152  295.6565
 153  161.8322
 154  150.6617
 155  217.1649
 156  272.9011
 157  139.6497
 158  170.4212
 159  283.313
 160  339.881
 161  416.3452
 162  399.2374
 163  322.1191
 164  320.9438
 165  369.5145
 166  332.7366
 167  223.8988
 168  363.3017
 169  420.4825
 170  342.7917
 171  199.6228
 172  176.1184
 173  197.7293
 174  354.7177
 175  341.501
 176  220.9842
 177  173.8779
 178  181.1331
 179  228.2463
 180  297.4363
 181  251.2912
 182  230.2121
 183  255.6044
 184  178.0245
 185  161.9737
 186  134.4689
 187  271.6091
 188  215.4324
 189  118.2752
 190  141.3523
 191  178.4599
 192  226.1017
 193  102.6139
 194  155.5868
 195  296.0047
 196  226.9193
 197  157.2352
 198  286.6994
 199  253.6419
 200  207.8445
 201  228.1357
 202  170.5692
 203  204.3477
 204  158.4129
 205  95.43884
 206  184.8029
 207  258.0514
 208  199.1552
 209  130.9753
 210  205.4947
 211  162.4546
 212  149.1749
 213  333.642
 214  282.7507
 215  198.9168
 216  183.8706
 217  145.9793
 218  195.1098
 219  98.98752
 220  45.46878
 221  209.5912
 222  256.4231
 223  230.5345
 224  167.9292
 225  146.0767
 226  96.76987
 227  64.66035
 228  87.81961
 229  167.4403
 230  143.7712
 231  34.59014
 232  71.48045
 233  178.9118
 234  160.9679
 235  225.5365
 236  134.9526
 237  21.60594
 238  51.56256
 239  197.3629
 240  265.9129
 241  136.6185
 242  238.6824
 243  314.731
 244  104.2217
 245  161.9887
 246  157.6819
 247  109.0872
 248  238.4235
 249  217.4711
 250  212.2958
 251  162.9764
 252  266.3635
 253  356.4929
 254  254.7754
 255  32.76009
 256  17.51704
 257  179.3949
 258  390.162
 259  225.3431
 260  137.6498
 261  143.3007
 262  140.9666
 263  222.9787
 264  186.4332
 265  125.16
 266  209.1406
 267  290.0557
 268  214.1981
 269  169.4436
 270  281.5053
 271  234.0053
 272  254.7341
 273  268.4884
 274  218.3417
 275  261.6785
 276  305.1531
 277  246.8806
 278  117.5078
 279  145.2999
 280  206.7247
 281  168.0786
 282  187.6867
 283  311.0404
 284  336.6253
 285  332.2464
 286  295.1538
 287  153.5189
 288  249.9626
 289  210.7058
 290  161.706
 291  152.2123
 292  238.5423
 293  267.8541
 294  243.0061
 295  249.2757
 296  215.5441
 297  216.6259
 298  210.6839
 299  279.1637
 300  215.9114
 301  279.0079
 302  101.1645
 303  135.8008
 304  262.4277
 305  148.3529
 306  144.3383
 307  60.00095
 308  105.5511
 309  134.4509
 310  114.3997
 311  59.92415
 312  43.94242
 313  155.3362
 314  226.1842
 315  261.8209
 316  280.3089
 317  224.1359
 318  129.5372
 319  61.14281
 320  157.0256
 321  78.36955
 322  124.3908
 323  193.0458
 324  290.0988
 325  194.664
 326  70.09674
 327  119.5428
 328  141.569
 329  171.1489
 330  142.0737
 331  183.838
 332  161.5083
 333  97.2205
 334  207.135
 335  235.1089
 336  248.849
 337  297.7378
 338  213.2614
 339  239.6647
 340  166.1555
 341  67.75165
 342  114.4732
 343  154.2088
 344  399.1141
 345  282.1394
 346  102.2914
 347  181.0916
 348  211.0896
 349  124.3185
 350  213.1698
 351  279.5396
 352  129.6848
 353  174.8843
 354  291.7546
 355  247.0889
 356  162.1155
 357  221.5725
 358  304.6758
 359  164.2866
 360  144.75
 361  187.7074
 362  251.8846
 363  236.4781
 364  249.1067
 365  157.5332
 366  163.0758
 367  107.6941
 368  113.4752
 369  394.1557
 370  360.4156
 371  257.0563
 372  271.306
 373  226.1852
 374  268.73
 375  351.1307
 376  315.3834
 377  224.8403
 378  334.3908
 379  258.649
 380  285.2915
 381  294.1657
 382  406.3624
 383  368.0984
 384  265.7732
 385  356.8155
 386  257.1234
 387  209.9358
 388  214.3157
 389  264.3471
 390  280.3881
 391  196.09
 392  273.1934
 393  224.3769
 394  229.4842
 395  256.4417
 396  269.25
 397  167.9886
 398  236.2506
 399  295.0175
 400  324.2796
 401  275.781
 402  246.2172
 403  149.636
 404  262.2155
 405  97.27833
 406  117.6087
 407  246.1389
 408  210.6123
 409  8.63076
 410  -16.54277
 411  124.0211
 412  180.2605
 413  225.3849
 414  198.9205
 415  243.4486
 416  284.8063
 417  253.2761
 418  92.16793
 419  317.5872
 420  294.9085
 421  439.1942
 422  237.7817
 423  127.0425
 424  213.1236
 425  326.7395
 426  241.3651
 427  301.8783
 428  265.2895
 429  181.0802
 430  191.9154
 431  243.0092
 432  192.696
 433  193.2428
 434  154.8408
 435  255.9789
 436  214.5626
 437  293.0072
 438  370.0013
 439  330.0942
 440  336.8934
 441  394.3148
 442  601.9444
 443  705.6305
 444  693.3802
 445  835.0951
 446  819.3535
 447  507.6828
 448  241.8524
 449  158.2648
 450  144.4541
 451  205.0852
 452  192.5468
 453  244.5757
 454  230.1747
 455  230.7353
 456  242.798
 457  97.97411
 458  109.9673
 459  200.8495
 460  299.7208
 461  374.6575
 462  300.7198
 463  290.2888
 464  171.9456
 465  86.37007
 466  65.89707
 467  234.685
 468  273.599
 469  133.0903
 470  191.5538
 471  214.3713
 472  163.13
 473  288.2908
 474  218.6309
 475  197.44
 476  216.0014
 477  329.3151
 478  228.4805
 479  222.6559
 480  231.1165
 481  240.8892
 482  377.8372
 483  384.1196
 484  304.8089
 485  184.1943
 486  288.5135
 487  311.7094
 488  142.9945
 489  135.0629
 490  209.9665
 491  253.2128
 492  260.1167
 493  248.4617
 494  197.805
 495  176.4372
 496  200.9518
 497  196.7868
 498  159.644
 499  154.3298
 500  245.4802
 501  288.5753
 502  294.8112
 503  262.3323
 504  275.7313
 505  341.895
 506  350.4533
 507  137.0556
 508  152.6555
 509  245.8822
 510  289.2096
 511  299.3174
