# Input file       =  1178771242.111134_cleaned.dat
# Candidate        =  PSR_0332+5434
# Telescope        =  AR
# Epoch_topo       =  57887.185464249240
# Epoch_bary       =  N/A
# T_sample         =  0.002
# Data Folded      =  7208960
# Data Avg         =  0.0360820198341839
# Data StdDev      =  1.00005071508699 
# Profile Bins     =  512
# Profile Avg      =  508.046185811438 
# Profile StdDev   =  118.665193603953 
# Reduced chi-sqr  =  1.162
# Prob(Noise)      <  0.00649   (~2.5 sigma)
# P_topo (ms)      =  714.534047380753  +/- 0.000303
# P'_topo (s/s)    =  -0                +/- 1.63e-10
# P''_topo (s/s^2) =  0                 +/- 7.31e-14
# P_bary (ms)      =  N/A
# P'_bary (s/s)    =  N/A
# P''_bary (s/s^2) =  N/A
# P_orb (s)        =  N/A
# asin(i)/c (s)    =  N/A
# eccentricity     =  N/A
# w (rad)          =  N/A
# T_peri           =  N/A
######################################################
   0  391.9356
   1  403.7101
   2  493.1608
   3  614.994
   4  596.7251
   5  476.7416
   6  490.2592
   7  516.0298
   8  504.3707
   9  481.216
  10  440.1074
  11  437.3103
  12  519.1213
  13  493.7714
  14  513.6644
  15  445.9896
  16  617.1618
  17  618.6765
  18  617.025
  19  586.7908
  20  585.7902
  21  499.1217
  22  528.262
  23  595.6326
  24  562.6242
  25  564.1932
  26  426.5572
  27  472.8722
  28  502.3608
  29  438.2133
  30  440.214
  31  460.1475
  32  444.3817
  33  424.9771
  34  490.3166
  35  447.7661
  36  451.856
  37  476.1095
  38  546.0555
  39  632.6669
  40  558.5507
  41  538.3938
  42  506.0802
  43  394.9299
  44  413.5377
  45  403.9589
  46  470.7212
  47  393.0733
  48  440.8089
  49  531.9791
  50  502.5956
  51  495.8957
  52  517.5934
  53  527.958
  54  489.2368
  55  496.038
  56  458.8565
  57  470.7203
  58  584.9953
  59  542.8354
  60  480.4383
  61  458.0891
  62  552.0297
  63  532.0773
  64  461.5125
  65  578.3451
  66  610.0115
  67  605.7366
  68  545.3623
  69  564.5408
  70  667.9006
  71  544.1686
  72  488.8817
  73  456.8728
  74  435.322
  75  494.368
  76  422.1603
  77  393.8073
  78  425.0845
  79  470.3937
  80  463.4419
  81  478.4531
  82  572.6709
  83  444.6111
  84  414.5388
  85  491.5313
  86  595.6071
  87  612.2769
  88  431.911
  89  332.3774
  90  543.8583
  91  591.0206
  92  481.1546
  93  511.3647
  94  449.9267
  95  597.9907
  96  460.1718
  97  552.6337
  98  598.847
  99  544.226
 100  528.1597
 101  609.5377
 102  460.1855
 103  510.8976
 104  463.4565
 105  480.7532
 106  466.6754
 107  505.7849
 108  524.8306
 109  492.4907
 110  508.1893
 111  487.4882
 112  554.8893
 113  468.5249
 114  502.8851
 115  517.4624
 116  542.2689
 117  528.7618
 118  527.5036
 119  612.0514
 120  503.7359
 121  374.7272
 122  462.8512
 123  577.6992
 124  553.3864
 125  415.126
 126  399.9476
 127  490.041
 128  493.6139
 129  393.2291
 130  397.4112
 131  491.8649
 132  497.2095
 133  532.4335
 134  503.3661
 135  534.415
 136  615.316
 137  606.7745
 138  552.8849
 139  561.3411
 140  627.4845
 141  560.477
 142  371.2633
 143  401.4545
 144  432.0467
 145  515.7238
 146  530.6221
 147  425.69
 148  404.1869
 149  455.0284
 150  436.5095
 151  589.2419
 152  642.3875
 153  516.4141
 154  471.8641
 155  421.8811
 156  393.598
 157  505.9309
 158  573.1852
 159  455.5365
 160  417.4381
 161  537.1327
 162  581.8525
 163  476.7846
 164  590.42
 165  659.9597
 166  593.8844
 167  571.4271
 168  604.2877
 169  584.8284
 170  602.9944
 171  533.8473
 172  453.4284
 173  399.0494
 174  461.9184
 175  374.7241
 176  386.6366
 177  408.1324
 178  491.131
 179  545.9223
 180  467.7139
 181  461.4242
 182  461.3807
 183  429.3073
 184  394.4831
 185  493.0798
 186  627.6976
 187  706.3382
 188  528.0471
 189  542.1383
 190  496.5837
 191  434.6406
 192  539.7081
 193  510.1512
 194  476.1566
 195  428.4749
 196  465.7298
 197  540.3756
 198  460.583
 199  435.9229
 200  466.3293
 201  508.5945
 202  469.8621
 203  555.6565
 204  558.7526
 205  398.9632
 206  473.4371
 207  468.4847
 208  415.8522
 209  443.0833
 210  513.5798
 211  405.4064
 212  392.6632
 213  372.6803
 214  347.3626
 215  371.7728
 216  524.6245
 217  467.8687
 218  482.2852
 219  504.2616
 220  588.29
 221  515.0252
 222  510.9636
 223  474.3403
 224  429.2884
 225  507.5451
 226  542.3535
 227  505.5948
 228  466.2401
 229  551.558
 230  506.162
 231  297.4541
 232  500.3913
 233  562.7905
 234  589.8086
 235  558.851
 236  553.3779
 237  468.1372
 238  547.0317
 239  602.8514
 240  547.7595
 241  436.7823
 242  379.443
 243  504.2572
 244  427.4945
 245  463.1945
 246  630.836
 247  638.8691
 248  682.9916
 249  569.0449
 250  572.5613
 251  631.8945
 252  654.6895
 253  763.8451
 254  879.5792
 255  1012.567
 256  1080.541
 257  1042.032
 258  891.9305
 259  853.1652
 260  674.9616
 261  473.6771
 262  488.8031
 263  645.0588
 264  650.6089
 265  643.4398
 266  537.0765
 267  597.9291
 268  520.3273
 269  618.5571
 270  600.2275
 271  635.3606
 272  588.2933
 273  517.6984
 274  467.4055
 275  391.8018
 276  352.8745
 277  406.3638
 278  604.3292
 279  616.7045
 280  483.8857
 281  435.7393
 282  385.1076
 283  421.6364
 284  540.4198
 285  518.2716
 286  612.9424
 287  560.2589
 288  554.1841
 289  491.7215
 290  540.6644
 291  559.9543
 292  529.7269
 293  536.2015
 294  553.7474
 295  588.9108
 296  526.907
 297  573.7112
 298  591.579
 299  524.6523
 300  520.5078
 301  548.1616
 302  566.6115
 303  620.5754
 304  632.86
 305  666.1823
 306  583.8049
 307  535.9805
 308  525.2889
 309  504.2493
 310  614.5291
 311  678.039
 312  722.3516
 313  537.3439
 314  542.4692
 315  558.3684
 316  508.3423
 317  550.9196
 318  580.2021
 319  624.2281
 320  539.4167
 321  506.1218
 322  554.3821
 323  488.3986
 324  393.5011
 325  514.1047
 326  555.4535
 327  552.4887
 328  509.7675
 329  625.6289
 330  497.8728
 331  505.6129
 332  564.5544
 333  591.2713
 334  608.7828
 335  524.7141
 336  513.5891
 337  534.3698
 338  352.6597
 339  411.6384
 340  436.864
 341  387.954
 342  487.7794
 343  597.3505
 344  510.1113
 345  596.355
 346  584.6133
 347  596.9863
 348  488.7003
 349  401.9939
 350  530.9544
 351  558.8537
 352  459.7411
 353  528.7309
 354  554.3519
 355  461.9896
 356  469.4975
 357  454.7149
 358  441.9796
 359  516.5439
 360  550.4371
 361  652.8824
 362  594.4355
 363  502.9908
 364  513.0173
 365  565.6312
 366  605.3804
 367  578.7808
 368  512.8074
 369  529.3029
 370  421.5228
 371  443.1501
 372  325.7981
 373  456.0603
 374  499.2882
 375  405.1779
 376  584.0764
 377  583.9602
 378  473.8932
 379  385.2156
 380  503.7323
 381  535.1679
 382  388.9438
 383  401.4747
 384  492.7434
 385  422.7884
 386  317.8647
 387  489.0021
 388  659.2457
 389  517.7706
 390  494.8141
 391  598.6816
 392  569.8599
 393  615.3113
 394  659.4184
 395  645.4863
 396  628.9165
 397  663.7148
 398  635.515
 399  622.9598
 400  577.5399
 401  522.2824
 402  611.43
 403  547.3505
 404  541.9616
 405  528.0436
 406  563.2696
 407  518.6124
 408  366.9417
 409  373.6843
 410  354.1977
 411  406.0086
 412  447.1716
 413  490.8808
 414  511.4024
 415  567.3658
 416  551.8862
 417  609.6423
 418  489.614
 419  486.17
 420  418.6032
 421  481.9275
 422  518.1657
 423  337.6364
 424  353.6999
 425  543.407
 426  589.4282
 427  537.8255
 428  526.1863
 429  566.3875
 430  431.8588
 431  392.3885
 432  518.4662
 433  603.4588
 434  465.3724
 435  533.2197
 436  528.3975
 437  437.7534
 438  493.9326
 439  537.9039
 440  424.2913
 441  455.7626
 442  444.7434
 443  413.6562
 444  426.9504
 445  392.5962
 446  366.2024
 447  425.3716
 448  444.059
 449  468.5991
 450  512.9573
 451  453.6579
 452  450.5085
 453  415.9492
 454  451.869
 455  510.522
 456  427.2607
 457  318.549
 458  374.2381
 459  438.6885
 460  535.1171
 461  574.2191
 462  505.2314
 463  586.5453
 464  508.8519
 465  463.174
 466  572.0493
 467  523.9572
 468  490.6864
 469  502.9341
 470  455.9111
 471  396.8938
 472  483.5198
 473  414.6634
 474  321.4319
 475  389.8299
 476  522.3906
 477  482.5941
 478  375.203
 479  459.7968
 480  410.8953
 481  433.6279
 482  518.2735
 483  566.0585
 484  384.9439
 485  387.7935
 486  351.698
 487  379.2545
 488  460.4161
 489  432.2115
 490  363.6069
 491  473.2952
 492  495.5593
 493  456.1479
 494  416.4664
 495  448.8638
 496  507.6035
 497  428.295
 498  454.9446
 499  493.8545
 500  491.8509
 501  468.7004
 502  342.2817
 503  428.702
 504  337.7709
 505  360.4238
 506  350.9441
 507  373.4087
 508  413.0621
 509  515.1841
 510  461.0821
 511  426.3289
