# Input file       =  1178714656.122629_cleaned.dat
# Candidate        =  PSR_0332+5434
# Telescope        =  AR
# Epoch_topo       =  57886.530533826721
# Epoch_bary       =  N/A
# T_sample         =  0.002
# Data Folded      =  7340032
# Data Avg         =  0.0146749571390289
# Data StdDev      =  1.00002085010361 
# Profile Bins     =  512
# Profile Avg      =  210.315841018867 
# Profile StdDev   =  119.73553282298  
# Reduced chi-sqr  =  1.151
# Prob(Noise)      <  0.00999   (~2.3 sigma)
# P_topo (ms)      =  714.535021212386  +/- 0.000102
# P'_topo (s/s)    =  -0                +/- 5.36e-11
# P''_topo (s/s^2) =  0                 +/- 2.37e-14
# P_bary (ms)      =  N/A
# P'_bary (s/s)    =  N/A
# P''_bary (s/s^2) =  N/A
# P_orb (s)        =  N/A
# asin(i)/c (s)    =  N/A
# eccentricity     =  N/A
# w (rad)          =  N/A
# T_peri           =  N/A
######################################################
   0  188.4373
   1  157.1155
   2  150.0402
   3  300.9524
   4  132.9721
   5  149.0881
   6  284.3439
   7  212.1978
   8  241.3537
   9  258.8416
  10  169.8937
  11  171.6265
  12  99.55435
  13  165.7426
  14  144.1885
  15  238.6284
  16  276.2924
  17  205.9949
  18  114.636
  19  325.5675
  20  228.6629
  21  122.364
  22  210.5705
  23  184.9179
  24  232.1537
  25  193.5141
  26  163.4456
  27  163.1202
  28  271.2975
  29  235.2184
  30  285.5112
  31  205.1129
  32  299.409
  33  339.3861
  34  210.6665
  35  41.87328
  36  208.4285
  37  172.4994
  38  238.1449
  39  198.0482
  40  198.1884
  41  173.9958
  42  142.3564
  43  120.9546
  44  183.7587
  45  310.6721
  46  193.1436
  47  128.7312
  48  272.1743
  49  216.1859
  50  54.51536
  51  227.192
  52  175.2917
  53  91.97554
  54  151.7513
  55  151.3972
  56  212.7423
  57  103.3928
  58  264.9781
  59  271.221
  60  253.0436
  61  166.8608
  62  233.7097
  63  270.5815
  64  273.5299
  65  161.0626
  66  136.9167
  67  249.6195
  68  370.271
  69  313.7869
  70  197.8334
  71  288.0952
  72  353.0985
  73  336.4282
  74  196.5187
  75  142.5879
  76  227.4193
  77  216.218
  78  161.7364
  79  129.3983
  80  209.4361
  81  151.8551
  82  223.3151
  83  267.7091
  84  188.6959
  85  192.5983
  86  215.8666
  87  251.4078
  88  377.9661
  89  233.391
  90  168.0481
  91  149.2922
  92  246.5011
  93  487.5417
  94  332.4598
  95  255.7323
  96  228.8536
  97  143.0504
  98  264.0855
  99  63.28436
 100  187.1631
 101  428.1198
 102  208.1444
 103  144.0786
 104  199.4857
 105  237.3162
 106  243.9333
 107  155.6729
 108  182.4909
 109  59.20894
 110  142.4404
 111  251.8352
 112  158.0903
 113  198.6084
 114  160.6409
 115  152.9428
 116  169.3162
 117  207.1249
 118  213.4322
 119  226.2404
 120  281.3289
 121  329.6855
 122  328.2839
 123  362.8444
 124  102.7119
 125  213.879
 126  233.2148
 127  201.7635
 128  153.069
 129  149.6802
 130  355.059
 131  325.8078
 132  385.0591
 133  350.4349
 134  560.6298
 135  622.2917
 136  677.9134
 137  722.7878
 138  548.347
 139  465.1048
 140  449.1196
 141  262.8223
 142  182.3074
 143  237.719
 144  140.0398
 145  114.0302
 146  293.5864
 147  262.6732
 148  309.6478
 149  346.6778
 150  239.4257
 151  171.4403
 152  222.7693
 153  210.5729
 154  109.5707
 155  247.59
 156  338.3737
 157  275.3539
 158  167.3315
 159  85.4202
 160  219.6852
 161  270.7109
 162  203.1238
 163  112.5164
 164  135.6041
 165  214.1819
 166  224.3864
 167  120.7321
 168  89.15389
 169  244.6109
 170  331.6633
 171  284.618
 172  147.2109
 173  198.7066
 174  207.5366
 175  183.2908
 176  243.4866
 177  171.2557
 178  134.5805
 179  167.8303
 180  129.791
 181  183.4692
 182  190.7342
 183  168.0715
 184  109.2918
 185  175.7217
 186  129.2559
 187  181.3381
 188  69.04365
 189  178.4371
 190  138.6744
 191  198.7243
 192  308.2151
 193  178.3759
 194  -40.2168
 195  -25.82232
 196  29.23248
 197  136.9679
 198  326.0515
 199  258.3533
 200  98.46004
 201  -86.30103
 202  -40.4325
 203  84.51843
 204  226.3925
 205  281.4422
 206  198.9651
 207  105.4403
 208  113.0394
 209  276.721
 210  175.9108
 211  191.64
 212  202.5563
 213  36.99616
 214  59.79411
 215  161.1793
 216  163.3654
 217  176.8071
 218  175.9689
 219  182.3121
 220  209.0359
 221  111.3843
 222  40.28087
 223  134.4042
 224  284.0042
 225  194.427
 226  131.0277
 227  136.9258
 228  86.13007
 229  259.9653
 230  242.1387
 231  218.0133
 232  97.05458
 233  274.6981
 234  228.6657
 235  253.3424
 236  178.969
 237  161.4372
 238  242.088
 239  170.8517
 240  40.34086
 241  220.8203
 242  275.3994
 243  270.4957
 244  282.1899
 245  186.0804
 246  154.7436
 247  290.3019
 248  203.2536
 249  125.8745
 250  282.8593
 251  483.4351
 252  350.1914
 253  136.4692
 254  220.3745
 255  231.5417
 256  203.147
 257  155.0317
 258  138.7236
 259  129.3183
 260  142.1343
 261  252.5
 262  353.7882
 263  241.4608
 264  157.0725
 265  184.7333
 266  286.7257
 267  177.2411
 268  319.4726
 269  246.7331
 270  90.50629
 271  195.3381
 272  277.6279
 273  256.582
 274  155.9462
 275  268.8678
 276  259.6293
 277  169.296
 278  139.7373
 279  177.7214
 280  232.6811
 281  189.3065
 282  66.01733
 283  78.8478
 284  151.3112
 285  272.4007
 286  248.2596
 287  196.3438
 288  329.7189
 289  316.5765
 290  195.0979
 291  169.6902
 292  154.8737
 293  59.96441
 294  118.5461
 295  53.16568
 296  146.8209
 297  351.8242
 298  251.4315
 299  145.9334
 300  250.9568
 301  243.8868
 302  184.278
 303  208.0196
 304  165.8738
 305  210.6804
 306  126.9526
 307  67.76855
 308  188.078
 309  126.4365
 310  146.6314
 311  111.7835
 312  93.66644
 313  199.3829
 314  315.7145
 315  397.0836
 316  331.6222
 317  138.8857
 318  161.4932
 319  218.666
 320  215.5551
 321  226.0069
 322  217.473
 323  286.1808
 324  281.5283
 325  205.2968
 326  148.9225
 327  185.7299
 328  253.5074
 329  302.1464
 330  262.7341
 331  262.7232
 332  199.5043
 333  353.6837
 334  373.5341
 335  251.9276
 336  265.2219
 337  271.606
 338  249.7095
 339  184.0164
 340  105.7444
 341  185.6838
 342  197.3455
 343  209.2587
 344  249.4191
 345  300.8291
 346  291.7093
 347  334.9069
 348  293.3556
 349  240.7264
 350  55.44226
 351  68.81045
 352  126.2972
 353  152.6777
 354  194.5545
 355  229.3726
 356  232.2936
 357  220.3632
 358  -52.93724
 359  91.05199
 360  175.6819
 361  94.36736
 362  270.714
 363  282.8761
 364  257.1168
 365  272.3
 366  298.5691
 367  221.5568
 368  207.7211
 369  220.5444
 370  233.6244
 371  286.0797
 372  242.6416
 373  316.7676
 374  422.5038
 375  255.5751
 376  232.7576
 377  214.168
 378  248.8129
 379  167.423
 380  80.49729
 381  103.8806
 382  72.80948
 383  92.42024
 384  204.6586
 385  185.8032
 386  253.8779
 387  351.1144
 388  264.9963
 389  93.76997
 390  322.4226
 391  250.8267
 392  304.2983
 393  267.2848
 394  217.9539
 395  145.0847
 396  52.94508
 397  273.3576
 398  361.5221
 399  312.2118
 400  286.0317
 401  293.8669
 402  299.8114
 403  260.0628
 404  386.5601
 405  398.1899
 406  288.2518
 407  207.9708
 408  222.1476
 409  205.0164
 410  193.6891
 411  285.9767
 412  145.1226
 413  231.4169
 414  210.6976
 415  181.0242
 416  206.5417
 417  235.9721
 418  111.8244
 419  156.168
 420  409.4807
 421  322.5212
 422  228.0469
 423  203.0607
 424  316.9542
 425  330.3661
 426  199.8291
 427  271.001
 428  234.0816
 429  144.337
 430  71.18707
 431  77.94456
 432  159.1951
 433  226.8636
 434  154.516
 435  46.55597
 436  172.0799
 437  187.6916
 438  336.5896
 439  193.2461
 440  195.9879
 441  108.7735
 442  112.0806
 443  152.112
 444  167.0074
 445  135.9665
 446  150.5605
 447  93.13478
 448  184.8453
 449  224.4659
 450  339.8621
 451  239.1003
 452  155.1538
 453  237.5009
 454  260.6672
 455  278.181
 456  308.3074
 457  150.3362
 458  110.7179
 459  123.6842
 460  195.8082
 461  295.2523
 462  245.5971
 463  243.0643
 464  274.73
 465  151.0844
 466  215.885
 467  120.7541
 468  160.4787
 469  339.0499
 470  209.4715
 471  148.2629
 472  184.7363
 473  259.5416
 474  194.7103
 475  125.8961
 476  213.0169
 477  277.0118
 478  225.4207
 479  58.1696
 480  193.1401
 481  280.3926
 482  74.71648
 483  134.573
 484  178.9081
 485  103.6346
 486  48.7617
 487  143.8968
 488  282.4785
 489  280.9388
 490  301.6232
 491  241.7673
 492  172.7185
 493  182.7356
 494  236.2377
 495  261.5481
 496  208.9718
 497  96.17025
 498  183.7748
 499  214.1477
 500  213.5918
 501  299.263
 502  355.1942
 503  246.3185
 504  204.2218
 505  150.5339
 506  19.82813
 507  163.3091
 508  249.1873
 509  128.1896
 510  80.67497
 511  87.05338
