# Input file       =  1178943567.104165_cleaned.dat
# Candidate        =  PSR_0332+5434
# Telescope        =  AR
# Epoch_topo       =  57889.179966483389
# Epoch_bary       =  N/A
# T_sample         =  0.002
# Data Folded      =  7143424
# Data Avg         =  0.0331860533063389
# Data StdDev      =  1.00004500087045 
# Profile Bins     =  512
# Profile Avg      =  463.01792119093  
# Profile StdDev   =  118.123899920985 
# Reduced chi-sqr  =  1.032
# Prob(Noise)      <  0.3   (~0.5 sigma)
# P_topo (ms)      =  714.532121169408  +/- 0.000243
# P'_topo (s/s)    =  -0                +/- 1.32e-10
# P''_topo (s/s^2) =  0                 +/- 5.97e-14
# P_bary (ms)      =  N/A
# P'_bary (s/s)    =  N/A
# P''_bary (s/s^2) =  N/A
# P_orb (s)        =  N/A
# asin(i)/c (s)    =  N/A
# eccentricity     =  N/A
# w (rad)          =  N/A
# T_peri           =  N/A
######################################################
   0  485.4447
   1  573.3571
   2  577.8448
   3  443.1981
   4  432.0361
   5  515.4247
   6  599.5278
   7  588.6755
   8  505.7072
   9  522.381
  10  410.1799
  11  484.214
  12  493.2404
  13  520.1011
  14  473.9682
  15  443.0421
  16  559.3528
  17  629.1409
  18  528.9762
  19  520.9869
  20  368.7386
  21  371.7015
  22  399.3285
  23  453.1664
  24  473.9193
  25  385.424
  26  349.4158
  27  421.1704
  28  335.0369
  29  300.4332
  30  316.7222
  31  358.7641
  32  385.6485
  33  362.2219
  34  491.369
  35  473.9888
  36  396.4835
  37  415.5446
  38  403.7326
  39  398.8989
  40  401.7141
  41  310.2489
  42  440.0919
  43  408.885
  44  410.5298
  45  295.9887
  46  314.9087
  47  419.6653
  48  402.706
  49  335.8135
  50  395.5267
  51  444.1215
  52  422.0215
  53  336.1746
  54  377.3764
  55  405.9554
  56  421.2197
  57  353.4346
  58  322.0346
  59  374.464
  60  344.9897
  61  317.5815
  62  319.2157
  63  398.8962
  64  340.6343
  65  426.8774
  66  453.3334
  67  572.7025
  68  627.9375
  69  713.6591
  70  789.404
  71  774.9952
  72  900.854
  73  665.0931
  74  628.9416
  75  499.2675
  76  481.766
  77  425.2416
  78  392.024
  79  419.2118
  80  450.8547
  81  469.8033
  82  573.9745
  83  564.2944
  84  493.4172
  85  439.5976
  86  390.0528
  87  331.7913
  88  331.5932
  89  379.4106
  90  461.8679
  91  525.5952
  92  485.6465
  93  521.4697
  94  446.0837
  95  406.3812
  96  431.5479
  97  556.9273
  98  513.0728
  99  482.5876
 100  485.3708
 101  396.5877
 102  466.3773
 103  556.4549
 104  514.1078
 105  499.5776
 106  449.4967
 107  489.5717
 108  440.0569
 109  448.2418
 110  573.2126
 111  536.4857
 112  476.0375
 113  456.2478
 114  485.8063
 115  298.6606
 116  461.8684
 117  407.5386
 118  341.2246
 119  320.8455
 120  336.4238
 121  408.3363
 122  472.1494
 123  461.7158
 124  464.4947
 125  467.5304
 126  414.9148
 127  435.9828
 128  409.1744
 129  529.5363
 130  508.9636
 131  412.4489
 132  531.6752
 133  607.4656
 134  537.8962
 135  355.8258
 136  429.2962
 137  430.202
 138  412.149
 139  358.6831
 140  311.2841
 141  416.2106
 142  538.7433
 143  671.2296
 144  399.0751
 145  282.3394
 146  394.6547
 147  317.9888
 148  410.9807
 149  451.9427
 150  593.4948
 151  612.0195
 152  432.1339
 153  248.959
 154  246.9825
 155  356.7013
 156  405.3513
 157  447.7106
 158  384.3763
 159  363.5451
 160  461.7096
 161  512.2474
 162  496.0149
 163  436.2714
 164  459.0373
 165  456.7989
 166  542.5432
 167  491.6406
 168  531.2073
 169  578.8615
 170  559.3541
 171  582.5212
 172  468.0162
 173  589.3536
 174  511.631
 175  465.1504
 176  435.8976
 177  499.4866
 178  552.2023
 179  553.2883
 180  442.0122
 181  404.8991
 182  380.8973
 183  564.84
 184  576.0586
 185  564.3118
 186  397.0164
 187  404.9187
 188  420.9048
 189  401.9442
 190  484.0002
 191  464.0326
 192  557.981
 193  415.9711
 194  417.7018
 195  470.0281
 196  549.342
 197  510.0601
 198  517.9547
 199  386.3982
 200  416.9414
 201  428.9292
 202  498.0405
 203  397.6713
 204  451.305
 205  439.9112
 206  365.4702
 207  286.7548
 208  390.8181
 209  395.817
 210  496.9427
 211  521.4519
 212  435.3984
 213  561.8803
 214  476.0633
 215  419.4677
 216  478.2069
 217  486.9174
 218  519.5441
 219  474.2682
 220  473.8535
 221  529.4868
 222  351.8589
 223  293.7715
 224  486.2549
 225  379.3402
 226  414.3148
 227  367.771
 228  379.232
 229  413.7517
 230  415.2509
 231  390.866
 232  509.1211
 233  461.2626
 234  408.322
 235  515.3831
 236  472.4753
 237  449.4621
 238  325.0209
 239  274.1071
 240  355.8299
 241  312.0188
 242  387.9859
 243  407.851
 244  335.2343
 245  390.1927
 246  429.3516
 247  367.2198
 248  366.8162
 249  439.1129
 250  546.6389
 251  510.2996
 252  429.7426
 253  460.6538
 254  420.7711
 255  381.5194
 256  385.7061
 257  414.9264
 258  345.0245
 259  519.5024
 260  491.0861
 261  485.8823
 262  429.3929
 263  403.4865
 264  359.2559
 265  248.8345
 266  273.8264
 267  450.8069
 268  590.993
 269  489.1711
 270  452.3162
 271  543.7711
 272  508.3084
 273  552.2382
 274  483.7466
 275  477.2095
 276  464.8289
 277  420.6456
 278  489.1919
 279  541.8507
 280  459.4451
 281  525.6605
 282  475.7032
 283  445.326
 284  535.2736
 285  659.4028
 286  524.2988
 287  396.2823
 288  301.4913
 289  523.0947
 290  515.5764
 291  394.9434
 292  396.5947
 293  373.9781
 294  338.7979
 295  407.1702
 296  398.5488
 297  347.8461
 298  499.7833
 299  532.1093
 300  588.2183
 301  500.5234
 302  439.154
 303  494.779
 304  463.5639
 305  458.1595
 306  616.9987
 307  661.0493
 308  571.4658
 309  587.908
 310  611.8472
 311  486.5336
 312  448.0684
 313  529.3027
 314  589.161
 315  588.2015
 316  482.2993
 317  475.6476
 318  585.4335
 319  498.0941
 320  390.6805
 321  314.0663
 322  521.3326
 323  595.4854
 324  609.3352
 325  543.8558
 326  565.7958
 327  568.4915
 328  460.7497
 329  391.4884
 330  525.7654
 331  476.782
 332  404.8008
 333  356.4654
 334  401.5461
 335  443.9214
 336  374.1636
 337  499.4965
 338  485.9146
 339  507.7014
 340  525.0164
 341  457.4249
 342  522.4782
 343  496.5585
 344  393.6279
 345  547.3706
 346  477.7244
 347  444.1326
 348  557.948
 349  614.7147
 350  610.931
 351  588.2153
 352  591.0933
 353  484.517
 354  488.2318
 355  467.1334
 356  470.8046
 357  623.2512
 358  604.5436
 359  508.492
 360  519.8849
 361  463.3083
 362  449.7877
 363  364.5571
 364  516.7474
 365  565.8126
 366  608.4592
 367  726.8632
 368  672.6151
 369  611.4156
 370  488.2797
 371  530.6981
 372  522.0409
 373  379.0194
 374  454.2697
 375  585.2445
 376  497.1003
 377  404.3708
 378  476.296
 379  455.8845
 380  507.2842
 381  578.3891
 382  606.5919
 383  633.1343
 384  473.0714
 385  439.0927
 386  405.3156
 387  472.0484
 388  460.0864
 389  439.1667
 390  510.0882
 391  466.8257
 392  428.894
 393  497.2127
 394  413.2173
 395  311.3653
 396  399.829
 397  455.4688
 398  504.7339
 399  474.3206
 400  431.1789
 401  517.5129
 402  442.3306
 403  444.3735
 404  588.4936
 405  636.4399
 406  568.8622
 407  539.3365
 408  470.203
 409  464.1472
 410  572.3856
 411  642.8114
 412  543.9676
 413  429.4426
 414  374.1373
 415  395.0839
 416  396.2399
 417  401.8276
 418  474.7765
 419  442.8427
 420  411.3459
 421  398.5609
 422  308.3201
 423  382.0972
 424  492.0918
 425  477.2569
 426  447.3904
 427  417.0083
 428  471.4521
 429  426.0125
 430  488.5613
 431  670.1697
 432  611.0338
 433  544.6297
 434  446.649
 435  486.1578
 436  517.4074
 437  474.715
 438  418.593
 439  421.9383
 440  425.976
 441  401.1122
 442  471.6032
 443  517.5401
 444  607.2635
 445  505.3066
 446  441.613
 447  585.4092
 448  625.709
 449  569.1041
 450  428.9455
 451  391.9469
 452  389.6971
 453  541.4451
 454  513.1972
 455  518.9938
 456  484.1086
 457  462.2872
 458  444.8758
 459  470.5212
 460  403.3053
 461  383.2906
 462  402.6409
 463  432.9652
 464  509.1824
 465  488.8445
 466  401.0956
 467  308.4901
 468  573.4731
 469  483.1642
 470  400.5091
 471  439.7736
 472  550.6832
 473  471.7258
 474  428.917
 475  422.4525
 476  406.648
 477  370.6577
 478  408.8386
 479  502.1497
 480  469.2161
 481  480.232
 482  399.1028
 483  436.4948
 484  366.3681
 485  369.2106
 486  417.6233
 487  460.8734
 488  482.2193
 489  472.1666
 490  494.3046
 491  499.8597
 492  539.6376
 493  445.8583
 494  499.3788
 495  461.0595
 496  458.0239
 497  472.6764
 498  412.6049
 499  403.7957
 500  392.4667
 501  397.728
 502  490.4202
 503  551.2148
 504  452.8501
 505  335.3224
 506  355.0745
 507  430.5638
 508  363.8381
 509  315.5018
 510  436.1792
 511  406.6926
