# Input file       =  1178943567.104165_cleaned.dat
# Candidate        =  PSR_0332+5434
# Telescope        =  AR
# Epoch_topo       =  57889.179966483389
# Epoch_bary       =  N/A
# T_sample         =  0.002
# Data Folded      =  7143424
# Data Avg         =  0.0331860533063389
# Data StdDev      =  1.00004500087045 
# Profile Bins     =  512
# Profile Avg      =  463.017935960452 
# Profile StdDev   =  118.123899920985 
# Reduced chi-sqr  =  1.029
# Prob(Noise)      <  0.313   (~0.5 sigma)
# P_topo (ms)      =  714.532119745874  +/- 0.000241
# P'_topo (s/s)    =  -0                +/- 1.3e-10
# P''_topo (s/s^2) =  0                 +/- 5.92e-14
# P_bary (ms)      =  N/A
# P'_bary (s/s)    =  N/A
# P''_bary (s/s^2) =  N/A
# P_orb (s)        =  N/A
# asin(i)/c (s)    =  N/A
# eccentricity     =  N/A
# w (rad)          =  N/A
# T_peri           =  N/A
######################################################
   0  793.8218
   1  889.5352
   2  649.0373
   3  620.2937
   4  493.8863
   5  477.4715
   6  420.1485
   7  394.1858
   8  422.6854
   9  451.9982
  10  479.0906
  11  576.9775
  12  557.4433
  13  489.52
  14  433.2549
  15  380.483
  16  330.0913
  17  335.1128
  18  385.1643
  19  477.0379
  20  515.7858
  21  493.1896
  22  518.1877
  23  441.3362
  24  402.6905
  25  443.9477
  26  561.9374
  27  501.9873
  28  488.3609
  29  476.22
  30  394.3483
  31  479.391
  32  552.6782
  33  517.8458
  34  488.6874
  35  456.8889
  36  486.5128
  37  432.2448
  38  462.122
  39  572.6732
  40  536.1368
  41  466.9156
  42  467.8903
  43  465.8845
  44  305.5333
  45  470.2731
  46  389.8773
  47  346.9905
  48  312.6042
  49  341.913
  50  417.8712
  51  475.5424
  52  457.2469
  53  466.8682
  54  465.2878
  55  414.9609
  56  434.5741
  57  411.0079
  58  538.7306
  59  502.218
  60  415.1512
  61  543.6844
  62  609.4929
  63  515.4184
  64  351.6068
  65  441.2426
  66  424.2644
  67  410.8978
  68  348.2906
  69  312.5331
  70  432.1447
  71  557.9876
  72  662.8576
  73  369.3824
  74  284.5918
  75  399.5839
  76  318.924
  77  415.8456
  78  458.8173
  79  608.8145
  80  597.5569
  81  413.4943
  82  237.5625
  83  260.0944
  84  359.9266
  85  411.4244
  86  446.5091
  87  379.0742
  88  368.1014
  89  472.1195
  90  512.0248
  91  486.9744
  92  437.9313
  93  458.2878
  94  466.7486
  95  543.1815
  96  487.4286
  97  542.8527
  98  568.5012
  99  570.6087
 100  565.6227
 101  478.657
 102  588.7683
 103  507.9877
 104  455.0854
 105  444.9311
 106  500.7
 107  559.6269
 108  541.6335
 109  434.9062
 110  400.5615
 111  393.5474
 112  572.1178
 113  574.9406
 114  562.0718
 115  377.1823
 116  422.6972
 117  409.3192
 118  410.5048
 119  477.3328
 120  475.9563
 121  553.6495
 122  405.6708
 123  423.6789
 124  475.5394
 125  552.6602
 126  508.8284
 127  514.2399
 128  372.2854
 129  426.9272
 130  432.2503
 131  493.8018
 132  397.125
 133  455.3952
 134  435.2348
 135  351.8321
 136  294.494
 137  394.6217
 138  401.3286
 139  507.4235
 140  510.0693
 141  440.0093
 142  569.7516
 143  459.0588
 144  424.9734
 145  475.2707
 146  499.5594
 147  513.5824
 148  473.1472
 149  474.5569
 150  531.4959
 151  325.2551
 152  318.3336
 153  486.206
 154  368.0897
 155  419.5541
 156  359.7169
 157  387.1793
 158  414.6591
 159  411.9203
 160  398.9506
 161  516.8533
 162  446.1019
 163  417.5576
 164  514.2734
 165  469.3871
 166  445.1046
 167  311.6603
 168  282.7492
 169  356.6148
 170  312.4326
 171  396.3664
 172  397.874
 173  339.3668
 174  391.3657
 175  432.7866
 176  358.3936
 177  375.955
 178  441.2393
 179  554.0459
 180  503.6285
 181  427.9561
 182  460.5448
 183  418.7354
 184  373.4876
 185  392.9831
 186  404.1574
 187  359.3264
 188  521.6099
 189  488.7529
 190  486.2212
 191  423.3215
 192  404.1198
 193  351.93
 194  241.505
 195  286.3297
 196  465.6238
 197  592.7277
 198  473.9547
 199  466.4926
 200  533.1901
 201  517.764
 202  548.0837
 203  484.3056
 204  475.8983
 205  458.1337
 206  423.9261
 207  497.8768
 208  539.3314
 209  457.5992
 210  529.387
 211  465.0553
 212  450.064
 213  551.7328
 214  653.0278
 215  516.7214
 216  377.378
 217  311.2315
 218  537.0366
 219  502.0804
 220  394.0495
 221  394.4049
 222  366.825
 223  344.0367
 224  413.9096
 225  389.5214
 226  353.3996
 227  512.584
 228  533.4504
 229  594.8596
 230  482.8787
 231  444.5062
 232  490.8631
 233  460.4055
 234  470.275
 235  630.5356
 236  653.7889
 237  569.0167
 238  588.8463
 239  612.4481
 240  469.4299
 241  459.8467
 242  535.4093
 243  586.194
 244  588.254
 245  469.6946
 246  483.6013
 247  588.1106
 248  483.2953
 249  382.761
 250  326.9241
 251  535.49
 252  594.8176
 253  612.1053
 254  537.5889
 255  577.6433
 256  555.5335
 257  445.6215
 258  398.7061
 259  531.9616
 260  467.022
 261  393.5393
 262  362.333
 263  408.6298
 264  438.1253
 265  376.5227
 266  510.839
 267  479.7468
 268  512.8057
 269  527.3715
 270  453.5112
 271  528.8612
 272  480.3836
 273  402.1008
 274  550.4926
 275  468.5703
 276  450.9108
 277  567.4952
 278  618.5562
 279  604.3922
 280  592.6169
 281  583.5648
 282  479.5499
 283  491.5427
 284  460.1389
 285  486.0446
 286  626.9718
 287  595.7434
 288  503.9634
 289  520.1497
 290  457.3502
 291  447.0966
 292  369.8719
 293  522.3515
 294  570.8783
 295  618.3979
 296  731.6678
 297  661.983
 298  607.0537
 299  478.2524
 300  539.2606
 301  509.7688
 302  372.4723
 303  470.2103
 304  586.3406
 305  485.0855
 306  406.8913
 307  480.2684
 308  449.8595
 309  520.4288
 310  578.6121
 311  617.8007
 312  620.1987
 313  465.9594
 314  431.0574
 315  412.7778
 316  474.7551
 317  455.5326
 318  443.5521
 319  512.674
 320  461.3564
 321  431.2687
 322  501.688
 323  393.6676
 324  309.8637
 325  413.8667
 326  455.7641
 327  515.9498
 328  458.2474
 329  440.7484
 330  520.3363
 331  429.5052
 332  457.9702
 333  596.1616
 334  631.4925
 335  566.0389
 336  534.785
 337  465.1822
 338  469.2811
 339  588.9431
 340  634.147
 341  533.4583
 342  418.5173
 343  374.1608
 344  399.9595
 345  397.2513
 346  406.8694
 347  476.6489
 348  438.3354
 349  406.6129
 350  396.1191
 351  304.8882
 352  395.3966
 353  498.9946
 354  474.9444
 355  435.6394
 356  421.5351
 357  473.6414
 358  420.9454
 359  512.5997
 360  667.4934
 361  606.5234
 362  531.1877
 363  446.7776
 364  488.7129
 365  517.0505
 366  467.9669
 367  418.8592
 368  422.7853
 369  425.225
 370  403.8688
 371  480.5241
 372  519.0165
 373  616.0717
 374  481.0774
 375  460.9286
 376  587.0488
 377  630.9389
 378  550.9876
 379  427.9374
 380  384.421
 381  402.9644
 382  545.2061
 383  509.1046
 384  520.7006
 385  479.8418
 386  453.6827
 387  451.8326
 388  463.9868
 389  397.5283
 390  390.1524
 391  404.0506
 392  444.4419
 393  506.0873
 394  486.1674
 395  384.8051
 396  322.2043
 397  586.3827
 398  466.0291
 399  403.5879
 400  445.7079
 401  555.8013
 402  461.5947
 403  428.9912
 404  415.3516
 405  403.575
 406  374.1164
 407  417.1913
 408  502.3659
 409  465.5358
 410  478.6932
 411  397.1731
 412  439.7079
 413  356.4506
 414  377.8118
 415  420.7605
 416  462.7028
 417  482.0928
 418  473.806
 419  492.2072
 420  506.8009
 421  534.4203
 422  446.4754
 423  503.9425
 424  450.13
 425  469.2371
 426  462.1391
 427  412.5707
 428  399.5014
 429  394.0209
 430  403.5075
 431  500.986
 432  544.8347
 433  439.6744
 434  335.5927
 435  357.6641
 436  433.304
 437  351.3171
 438  324.198
 439  435.688
 440  416.3708
 441  486.8105
 442  589.858
 443  560.4973
 444  435.3669
 445  436.6878
 446  526.0815
 447  606.8194
 448  576.6548
 449  509.4151
 450  511.403
 451  409.7318
 452  492.8458
 453  491.8697
 454  518.8608
 455  473.9362
 456  437.0959
 457  582.0117
 458  616.9599
 459  533.2188
 460  507.5247
 461  356.9231
 462  384.1068
 463  395.8236
 464  464.9442
 465  463.8009
 466  378.7336
 467  350.1964
 468  425.0903
 469  322.4898
 470  298.0216
 471  324.8483
 472  359.3701
 473  383.1656
 474  373.6003
 475  501.0276
 476  465.0828
 477  393.1087
 478  417.0331
 479  395.7939
 480  409.1561
 481  381.8221
 482  327.0129
 483  434.3775
 484  414.7159
 485  405.7646
 486  286.1543
 487  328.5401
 488  419.8585
 489  398.1376
 490  336.4235
 491  403.4301
 492  445.7752
 493  411.8529
 494  336.2475
 495  378.0683
 496  406.7429
 497  420.6773
 498  348.4777
 499  327.9457
 500  378.4265
 501  331.5319
 502  317.2509
 503  323.5736
 504  403.7729
 505  338.4598
 506  435.1858
 507  461.2544
 508  580.167
 509  631.3947
 510  722.9221
 511  787.4294
