# Input file       =  1178542452.102663_cleaned.dat
# Candidate        =  PSR_0332+5434
# Telescope        =  AR
# Epoch_topo       =  57884.537431743782
# Epoch_bary       =  N/A
# T_sample         =  0.002
# Data Folded      =  7340032
# Data Avg         =  0.0127871113278271
# Data StdDev      =  1.00005963063571 
# Profile Bins     =  512
# Profile Avg      =  183.273459870782 
# Profile StdDev   =  119.740176133841 
# Reduced chi-sqr  =  1.423
# Prob(Noise)      <  9.15e-10   (~6.0 sigma)
# P_topo (ms)      =  714.536930311072  +/- 0.000154
# P'_topo (s/s)    =  -0                +/- 8.15e-11
# P''_topo (s/s^2) =  0                 +/- 3.6e-14
# P_bary (ms)      =  N/A
# P'_bary (s/s)    =  N/A
# P''_bary (s/s^2) =  N/A
# P_orb (s)        =  N/A
# asin(i)/c (s)    =  N/A
# eccentricity     =  N/A
# w (rad)          =  N/A
# T_peri           =  N/A
######################################################
   0  737.8975
   1  759.748
   2  794.6398
   3  608.9196
   4  313.7626
   5  215.5282
   6  235.4575
   7  290.0972
   8  324.0418
   9  254.9495
  10  117.1672
  11  62.32355
  12  272.8022
  13  268.9457
  14  235.4889
  15  291.3448
  16  213.6539
  17  29.28056
  18  178.2025
  19  236.9228
  20  180.3095
  21  231.5914
  22  256.3667
  23  141.6555
  24  87.59917
  25  86.06448
  26  117.6374
  27  190.3719
  28  162.5178
  29  257.1575
  30  236.4844
  31  311.93
  32  269.665
  33  272.3893
  34  293.5321
  35  274.1897
  36  253.1418
  37  196.0022
  38  247.3861
  39  151.9152
  40  128.2645
  41  198.1594
  42  288.1045
  43  184.1422
  44  200.9544
  45  307.4143
  46  237.6785
  47  -12.27334
  48  102.7028
  49  168.9584
  50  246.7544
  51  187.367
  52  138.7482
  53  42.8936
  54  -86.22321
  55  82.63313
  56  296.6012
  57  247.8779
  58  144.3387
  59  218.5372
  60  214.3658
  61  193.7923
  62  250.8319
  63  131.5307
  64  152.563
  65  277.462
  66  190.8555
  67  44.78306
  68  97.0592
  69  200.7586
  70  155.0792
  71  183.4233
  72  218.6337
  73  337.0361
  74  288.1654
  75  246.1534
  76  169.8092
  77  157.854
  78  135.0455
  79  200.9588
  80  193.9005
  81  211.2104
  82  106.7096
  83  8.459801
  84  33.35625
  85  138.7242
  86  165.4316
  87  145.9696
  88  175.5858
  89  127.3555
  90  130.7036
  91  162.878
  92  310.4884
  93  224.1913
  94  159.8916
  95  238.6804
  96  229.3583
  97  205.7118
  98  102.7491
  99  -13.92213
 100  130.6703
 101  278.0018
 102  327.9416
 103  172.7038
 104  106.8927
 105  168.1852
 106  210.298
 107  130.8217
 108  227.9692
 109  306.1802
 110  284.5821
 111  217.7071
 112  198.4859
 113  219.8042
 114  155.9666
 115  152.1818
 116  75.39348
 117  107.1858
 118  213.4745
 119  194.9835
 120  253.8195
 121  332.8522
 122  268.2865
 123  65.34362
 124  217.7516
 125  236.3585
 126  227.0846
 127  184.9704
 128  153.1627
 129  70.89051
 130  204.2762
 131  218.6013
 132  41.07049
 133  85.40602
 134  95.97503
 135  77.6083
 136  194.7578
 137  152.2477
 138  131.1221
 139  205.7964
 140  206.5854
 141  197.0727
 142  163.1152
 143  201.8375
 144  164.856
 145  226.0941
 146  271.1114
 147  236.3304
 148  182.5623
 149  168.4841
 150  60.48042
 151  42.32089
 152  113.6309
 153  144.9775
 154  226.1089
 155  149.283
 156  -8.415795
 157  -4.534407
 158  57.51193
 159  98.37484
 160  -9.537497
 161  47.14704
 162  125.6575
 163  67.59019
 164  -11.94579
 165  143.3374
 166  212.6897
 167  144.6897
 168  210.0292
 169  112.1678
 170  4.527113
 171  146.6621
 172  234.9189
 173  234.5023
 174  178.6293
 175  220.982
 176  170.129
 177  108.7331
 178  172.6215
 179  294.4294
 180  169.1989
 181  50.83659
 182  208.2669
 183  249.0136
 184  205.0758
 185  187.348
 186  189.4589
 187  204.5968
 188  176.5468
 189  232.5114
 190  353.4537
 191  334.7168
 192  363.0896
 193  378.0827
 194  136.6331
 195  -41.57753
 196  156.3511
 197  178.3218
 198  146.5391
 199  168.3437
 200  194.014
 201  73.66879
 202  137.7402
 203  75.78829
 204  71.39137
 205  108.1104
 206  153.5725
 207  -43.76577
 208  59.37682
 209  156.7828
 210  294.6739
 211  253.0296
 212  152.4101
 213  186.3609
 214  131.7895
 215  123.0464
 216  246.3651
 217  275.6005
 218  271.0216
 219  190.7033
 220  192.7852
 221  225.617
 222  139.1303
 223  119.3288
 224  113.0607
 225  166.9184
 226  252.7406
 227  224.9897
 228  161.1554
 229  204.0041
 230  168.4933
 231  40.70667
 232  99.20584
 233  216.7959
 234  218.1199
 235  47.12179
 236  10.03795
 237  195.5825
 238  20.75281
 239  59.61724
 240  144.2703
 241  210.2487
 242  167.0824
 243  201.5946
 244  75.55405
 245  90.55439
 246  170.6602
 247  282.2347
 248  312.6183
 249  278.4354
 250  251.7307
 251  157.5822
 252  307.5602
 253  321.9131
 254  216.0341
 255  216.7793
 256  194.908
 257  272.0464
 258  263.161
 259  149.5455
 260  147.7907
 261  136.2634
 262  167.7051
 263  251.0047
 264  281.6663
 265  264.0309
 266  164.9182
 267  157.1617
 268  245.537
 269  229.0872
 270  201.7105
 271  140.7692
 272  126.356
 273  231.005
 274  307.3124
 275  352.7806
 276  295.0881
 277  233.7812
 278  189.5921
 279  185.2962
 280  173.0304
 281  162.724
 282  296.5856
 283  264.1048
 284  366.2702
 285  254.2142
 286  159.6689
 287  73.68838
 288  107.6278
 289  226.2138
 290  336.0629
 291  332.243
 292  280.4974
 293  148.1366
 294  149.5165
 295  292.8294
 296  288.2745
 297  178.3426
 298  147.8885
 299  222.6734
 300  134.6551
 301  172.7619
 302  219.4069
 303  122.5539
 304  177.9046
 305  255.5044
 306  351.9494
 307  272.1647
 308  115.9267
 309  231.4715
 310  160.991
 311  41.59175
 312  289.357
 313  319.6136
 314  20.06231
 315  52.87719
 316  127.9318
 317  132.7939
 318  179.9802
 319  261.0474
 320  219.747
 321  145.4491
 322  67.98294
 323  257.6523
 324  279.5872
 325  174.7571
 326  258.7015
 327  170.3777
 328  191.2892
 329  152.5602
 330  244.1032
 331  210.0552
 332  367.9671
 333  208.4225
 334  106.3475
 335  153.1578
 336  192.4548
 337  100.4126
 338  77.95875
 339  162.6979
 340  148.7166
 341  342.1594
 342  259.3939
 343  132.8818
 344  84.19629
 345  279.2503
 346  370.3821
 347  301.4926
 348  158.8393
 349  240.1158
 350  219.2583
 351  104.4222
 352  61.57487
 353  98.0421
 354  130.3195
 355  197.3858
 356  174.3922
 357  108.1557
 358  112.0074
 359  194.6979
 360  179.3898
 361  118.7159
 362  128.1692
 363  163.4019
 364  171.7298
 365  102.6458
 366  149.1934
 367  166.5071
 368  150.6767
 369  184.8759
 370  157.7784
 371  145.9715
 372  110.275
 373  114.8652
 374  188.3667
 375  190.935
 376  194.5057
 377  76.81304
 378  103.5803
 379  58.77861
 380  78.74448
 381  118.8131
 382  195.5215
 383  184.6716
 384  82.88817
 385  64.91359
 386  98.35361
 387  13.23057
 388  95.26635
 389  239.9045
 390  61.40089
 391  65.14609
 392  165.5854
 393  186.2324
 394  106.2855
 395  14.82304
 396  168.035
 397  176.609
 398  44.68907
 399  25.612
 400  141.1753
 401  172.0627
 402  268.5424
 403  327.0475
 404  344.7173
 405  213.1238
 406  111.5763
 407  167.0878
 408  201.6399
 409  72.65089
 410  62.34273
 411  172.0802
 412  154.5352
 413  241.292
 414  185.832
 415  226.0073
 416  270.8459
 417  154.2369
 418  114.0524
 419  22.11677
 420  30.37101
 421  134.8723
 422  143.0559
 423  98.51494
 424  152.7359
 425  46.96079
 426  -6.482999
 427  24.43247
 428  113.6083
 429  36.87813
 430  83.97739
 431  155.6413
 432  246.4183
 433  155.2743
 434  75.3821
 435  50.06159
 436  71.65076
 437  185.1866
 438  150.407
 439  119.0263
 440  233.9918
 441  101.1933
 442  109.3387
 443  181.7591
 444  213.8169
 445  156.9804
 446  68.16679
 447  159.9915
 448  206.7892
 449  284.5936
 450  319.8844
 451  322.0417
 452  101.3104
 453  43.23283
 454  182.023
 455  245.6329
 456  274.1783
 457  209.1692
 458  216.1481
 459  151.7046
 460  81.56763
 461  126.0577
 462  156.8548
 463  167.1122
 464  169.7369
 465  145.9845
 466  191.3187
 467  273.9159
 468  222.4641
 469  257.6081
 470  195.374
 471  95.72299
 472  31.32596
 473  150.6584
 474  258.9725
 475  179.6012
 476  239.1639
 477  298.8505
 478  311.2076
 479  185.3087
 480  86.3933
 481  157.6937
 482  214.324
 483  298.6076
 484  55.34752
 485  140.5278
 486  85.22935
 487  200.4279
 488  163.3004
 489  163.3833
 490  161.8367
 491  165.5757
 492  307.3032
 493  276.4327
 494  109.7045
 495  172.1512
 496  -14.30993
 497  157.2143
 498  267.1952
 499  223.7894
 500  260.6748
 501  259.7951
 502  135.1662
 503  112.6646
 504  109.1772
 505  300.4315
 506  305.1083
 507  154.5299
 508  402.698
 509  641.4345
 510  678.5614
 511  750.6559
