# Input file       =  1178771242.111134_cleaned.dat
# Candidate        =  PSR_0332+5434
# Telescope        =  AR
# Epoch_topo       =  57887.185464249240
# Epoch_bary       =  N/A
# T_sample         =  0.002
# Data Folded      =  7208960
# Data Avg         =  0.0360820198341839
# Data StdDev      =  1.00005071508699 
# Profile Bins     =  512
# Profile Avg      =  508.04621244602  
# Profile StdDev   =  118.665193603953 
# Reduced chi-sqr  =  1.163
# Prob(Noise)      <  0.00616   (~2.5 sigma)
# P_topo (ms)      =  714.534046167373  +/- 0.000306
# P'_topo (s/s)    =  -0                +/- 1.65e-10
# P''_topo (s/s^2) =  0                 +/- 7.4e-14
# P_bary (ms)      =  N/A
# P'_bary (s/s)    =  N/A
# P''_bary (s/s^2) =  N/A
# P_orb (s)        =  N/A
# asin(i)/c (s)    =  N/A
# eccentricity     =  N/A
# w (rad)          =  N/A
# T_peri           =  N/A
######################################################
   0  1070.243
   1  1058.738
   2  915.333
   3  860.6251
   4  733.7901
   5  497.7423
   6  469.2213
   7  619.3239
   8  644.2679
   9  667.9205
  10  527.1094
  11  614.6606
  12  516.6536
  13  609.1438
  14  595.5908
  15  632.2803
  16  603.4521
  17  528.6384
  18  479.607
  19  413.9972
  20  351.3237
  21  379.0486
  22  570.483
  23  633.8274
  24  506.7692
  25  436.1291
  26  395.8329
  27  410.7816
  28  523.926
  29  524.4919
  30  584.2652
  31  581.661
  32  550.7325
  33  509.5684
  34  514.7541
  35  565.3719
  36  528.2356
  37  540.8844
  38  543.7217
  39  597.2242
  40  531.5632
  41  554.7045
  42  598.8217
  43  543.394
  44  507.929
  45  553.5762
  46  548.306
  47  630.8479
  48  615.8805
  49  671.7294
  50  590.5086
  51  547.5093
  52  527.2238
  53  512.0269
  54  584.6553
  55  664.7471
  56  730.7095
  57  582.173
  58  519.3715
  59  563.6643
  60  510.5378
  61  536.853
  62  575.7444
  63  621.0592
  64  554.8484
  65  506.9179
  66  542.5334
  67  526.457
  68  384.1568
  69  496.6155
  70  541.4334
  71  573.5947
  72  495.2886
  73  620.0901
  74  525.5289
  75  491.1535
  76  559.2897
  77  584.8375
  78  614.9316
  79  538.3682
  80  506.6396
  81  542.6641
  82  390.3706
  83  386.4484
  84  446.2129
  85  386.0777
  86  453.0166
  87  594.2512
  88  521.2319
  89  581.9417
  90  586.5296
  91  595.1682
  92  527.9407
  93  391.1053
  94  502.5432
  95  572.7391
  96  476.9585
  97  504.7276
  98  565.2104
  99  470.848
 100  463.2381
 101  461.9883
 102  433.2718
 103  518.0995
 104  527.5419
 105  648.0333
 106  610.6401
 107  523.5202
 108  496.1131
 109  558.829
 110  592.5428
 111  604.2812
 112  512.866
 113  531.3574
 114  439.6429
 115  428.3015
 116  363.1327
 117  406.1588
 118  525.5756
 119  395.7357
 120  548.6523
 121  615.1874
 122  486.6036
 123  392.6396
 124  459.6108
 125  547.3975
 126  424.4269
 127  378.4652
 128  488.3574
 129  453.376
 130  320.9238
 131  440.7167
 132  642.6478
 133  554.915
 134  476.653
 135  587.9627
 136  579.1682
 137  600.4943
 138  656.8024
 139  650.0342
 140  626.0494
 141  663.4504
 142  646.3428
 143  612.7102
 144  600.326
 145  518.1821
 146  600.6714
 147  558.9094
 148  540.2789
 149  538.8136
 150  543.1618
 151  545.4653
 152  390.9359
 153  371.1783
 154  351.11
 155  393.9514
 156  439.7669
 157  490.623
 158  500.0881
 159  564.9583
 160  542.4182
 161  614.027
 162  500.3576
 163  496.9951
 164  432.295
 165  451.2618
 166  536
 167  366.3742
 168  323.8635
 169  518.136
 170  593.8425
 171  546.2113
 172  520.1426
 173  565.0112
 174  469.5368
 175  380.6128
 176  484.4125
 177  613.0637
 178  490.2833
 179  505.2628
 180  549.0455
 181  442.172
 182  475.8027
 183  545.8657
 184  439.2242
 185  436.2723
 186  465.0889
 187  407.8752
 188  431.4539
 189  403.8203
 190  364.6553
 191  418.4264
 192  444.6386
 193  449.6464
 194  514.0699
 195  470.7633
 196  448.5316
 197  413.8843
 198  435.0733
 199  515.3151
 200  455.0194
 201  325.8208
 202  356.5285
 203  415.0353
 204  522.6924
 205  583.4911
 206  507.2868
 207  573.8771
 208  536.8629
 209  460.0514
 210  547.2054
 211  542.9778
 212  486.3261
 213  503.5448
 214  474.3131
 215  409.4728
 216  454.3471
 217  448.2855
 218  325.8716
 219  356.3422
 220  510.1325
 221  507.2029
 222  381.986
 223  438.7085
 224  426.9893
 225  417.8333
 226  502.848
 227  581.1669
 228  411.116
 229  380.4663
 230  355.849
 231  375.4387
 232  427.1586
 233  472.0453
 234  346.9496
 235  469.8859
 236  489.8391
 237  466.0737
 238  425.5758
 239  429.625
 240  519.3911
 241  431.3438
 242  443.9987
 243  492.0127
 244  486.1116
 245  487.2325
 246  346.7032
 247  420.9399
 248  358.7344
 249  345.9848
 250  351.5247
 251  371.4379
 252  403.8549
 253  502.5898
 254  476.6475
 255  435.1865
 256  393.1853
 257  385.5824
 258  485.2161
 259  581.842
 260  636.0015
 261  473.7537
 262  499.7328
 263  501.5209
 264  516.6093
 265  479.7242
 266  450.1396
 267  427.0096
 268  509.2674
 269  494.2285
 270  532.8705
 271  425.4393
 272  597.6614
 273  618.0461
 274  629.7474
 275  582.5985
 276  599.1456
 277  510.6344
 278  512.7576
 279  586.0627
 280  565.8486
 281  567.8194
 282  446.4861
 283  457.8248
 284  517.3907
 285  442.9481
 286  429.5913
 287  465.45
 288  446.3326
 289  421.4068
 290  487.3293
 291  455.7797
 292  445.7686
 293  470.2386
 294  523.0483
 295  626.8758
 296  575.0871
 297  542.3937
 298  527.2603
 299  405.0422
 300  406.9986
 301  397.6588
 302  463.5992
 303  419.4831
 304  406.7452
 305  541.6335
 306  489.9132
 307  506.7131
 308  502.4903
 309  539.1724
 310  483.1205
 311  512.7731
 312  452.5944
 313  476.2639
 314  547.3372
 315  575.5081
 316  476.9454
 317  473.3765
 318  504.0593
 319  574.7387
 320  448.2916
 321  564.7103
 322  601.2101
 323  616.0652
 324  558.7484
 325  546.5052
 326  661.9509
 327  569.1902
 328  497.166
 329  459.6897
 330  434.3524
 331  482.7453
 332  439.6432
 333  389.9643
 334  428.47
 335  455.8871
 336  473.8253
 337  456.1429
 338  580.627
 339  472.0732
 340  394.2864
 341  481.9623
 342  565.0991
 343  642.4389
 344  471.1862
 345  320.1091
 346  491.1193
 347  617.759
 348  488.1413
 349  515.497
 350  434.853
 351  592.3022
 352  492.765
 353  515.2495
 354  600.5884
 355  555.3248
 356  516.4959
 357  618.1205
 358  485.1099
 359  494.666
 360  467.6317
 361  486.2219
 362  464.9542
 363  496.2404
 364  516.6462
 365  502.8346
 366  504.0414
 367  488.7234
 368  550.6096
 369  483.1445
 370  491.9204
 371  511.9975
 372  546.6121
 373  531.9442
 374  518.4634
 375  592.7617
 376  544.3565
 377  383.1638
 378  440.2602
 379  561.8085
 380  568.2756
 381  442.6992
 382  387.7932
 383  477.3822
 384  499.4705
 385  415.968
 386  385.4621
 387  489.8977
 388  486.1169
 389  531.9088
 390  500.7614
 391  526.2286
 392  599.4366
 393  612.9585
 394  561.1895
 395  551.4985
 396  623.2246
 397  591.2629
 398  391.6504
 399  386.8963
 400  424.3582
 401  510.1862
 402  527.8364
 403  466.9222
 404  381.0436
 405  455.1387
 406  422.1196
 407  566.2802
 408  649.9612
 409  530.7331
 410  473.2323
 411  444.4146
 412  383.8187
 413  487.6152
 414  565.5969
 415  490.3359
 416  405.3503
 417  517.8602
 418  579.9136
 419  486.7354
 420  553.8007
 421  674.4111
 422  609.1333
 423  563.3404
 424  607.3937
 425  583.6996
 426  607.2097
 427  542.4633
 428  475.5409
 429  384.563
 430  465.273
 431  389.3627
 432  388.8483
 433  401.0932
 434  466.8215
 435  543.9791
 436  489.5127
 437  450.9324
 438  471.0563
 439  431.002
 440  398.7931
 441  468.1675
 442  594.7836
 443  720.8281
 444  549.1205
 445  529.077
 446  519.6946
 447  431.2766
 448  524.8481
 449  524.1404
 450  483.7685
 451  440.9994
 452  440.1136
 453  536.8495
 454  484.8362
 455  428.1793
 456  472.3822
 457  494.1632
 458  484.5885
 459  522.9381
 460  581.3238
 461  420.3089
 462  441.8795
 463  486.0012
 464  416.0168
 465  431.2888
 466  507.4961
 467  431.5403
 468  387.646
 469  387.6613
 470  350.7068
 471  356.4358
 472  497.271
 473  484.9361
 474  474.5623
 475  491.0891
 476  582.7574
 477  525.7189
 478  512.1333
 479  485.4138
 480  437.3067
 481  490.5649
 482  541.3795
 483  517.0809
 484  457.3019
 485  537.3149
 486  543.3148
 487  313.4603
 488  441.7964
 489  569.6809
 490  589.7658
 491  559.5844
 492  556.2231
 493  474.8784
 494  536.5975
 495  599.2681
 496  566.7678
 497  458.2038
 498  366.9493
 499  487.241
 500  457.7556
 501  430.8498
 502  610.0599
 503  634.3728
 504  682.9716
 505  607.359
 506  548.7094
 507  633.6404
 508  624.4525
 509  742.9577
 510  857.296
 511  999.2329
