# Input file       =  1178454286.107926_cleaned.dat
# Candidate        =  PSR_0332+5434
# Telescope        =  AR
# Epoch_topo       =  57883.516991989884
# Epoch_bary       =  N/A
# T_sample         =  0.002
# Data Folded      =  7340032
# Data Avg         =  0.0150760891775998
# Data StdDev      =  1.00011393482595 
# Profile Bins     =  512
# Profile Avg      =  216.157439785295 
# Profile StdDev   =  119.746678139426 
# Reduced chi-sqr  =  1.648
# Prob(Noise)      <  1.24e-18   (~8.7 sigma)
# P_topo (ms)      =  714.537849802569  +/- 0.000269
# P'_topo (s/s)    =  -0                +/- 1.42e-10
# P''_topo (s/s^2) =  0                 +/- 6.27e-14
# P_bary (ms)      =  N/A
# P'_bary (s/s)    =  N/A
# P''_bary (s/s^2) =  N/A
# P_orb (s)        =  N/A
# asin(i)/c (s)    =  N/A
# eccentricity     =  N/A
# w (rad)          =  N/A
# T_peri           =  N/A
######################################################
   0  259.7876
   1  278.5524
   2  453.8739
   3  329.0577
   4  200.5915
   5  279.2606
   6  366.8833
   7  251.9399
   8  235.2598
   9  211.2898
  10  180.8413
  11  204.1187
  12  256.4895
  13  222.8698
  14  68.81723
  15  122.8886
  16  291.2554
  17  122.8509
  18  170.4869
  19  142.5531
  20  225.4832
  21  49.59138
  22  153.31
  23  132.1889
  24  96.27419
  25  138.1514
  26  105.1795
  27  153.0927
  28  184.0295
  29  270.5851
  30  341.8714
  31  259.002
  32  255.2871
  33  302.8794
  34  155.9362
  35  235.3074
  36  236.3847
  37  133.3375
  38  260.0239
  39  237.7778
  40  201.4345
  41  195.7713
  42  168.2836
  43  219.9276
  44  268.5248
  45  255.6984
  46  163.0189
  47  158.3271
  48  213.863
  49  193.3704
  50  98.88818
  51  102.9642
  52  121.2321
  53  86.05283
  54  149.3739
  55  243.1483
  56  276.9417
  57  158.2741
  58  163.1999
  59  258.9401
  60  320.1882
  61  264.0962
  62  112.1287
  63  168.5448
  64  205.6136
  65  301.417
  66  244.8371
  67  352.8844
  68  334.5237
  69  244.1209
  70  195.3496
  71  176.5591
  72  95.85661
  73  197.557
  74  207.965
  75  241.0579
  76  187.0026
  77  182.7034
  78  81.04832
  79  186.7379
  80  285.6737
  81  247.7396
  82  209.0291
  83  325.4067
  84  219.4225
  85  162.6992
  86  89.697
  87  112.8651
  88  258.75
  89  286.5613
  90  258.5106
  91  128.212
  92  231.7036
  93  178.283
  94  75.43182
  95  229.7217
  96  246.1833
  97  65.02508
  98  201.7021
  99  344.9725
 100  258.899
 101  123.4934
 102  183.8495
 103  209.8246
 104  98.46226
 105  45.28155
 106  75.54771
 107  209.5833
 108  199.2272
 109  102.8114
 110  142.065
 111  89.2803
 112  -5.376637
 113  21.70105
 114  224.2436
 115  366.0496
 116  148.9224
 117  114.2396
 118  149.346
 119  120.1419
 120  184.5133
 121  206.1705
 122  56.33399
 123  24.50911
 124  192.0009
 125  155.0758
 126  100.7498
 127  168.5218
 128  149.2138
 129  100.6143
 130  96.5119
 131  179.4884
 132  114.4206
 133  62.80122
 134  72.22972
 135  83.10326
 136  178.9027
 137  132.9044
 138  10.85189
 139  7.547452
 140  63.47176
 141  83.20276
 142  183.5693
 143  193.0245
 144  87.34921
 145  -10.84169
 146  106.8912
 147  195.696
 148  151.7711
 149  203.4857
 150  84.77893
 151  55.17171
 152  -55.55714
 153  59.50798
 154  145.6571
 155  181.4077
 156  255.9715
 157  184.9308
 158  167.4224
 159  259.4275
 160  236.9978
 161  266.6226
 162  330.7646
 163  247.7698
 164  102.9632
 165  96.82454
 166  116.5321
 167  194.7399
 168  168.3368
 169  96.112
 170  216.0708
 171  211.8792
 172  50.79063
 173  143.6392
 174  135.7312
 175  127.4493
 176  109.9338
 177  186.7391
 178  260.007
 179  216.4178
 180  328.8123
 181  227.1787
 182  272.3118
 183  203.4352
 184  53.26917
 185  156.2206
 186  266.71
 187  283.8648
 188  170.9432
 189  173.9268
 190  331.1037
 191  321.6819
 192  444.0807
 193  481.9201
 194  533.2397
 195  767.1889
 196  973.6957
 197  1129.818
 198  932.6385
 199  755.5246
 200  563.7352
 201  341.5198
 202  182.1186
 203  175.7262
 204  170.4916
 205  136.8761
 206  165.9486
 207  165.8645
 208  250.1083
 209  224.4544
 210  40.61132
 211  109.8939
 212  119.2974
 213  123.9398
 214  160.3634
 215  201.3914
 216  315.1041
 217  238.6536
 218  284.6274
 219  295.7061
 220  178.8338
 221  176.7088
 222  233.1345
 223  237.7231
 224  144.3298
 225  103.2773
 226  214.5905
 227  252.5506
 228  51.22889
 229  234.3179
 230  199.7203
 231  227.2858
 232  369.0503
 233  283.7959
 234  275.3607
 235  328.9019
 236  223.6222
 237  152.6391
 238  125.549
 239  79.03028
 240  57.02321
 241  1.661735
 242  53.56432
 243  158.8207
 244  362.0983
 245  352.4337
 246  245.2586
 247  306.4832
 248  304.8414
 249  178.0967
 250  167.3881
 251  329.879
 252  177.552
 253  149.4915
 254  101.915
 255  133.4081
 256  252.4591
 257  224.4729
 258  127.3569
 259  169.0899
 260  207.6731
 261  136.9967
 262  190.0647
 263  105.3013
 264  187.488
 265  182.2188
 266  253.8118
 267  108.5599
 268  129.7845
 269  96.87479
 270  210.2347
 271  286.9453
 272  171.0094
 273  142.3165
 274  167.457
 275  207.5069
 276  185.4771
 277  166.5287
 278  112.4997
 279  199.2317
 280  68.09773
 281  125.5663
 282  225.7833
 283  260.7765
 284  302.2862
 285  174.1413
 286  186.3678
 287  184.4995
 288  263.8421
 289  128.55
 290  91.03812
 291  219.5178
 292  154.4388
 293  182.5355
 294  102.0189
 295  81.7326
 296  155.617
 297  180.0898
 298  338.4313
 299  251.9215
 300  176.3719
 301  209.8313
 302  221.9253
 303  376.4747
 304  272.1296
 305  222.8232
 306  141.1447
 307  196.6919
 308  157.6571
 309  191.331
 310  243.6533
 311  190.8632
 312  228.4473
 313  217.4387
 314  229.3158
 315  181.8077
 316  231.9978
 317  311.8107
 318  266.0558
 319  196.504
 320  195.7572
 321  195.863
 322  160.7566
 323  218.4762
 324  187.4046
 325  172.1536
 326  235.1405
 327  240.2757
 328  185.9463
 329  208.2159
 330  227.5015
 331  176.1559
 332  254.8197
 333  187.0836
 334  247.9558
 335  227.6163
 336  216.1058
 337  194.0886
 338  227.54
 339  281.0633
 340  264.2875
 341  223.8206
 342  285.1171
 343  162.175
 344  169.5136
 345  224.2269
 346  246.0099
 347  329.0193
 348  280.096
 349  240.3709
 350  243.747
 351  147.0469
 352  111.6527
 353  82.33476
 354  175.4303
 355  227.6418
 356  169.833
 357  285.2678
 358  292.4591
 359  255.839
 360  229.9084
 361  170.8654
 362  254.1631
 363  347.4443
 364  244.029
 365  162.128
 366  228.3074
 367  317.6124
 368  294.6519
 369  223.0927
 370  136.2592
 371  230.3799
 372  339.0322
 373  291.6023
 374  336.0207
 375  230.5232
 376  155.9636
 377  123.4688
 378  244.4711
 379  248.9356
 380  168.5066
 381  188.083
 382  258.4768
 383  262.3391
 384  239.6637
 385  267.7392
 386  284.5703
 387  343.1005
 388  392.9432
 389  306.4814
 390  217.0544
 391  195.971
 392  361.962
 393  322.0742
 394  239.1294
 395  262.304
 396  374.9277
 397  219.9816
 398  169.7702
 399  330.6862
 400  131.5651
 401  214.7489
 402  143.8271
 403  229.4106
 404  164.3157
 405  191.4974
 406  140.7321
 407  119.1198
 408  167.8683
 409  232.842
 410  149.4704
 411  369.3185
 412  268.9648
 413  218.8998
 414  409.5547
 415  434.6696
 416  246.411
 417  386.6214
 418  418.1455
 419  244.937
 420  247.3973
 421  301.29
 422  167.8189
 423  145.1842
 424  121.3456
 425  145.9623
 426  189.7753
 427  220.5282
 428  170.9277
 429  277.1286
 430  311.6437
 431  259.7581
 432  354.2092
 433  296.724
 434  272.3557
 435  204.1822
 436  277.0031
 437  322.7945
 438  228.3038
 439  230.9696
 440  182.259
 441  159.562
 442  232.6414
 443  208.4717
 444  148.0788
 445  249.8607
 446  317.2029
 447  260.8513
 448  302.1035
 449  241.2541
 450  193.207
 451  167.8301
 452  326.4241
 453  462.1211
 454  290.6313
 455  334.2158
 456  289.7433
 457  404.9266
 458  395.8318
 459  374.7517
 460  380.7794
 461  169.5233
 462  163.8485
 463  289.8661
 464  170.3914
 465  143.7505
 466  87.38267
 467  165.4648
 468  225.875
 469  274.6571
 470  279.9662
 471  245.7518
 472  329.2743
 473  191.8897
 474  208.9577
 475  238.4424
 476  177.1197
 477  100.6896
 478  223.0486
 479  283.646
 480  331.2681
 481  164.8908
 482  201.53
 483  139.9162
 484  167.2257
 485  189.2069
 486  199.2899
 487  230.1737
 488  233.9674
 489  95.05793
 490  60.24117
 491  191.0132
 492  203.7356
 493  247.6562
 494  275.084
 495  261.8298
 496  248.3322
 497  238.3935
 498  263.6727
 499  410.0316
 500  309.7711
 501  302.4088
 502  338.6584
 503  199.8034
 504  139.6539
 505  178.3993
 506  288.4818
 507  287.283
 508  209.5026
 509  366.2912
 510  349.1756
 511  354.1729
