# Input file       =  1178973071.099241_cleaned.dat
# Candidate        =  PSR_0332+5434
# Telescope        =  AR
# Epoch_topo       =  57889.521447907879
# Epoch_bary       =  N/A
# T_sample         =  0.002
# Data Folded      =  7340032
# Data Avg         =  0.0345789988845163
# Data StdDev      =  1.00073562688474 
# Profile Bins     =  512
# Profile Avg      =  495.722399522123 
# Profile StdDev   =  119.821115217317 
# Reduced chi-sqr  =  0.829
# Prob(Noise)      <  0.998   (~0.0 sigma)
# P_topo (ms)      =  714.532130915949  +/- 0.000822
# P'_topo (s/s)    =  -0                +/- 4.33e-10
# P''_topo (s/s^2) =  0                 +/- 1.91e-13
# P_bary (ms)      =  N/A
# P'_bary (s/s)    =  N/A
# P''_bary (s/s^2) =  N/A
# P_orb (s)        =  N/A
# asin(i)/c (s)    =  N/A
# eccentricity     =  N/A
# w (rad)          =  N/A
# T_peri           =  N/A
######################################################
   0  771.466
   1  756.7957
   2  643.1602
   3  588.9436
   4  484.6187
   5  536.7543
   6  613.1825
   7  574.5154
   8  470.0778
   9  445.97
  10  460.6521
  11  549.4776
  12  559.3212
  13  647.6535
  14  626.4042
  15  598.3725
  16  587.8715
  17  509.6187
  18  523.2943
  19  581.805
  20  476.9501
  21  365.2061
  22  473.434
  23  516.3084
  24  476.949
  25  525.3886
  26  493.302
  27  359.1831
  28  426.1762
  29  534.0489
  30  462.2498
  31  336.3467
  32  333.0654
  33  497.0944
  34  483.82
  35  513.0924
  36  568.8484
  37  540.9763
  38  430.9175
  39  423.5051
  40  428.5375
  41  504.1921
  42  437.3464
  43  385.5054
  44  322.7483
  45  448.709
  46  485.0414
  47  396.1244
  48  440.3745
  49  420.8967
  50  446.8028
  51  354.8356
  52  415.3007
  53  473.8531
  54  460.6793
  55  409.2856
  56  425.1593
  57  542.2472
  58  533.7228
  59  561.3578
  60  475.1069
  61  468.6243
  62  463.982
  63  393.5627
  64  507.4941
  65  457.9467
  66  513.9517
  67  490.2235
  68  407.8562
  69  381.4136
  70  287.5733
  71  374.5354
  72  408.7564
  73  434.5795
  74  455.8871
  75  596.2496
  76  597.6415
  77  451.9326
  78  434.2228
  79  561.6519
  80  533.6971
  81  577.6779
  82  610.978
  83  443.567
  84  273.876
  85  382.4395
  86  503.8473
  87  404.1385
  88  446.8484
  89  484.9837
  90  509.2492
  91  482.6697
  92  518.3873
  93  559.6987
  94  580.5742
  95  476.3074
  96  467.5712
  97  542.0433
  98  563.1421
  99  489.3947
 100  523.8067
 101  488.885
 102  440.4107
 103  399.2646
 104  509.0424
 105  608.3114
 106  643.4036
 107  677.024
 108  576.0062
 109  461.8941
 110  380.9175
 111  458.4198
 112  492.8867
 113  524.6843
 114  551.2281
 115  488.8904
 116  484.515
 117  477.0223
 118  495.4502
 119  439.6747
 120  505.794
 121  638.4189
 122  566.2071
 123  535.9515
 124  586.2666
 125  694.7367
 126  585.1404
 127  531.0424
 128  684.5213
 129  562.8771
 130  545.4256
 131  527.9637
 132  577.9508
 133  588.6367
 134  515.1649
 135  554.3895
 136  492.2163
 137  534.9465
 138  559.452
 139  498.3827
 140  590.7684
 141  485.6647
 142  519.7227
 143  533.1611
 144  490.2867
 145  411.1217
 146  437.0095
 147  450.8177
 148  490.0183
 149  512.6384
 150  570.3451
 151  492.4877
 152  309.9445
 153  506.7685
 154  602.6712
 155  555.2857
 156  522.8337
 157  495.4763
 158  465.2747
 159  441.4884
 160  534.1082
 161  517.8495
 162  583.6013
 163  665.1156
 164  470.3605
 165  421.8649
 166  382.4535
 167  485.0777
 168  525.0862
 169  450.4928
 170  419.5755
 171  521.5871
 172  372.6733
 173  436.0383
 174  525.3272
 175  502.8398
 176  484.0804
 177  491.6975
 178  465.0225
 179  404.1582
 180  398.8938
 181  541.3651
 182  549.7574
 183  498.7308
 184  399.3312
 185  429.6226
 186  483.025
 187  537.2358
 188  549.2524
 189  559.8491
 190  552.188
 191  522.8439
 192  512.3367
 193  487.0748
 194  465.6469
 195  452.0313
 196  434.1488
 197  374.7074
 198  436.1311
 199  451.6727
 200  440.6014
 201  477.3914
 202  369.0018
 203  461.6984
 204  511.4797
 205  476.2516
 206  482.0793
 207  548.3344
 208  462.1004
 209  460.6797
 210  550.6397
 211  456.8057
 212  414.2287
 213  486.0096
 214  527.9893
 215  598.0106
 216  461.711
 217  345.3957
 218  435.3494
 219  544.8431
 220  484.0029
 221  526.2072
 222  600.5535
 223  560.028
 224  574.0881
 225  585.3942
 226  496.0655
 227  387.2174
 228  517.4377
 229  515.9124
 230  478.1845
 231  490.1453
 232  523.0854
 233  550.1861
 234  507.8036
 235  470.0525
 236  466.5641
 237  500.2028
 238  569.8566
 239  626.2613
 240  560.8257
 241  445.5574
 242  432.1085
 243  595.9059
 244  537.2776
 245  468.5473
 246  631.9608
 247  597.6753
 248  523.3773
 249  576.4963
 250  503.0279
 251  467.4335
 252  607.9487
 253  569.7808
 254  625.4552
 255  587.9909
 256  585.3092
 257  518.9107
 258  597.1493
 259  473.6639
 260  428.3298
 261  476.0755
 262  546.3567
 263  494.0517
 264  625.6389
 265  633.3427
 266  555.4291
 267  494.4379
 268  409.5118
 269  389.9826
 270  447.4669
 271  458.3521
 272  481.5055
 273  440.4586
 274  502.4901
 275  417.8924
 276  339.6708
 277  385.2652
 278  411.0856
 279  400.226
 280  351.2831
 281  375.443
 282  402.7224
 283  422.8855
 284  462.0632
 285  400.5553
 286  322.119
 287  408.2495
 288  482.0066
 289  517.8217
 290  638.4684
 291  584.0239
 292  509.552
 293  517.587
 294  455.41
 295  519.6053
 296  534.0527
 297  509.1079
 298  577.3187
 299  609.5279
 300  376.8934
 301  317.7936
 302  458.324
 303  515.8823
 304  500.8675
 305  392.8239
 306  472.2911
 307  554.519
 308  675.1496
 309  579.0018
 310  459.4967
 311  554.416
 312  498.16
 313  463.0484
 314  496.3329
 315  507.526
 316  433.2756
 317  473.822
 318  646.3389
 319  590.6745
 320  512.091
 321  575.9329
 322  580.2443
 323  560.4595
 324  433.2324
 325  518.1201
 326  510.7764
 327  563.7936
 328  508.0253
 329  448.429
 330  426.7359
 331  348.474
 332  489.06
 333  582.1218
 334  607.8109
 335  627.2469
 336  489.2764
 337  559.9616
 338  535.0723
 339  616.7837
 340  698.0866
 341  563.5673
 342  506.649
 343  554.512
 344  567.5901
 345  590.8497
 346  529.7915
 347  581.8692
 348  575.3682
 349  557.4528
 350  516.3528
 351  513.157
 352  553.7891
 353  523.2145
 354  513.6244
 355  526.5528
 356  594.2724
 357  630.6083
 358  560.4063
 359  455.4231
 360  478.7555
 361  607.9926
 362  604.5264
 363  541.8148
 364  451.2592
 365  512.7866
 366  480.4047
 367  495.5404
 368  477.9027
 369  531.0423
 370  589.6005
 371  539.695
 372  564.2599
 373  538.8644
 374  478.6953
 375  508.7497
 376  622.1975
 377  548.3604
 378  481.4012
 379  526.723
 380  440.8551
 381  391.9451
 382  580.2464
 383  413.4744
 384  452.5417
 385  430.7158
 386  449.9708
 387  547.9761
 388  517.4052
 389  405.0967
 390  398.5536
 391  359.3242
 392  323.4255
 393  343.1439
 394  395.324
 395  429.5187
 396  396.0464
 397  371.667
 398  460.9292
 399  483.64
 400  497.4036
 401  477.4053
 402  278.9986
 403  350.1224
 404  443.7088
 405  485.8996
 406  356.8112
 407  350.9713
 408  478.6813
 409  508.1234
 410  543.7634
 411  585.5886
 412  544.5872
 413  401.5402
 414  407.0874
 415  381.8027
 416  487.5784
 417  546.3311
 418  570.848
 419  567.7047
 420  556.8119
 421  539.9499
 422  442.0455
 423  476.4299
 424  452.3674
 425  505.2228
 426  460.8457
 427  389.9665
 428  378.3533
 429  535.1151
 430  424.0313
 431  439.896
 432  511.3945
 433  442.4706
 434  432.1411
 435  404.7821
 436  454.937
 437  511.6382
 438  472.8315
 439  546.583
 440  600.1484
 441  489.3569
 442  493.7495
 443  485.4467
 444  446.9085
 445  532.3306
 446  480.0297
 447  476.0551
 448  510.7385
 449  533.7997
 450  424.9845
 451  451.0829
 452  596.4715
 453  646.7877
 454  537.6602
 455  404.9453
 456  461.1898
 457  420.9045
 458  337.6965
 459  436.0111
 460  491.7701
 461  502.8356
 462  437.3221
 463  427.695
 464  517.3115
 465  580.5629
 466  476.8094
 467  420.5996
 468  375.0401
 469  482.5289
 470  420.3977
 471  377.7337
 472  360.2289
 473  441.2788
 474  527.1255
 475  496.0002
 476  493.8708
 477  465.0769
 478  498.3049
 479  376.2099
 480  493.1584
 481  514.4214
 482  519.3902
 483  539.7269
 484  518.0935
 485  432.6315
 486  401.9198
 487  464.7838
 488  389.5907
 489  376.399
 490  384.6179
 491  475.0717
 492  408.8584
 493  349.8746
 494  452.2641
 495  559.3213
 496  442.9239
 497  474.8816
 498  516.5844
 499  541.1673
 500  669.6431
 501  558.2382
 502  519.749
 503  494.9463
 504  544.7815
 505  493.9754
 506  573.3167
 507  547.4066
 508  592.2397
 509  619.6515
 510  704.771
 511  868.5984
