# Input file       =  1178800781.100998_cleaned.dat
# Candidate        =  PSR_0332+5434
# Telescope        =  AR
# Epoch_topo       =  57887.527350705997
# Epoch_bary       =  N/A
# T_sample         =  0.002
# Data Folded      =  7340032
# Data Avg         =  0.016585535646067
# Data StdDev      =  1.00006195733943 
# Profile Bins     =  512
# Profile Avg      =  237.825758061506 
# Profile StdDev   =  119.740454717142 
# Reduced chi-sqr  =  1.152
# Prob(Noise)      <  0.0098   (~2.3 sigma)
# P_topo (ms)      =  714.534059926271  +/- 0.00023
# P'_topo (s/s)    =  -0                +/- 1.21e-10
# P''_topo (s/s^2) =  0                 +/- 5.35e-14
# P_bary (ms)      =  N/A
# P'_bary (s/s)    =  N/A
# P''_bary (s/s^2) =  N/A
# P_orb (s)        =  N/A
# asin(i)/c (s)    =  N/A
# eccentricity     =  N/A
# w (rad)          =  N/A
# T_peri           =  N/A
######################################################
   0  738.3713
   1  851.6
   2  749.8455
   3  537.2711
   4  290.9334
   5  181.8773
   6  314.989
   7  213.5077
   8  87.99857
   9  151.9591
  10  230.1355
  11  244.6129
  12  348.3104
  13  231.4053
  14  244.9544
  15  241.3865
  16  326.7192
  17  322.0821
  18  135.829
  19  131.1131
  20  175.3355
  21  187.0552
  22  351.0619
  23  272.7847
  24  268.9318
  25  247.9138
  26  247.2571
  27  266.9976
  28  275.7604
  29  210.0626
  30  173.092
  31  367.0449
  32  328.9504
  33  179.0115
  34  104.3251
  35  176.2837
  36  204.3276
  37  306.1592
  38  259.1722
  39  239.7712
  40  196.0429
  41  268.0364
  42  197.3901
  43  127.7563
  44  76.70988
  45  161.7185
  46  261.0854
  47  256.4449
  48  66.85394
  49  54.49294
  50  230.8615
  51  209.9915
  52  236.6982
  53  317.9565
  54  170.242
  55  241.4987
  56  189.6985
  57  85.29961
  58  289.8498
  59  190.8312
  60  246.4367
  61  278.7153
  62  244.7986
  63  312.3279
  64  86.99322
  65  120.9159
  66  236.7613
  67  265.0794
  68  192.5128
  69  286.312
  70  319.7477
  71  173.2371
  72  234.0499
  73  337.4294
  74  371.4129
  75  332.322
  76  331.3332
  77  411.6545
  78  343.9646
  79  249.7434
  80  294.3755
  81  286.5837
  82  282.3457
  83  258.0895
  84  228.3947
  85  213.8322
  86  213.7392
  87  251.5
  88  201.6872
  89  230.2358
  90  308.6705
  91  180.8365
  92  253.6979
  93  231.8397
  94  193.3103
  95  123.2177
  96  141.0747
  97  35.48931
  98  130.3822
  99  286.0549
 100  245.0768
 101  178.9518
 102  216.0452
 103  246.7543
 104  344.7592
 105  400.145
 106  339.9797
 107  228.2077
 108  204.1758
 109  227.2712
 110  89.71867
 111  163.5644
 112  226.8941
 113  261.359
 114  452.5776
 115  389.3806
 116  231.0455
 117  175.8984
 118  186.6469
 119  276.1907
 120  255.4747
 121  220.0441
 122  307.7644
 123  386.396
 124  336.6736
 125  156.3091
 126  291.62
 127  324.0945
 128  212.3316
 129  70.83093
 130  100.219
 131  226.9605
 132  133.0284
 133  186.1332
 134  250.5518
 135  191.8926
 136  86.11265
 137  104.5545
 138  221.1579
 139  329.2713
 140  393.4523
 141  266.1487
 142  260.4449
 143  386.2386
 144  367.9858
 145  372.0467
 146  365.5601
 147  227.6422
 148  252.8681
 149  224.5847
 150  215.5536
 151  306.1599
 152  298.4702
 153  203.0456
 154  214.1953
 155  177.4171
 156  137.1597
 157  205.9846
 158  325.9114
 159  335.3255
 160  304.3572
 161  133.7065
 162  266.5191
 163  184.0457
 164  247.2962
 165  266.3289
 166  223.7173
 167  219.6347
 168  180.5019
 169  240.568
 170  142.5033
 171  149.9179
 172  108.5227
 173  161.5004
 174  223.2621
 175  152.9254
 176  255.3846
 177  279.2356
 178  354.3954
 179  199.1281
 180  281.2053
 181  302.5399
 182  256.4272
 183  255.4119
 184  238.6238
 185  214.2086
 186  307.8172
 187  489.1179
 188  332.3854
 189  110.8267
 190  5.362391
 191  168.002
 192  210.3291
 193  186.0187
 194  172.5206
 195  161.219
 196  14.91992
 197  177.2184
 198  200.797
 199  224.7732
 200  196.8385
 201  117.138
 202  240.3451
 203  239.6254
 204  185.9109
 205  263.1987
 206  142.7056
 207  33.67517
 208  127.3891
 209  168.098
 210  112.6091
 211  105.0868
 212  149.9106
 213  156.8081
 214  130.2818
 215  139.8212
 216  113.4372
 217  87.42117
 218  207.7642
 219  156.5977
 220  113.5711
 221  186.3544
 222  287.4823
 223  304.9872
 224  273.3713
 225  206.1875
 226  118.4033
 227  138.1471
 228  186.7144
 229  184.7117
 230  239.2071
 231  358.1465
 232  190.1068
 233  279.2686
 234  287.9123
 235  295.9183
 236  226.4333
 237  255.3797
 238  370.4596
 239  331.4389
 240  310.1639
 241  301.0062
 242  186.1179
 243  327.6367
 244  393.9778
 245  373.4525
 246  362.9105
 247  204.9767
 248  173.4111
 249  198.8523
 250  106.3856
 251  245.1207
 252  208.1098
 253  302.7902
 254  329.4086
 255  279.0763
 256  271.9298
 257  239.8802
 258  392.1879
 259  472.3
 260  353.5319
 261  340.7472
 262  421.1389
 263  350.4607
 264  237.5473
 265  295.3932
 266  361.7723
 267  336.6787
 268  254.9173
 269  227.9836
 270  304.8529
 271  336.4019
 272  293.4857
 273  160.6271
 274  182.5857
 275  277.8034
 276  331.6188
 277  278.0005
 278  224.5387
 279  286.5357
 280  286.5221
 281  158.5371
 282  301.9169
 283  307.774
 284  298.5989
 285  301.7477
 286  265.1426
 287  247.2969
 288  213.6177
 289  305.5591
 290  250.6158
 291  302.4297
 292  299.881
 293  268.5778
 294  239.717
 295  290.7886
 296  188.6585
 297  220.3178
 298  355.009
 299  317.8795
 300  270.5586
 301  205.0403
 302  274.7932
 303  279.6032
 304  323.1012
 305  269.1877
 306  120.905
 307  279.3563
 308  245.3822
 309  229.0547
 310  177.6954
 311  224.4154
 312  253.527
 313  264.418
 314  337.7741
 315  359.6523
 316  393.6722
 317  242.511
 318  128.8984
 319  245.3136
 320  325.512
 321  180.6223
 322  197.365
 323  190.4966
 324  116.2272
 325  267.6299
 326  324.7086
 327  305.8491
 328  295.4625
 329  311.1244
 330  222.8868
 331  216.1723
 332  215.0819
 333  297.868
 334  269.6942
 335  268.2541
 336  310.4376
 337  258.7849
 338  310.1392
 339  313.4441
 340  303.8169
 341  362.5754
 342  319.154
 343  363.2899
 344  292.2929
 345  208.8162
 346  163.8391
 347  240.2374
 348  391.4333
 349  254.6573
 350  349.2113
 351  292.3197
 352  317.3351
 353  284.7362
 354  263.6875
 355  254.2467
 356  305.7598
 357  233.6917
 358  226.5547
 359  287.1632
 360  218.8905
 361  130.8463
 362  154.1416
 363  253.8922
 364  196.8566
 365  132.8553
 366  136.178
 367  175.1069
 368  156.1502
 369  276.4225
 370  209.9205
 371  226.9768
 372  249.834
 373  82.19807
 374  227.4766
 375  331.7193
 376  322.7815
 377  364.4749
 378  252.9048
 379  104.8859
 380  115.9327
 381  170.8275
 382  195.2172
 383  283.912
 384  202.8943
 385  100.7246
 386  52.44846
 387  297.0126
 388  211.1519
 389  197.4811
 390  178.5699
 391  314.1043
 392  195.497
 393  162.0993
 394  180.8112
 395  155.8698
 396  261.3251
 397  282.0675
 398  301.6216
 399  323.5986
 400  269.6047
 401  356.2053
 402  109.3107
 403  177.8894
 404  247.0509
 405  321.1651
 406  287.9208
 407  287.7081
 408  276.7345
 409  260.6654
 410  209.4852
 411  309.6413
 412  195.2891
 413  183.9928
 414  134.6293
 415  145.0322
 416  101.0446
 417  246.438
 418  268.1146
 419  242.5312
 420  255.6644
 421  249.4068
 422  132.4861
 423  104.4172
 424  180.8986
 425  126.8017
 426  58.39466
 427  -5.013992
 428  64.6082
 429  129.5387
 430  157.9787
 431  343.2913
 432  372.485
 433  251.3238
 434  259.6822
 435  224.667
 436  264.4167
 437  184.9541
 438  196.863
 439  278.1018
 440  144.2357
 441  282.0274
 442  298.2334
 443  282.5469
 444  271.4435
 445  224.1992
 446  198.5963
 447  185.2237
 448  186.0108
 449  248.695
 450  271.1511
 451  290.2842
 452  316.5144
 453  146.9647
 454  147.1357
 455  83.47187
 456  128.7226
 457  154.1346
 458  122.2914
 459  168.883
 460  75.00202
 461  87.1991
 462  160.8498
 463  213.932
 464  203.2776
 465  103.0267
 466  40.31852
 467  111.6918
 468  101.4135
 469  178.6139
 470  212.1827
 471  213.3317
 472  252.2251
 473  245.5888
 474  136.6242
 475  154.1199
 476  161.4633
 477  112.4755
 478  186.6461
 479  75.60021
 480  105.7898
 481  311.2447
 482  223.6556
 483  200.7794
 484  149.0424
 485  198.36
 486  238.6035
 487  264.1313
 488  272.9986
 489  299.2151
 490  246.2129
 491  164.7957
 492  166.8976
 493  152.5089
 494  214.1674
 495  302.2635
 496  335.5257
 497  304.1063
 498  237.3454
 499  197.8508
 500  255.595
 501  179.7424
 502  276.4832
 503  333.9904
 504  156.0115
 505  227.007
 506  294.9596
 507  379.2039
 508  339.7664
 509  330.7368
 510  368.6473
 511  528.3006
