# Input file       =  1178872053.113042_cleaned.dat
# Candidate        =  PSR_0332+5434
# Telescope        =  AR
# Epoch_topo       =  57888.352258252802
# Epoch_bary       =  N/A
# T_sample         =  0.002
# Data Folded      =  7340032
# Data Avg         =  0.0223395321179353
# Data StdDev      =  1.00006591130752 
# Profile Bins     =  512
# Profile Avg      =  320.262025006964 
# Profile StdDev   =  119.740928137747 
# Reduced chi-sqr  =  1.665
# Prob(Noise)      <  2.32e-19   (~8.9 sigma)
# P_topo (ms)      =  714.532931015933  +/- 0.000198
# P'_topo (s/s)    =  -0                +/- 1.04e-10
# P''_topo (s/s^2) =  0                 +/- 4.6e-14
# P_bary (ms)      =  N/A
# P'_bary (s/s)    =  N/A
# P''_bary (s/s^2) =  N/A
# P_orb (s)        =  N/A
# asin(i)/c (s)    =  N/A
# eccentricity     =  N/A
# w (rad)          =  N/A
# T_peri           =  N/A
######################################################
   0  1012.096
   1  993.2979
   2  978.5118
   3  711.4384
   4  487.898
   5  440.0528
   6  501.1302
   7  401.0455
   8  307.1648
   9  333.3246
  10  474.0434
  11  492.3039
  12  456.1552
  13  296.3123
  14  391.6428
  15  488.0513
  16  452.6098
  17  351.5725
  18  241.9823
  19  401.3777
  20  341.7588
  21  325.1129
  22  319.9037
  23  273.9203
  24  335.2599
  25  374.1486
  26  418.8091
  27  446.343
  28  479.1332
  29  423.0279
  30  374.7856
  31  195.6469
  32  148.3875
  33  277.658
  34  360.1819
  35  441.4988
  36  326.7541
  37  389.7399
  38  444.2599
  39  412.0834
  40  348.1794
  41  362.075
  42  225.1796
  43  268.5011
  44  272.0118
  45  256.5822
  46  261.231
  47  196.2662
  48  263.389
  49  308.6411
  50  441.1446
  51  332.3908
  52  303.7425
  53  408.7315
  54  318.1956
  55  260.3463
  56  206.0939
  57  207.4179
  58  214.6515
  59  204.4351
  60  239.983
  61  234.9663
  62  366.2979
  63  412.8181
  64  413.0232
  65  462.0242
  66  453.6992
  67  496.5735
  68  427.6566
  69  331.7021
  70  470.6989
  71  545.5825
  72  328.9046
  73  186.6422
  74  144.447
  75  255.3726
  76  373.1437
  77  398.6988
  78  344.3946
  79  326.9957
  80  294.4026
  81  343.4973
  82  339.998
  83  333.6797
  84  428.8097
  85  387.5175
  86  481.9133
  87  575.1841
  88  420.8285
  89  348.7823
  90  414.8065
  91  296.8601
  92  276.8084
  93  418.5208
  94  584.3769
  95  526.2969
  96  378.6147
  97  337.2312
  98  288.0599
  99  343.2515
 100  370.5138
 101  238.9565
 102  247.1821
 103  390.9919
 104  373.0844
 105  410.9437
 106  249.8758
 107  302.8715
 108  270.8058
 109  287.8973
 110  352.9319
 111  303.9295
 112  365.0974
 113  353.1193
 114  316.0049
 115  293.9336
 116  212.3552
 117  333.438
 118  402.9786
 119  400.2128
 120  389.6007
 121  237.2589
 122  296.4706
 123  356.7233
 124  256.7035
 125  275.1799
 126  247.3079
 127  269.9322
 128  411.9304
 129  433.4916
 130  279.4922
 131  406.7469
 132  326.7566
 133  294.7922
 134  329.817
 135  372.5253
 136  335.1338
 137  365.5625
 138  265.5916
 139  370.277
 140  437.4219
 141  388.5469
 142  297.7672
 143  310.6544
 144  313.2562
 145  276.8201
 146  258.8248
 147  424.1253
 148  394.9547
 149  166.9023
 150  271.4536
 151  453.7325
 152  477.0809
 153  559.7426
 154  427.8367
 155  305.2298
 156  296.8275
 157  259.9904
 158  315.1956
 159  265.2126
 160  120.4814
 161  153.3507
 162  259.0902
 163  244.3516
 164  219.7891
 165  157.0186
 166  351.2242
 167  245.656
 168  217.9272
 169  313.1868
 170  380.4898
 171  370.1848
 172  377.2894
 173  329.4663
 174  360.8945
 175  420.7899
 176  314.7886
 177  341.959
 178  262.2956
 179  267.9841
 180  201.6747
 181  282.8222
 182  348.291
 183  217.388
 184  213.0803
 185  295.5345
 186  312.9365
 187  290.219
 188  196.9247
 189  258.5885
 190  400.77
 191  408.5662
 192  293.6707
 193  219.1037
 194  277.1712
 195  237.0354
 196  283.4401
 197  325.2733
 198  290.7002
 199  206.7952
 200  193.5588
 201  194.7912
 202  106.3504
 203  109.6422
 204  312.8699
 205  248.8756
 206  242.959
 207  278.5392
 208  339.8318
 209  268.7784
 210  247.5579
 211  248.9145
 212  365.8549
 213  272.0995
 214  303.6579
 215  276.674
 216  269.6567
 217  311.9871
 218  190.4373
 219  178.8627
 220  225.0418
 221  131.5833
 222  147.4618
 223  240.4392
 224  172.9039
 225  263.336
 226  285.2961
 227  347.7587
 228  293.7892
 229  217.8293
 230  333.7695
 231  375.891
 232  379.9468
 233  301.8399
 234  83.37025
 235  80.70309
 236  204.0516
 237  215.0928
 238  277.1551
 239  219.5614
 240  121.0309
 241  209.6636
 242  203.9517
 243  211.4908
 244  280.4461
 245  222.2698
 246  168.3687
 247  258.3551
 248  231.0511
 249  147.1217
 250  166.183
 251  252.1089
 252  388.6065
 253  316.0868
 254  278.9854
 255  291.6027
 256  256.98
 257  254.2628
 258  292.6989
 259  330.0719
 260  301.8008
 261  295.7408
 262  391.6326
 263  442.64
 264  359.8694
 265  320.4809
 266  350.0908
 267  346.4861
 268  340.2148
 269  318.3615
 270  317.5801
 271  341.0626
 272  200.2424
 273  206.8917
 274  266.7661
 275  303.9109
 276  265.7967
 277  295.3642
 278  353.7406
 279  258.0707
 280  361.4289
 281  493.4135
 282  403.1287
 283  337.8008
 284  244.6657
 285  323.3206
 286  421.908
 287  400.7776
 288  308.8397
 289  283.9797
 290  367.7975
 291  368.9005
 292  290.3253
 293  147.4301
 294  165.8626
 295  166.7584
 296  240.3633
 297  357.42
 298  377.9472
 299  380.6406
 300  187.4836
 301  190.7468
 302  277.4032
 303  310.3608
 304  433.5733
 305  407.471
 306  404.1889
 307  261.0134
 308  192.188
 309  131.8988
 310  270.2362
 311  375.2336
 312  315.0965
 313  270.291
 314  381.7769
 315  367.8093
 316  296.7497
 317  303.8693
 318  264.8329
 319  248.8449
 320  277.1644
 321  330.7513
 322  317.0666
 323  221.1325
 324  68.12064
 325  279.6701
 326  333.8686
 327  321.1747
 328  279.6733
 329  222.2108
 330  292.2298
 331  425.098
 332  368.3932
 333  342.1447
 334  304.3988
 335  231.755
 336  324.7792
 337  311.0951
 338  305.135
 339  292.2068
 340  290.4432
 341  352.7617
 342  218.6449
 343  239.2979
 344  249.1496
 345  379.4772
 346  352.9063
 347  312.7029
 348  253.2246
 349  206.8313
 350  164.6486
 351  121.1193
 352  127.7035
 353  175.6348
 354  357.2676
 355  288.0934
 356  167.9495
 357  201.1067
 358  105.1996
 359  58.68111
 360  148.0723
 361  312.3714
 362  261.1417
 363  182.8058
 364  257.5788
 365  274.381
 366  248.8667
 367  253.8537
 368  184.0841
 369  212.8869
 370  126.1856
 371  201.3502
 372  206.5102
 373  321.914
 374  352.7023
 375  167.2534
 376  291.6158
 377  305.0657
 378  192.3987
 379  322.2729
 380  225.6389
 381  166.0372
 382  199.4421
 383  271.0752
 384  350.2804
 385  276.3833
 386  261.648
 387  160.6342
 388  242.988
 389  176.6229
 390  138.5565
 391  146.5958
 392  369.7108
 393  353.1255
 394  249.8031
 395  337.8761
 396  370.4052
 397  347.8832
 398  340.4013
 399  295.4973
 400  384.0684
 401  361.663
 402  356.0702
 403  507.0913
 404  375.8563
 405  169.0695
 406  180.7854
 407  257.333
 408  309.5068
 409  210.6538
 410  313.5918
 411  369.4549
 412  268.8533
 413  361.9739
 414  340.8362
 415  267.7791
 416  233.7537
 417  331.2971
 418  315.6329
 419  382.9232
 420  377.4449
 421  310.673
 422  286.5078
 423  234.011
 424  392.3947
 425  466.3133
 426  494.826
 427  358.299
 428  310.3087
 429  282.1642
 430  315.3912
 431  414.7513
 432  390.4755
 433  276.0439
 434  347.9386
 435  348.5038
 436  293.3465
 437  295.5788
 438  420.6363
 439  288.7772
 440  273.3607
 441  302.0694
 442  411.2957
 443  400.788
 444  263.8393
 445  179.0054
 446  271.02
 447  378.7137
 448  278.7108
 449  227.8475
 450  352.4089
 451  339.3808
 452  502.9277
 453  579.7801
 454  472.5432
 455  461.608
 456  545.2177
 457  419.5317
 458  478.335
 459  368.557
 460  376.7263
 461  365.3208
 462  431.9106
 463  265.4487
 464  254.2589
 465  321.5849
 466  485.7747
 467  457.2594
 468  454.9893
 469  383.0469
 470  356.1896
 471  379.2071
 472  276.2395
 473  354.2942
 474  340.0526
 475  319.0097
 476  376.3658
 477  464.5634
 478  382.42
 479  342.4109
 480  328.7516
 481  387.6934
 482  342.4122
 483  292.3988
 484  324.9119
 485  432.5769
 486  339.5197
 487  412.7588
 488  331.1631
 489  336.3305
 490  194.0174
 491  234.683
 492  341.5738
 493  285.807
 494  323.981
 495  379.3818
 496  258.4686
 497  310.9269
 498  388.3181
 499  386.8608
 500  411.7914
 501  382.4708
 502  431.1843
 503  370.3472
 504  445.9099
 505  457.981
 506  452.4691
 507  515.9866
 508  513.6779
 509  549.7773
 510  798.9669
 511  908.1675
