# Input file       =  1178800781.100998_cleaned.dat
# Candidate        =  PSR_0332+5434
# Telescope        =  AR
# Epoch_topo       =  57887.527350705997
# Epoch_bary       =  N/A
# T_sample         =  0.002
# Data Folded      =  7340032
# Data Avg         =  0.016585535646067
# Data StdDev      =  1.00006195733943 
# Profile Bins     =  512
# Profile Avg      =  237.825761649921 
# Profile StdDev   =  119.740454717142 
# Reduced chi-sqr  =  1.158
# Prob(Noise)      <  0.00752   (~2.4 sigma)
# P_topo (ms)      =  714.534061115848  +/- 0.000222
# P'_topo (s/s)    =  -0                +/- 1.17e-10
# P''_topo (s/s^2) =  0                 +/- 5.18e-14
# P_bary (ms)      =  N/A
# P'_bary (s/s)    =  N/A
# P''_bary (s/s^2) =  N/A
# P_orb (s)        =  N/A
# asin(i)/c (s)    =  N/A
# eccentricity     =  N/A
# w (rad)          =  N/A
# T_peri           =  N/A
######################################################
   0  172.8197
   1  291.5311
   2  185.7498
   3  253.7573
   4  194.3898
   5  85.45389
   6  299.3918
   7  313.6191
   8  339.4723
   9  343.1045
  10  210.3059
  11  90.00992
  12  143.6297
  13  160.6511
  14  235.7619
  15  264.6787
  16  183.0518
  17  67.14964
  18  103.4647
  19  320.5939
  20  177.7556
  21  195.9095
  22  216.2665
  23  303.6799
  24  160.2296
  25  174.4669
  26  165.1285
  27  180.6163
  28  291.8409
  29  262.3816
  30  325.0648
  31  294.6036
  32  314.9712
  33  308.9126
  34  86.85872
  35  210.114
  36  258.2476
  37  332.5371
  38  271.4529
  39  285.4122
  40  276.7633
  41  230.8914
  42  257.5261
  43  268.8635
  44  202.7567
  45  162.2145
  46  154.397
  47  103.9317
  48  127.7712
  49  279.0858
  50  259.7882
  51  243.2052
  52  267.6574
  53  215.6617
  54  106.7808
  55  124.6486
  56  181.4655
  57  100.2676
  58  39.81568
  59  0.6775455
  60  97.38048
  61  123.8381
  62  205.024
  63  370.7458
  64  344.5189
  65  247.6728
  66  255.4687
  67  223.6975
  68  265.5806
  69  170.1481
  70  219.4878
  71  261.5584
  72  132.6906
  73  326.1785
  74  266.0031
  75  298.6447
  76  250.697
  77  226.2862
  78  190.0444
  79  186.1235
  80  211.1451
  81  252.4503
  82  264.2288
  83  308.248
  84  286.8812
  85  118.6014
  86  150.9057
  87  74.65646
  88  149.7869
  89  137.606
  90  128.6853
  91  155.5051
  92  70.18772
  93  104.7895
  94  188.0089
  95  198.3267
  96  200.3357
  97  45.6326
  98  88.58032
  99  94.81442
 100  119.5275
 101  196.2178
 102  206.5896
 103  238.9845
 104  242.6898
 105  236.0796
 106  90.40309
 107  201.5969
 108  123.3217
 109  150.2502
 110  161.9645
 111  56.97662
 112  156.3232
 113  317.6633
 114  200.1381
 115  201.8498
 116  141.4385
 117  229.9063
 118  226.2832
 119  278.4764
 120  268.5412
 121  309.4876
 122  211.4472
 123  168.9476
 124  152.6317
 125  172.3985
 126  234.6901
 127  326.9548
 128  320.0422
 129  299.8863
 130  206.7344
 131  221.1792
 132  247.183
 133  167.501
 134  330.8197
 135  274.8959
 136  170.0289
 137  249.5408
 138  318.3338
 139  368.5818
 140  334.3086
 141  334.0798
 142  390.0096
 143  584.9746
 144  786.5961
 145  840.8981
 146  705.6149
 147  461.1196
 148  238.4621
 149  214.5204
 150  323.3151
 151  159.7334
 152  93.96362
 153  180.3708
 154  218.5384
 155  286.1648
 156  325.7199
 157  227.4423
 158  246.2576
 159  251.5724
 160  354.8256
 161  268.1996
 162  114.9325
 163  154.4926
 164  166.5347
 165  230.8163
 166  350.0015
 167  255.6143
 168  268.5524
 169  241.4842
 170  256.5533
 171  261.5371
 172  287.7032
 173  164.5197
 174  226.2139
 175  382.995
 176  294.4419
 177  138.7714
 178  112.5811
 179  190.0677
 180  221.949
 181  330.2885
 182  236.3702
 183  247.6911
 184  186.2257
 185  276.5043
 186  162.953
 187  117.7586
 188  81.14664
 189  190.2434
 190  281.5819
 191  200.0193
 192  41.60233
 193  90.91725
 194  259.0535
 195  190.623
 196  290.9438
 197  270.7653
 198  159.0358
 199  267.3756
 200  132.0644
 201  153.0056
 202  279.2135
 203  171.8763
 204  279.4153
 205  252.6051
 206  287.0349
 207  246.0978
 208  65.78883
 209  160.6275
 210  266.2405
 211  244.9804
 212  197.0208
 213  323.1012
 214  278.3887
 215  167.096
 216  266.4192
 217  369.6831
 218  347.3384
 219  324.6833
 220  342.3886
 221  424.329
 222  300.5167
 223  269.2625
 224  296.2459
 225  275.1463
 226  279.9831
 227  248.3487
 228  215.0674
 229  222.7188
 230  207.5023
 231  270.7711
 232  170.9376
 233  283.9423
 234  263.9518
 235  184.412
 236  256.4405
 237  239.1448
 238  172.5853
 239  118.0544
 240  124.092
 241  6.196779
 242  204.7674
 243  287.7593
 244  228.6563
 245  176.27
 246  234.2765
 247  259.1089
 248  387.6982
 249  373.7606
 250  325.2002
 251  198.5686
 252  224.2944
 253  193.5779
 254  89.1091
 255  197.476
 256  215.2162
 257  311.4185
 258  458.8894
 259  354.7634
 260  202.0401
 261  180.3571
 262  199.4157
 263  284.6018
 264  237.7493
 265  229.9328
 266  336.1822
 267  399.2737
 268  266.5711
 269  179.7726
 270  313.5762
 271  315.327
 272  153.5082
 273  59.07326
 274  138.33
 275  220.5891
 276  138.7072
 277  217.947
 278  238.0202
 279  170.8575
 280  58.01631
 281  142.7019
 282  244.8602
 283  362.916
 284  376.4697
 285  235.046
 286  288.2985
 287  395.5521
 288  365.8849
 289  383.1788
 290  332.9441
 291  214.8358
 292  261.3666
 293  203.2211
 294  237.6893
 295  324.0059
 296  266.7632
 297  197.4479
 298  226.2977
 299  149.1848
 300  150.965
 301  231.8063
 302  340.9147
 303  343.2256
 304  233.0102
 305  164.3328
 306  260.5671
 307  187.5206
 308  284.1369
 309  234.927
 310  227.6033
 311  200.7346
 312  195.9883
 313  246.2187
 314  108.4837
 315  166.3911
 316  77.39713
 317  212.8581
 318  190.3392
 319  181.519
 320  258.8274
 321  315.9094
 322  321.6552
 323  183.3508
 324  313.0886
 325  281.7736
 326  240.2588
 327  271.3705
 328  221.1288
 329  220.4188
 330  371.9141
 331  494.2535
 332  259.144
 333  59.76354
 334  28.6366
 335  205.249
 336  197.8682
 337  179.7858
 338  190.9034
 339  105.1437
 340  36.06066
 341  207.5726
 342  198.3673
 343  238.7699
 344  156.0413
 345  134.4722
 346  261.0381
 347  209.8934
 348  217.8318
 349  241.7166
 350  114.1611
 351  33.26269
 352  157.7258
 353  151.5966
 354  110.2344
 355  99.10363
 356  168.1246
 357  143.6036
 358  136.9517
 359  140.7209
 360  91.79975
 361  121.7632
 362  204.3255
 363  132.2588
 364  134.9378
 365  211.1996
 366  307.3153
 367  299.3672
 368  254.5081
 369  196.6843
 370  95.34804
 371  171.6837
 372  173.3183
 373  189.6139
 374  273.0143
 375  342.2545
 376  176.3392
 377  302.3297
 378  281.4183
 379  284.4262
 380  223.5698
 381  288.0198
 382  374.8937
 383  309.7703
 384  328.9656
 385  263.2365
 386  207.267
 387  359.9832
 388  377.3315
 389  390.288
 390  318.5842
 391  184.2847
 392  188.7948
 393  171.7687
 394  128.9401
 395  257.0341
 396  211.3021
 397  324.4622
 398  309.5789
 399  274.7545
 400  280.3298
 401  246.104
 402  454.481
 403  434.5795
 404  339.5422
 405  366.3135
 406  405.2556
 407  327.547
 408  205.5264
 409  343.1184
 410  358.1262
 411  317.9718
 412  242.9343
 413  232.4605
 414  336.1133
 415  321.4824
 416  268.1241
 417  136.1242
 418  207.0051
 419  310.5959
 420  318.8776
 421  270.5933
 422  221.1026
 423  313.5348
 424  249.4714
 425  166.7084
 426  326.1142
 427  292.6424
 428  318.498
 429  282.5345
 430  272.2904
 431  226.0847
 432  235.6469
 433  293.3896
 434  244.974
 435  312.545
 436  295.1044
 437  259.9865
 438  254.6782
 439  271.8194
 440  175.5869
 441  258.4241
 442  375.1281
 443  269.5732
 444  267.9786
 445  201.188
 446  310.3159
 447  261.2055
 448  352.0434
 449  205.717
 450  152.7024
 451  285.5165
 452  239.8644
 453  208.6934
 454  193.9202
 455  228.4149
 456  254.112
 457  278.8602
 458  350.858
 459  389.7673
 460  362.2746
 461  188.9606
 462  122.1435
 463  314.5511
 464  282.739
 465  165.5347
 466  216.0623
 467  144.5071
 468  159.1073
 469  306.1936
 470  327.5419
 471  293.7782
 472  292.5734
 473  292.2548
 474  214.2393
 475  219.7185
 476  224.4456
 477  313.6636
 478  245.9727
 479  301.7222
 480  292.7512
 481  268.2384
 482  311.1432
 483  312.1331
 484  314.7667
 485  352.3811
 486  322.9669
 487  372.0342
 488  259.8036
 489  197.8204
 490  148.2522
 491  304.7058
 492  356.985
 493  264.8917
 494  361.1754
 495  277.93
 496  330.551
 497  265.5768
 498  255.1953
 499  281.0422
 500  283.7246
 501  224.324
 502  230.2386
 503  294.7679
 504  184.6266
 505  133.3817
 506  177.4331
 507  258.7124
 508  164.6697
 509  141.0045
 510  133.2429
 511  180.2981
