# Input file       =  1178785873.103783_cleaned.dat
# Candidate        =  PSR_0332+5434
# Telescope        =  AR
# Epoch_topo       =  57887.354804441929
# Epoch_bary       =  N/A
# T_sample         =  0.002
# Data Folded      =  7340032
# Data Avg         =  0.0294190555147868
# Data StdDev      =  1.00001634239354 
# Profile Bins     =  512
# Profile Avg      =  421.892546371588 
# Profile StdDev   =  119.734993101166 
# Reduced chi-sqr  =  1.246
# Prob(Noise)      <  0.000119   (~3.7 sigma)
# P_topo (ms)      =  714.533894389612  +/- 0.000253
# P'_topo (s/s)    =  -0                +/- 1.33e-10
# P''_topo (s/s^2) =  0                 +/- 5.89e-14
# P_bary (ms)      =  N/A
# P'_bary (s/s)    =  N/A
# P''_bary (s/s^2) =  N/A
# P_orb (s)        =  N/A
# asin(i)/c (s)    =  N/A
# eccentricity     =  N/A
# w (rad)          =  N/A
# T_peri           =  N/A
######################################################
   0  371.0314
   1  329.2095
   2  429.0012
   3  559.2108
   4  481.4028
   5  520.651
   6  385.2537
   7  430.7596
   8  448.8838
   9  531.2125
  10  422.4966
  11  448.9375
  12  480.3472
  13  491.0674
  14  494.3183
  15  493.8076
  16  489.3136
  17  438.1337
  18  462.499
  19  400.9387
  20  372.3271
  21  339.425
  22  410.9965
  23  376.1577
  24  390.7169
  25  493.5131
  26  501.639
  27  610.9572
  28  481.8173
  29  567.1288
  30  518.631
  31  570.4318
  32  455.5178
  33  391.8719
  34  461.4449
  35  443.5863
  36  454.5169
  37  416.5374
  38  401.5819
  39  508.7047
  40  436.2663
  41  497.7772
  42  542.2674
  43  397.7339
  44  437.4553
  45  454.1743
  46  419.3052
  47  393.3608
  48  379.8503
  49  445.007
  50  344.4449
  51  348.9395
  52  368.4024
  53  373.9829
  54  410.8504
  55  406.5239
  56  446.946
  57  581.7766
  58  555.738
  59  502.8767
  60  395.3661
  61  441.7332
  62  515.7193
  63  475.2317
  64  477.0445
  65  403.3333
  66  513.2178
  67  539.5196
  68  501.8415
  69  442.4812
  70  480.8935
  71  431.2058
  72  394.9451
  73  376.3386
  74  453.4749
  75  465.7382
  76  522.7704
  77  507.8666
  78  481.2817
  79  495.2036
  80  466.6094
  81  524.2332
  82  495.3636
  83  407.0999
  84  303.2658
  85  295.4548
  86  334.2649
  87  353.5168
  88  273.0161
  89  363.0476
  90  479.3727
  91  372.9354
  92  443.9327
  93  589.9736
  94  564.7334
  95  518.1642
  96  383.9594
  97  495.7455
  98  516.3765
  99  482.694
 100  508.4761
 101  453.8807
 102  537.9926
 103  541.9323
 104  485.6682
 105  396.0089
 106  349.9535
 107  529.1303
 108  599.8143
 109  587.0959
 110  516.8484
 111  501.2621
 112  593.2555
 113  729.7981
 114  895.6674
 115  1124.473
 116  1066.285
 117  927.4381
 118  748.2691
 119  570.2415
 120  543.3033
 121  426.8834
 122  421.9053
 123  438.7909
 124  429.9084
 125  388.4945
 126  402.6889
 127  531.9595
 128  496.6413
 129  384.5331
 130  359.4896
 131  338.7921
 132  504.8313
 133  535.4208
 134  500.5393
 135  412.6861
 136  353.8641
 137  280.5339
 138  246.5268
 139  318.9627
 140  334.6321
 141  306.8541
 142  376.073
 143  523.9255
 144  475.8291
 145  263.7958
 146  295.0529
 147  388.0031
 148  361.642
 149  373.5453
 150  375.3495
 151  376.6469
 152  324.1135
 153  427.9411
 154  315.8744
 155  359.0526
 156  297.7323
 157  448.9476
 158  479.7917
 159  340.2412
 160  384.7448
 161  421.0024
 162  312.9435
 163  309.1707
 164  418.9183
 165  340.1245
 166  344.83
 167  426.7714
 168  412.2832
 169  340.4836
 170  399.435
 171  338.7131
 172  409.3402
 173  339.841
 174  288.6562
 175  353.4977
 176  449.3889
 177  459.3666
 178  399.075
 179  360.8293
 180  414.8068
 181  400.9809
 182  450.8036
 183  404.4126
 184  269.6935
 185  291.4492
 186  327.3472
 187  370.5542
 188  356.3031
 189  434.9095
 190  398.322
 191  314.286
 192  396.3508
 193  484.4058
 194  480.4225
 195  285.0362
 196  357.5771
 197  473.7568
 198  429.4805
 199  461.6028
 200  496.6797
 201  411.4493
 202  295.0374
 203  410.0402
 204  473.818
 205  452.548
 206  517.8569
 207  473.7664
 208  355.5624
 209  428.1499
 210  451.6854
 211  463.1934
 212  437.4319
 213  334.2035
 214  484.5974
 215  533.0075
 216  478.0069
 217  497.2906
 218  491.7883
 219  507.8196
 220  404.9749
 221  370.3029
 222  453.7384
 223  480.5706
 224  401.2381
 225  426.8179
 226  404.776
 227  392.7914
 228  426.1234
 229  367.6413
 230  425.9348
 231  505.8472
 232  424.7494
 233  451.3583
 234  503.1813
 235  431.3669
 236  409.5435
 237  439.1683
 238  488.6919
 239  520.7487
 240  477.8542
 241  435.4942
 242  440.1977
 243  394.0979
 244  373.1156
 245  378.5158
 246  308.6537
 247  370.5779
 248  464.7905
 249  468.9661
 250  472.2898
 251  499.5454
 252  498.1503
 253  457.3435
 254  392.8817
 255  463.9407
 256  404.6353
 257  339.8045
 258  314.1791
 259  398.303
 260  368.6247
 261  380.0043
 262  381.7591
 263  376.8006
 264  500.8042
 265  501.9532
 266  325.568
 267  396.953
 268  453.0139
 269  448.7592
 270  380.7521
 271  584.4612
 272  568.1121
 273  561.9993
 274  501.8467
 275  401.4265
 276  379.7595
 277  362.473
 278  427.1228
 279  462.9586
 280  386.7092
 281  380.9388
 282  508.4948
 283  427.5371
 284  405.1402
 285  499.9225
 286  385.7398
 287  370.4886
 288  352.042
 289  325.8099
 290  366.7678
 291  363.1457
 292  318.7021
 293  248.5431
 294  385.2762
 295  418.9172
 296  422.6234
 297  481.0138
 298  427.714
 299  318.644
 300  285.5155
 301  258.0435
 302  290.3275
 303  359.3667
 304  389.7897
 305  297.0981
 306  236.145
 307  371.6583
 308  463.6933
 309  344.9227
 310  305.4391
 311  371.0544
 312  502.1214
 313  551.2502
 314  457.6781
 315  355.0143
 316  326.6474
 317  383.9602
 318  389.2187
 319  425.7848
 320  431.6002
 321  393.8859
 322  526.0697
 323  518.6447
 324  601.0776
 325  492.2438
 326  398.6991
 327  512.7927
 328  453.8207
 329  458.5916
 330  493.4692
 331  498.5442
 332  430.5758
 333  399.6299
 334  354.9529
 335  345.8525
 336  427.9971
 337  436.5648
 338  414.9561
 339  370.5826
 340  424.2434
 341  348.6459
 342  356.6568
 343  324.8022
 344  415.4309
 345  442.1777
 346  319.9644
 347  299.5809
 348  211.4206
 349  193.507
 350  282.511
 351  363.4319
 352  364.7908
 353  320.5786
 354  447.5242
 355  314.9268
 356  260.3272
 357  251.0951
 358  282.0923
 359  385.6552
 360  393.1241
 361  422.1719
 362  394.9284
 363  464.9859
 364  364.4789
 365  287.14
 366  381.0994
 367  413.53
 368  338.0173
 369  309.301
 370  428.3843
 371  467.9713
 372  407.8038
 373  373.6173
 374  451.5778
 375  511.7329
 376  523.5551
 377  496.7137
 378  481.0741
 379  538.8738
 380  528.4058
 381  432.5006
 382  447.5375
 383  389.1888
 384  331.4984
 385  354.8309
 386  332.6402
 387  472.2188
 388  331.1533
 389  299.4172
 390  288.7408
 391  368.8061
 392  440.0755
 393  407.8636
 394  465.1139
 395  545.4661
 396  475.5912
 397  284.066
 398  202.8653
 399  481.9797
 400  504.0297
 401  483.3479
 402  371.9151
 403  325.3856
 404  465.3463
 405  363.7649
 406  375.211
 407  459.9752
 408  505.8835
 409  394.4016
 410  353.9046
 411  438.0024
 412  401.4226
 413  430.1049
 414  555.3529
 415  424.1943
 416  416.1664
 417  495.2254
 418  399.0356
 419  364.8694
 420  454.1784
 421  548.2402
 422  527.552
 423  434.3061
 424  369.5079
 425  404.8832
 426  494.3033
 427  572.3394
 428  672.3823
 429  427.1585
 430  316.6288
 431  359.9862
 432  421.9646
 433  391.6637
 434  362.7723
 435  404.7495
 436  492.6146
 437  358.7837
 438  356.7652
 439  499.9397
 440  486.6001
 441  319.8412
 442  383.2668
 443  487.4365
 444  412.1507
 445  204.0178
 446  250.6812
 447  410.3503
 448  410.3817
 449  414.4848
 450  341.7379
 451  325.0558
 452  374.8355
 453  522.0984
 454  474.6973
 455  424.6772
 456  362.9062
 457  436.7493
 458  477.1797
 459  397.4536
 460  341.2149
 461  423.9117
 462  432.4981
 463  366.6069
 464  372.1625
 465  349.9619
 466  376.0446
 467  230.6735
 468  200.1199
 469  323.1713
 470  308.5849
 471  221.976
 472  308.3993
 473  276.5825
 474  218.3799
 475  374.8596
 476  380.8524
 477  395.8763
 478  362.8296
 479  314.7539
 480  404.0377
 481  372.5202
 482  381.5832
 483  448.6065
 484  415.3395
 485  345.4857
 486  282.304
 487  324.65
 488  406.1861
 489  416.0732
 490  433.4266
 491  518.9703
 492  492.5303
 493  597.3165
 494  599.9106
 495  504.9446
 496  453.5072
 497  359.2652
 498  297.942
 499  322.4883
 500  393.2205
 501  421.8086
 502  333.8851
 503  389.563
 504  415.7846
 505  523.9415
 506  364.6288
 507  363.6661
 508  427.8298
 509  520.4849
 510  475.8177
 511  470.2736
