# Input file       =  1178771242.111134_cleaned.dat
# Candidate        =  PSR_0332+5434
# Telescope        =  AR
# Epoch_topo       =  57887.185464249240
# Epoch_bary       =  N/A
# T_sample         =  0.002
# Data Folded      =  7208960
# Data Avg         =  0.0360820198341839
# Data StdDev      =  1.00005071508699 
# Profile Bins     =  512
# Profile Avg      =  508.046212510678 
# Profile StdDev   =  118.665193603953 
# Reduced chi-sqr  =  1.164
# Prob(Noise)      <  0.00612   (~2.5 sigma)
# P_topo (ms)      =  714.534046215829  +/- 0.000305
# P'_topo (s/s)    =  -0                +/- 1.64e-10
# P''_topo (s/s^2) =  0                 +/- 7.37e-14
# P_bary (ms)      =  N/A
# P'_bary (s/s)    =  N/A
# P''_bary (s/s^2) =  N/A
# P_orb (s)        =  N/A
# asin(i)/c (s)    =  N/A
# eccentricity     =  N/A
# w (rad)          =  N/A
# T_peri           =  N/A
######################################################
   0  1086.042
   1  985.158
   2  868.7073
   3  816.7704
   4  583.8109
   5  452.0457
   6  543.8166
   7  647.5756
   8  680.5334
   9  586.6984
  10  570.4472
  11  548.0312
  12  546.6752
  13  627.5353
  14  611.4097
  15  635.534
  16  565.0841
  17  491.3412
  18  449.7795
  19  362.6532
  20  354.7791
  21  472.7802
  22  638.3907
  23  578.1432
  24  455.1002
  25  427.3021
  26  380.4685
  27  467.2664
  28  543.891
  29  530.0772
  30  627.0565
  31  536.382
  32  548.7166
  33  480.6158
  34  562.4489
  35  540.8043
  36  535.5023
  37  534.2985
  38  573.1306
  39  573.7092
  40  532.1465
  41  591.1416
  42  579.8083
  43  493.9707
  44  551.7255
  45  543.7136
  46  603.2563
  47  605.6089
  48  664.5031
  49  621.2957
  50  574.0667
  51  528.7857
  52  525.0794
  53  519.6983
  54  640.6233
  55  707.0994
  56  679.7446
  57  501.1233
  58  559.9459
  59  539.0286
  60  526.7396
  61  558.1547
  62  596.029
  63  595.3745
  64  519.5974
  65  512.8547
  66  560.3278
  67  421.9281
  68  439.2241
  69  542.8264
  70  571.485
  71  510.8769
  72  562.7709
  73  597.4174
  74  478.5139
  75  539.5764
  76  569.0105
  77  604.4695
  78  577.4009
  79  513.157
  80  529.8522
  81  483.2326
  82  331.1472
  83  449.0483
  84  416.026
  85  395.0172
  86  557.3051
  87  561.9208
  88  525.1757
  89  607.9371
  90  576.0903
  91  582.4278
  92  442.9911
  93  435.9104
  94  568.4063
  95  521.8242
  96  455.7044
  97  563.3789
  98  509.4046
  99  457.8763
 100  477.7899
 101  435.8165
 102  481.2029
 103  515.4875
 104  594.8962
 105  643.7095
 106  561.7626
 107  487.7112
 108  546.5792
 109  564.6068
 110  626.008
 111  533.5941
 112  526.1782
 113  495.8066
 114  410.8393
 115  427.1838
 116  322.6299
 117  526.7466
 118  429.0113
 119  457.0898
 120  625.7531
 121  540.4998
 122  441.8766
 123  395.1595
 124  548.6392
 125  491.7732
 126  359.2643
 127  448.6769
 128  489.6575
 129  365.8903
 130  344.6259
 131  571.1093
 132  629.39
 133  489.4591
 134  546.7104
 135  596.7906
 136  563.7994
 137  636.1482
 138  664.4741
 139  630.3033
 140  650.3099
 141  655.282
 142  621.8015
 143  631.9252
 144  528.5369
 145  551.5838
 146  603.6326
 147  523.7811
 148  562.611
 149  509.6707
 150  574.1691
 151  456.6573
 152  374.6821
 153  363.5612
 154  369.956
 155  417.0022
 156  467.7903
 157  485.63
 158  546.7411
 159  548.6079
 160  598.6968
 161  559.9571
 162  482.7491
 163  464.4538
 164  417.7289
 165  524.9975
 166  458.229
 167  301.2879
 168  429.6501
 169  585.4807
 170  574.3665
 171  522.6678
 172  541.7167
 173  538.2106
 174  381.2211
 175  425.2996
 176  576.3701
 177  565.56
 178  451.4822
 179  564.9559
 180  480.5892
 181  446.6577
 182  518.043
 183  512.152
 184  411.9311
 185  484.9389
 186  418.9857
 187  427.9163
 188  414.5132
 189  372.8721
 190  380.1252
 191  449.7963
 192  439.9689
 193  491.7041
 194  491.8377
 195  452.5008
 196  435.372
 197  406.5503
 198  492.9837
 199  502.1134
 200  373.3536
 201  319.5962
 202  393.4944
 203  470.4189
 204  572.371
 205  547.3376
 206  522.563
 207  578.6242
 208  481.847
 209  495.4572
 210  574.1146
 211  498.0724
 212  499.0799
 213  489.0477
 214  435.261
 215  408.5002
 216  493.3069
 217  365.4955
 218  320.3002
 219  443.9491
 220  540.3635
 221  437.1335
 222  391.6176
 223  463.1818
 224  387.0005
 225  476.7276
 226  553.3286
 227  505.4487
 228  367.9087
 229  374.5353
 230  366.8173
 231  386.117
 232  491.2891
 233  366.0287
 234  419.2197
 235  484.2222
 236  480.7318
 237  442.2298
 238  402.7015
 239  498.5089
 240  476.5491
 241  422.5253
 242  478.4609
 243  491.6946
 244  500.8716
 245  412.4329
 246  358.981
 247  420.1548
 248  328.4615
 249  366.0348
 250  343.3511
 251  383.5207
 252  462.0415
 253  510.1338
 254  442.0985
 255  414.7597
 256  379.4443
 257  445.4243
 258  526.6106
 259  644.8069
 260  523.0143
 261  493.6775
 262  488.6892
 263  522.9411
 264  489.1877
 265  468.7072
 266  430.626
 267  476.2749
 268  503.8684
 269  528.6417
 270  463.4113
 271  505.2334
 272  623.9952
 273  617.0315
 274  596.2764
 275  598.782
 276  560.8098
 277  492.0274
 278  553.5244
 279  588.9885
 280  569.863
 281  519.4716
 282  416.4615
 283  505.3976
 284  478.16
 285  427.6501
 286  450.5534
 287  462.4601
 288  421.1662
 289  452.5272
 290  485.706
 291  447.196
 292  453.4338
 293  496.1343
 294  585.8465
 295  625.5675
 296  537.5556
 297  551.3329
 298  455.611
 299  390.3001
 300  404.5056
 301  423.2879
 302  463.6839
 303  360.5803
 304  517.2396
 305  504.9704
 306  514.9255
 307  483.0312
 308  542.1637
 309  493.0265
 310  515.3151
 311  463.5383
 312  464.2753
 313  495.5486
 314  614.663
 315  488.9247
 316  493.6834
 317  449.3716
 318  603.1191
 319  467.9124
 320  508.2681
 321  586.5126
 322  623.193
 323  582.7478
 324  541.1212
 325  605.4879
 326  647.148
 327  508.4544
 328  476.9016
 329  439.3763
 330  460.106
 331  475.2427
 332  393.688
 333  412.1839
 334  437.9447
 335  487.5462
 336  443.5478
 337  530.8852
 338  540.417
 339  399.2214
 340  450.0453
 341  519.4198
 342  643.5081
 343  554.9302
 344  366.4922
 345  373.3154
 346  609.0578
 347  534.8036
 348  501.4734
 349  466.3705
 350  514.2337
 351  573.9142
 352  465.3379
 353  575.8434
 354  588.2977
 355  519.7827
 356  567.5055
 357  569.6378
 358  458.852
 359  506.4644
 360  462.6759
 361  480.5963
 362  474.1309
 363  516.4653
 364  517.9706
 365  497.3457
 366  489.9269
 367  512.963
 368  531.1314
 369  478.1953
 370  505.1823
 371  525.7416
 372  540.739
 373  527.6302
 374  551.5848
 375  611.3739
 376  421.5315
 377  391.9056
 378  509.1117
 379  594.5324
 380  508.4406
 381  379.4498
 382  431.8281
 383  510.9455
 384  469.9271
 385  362.3676
 386  437.136
 387  488.527
 388  520.9473
 389  523.3381
 390  510.6903
 391  562.0885
 392  629.0623
 393  579.8781
 394  547.8046
 395  593.6264
 396  620.8618
 397  481.9414
 398  364.6815
 399  421.9185
 400  471.4303
 401  520.9088
 402  508.1248
 403  380.8758
 404  441.4242
 405  431.7986
 406  486.6644
 407  625.3309
 408  610.6973
 409  478.9248
 410  472.404
 411  389.3012
 412  427.3367
 413  546.6051
 414  556.3853
 415  407.4987
 416  456.5403
 417  571.5388
 418  545.1589
 419  488.0781
 420  644.5162
 421  644.761
 422  563.7587
 423  595.574
 424  598.5401
 425  602.1551
 426  572.9628
 427  506.4736
 428  406.3754
 429  435.9068
 430  432.4541
 431  380.9998
 432  383.9803
 433  437.6041
 434  514.9717
 435  534.9985
 436  442.7738
 437  479.313
 438  442.4474
 439  414.0922
 440  412.0191
 441  536.9706
 442  695.1008
 443  647.1766
 444  502.1895
 445  537.467
 446  451.6192
 447  481.6321
 448  543.6364
 449  491.7701
 450  458.4314
 451  423.9303
 452  508.4472
 453  530.7468
 454  427.2458
 455  457.4134
 456  475.983
 457  512.2308
 458  468.0274
 459  602.3649
 460  494.3564
 461  391.8591
 462  498.6717
 463  431.8103
 464  421.8979
 465  472.638
 466  493.3185
 467  385.1403
 468  404.5246
 469  356.5689
 470  343.3759
 471  426.8751
 472  521.4142
 473  460.0255
 474  482.7017
 475  548.7125
 476  561.7487
 477  515.0139
 478  498.719
 479  452.7052
 480  445.7215
 481  530.0015
 482  533.5696
 483  472.999
 484  494.7437
 485  559.9047
 486  431.4317
 487  323.0583
 488  567.3047
 489  564.8738
 490  583.9559
 491  559.5691
 492  513.7487
 493  496.5648
 494  568.8398
 495  584.6439
 496  506.4919
 497  400.6722
 498  428.6569
 499  496.8248
 500  406.777
 501  541.6088
 502  642.7732
 503  654.2209
 504  667.2623
 505  524.3283
 506  611.405
 507  619.1205
 508  697.9052
 509  803.1478
 510  939.5629
 511  1040.301
