# Input file       =  1179748560.125391_cleaned.dat
# Candidate        =  PSR_0332+5434
# Telescope        =  AR
# Epoch_topo       =  57898.497015340174
# Epoch_bary       =  N/A
# T_sample         =  0.002
# Data Folded      =  7340032
# Data Avg         =  0.0220840927390212
# Data StdDev      =  1.00011963955771 
# Profile Bins     =  512
# Profile Avg      =  316.543796916488 
# Profile StdDev   =  119.747361184281 
# Reduced chi-sqr  =  0.898
# Prob(Noise)      <  0.953   (~0.0 sigma)
# P_topo (ms)      =  714.523319507467  +/- 0.000328
# P'_topo (s/s)    =  -0                +/- 1.73e-10
# P''_topo (s/s^2) =  0                 +/- 7.63e-14
# P_bary (ms)      =  N/A
# P'_bary (s/s)    =  N/A
# P''_bary (s/s^2) =  N/A
# P_orb (s)        =  N/A
# asin(i)/c (s)    =  N/A
# eccentricity     =  N/A
# w (rad)          =  N/A
# T_peri           =  N/A
######################################################
   0  663.9372
   1  603.5268
   2  477.7835
   3  474.6737
   4  440.5705
   5  394.0514
   6  268.0794
   7  334.9982
   8  292.3149
   9  327.2607
  10  411.4683
  11  243.1554
  12  194.8497
  13  248.8712
  14  333.3909
  15  309.0372
  16  209.8512
  17  193.9584
  18  236.87
  19  250.4292
  20  298.7256
  21  225.5619
  22  245.3503
  23  268.0922
  24  186.5973
  25  228.5902
  26  349.9187
  27  295.6049
  28  279.0445
  29  152.8245
  30  199.7137
  31  224.2223
  32  256.3078
  33  334.2147
  34  269.1942
  35  100.6291
  36  166.2521
  37  375.934
  38  323.0414
  39  373.896
  40  365.5237
  41  377.7631
  42  192.8878
  43  337.5628
  44  380.799
  45  348.5443
  46  337.2398
  47  370.9054
  48  272.1548
  49  350.9551
  50  389.7719
  51  419.1914
  52  351.8616
  53  257.4995
  54  191.4072
  55  201.7366
  56  220.1946
  57  260.8441
  58  173.5096
  59  235.232
  60  339.6285
  61  386.0609
  62  289.8935
  63  233.2774
  64  332.1583
  65  421.9915
  66  387.4737
  67  321.2321
  68  267.6598
  69  327.3307
  70  281.6243
  71  327.3881
  72  212.4394
  73  282.6704
  74  348.8525
  75  332.1555
  76  198.9904
  77  277.3311
  78  312.5673
  79  272.3216
  80  255.1589
  81  230.5181
  82  220.755
  83  211.629
  84  156.8371
  85  254.4945
  86  354.8323
  87  325.7265
  88  344.5421
  89  377.6805
  90  360.8614
  91  345.2649
  92  374.5774
  93  392.9612
  94  337.3553
  95  436.2695
  96  470.3358
  97  443.2324
  98  421.1829
  99  273.4183
 100  445.0159
 101  334.4606
 102  388.1328
 103  370.8803
 104  325.1485
 105  357.433
 106  396.9979
 107  340.5593
 108  418.7921
 109  297.2205
 110  363.273
 111  457.6762
 112  370.4545
 113  350.5315
 114  313.0856
 115  278.6596
 116  305.818
 117  363.5792
 118  258.1171
 119  282.386
 120  434.6893
 121  418.5397
 122  341.1425
 123  313.4702
 124  338.0706
 125  349.1807
 126  407.2057
 127  339.2517
 128  269.5846
 129  314.4516
 130  346.1273
 131  419.5918
 132  384.7735
 133  352.3237
 134  266.5282
 135  173.5126
 136  313.1017
 137  346.6556
 138  415.7255
 139  485.5792
 140  413.0823
 141  394.6089
 142  294.4215
 143  303.8542
 144  412.5019
 145  319.7206
 146  208.8264
 147  300.8719
 148  378.0318
 149  289.0177
 150  339.4583
 151  371.9884
 152  358.724
 153  246.8658
 154  245.4245
 155  284.7891
 156  265.2524
 157  279.9351
 158  339.6743
 159  337.5223
 160  312.0256
 161  414.1083
 162  460.8846
 163  277.8404
 164  302.6064
 165  354.1857
 166  382.8528
 167  505.1813
 168  482.7288
 169  268.1934
 170  276.5641
 171  368.9801
 172  414.0586
 173  401.3936
 174  241.075
 175  305.5055
 176  476.2143
 177  412.8394
 178  346.5525
 179  399.9489
 180  494.2316
 181  315.1667
 182  265.6828
 183  360.3607
 184  430.5175
 185  303.9138
 186  216.8911
 187  344.6554
 188  308.3201
 189  346.6629
 190  351.6659
 191  177.3432
 192  167.6306
 193  285.0095
 194  362.4126
 195  340.1528
 196  280.9079
 197  192.8346
 198  251.8568
 199  294.2762
 200  195.2283
 201  291.6945
 202  218.1231
 203  231.6221
 204  326.3639
 205  226.3988
 206  355.4753
 207  421.0348
 208  406.8436
 209  405.2864
 210  441.3896
 211  417.8701
 212  337.4198
 213  209.4424
 214  330.631
 215  377.2454
 216  389.2614
 217  223.703
 218  127.9035
 219  189.8704
 220  347.5988
 221  394.3266
 222  330.1757
 223  273.3378
 224  251.0353
 225  281.8114
 226  330.7796
 227  282.1994
 228  225.784
 229  222.0218
 230  270.0685
 231  386.3297
 232  403.5838
 233  301.6091
 234  374.0258
 235  332.7913
 236  293.478
 237  411.7702
 238  339.1986
 239  303.4129
 240  326.8904
 241  440.7682
 242  428.4572
 243  355.8925
 244  465.2642
 245  403.7604
 246  354.2596
 247  401.5316
 248  395.6087
 249  303.9202
 250  359.8007
 251  271.6969
 252  305.7027
 253  425.078
 254  483.8606
 255  333.5079
 256  368.2184
 257  441.3497
 258  414.7991
 259  371.3372
 260  228.1328
 261  249.3842
 262  274.6547
 263  313.7958
 264  275.3946
 265  318.6952
 266  350.5037
 267  349.881
 268  251.4233
 269  260.9849
 270  272.4258
 271  257.5673
 272  265.1266
 273  274.7516
 274  405.2932
 275  452.9727
 276  360.8753
 277  387.7813
 278  383.0653
 279  378.8787
 280  347.625
 281  400.287
 282  284.1249
 283  284.6924
 284  289.2828
 285  348.7245
 286  373.3276
 287  304.0912
 288  359.5536
 289  386.2957
 290  349.1207
 291  258.741
 292  290.7253
 293  244.5037
 294  327.3418
 295  404.8955
 296  319.8961
 297  283.5236
 298  316.9291
 299  240.9805
 300  245.6591
 301  308.7585
 302  211.6031
 303  267.2954
 304  243.1188
 305  245.0903
 306  243.6907
 307  381.8318
 308  309.2356
 309  212.5671
 310  197.7248
 311  344.6089
 312  340.7186
 313  229.6438
 314  159.4526
 315  291.1462
 316  320.9067
 317  250.1842
 318  196.6467
 319  261.6247
 320  190.0127
 321  277.2082
 322  383.8282
 323  242.9621
 324  237.9192
 325  345.1761
 326  358.5408
 327  261.073
 328  257.2457
 329  300.1692
 330  157.0822
 331  325.8771
 332  348.7255
 333  475.7785
 334  508.1093
 335  286.1278
 336  323.1612
 337  351.0572
 338  275.1709
 339  273.955
 340  327.2835
 341  325.2411
 342  373.174
 343  471.2344
 344  433.0103
 345  422.5891
 346  411.1581
 347  444.8237
 348  220.4274
 349  214.6397
 350  188.3288
 351  250.9005
 352  263.0224
 353  214.5807
 354  212.3399
 355  233.3063
 356  229.0187
 357  237.604
 358  375.8537
 359  248.1456
 360  233.3574
 361  383.1041
 362  173.3821
 363  192.8447
 364  106.0681
 365  292.442
 366  346.3094
 367  228.1806
 368  292.8458
 369  370.989
 370  460.3387
 371  395.7307
 372  254.8619
 373  187.9012
 374  262.0304
 375  302.4273
 376  369.8807
 377  437.9646
 378  342.4186
 379  197.696
 380  306.7897
 381  328.781
 382  392.3658
 383  448.882
 384  320.9636
 385  373.1614
 386  185.3732
 387  229.8027
 388  391.1338
 389  306.6067
 390  348.2881
 391  349.6544
 392  373.1392
 393  305.2997
 394  241.6091
 395  328.9871
 396  306.6046
 397  302.8004
 398  336.5035
 399  282.2918
 400  355.1878
 401  389.0797
 402  363.2453
 403  290.9254
 404  244.1737
 405  259.5591
 406  178.9857
 407  99.65366
 408  269.6399
 409  366.0331
 410  343.5687
 411  254.8965
 412  325.143
 413  384.6079
 414  395.4086
 415  332.2209
 416  313.6632
 417  275.872
 418  461.0297
 419  327.0201
 420  246.1965
 421  238.6131
 422  148.7806
 423  132.1609
 424  229.5896
 425  316.4106
 426  364.8821
 427  264.1553
 428  302.4094
 429  265.8406
 430  311.6089
 431  234.8996
 432  261.815
 433  260.2517
 434  342.1866
 435  346.3888
 436  336.9461
 437  267.8555
 438  228.4705
 439  345.1632
 440  355.2466
 441  273.9269
 442  358.6192
 443  280.6578
 444  288.8087
 445  311.1146
 446  244.1301
 447  186.5672
 448  314.4727
 449  457.9793
 450  416.9252
 451  297.5339
 452  379.6119
 453  351.5771
 454  173.9512
 455  328.5527
 456  423.7156
 457  344.6373
 458  330.7123
 459  403.6955
 460  427.727
 461  362.767
 462  305.582
 463  291.3226
 464  357.9516
 465  284.0022
 466  311.4065
 467  268.2857
 468  324.2243
 469  323.1935
 470  383.763
 471  458.9034
 472  363.107
 473  337.0302
 474  346.7618
 475  314.6218
 476  343.6502
 477  245.8392
 478  376.1452
 479  336.1781
 480  162.4637
 481  168.9351
 482  159.2806
 483  227.7073
 484  315.0979
 485  119.3886
 486  90.48939
 487  104.7457
 488  186.6691
 489  214.8851
 490  256.2272
 491  324.623
 492  295.4896
 493  352.8582
 494  340.7255
 495  239.1414
 496  364.6518
 497  442.8551
 498  265.4857
 499  295.5146
 500  371.1606
 501  421.6059
 502  353.8358
 503  321.4811
 504  281.8848
 505  387.3105
 506  319.9924
 507  374.0479
 508  317.5491
 509  381.3421
 510  548.1622
 511  656.511
