# Input file       =  1179647529.112151_cleaned.dat
# Candidate        =  PSR_0332+5434
# Telescope        =  AR
# Epoch_topo       =  57897.327674909153
# Epoch_bary       =  N/A
# T_sample         =  0.002
# Data Folded      =  7340032
# Data Avg         =  0.0235579006929673
# Data StdDev      =  1.00001340883798 
# Profile Bins     =  512
# Profile Avg      =  337.727134632065 
# Profile StdDev   =  119.734641857651 
# Reduced chi-sqr  =  1.014
# Prob(Noise)      <  0.405   (~0.2 sigma)
# P_topo (ms)      =  714.524145146154  +/- 0.000204
# P'_topo (s/s)    =  -0                +/- 1.08e-10
# P''_topo (s/s^2) =  0                 +/- 4.76e-14
# P_bary (ms)      =  N/A
# P'_bary (s/s)    =  N/A
# P''_bary (s/s^2) =  N/A
# P_orb (s)        =  N/A
# asin(i)/c (s)    =  N/A
# eccentricity     =  N/A
# w (rad)          =  N/A
# T_peri           =  N/A
######################################################
   0  356.1628
   1  377.3233
   2  388.2324
   3  256.6031
   4  257.8506
   5  162.4278
   6  217.05
   7  268.297
   8  168.7058
   9  268.9104
  10  273.9587
  11  216.2345
  12  218.8317
  13  353.8885
  14  440.5379
  15  425.6972
  16  294.2929
  17  125.6967
  18  305.9068
  19  414.0898
  20  343.247
  21  244.4314
  22  305.312
  23  442.4206
  24  462.9721
  25  312.3967
  26  330.6691
  27  312.7518
  28  324.7252
  29  385.6012
  30  315.8374
  31  244.423
  32  264.418
  33  328.3289
  34  308.2719
  35  411.8361
  36  410.0736
  37  366.191
  38  300.6413
  39  279.3348
  40  325.1835
  41  228.8669
  42  147.9415
  43  182.553
  44  293.1143
  45  276.3718
  46  291.4276
  47  371.626
  48  371.8988
  49  262.8105
  50  213.1412
  51  238.5229
  52  381.7336
  53  441.3596
  54  333.8512
  55  323.7989
  56  290.6797
  57  302.8651
  58  319.9666
  59  311.1418
  60  335.3091
  61  413.4746
  62  463.744
  63  530.5093
  64  643.9475
  65  676.4165
  66  691.728
  67  735.6361
  68  715.4329
  69  598.4951
  70  423.3654
  71  436.471
  72  421.2657
  73  417.8431
  74  292.4314
  75  494.0033
  76  533.6702
  77  560.9633
  78  442.0908
  79  488.7485
  80  485.148
  81  328.7186
  82  377.9361
  83  337.2896
  84  374.6922
  85  492.93
  86  513.7563
  87  479.4064
  88  450.3506
  89  291.0108
  90  261.0642
  91  373.2515
  92  458.3854
  93  425.4776
  94  373.6726
  95  344.2401
  96  240.5538
  97  227.529
  98  263.5853
  99  361.3478
 100  435.4373
 101  334.186
 102  270.7743
 103  317.2529
 104  346.2873
 105  377.7475
 106  290.5293
 107  358.6515
 108  439.6747
 109  521.3556
 110  387.7021
 111  307.9604
 112  410.9251
 113  429.239
 114  303.3338
 115  350.6227
 116  463.1355
 117  390.5818
 118  408.0335
 119  422.8618
 120  331.5606
 121  371.946
 122  255.1038
 123  314.9366
 124  390.0532
 125  321.3993
 126  163.4499
 127  305.0974
 128  443.7869
 129  396.1177
 130  347.5848
 131  312.798
 132  281.1013
 133  293.1078
 134  278.2003
 135  298.3177
 136  270.0771
 137  348.9711
 138  268.1312
 139  304.8482
 140  535.542
 141  509.4528
 142  478.1545
 143  360.2383
 144  339.1025
 145  347.5861
 146  407.9392
 147  356.2733
 148  338.4815
 149  336.6763
 150  356.7648
 151  450.6311
 152  407.5083
 153  455.0995
 154  450.7573
 155  383.2558
 156  350.2347
 157  319.9324
 158  256.6456
 159  241.4773
 160  398.7638
 161  453.6378
 162  384.9245
 163  417.1087
 164  373.142
 165  311.1032
 166  272.1635
 167  291.0491
 168  331.5525
 169  405.5341
 170  425.3916
 171  343.4491
 172  373.6253
 173  345.6875
 174  377.0882
 175  358.6937
 176  440.2501
 177  419.6124
 178  399.0482
 179  455.721
 180  412.4635
 181  353.9259
 182  320.8542
 183  368.6401
 184  355.9762
 185  233.761
 186  320.2101
 187  261.9146
 188  279.2101
 189  286.5995
 190  171.7568
 191  281.9019
 192  357.0528
 193  348.8641
 194  252.6647
 195  203.5103
 196  239.1528
 197  331.2792
 198  396.9142
 199  280.2146
 200  283.0027
 201  314.5391
 202  386.8668
 203  383.748
 204  364.1057
 205  382.7102
 206  435.0685
 207  445.2509
 208  387.4759
 209  322.2872
 210  373.2468
 211  420.6702
 212  429.5967
 213  406.0506
 214  473.9327
 215  490.9632
 216  334.7033
 217  347.4347
 218  424.731
 219  427.7952
 220  260.5138
 221  347.0191
 222  429.454
 223  302.0632
 224  316.1798
 225  397.0677
 226  256.3185
 227  130.3908
 228  176.3463
 229  335.5276
 230  380.2971
 231  217.0213
 232  142.2821
 233  189.2407
 234  222.2181
 235  337.0879
 236  349.9835
 237  328.2203
 238  420.7913
 239  403.3
 240  246.2257
 241  215.4203
 242  373.1832
 243  380.5058
 244  185.9334
 245  211.8258
 246  253.4165
 247  366.7288
 248  313.6744
 249  275.9051
 250  187.4246
 251  208.9256
 252  273.1419
 253  320.5526
 254  296.2441
 255  374.7111
 256  265.5062
 257  232.9101
 258  367.5381
 259  366.7909
 260  317.7793
 261  336.7922
 262  356.4213
 263  280.5855
 264  340.4344
 265  212.3928
 266  268.8018
 267  232.1101
 268  428.6318
 269  498.0409
 270  296.8907
 271  252.5905
 272  269.4121
 273  358.8441
 274  338.3218
 275  218.8262
 276  227.5268
 277  230.8741
 278  283.5371
 279  285.7158
 280  263.728
 281  268.1743
 282  317.5449
 283  277.5975
 284  246.6066
 285  367.1891
 286  392.4097
 287  377.868
 288  481.827
 289  353.0432
 290  224.446
 291  242.8315
 292  225.3267
 293  338.1454
 294  351.8225
 295  361.6332
 296  242.0579
 297  224.2957
 298  308.1975
 299  274.9553
 300  256.3571
 301  359.4805
 302  285.1393
 303  294.7742
 304  280.1013
 305  334.8953
 306  325.0623
 307  324.9739
 308  453.6308
 309  360.6442
 310  409.571
 311  453.975
 312  385.0193
 313  371.9181
 314  364.0865
 315  545.1741
 316  460.028
 317  325.4133
 318  386.8702
 319  413.4116
 320  457.5481
 321  309.83
 322  242.3896
 323  318.6997
 324  349.0277
 325  355.5811
 326  449.6073
 327  502.7036
 328  339.7387
 329  300.9395
 330  290.4306
 331  231.6484
 332  337.4904
 333  392.7473
 334  437.9194
 335  482.7492
 336  449.0754
 337  320.5698
 338  255.7823
 339  220.5398
 340  285.8854
 341  307.7917
 342  332.9655
 343  215.2524
 344  245.8836
 345  408.5368
 346  269.6814
 347  191.69
 348  266.6828
 349  328.0442
 350  320.9115
 351  311.5125
 352  372.5039
 353  404.095
 354  425.5955
 355  292.6744
 356  315.5256
 357  345.6703
 358  361.0135
 359  273.9208
 360  372.6741
 361  353.929
 362  354.146
 363  356.8989
 364  384.5467
 365  256.7706
 366  240.343
 367  323.1335
 368  215.2529
 369  273.504
 370  279.0146
 371  283.9055
 372  286.7395
 373  294.418
 374  376.5118
 375  428.0572
 376  416.3199
 377  267.0661
 378  380.8032
 379  379.0518
 380  330.2426
 381  211.2669
 382  356.1608
 383  438.344
 384  350.6486
 385  338.2722
 386  341.5168
 387  223.7283
 388  228.4379
 389  468.6724
 390  499.7743
 391  410.1196
 392  313.1887
 393  221.4327
 394  217.8475
 395  133.3026
 396  298.8418
 397  398.6432
 398  288.1193
 399  370.6004
 400  370.3405
 401  355.3143
 402  294.4829
 403  293.8654
 404  289.7912
 405  286.8598
 406  306.7644
 407  446.0479
 408  286.4779
 409  317.6537
 410  313.2395
 411  373.789
 412  412.0272
 413  444.869
 414  472.9973
 415  397.6105
 416  334.7159
 417  376.7958
 418  389.9064
 419  359.5636
 420  312.8023
 421  440.3957
 422  394.0403
 423  418.7516
 424  308.6703
 425  292.9521
 426  381.0048
 427  398.0212
 428  403.7002
 429  377.7112
 430  352.3257
 431  363.505
 432  328.6098
 433  335.8026
 434  340.1335
 435  405.0572
 436  464.9733
 437  380.7468
 438  321.6027
 439  419.6008
 440  380.4882
 441  396.0221
 442  298.7804
 443  307.7966
 444  382.7973
 445  334.5935
 446  334.9267
 447  322.4924
 448  316.6993
 449  188.6591
 450  187.4037
 451  174.6983
 452  204.9763
 453  252.2206
 454  360.7431
 455  304.4972
 456  355.5334
 457  392.1893
 458  343.0408
 459  284.933
 460  224.5112
 461  328.6312
 462  225.3212
 463  281.2422
 464  386.2467
 465  517.4451
 466  389.4368
 467  255.2758
 468  210.1113
 469  275.67
 470  398.6624
 471  308.4103
 472  274.6255
 473  268.6825
 474  288.7099
 475  267.6074
 476  332.2776
 477  376.2972
 478  426.4495
 479  323.921
 480  255.7668
 481  350.565
 482  301.7982
 483  247.4299
 484  144.3252
 485  204.5753
 486  282.424
 487  316.4215
 488  346.4803
 489  310.0473
 490  247.5168
 491  165.1081
 492  333.7116
 493  305.5013
 494  273.2236
 495  319.9406
 496  314.5125
 497  307.2796
 498  267.1684
 499  175.0664
 500  229.6187
 501  337.5262
 502  295.8912
 503  387.892
 504  465.3506
 505  367.1155
 506  298.9295
 507  245.0033
 508  278.0165
 509  278.6303
 510  246.9191
 511  281.6942
