# Input file       =  1179029680.096024_cleaned.dat
# Candidate        =  PSR_0332+5434
# Telescope        =  AR
# Epoch_topo       =  57890.176644629908
# Epoch_bary       =  N/A
# T_sample         =  0.002
# Data Folded      =  7208960
# Data Avg         =  0.0359044276610271
# Data StdDev      =  1.00002765926845 
# Profile Bins     =  512
# Profile Avg      =  505.614961249486 
# Profile StdDev   =  118.662457819528 
# Reduced chi-sqr  =  0.902
# Prob(Noise)      <  0.945   (~0.0 sigma)
# P_topo (ms)      =  714.531154463662  +/- 0.000113
# P'_topo (s/s)    =  -0                +/- 6.09e-11
# P''_topo (s/s^2) =  0                 +/- 2.74e-14
# P_bary (ms)      =  N/A
# P'_bary (s/s)    =  N/A
# P''_bary (s/s^2) =  N/A
# P_orb (s)        =  N/A
# asin(i)/c (s)    =  N/A
# eccentricity     =  N/A
# w (rad)          =  N/A
# T_peri           =  N/A
######################################################
   0  487.9187
   1  469.7162
   2  511.0696
   3  459.4318
   4  337.097
   5  442.1388
   6  464.1575
   7  397.5299
   8  395.8594
   9  477.3759
  10  500.0434
  11  522.458
  12  525.6215
  13  495.302
  14  475.4986
  15  441.1427
  16  565.3259
  17  563.0094
  18  519.3547
  19  471.0628
  20  562.2017
  21  597.9269
  22  542.4229
  23  469.2114
  24  474.3063
  25  532.9103
  26  533.0932
  27  545.6965
  28  441.8614
  29  382.0116
  30  446.02
  31  561.658
  32  580.0518
  33  497.6601
  34  558.6058
  35  638.4916
  36  626.2065
  37  535.662
  38  411.4698
  39  365.4374
  40  389.2249
  41  491.0796
  42  478.2229
  43  511.5003
  44  510.2724
  45  513.5133
  46  485.1029
  47  460.1484
  48  455.8747
  49  422.3772
  50  439.8586
  51  479.9679
  52  448.841
  53  462.5625
  54  592.2928
  55  556.8069
  56  417.8352
  57  462.8216
  58  394.3394
  59  477.5186
  60  479.3864
  61  395.4652
  62  415.4258
  63  429.4298
  64  582.194
  65  655.0852
  66  532.8728
  67  501.6859
  68  578.9189
  69  432.309
  70  329.2656
  71  343.4333
  72  591.147
  73  507.0982
  74  458.2971
  75  476.0055
  76  446.7492
  77  373.8391
  78  402.8139
  79  449.7299
  80  520.3593
  81  508.1683
  82  516.7179
  83  581.7103
  84  576.1583
  85  441.5997
  86  420.1403
  87  448.2188
  88  341.7809
  89  477.1898
  90  568.8571
  91  572.7584
  92  512.6952
  93  523.0795
  94  473.7234
  95  403.6443
  96  447.3168
  97  498.9958
  98  513.0216
  99  591.9965
 100  569.2111
 101  573.3492
 102  501.3763
 103  417.9935
 104  462.0828
 105  385.2216
 106  392.1165
 107  527.6899
 108  579.0873
 109  535.4189
 110  673.4898
 111  593.7118
 112  468.0954
 113  455.6892
 114  497.0721
 115  560.9628
 116  438.5377
 117  528.8161
 118  471.2285
 119  457.6343
 120  425.8882
 121  466.5775
 122  488.3014
 123  487.8537
 124  481.2324
 125  398.3788
 126  489.0741
 127  533.0384
 128  485.1417
 129  559.2822
 130  535.1949
 131  483.2645
 132  465.5688
 133  587.635
 134  551.8254
 135  500.8552
 136  305.8006
 137  405.2779
 138  495.5608
 139  443.4113
 140  428.0085
 141  425.4224
 142  477.4531
 143  511.0557
 144  542.6215
 145  466.1224
 146  482.3882
 147  450.4922
 148  435.1837
 149  572.4387
 150  491.6452
 151  463.0733
 152  410.0261
 153  420.0187
 154  510.5329
 155  496.4926
 156  465.8903
 157  387.695
 158  381.4785
 159  450.8343
 160  443.9415
 161  469.6871
 162  588.9273
 163  491.2608
 164  485.7679
 165  538.5289
 166  515.9171
 167  431.317
 168  530.5648
 169  509.6117
 170  366.6987
 171  390.4383
 172  444.799
 173  491.2811
 174  512.4822
 175  522.4467
 176  538.332
 177  497.653
 178  471.4215
 179  539.3558
 180  552.8954
 181  439.9835
 182  614.473
 183  684.2175
 184  677.6776
 185  528.2678
 186  349.087
 187  428.0392
 188  386.6471
 189  440.2102
 190  424.159
 191  602.9725
 192  613.1014
 193  420.0932
 194  397.2924
 195  455.324
 196  527.9158
 197  608.1862
 198  512.0739
 199  392.8943
 200  534.2883
 201  652.2388
 202  593.1156
 203  715.8877
 204  652.7695
 205  474.6736
 206  466.2016
 207  472.3628
 208  435.37
 209  485.0952
 210  552.1569
 211  432.5448
 212  532.2882
 213  497.6003
 214  472.8707
 215  403.8763
 216  469.3066
 217  534.05
 218  483.7633
 219  476.0392
 220  532.4269
 221  617.2056
 222  460.3065
 223  442.4652
 224  426.265
 225  482.6895
 226  460.8838
 227  505.6617
 228  439.6099
 229  435.342
 230  519.1769
 231  412.4077
 232  536.8085
 233  644.0712
 234  420.6779
 235  368.3767
 236  492.5983
 237  625.0104
 238  532.2446
 239  514.0154
 240  533.1407
 241  594.3234
 242  630.5712
 243  593.7811
 244  536.3478
 245  482.4169
 246  639.4276
 247  704.787
 248  719.8306
 249  664.2265
 250  705.5261
 251  815.6174
 252  814.6168
 253  819.3262
 254  855.8839
 255  856.7125
 256  810.1507
 257  668.1273
 258  645.5455
 259  566.07
 260  570.1505
 261  495.6957
 262  517.6456
 263  493.8958
 264  586.2729
 265  648.5453
 266  604.7913
 267  632.2736
 268  530.9754
 269  542.877
 270  525.782
 271  552.9635
 272  534.2753
 273  504.0877
 274  552.2885
 275  591.7167
 276  538.7875
 277  470.5995
 278  537.4398
 279  545.1236
 280  423.5905
 281  449.609
 282  512.9685
 283  592.3157
 284  647.0854
 285  585.9874
 286  544.0024
 287  461.9819
 288  414.3912
 289  430.3719
 290  468.5041
 291  577.7427
 292  464.1498
 293  515.6064
 294  547.4185
 295  489.0872
 296  621.8011
 297  637.4562
 298  542.566
 299  485.6566
 300  477.0166
 301  551.509
 302  455.1236
 303  514.2878
 304  580.0263
 305  633.9953
 306  506.0636
 307  574.1336
 308  565.603
 309  485.1515
 310  514.7057
 311  650.6374
 312  655.5
 313  622.5199
 314  508.0938
 315  548.1365
 316  522.0886
 317  508.4322
 318  550.6874
 319  555.1583
 320  512.9722
 321  511.9118
 322  576.9654
 323  561.1807
 324  537.7351
 325  395.2231
 326  322.4193
 327  443.8741
 328  399.1279
 329  457.8817
 330  452.9779
 331  553.0765
 332  673.2017
 333  547.9078
 334  433.4234
 335  386.8255
 336  435.3687
 337  561.1052
 338  405.0952
 339  482.1664
 340  476.46
 341  547.09
 342  502.7735
 343  485.3007
 344  509.9599
 345  556.0421
 346  572.9825
 347  540.6068
 348  531.4407
 349  449.8509
 350  504.4032
 351  566.0466
 352  474.0136
 353  439.5516
 354  426.8183
 355  458.267
 356  618.6874
 357  564.389
 358  503.0637
 359  427.2409
 360  524.3483
 361  565.5067
 362  553.9571
 363  483.4106
 364  450.2918
 365  410.9073
 366  451.3546
 367  547.5686
 368  502.2394
 369  478.5557
 370  443.6365
 371  398.5766
 372  323.3881
 373  509.4962
 374  533.8774
 375  409.4015
 376  324.1899
 377  439.7256
 378  489.2844
 379  513.5612
 380  600.0886
 381  626.9824
 382  496.889
 383  479.2253
 384  491.2046
 385  466.0275
 386  471.903
 387  550.1174
 388  527.2575
 389  481.2088
 390  557.6355
 391  480.5612
 392  411.9858
 393  452.6007
 394  594.8452
 395  634.6155
 396  501.9295
 397  604.5085
 398  604.3052
 399  432.3777
 400  451.9633
 401  429.3435
 402  538.925
 403  599.6451
 404  620.4221
 405  633.799
 406  577.6985
 407  480.8235
 408  470.7053
 409  464.1705
 410  593.3511
 411  594.8217
 412  447.89
 413  521.4319
 414  477.5705
 415  544.7711
 416  550.8082
 417  501.8548
 418  419.2838
 419  487.1251
 420  470.9249
 421  493.5082
 422  399.6333
 423  368.5784
 424  475.4653
 425  453.9273
 426  465.1876
 427  340.2714
 428  477.3838
 429  494.0515
 430  495.9988
 431  528.8467
 432  435.3571
 433  461.193
 434  445.4668
 435  471.3582
 436  452.3108
 437  436.8472
 438  521.4978
 439  603.5883
 440  520.7617
 441  492.947
 442  447.4458
 443  535.2997
 444  576.7122
 445  444.7849
 446  465.7793
 447  543.6745
 448  554.5095
 449  501.0704
 450  448.2862
 451  497.362
 452  564.8661
 453  433.2556
 454  390.386
 455  487.4276
 456  522.2357
 457  427.4171
 458  365.2061
 459  444.4644
 460  396.8571
 461  477.9731
 462  509.9092
 463  531.149
 464  535.6089
 465  557.116
 466  491.9052
 467  567.6051
 468  534.73
 469  503.0505
 470  540.5809
 471  460.4555
 472  535.1885
 473  618.7691
 474  556.6124
 475  471.8475
 476  580.5046
 477  580.9022
 478  523.5392
 479  513.2117
 480  535.4431
 481  650.4877
 482  535.5387
 483  445.3492
 484  411.4935
 485  351.6023
 486  493.6246
 487  496.902
 488  552.1673
 489  481.5649
 490  459.6391
 491  395.4265
 492  278.351
 493  345.6461
 494  523.4006
 495  611.1132
 496  518.9662
 497  489.1187
 498  419.3014
 499  390.8215
 500  613.6113
 501  682.2778
 502  597.399
 503  519.3354
 504  551.0967
 505  551.2935
 506  562.6306
 507  542.0001
 508  387.2161
 509  427.7003
 510  492.0018
 511  483.4073
