# Input file       =  1179733660.1152_cleaned.dat
# Candidate        =  PSR_0332+5434
# Telescope        =  AR
# Epoch_topo       =  57898.324561518522
# Epoch_bary       =  N/A
# T_sample         =  0.002
# Data Folded      =  7340032
# Data Avg         =  0.0254315522159977
# Data StdDev      =  1.0000742689545  
# Profile Bins     =  512
# Profile Avg      =  364.587915692437 
# Profile StdDev   =  119.741928824197 
# Reduced chi-sqr  =  1.087
# Prob(Noise)      <  0.085   (~1.4 sigma)
# P_topo (ms)      =  714.523158732559  +/- 0.000208
# P'_topo (s/s)    =  -0                +/- 1.1e-10
# P''_topo (s/s^2) =  0                 +/- 4.84e-14
# P_bary (ms)      =  N/A
# P'_bary (s/s)    =  N/A
# P''_bary (s/s^2) =  N/A
# P_orb (s)        =  N/A
# asin(i)/c (s)    =  N/A
# eccentricity     =  N/A
# w (rad)          =  N/A
# T_peri           =  N/A
######################################################
   0  463.8298
   1  340.0262
   2  325.1208
   3  284.1609
   4  380.2596
   5  295.5075
   6  363.4527
   7  484.4128
   8  413.0699
   9  343.034
  10  325.3967
  11  381.56
  12  441.5836
  13  458.1773
  14  367.094
  15  346.8226
  16  481.9738
  17  480.8793
  18  296.1937
  19  240.2044
  20  506.2361
  21  523.1899
  22  381.0605
  23  297.2511
  24  397.2376
  25  376.7447
  26  302.538
  27  346.0438
  28  430.8101
  29  512.971
  30  482.0405
  31  383.9397
  32  337.8416
  33  315.455
  34  355.7292
  35  401.5335
  36  285.5097
  37  202.5187
  38  289.4617
  39  287.2879
  40  449.1136
  41  520.6913
  42  466.5784
  43  347.7451
  44  312.614
  45  247.077
  46  343.7488
  47  398.8973
  48  338.4979
  49  372.6989
  50  499.2294
  51  352.4948
  52  385.8351
  53  361.7987
  54  340.7351
  55  292.5083
  56  243.7563
  57  319.7441
  58  336.492
  59  353.9166
  60  452.7675
  61  411.1646
  62  458.6675
  63  458.7538
  64  385.2675
  65  440.8038
  66  374.4834
  67  336.6717
  68  318.6386
  69  433.4448
  70  421.1565
  71  377.45
  72  382.9309
  73  367.7198
  74  414.3667
  75  297.5009
  76  342.1554
  77  283.7982
  78  297.6412
  79  333.7037
  80  429.5409
  81  406.0133
  82  338.6786
  83  303.9585
  84  448.6254
  85  417.1624
  86  262.7264
  87  246.391
  88  359.5779
  89  235.0522
  90  122.2344
  91  299.7495
  92  334.9549
  93  254.3275
  94  269.3538
  95  196.4694
  96  303.966
  97  362.733
  98  258.2764
  99  322.9509
 100  371.9662
 101  250.8342
 102  214.2012
 103  299.1607
 104  280.805
 105  241.2761
 106  200.6699
 107  202.912
 108  130.4734
 109  227.231
 110  382.625
 111  378.1341
 112  278.7111
 113  319.1314
 114  286.5636
 115  300.3854
 116  298.0551
 117  415.1193
 118  441.4406
 119  392.0381
 120  382.8241
 121  197.5707
 122  255.6976
 123  261.9135
 124  367.4183
 125  459.1089
 126  328.2642
 127  258.2255
 128  409.1794
 129  462.3659
 130  389.5102
 131  457.7726
 132  408.6227
 133  467.2641
 134  409.2907
 135  452.6696
 136  339.1768
 137  373.7856
 138  268.7643
 139  273.9078
 140  338.3665
 141  355.2523
 142  273.7661
 143  307.4249
 144  359.1479
 145  320.1848
 146  425.6474
 147  378.2628
 148  422.9607
 149  339.9354
 150  469.4293
 151  502.3493
 152  511.743
 153  421.1406
 154  440.8582
 155  442.2681
 156  518.7487
 157  489.9423
 158  476.0228
 159  593.8914
 160  544.9775
 161  495.8436
 162  407.579
 163  393.3469
 164  425.5449
 165  442.5618
 166  465.6699
 167  466.5887
 168  569.4346
 169  491.0371
 170  537.2463
 171  523.3486
 172  517.6625
 173  511.7126
 174  459.1922
 175  343.5253
 176  327.4413
 177  277.8397
 178  383.6362
 179  434.4373
 180  395.6256
 181  350.5371
 182  361.2439
 183  364.519
 184  329.9598
 185  389.8125
 186  472.7124
 187  479.4009
 188  282.0847
 189  247.175
 190  319.0334
 191  369.5792
 192  350.3758
 193  399.3921
 194  380.6729
 195  229.9039
 196  384.7719
 197  320.1065
 198  390.3824
 199  282.1877
 200  348.951
 201  439.0261
 202  300.7724
 203  458.8372
 204  340.8398
 205  409.8148
 206  335.3688
 207  281.9904
 208  329.0295
 209  401.3709
 210  299.6729
 211  249.6504
 212  316.5757
 213  495.2555
 214  331.8692
 215  340.9089
 216  216.5381
 217  303.9031
 218  321.501
 219  317.7614
 220  271.6547
 221  377.1262
 222  363.2296
 223  368.3352
 224  380.0482
 225  527.2086
 226  500.6117
 227  460.2432
 228  346.9237
 229  412.3005
 230  497.6101
 231  451.5151
 232  401.5012
 233  320.0594
 234  265.6938
 235  398.4753
 236  517.0026
 237  440.5768
 238  279.7365
 239  162.3368
 240  400.7567
 241  495.741
 242  398.9636
 243  370.5866
 244  420.8784
 245  344.6891
 246  399.5135
 247  347.2771
 248  438.0073
 249  407.8167
 250  475.2546
 251  514.018
 252  382.9309
 253  314.4731
 254  297.1093
 255  259.6486
 256  321.7375
 257  286.0428
 258  302.7094
 259  462.3017
 260  425.548
 261  339.3981
 262  312.2412
 263  270.4413
 264  277.6653
 265  306.0549
 266  240.703
 267  231.4146
 268  152.9052
 269  210.135
 270  222.3777
 271  282.2571
 272  191.0316
 273  201.4287
 274  265.1381
 275  194.8813
 276  185.5246
 277  396.0619
 278  362.2946
 279  293.9934
 280  364.0458
 281  343.9425
 282  331.0747
 283  279.6475
 284  318.4185
 285  308.3046
 286  147.6199
 287  236.0285
 288  409.8023
 289  273.4611
 290  309.2067
 291  352.6879
 292  391.4786
 293  393.8753
 294  346.4669
 295  413.5439
 296  335.0069
 297  389.95
 298  453.9433
 299  377.6095
 300  228.9624
 301  313.944
 302  364.0051
 303  352.0295
 304  310.6667
 305  413.8983
 306  434.6952
 307  353.4073
 308  326.472
 309  314.0606
 310  277.775
 311  439.0313
 312  435.8478
 313  269.3384
 314  395.3799
 315  439.6159
 316  373.2718
 317  319.9487
 318  427.0143
 319  363.0943
 320  330.5787
 321  339.6877
 322  423.0143
 323  430.8408
 324  375.8575
 325  456.2908
 326  484.6418
 327  366.2826
 328  381.8513
 329  404.8495
 330  466.73
 331  489.9208
 332  345.2726
 333  229.4126
 334  294.7648
 335  266.4618
 336  301.8824
 337  292.1699
 338  354.3902
 339  386.8907
 340  322.1674
 341  323.2832
 342  285.8517
 343  238.5632
 344  144.0138
 345  246.0556
 346  352.0942
 347  331.5772
 348  177.8727
 349  220.7464
 350  280.4089
 351  274.1377
 352  354.2622
 353  287.4886
 354  180.7514
 355  226.7934
 356  334.1743
 357  298.3597
 358  119.6358
 359  179.4156
 360  163.7616
 361  197.1691
 362  290.8901
 363  315.2488
 364  322.2669
 365  342.2362
 366  334.234
 367  472.7315
 368  425.0607
 369  325.3936
 370  388.0245
 371  327.042
 372  362.8761
 373  354.4223
 374  413.4577
 375  432.1992
 376  511.4113
 377  327.2313
 378  300.4051
 379  355.1461
 380  294.6563
 381  379.4141
 382  408.2103
 383  453.993
 384  405.4505
 385  293.8562
 386  365.1642
 387  354.8292
 388  338.604
 389  383.1721
 390  369.7118
 391  185.2714
 392  299.8093
 393  347.7413
 394  329.2734
 395  376.7317
 396  503.5547
 397  492.7183
 398  244.8019
 399  255.4275
 400  355.4435
 401  301.3216
 402  352.0573
 403  351.441
 404  336.7325
 405  500.846
 406  555.7789
 407  480.1686
 408  423.6103
 409  399.3568
 410  410.7789
 411  341.2616
 412  440.4098
 413  434.8718
 414  357.1177
 415  484.2485
 416  510.7429
 417  217.684
 418  223.5132
 419  222.5439
 420  434.4283
 421  334.2834
 422  444.511
 423  400.8422
 424  332.3455
 425  354.8262
 426  366.2175
 427  303.7955
 428  322.9751
 429  500.3156
 430  415.2035
 431  358.7936
 432  388.0185
 433  309.8167
 434  302.5548
 435  325.3549
 436  327.3751
 437  270.9029
 438  267.198
 439  310.3433
 440  294.0307
 441  277.8682
 442  407.6907
 443  406.6225
 444  493.6565
 445  389.7814
 446  312.0717
 447  399.9417
 448  427.787
 449  365.3945
 450  318.0513
 451  309.4131
 452  452.1686
 453  431.004
 454  421.2533
 455  418.4252
 456  318.3184
 457  329.38
 458  366.0744
 459  434.6988
 460  531.3109
 461  398.3058
 462  408.9172
 463  401.0858
 464  348.2433
 465  377.4104
 466  368.6421
 467  252.2153
 468  297.065
 469  340.2493
 470  329.519
 471  481.7406
 472  437.8466
 473  486.8665
 474  578.2729
 475  639.9889
 476  677.4255
 477  741.3225
 478  732.9434
 479  567.2971
 480  466.5931
 481  464.0638
 482  492.2767
 483  434.2617
 484  383.4781
 485  449.9471
 486  366.3376
 487  342.0295
 488  428.0077
 489  439.0541
 490  447.2801
 491  456.5938
 492  527.0692
 493  448.6802
 494  415.2061
 495  481.8778
 496  390.754
 497  503.5564
 498  542.0025
 499  372.4517
 500  344.9032
 501  467.7254
 502  339.0667
 503  242.9583
 504  368.2279
 505  449.0332
 506  362.8897
 507  228.6134
 508  347.0674
 509  377.9376
 510  373.1459
 511  405.5264
