# Input file       =  1179490092.10149_cleaned.dat
# Candidate        =  PSR_0332+5434
# Telescope        =  AR
# Epoch_topo       =  57895.505487285765
# Epoch_bary       =  N/A
# T_sample         =  0.002
# Data Folded      =  7340032
# Data Avg         =  0.0214700975288619
# Data StdDev      =  1.00009461937755 
# Profile Bins     =  512
# Profile Avg      =  307.791484975877 
# Profile StdDev   =  119.74436544214  
# Reduced chi-sqr  =  1.333
# Prob(Noise)      <  6.11e-07   (~4.9 sigma)
# P_topo (ms)      =  714.526276191777  +/- 0.000168
# P'_topo (s/s)    =  -0                +/- 8.84e-11
# P''_topo (s/s^2) =  0                 +/- 3.9e-14
# P_bary (ms)      =  N/A
# P'_bary (s/s)    =  N/A
# P''_bary (s/s^2) =  N/A
# P_orb (s)        =  N/A
# asin(i)/c (s)    =  N/A
# eccentricity     =  N/A
# w (rad)          =  N/A
# T_peri           =  N/A
######################################################
   0  1002.048
   1  891.2244
   2  651.5778
   3  464.8156
   4  361.4572
   5  364.053
   6  261.0233
   7  291.2855
   8  305.8302
   9  302.4253
  10  330.0082
  11  423.1161
  12  450.264
  13  346.2256
  14  368.8892
  15  368.2353
  16  367.9011
  17  353.0808
  18  332.6231
  19  388.2832
  20  312.2758
  21  188.36
  22  245.2393
  23  265.9872
  24  235.9239
  25  292.5793
  26  317.5027
  27  397.3718
  28  455.6922
  29  415.3798
  30  372.4771
  31  335.4457
  32  327.7603
  33  408.1099
  34  288.399
  35  246.1482
  36  447.1793
  37  373.9844
  38  289.5888
  39  332.8768
  40  358.7278
  41  336.9356
  42  301.8234
  43  365.5123
  44  337.808
  45  302.8478
  46  367.0404
  47  252.325
  48  279.0124
  49  392.9393
  50  371.3008
  51  321.5998
  52  347.5781
  53  311.986
  54  416.3133
  55  380.3579
  56  214.401
  57  321.1958
  58  369.0353
  59  304.5033
  60  232.8638
  61  322.4964
  62  284.8106
  63  240.1364
  64  266.0682
  65  391.3015
  66  415.3071
  67  217.0607
  68  134.9467
  69  171.8332
  70  282.1086
  71  337.6111
  72  256.8668
  73  277.5675
  74  368.5988
  75  410.0069
  76  271.6629
  77  194.9457
  78  196.1248
  79  292.9081
  80  357.4798
  81  395.8231
  82  276.2751
  83  279.3771
  84  240.4681
  85  136.0897
  86  226.6407
  87  243.9511
  88  294.3918
  89  169.0737
  90  143.4498
  91  248.6517
  92  324.4797
  93  347.6906
  94  259.6262
  95  303.4003
  96  174.9034
  97  211.8389
  98  293.328
  99  273.6675
 100  382.755
 101  260.3589
 102  296.8954
 103  231.3295
 104  167.3353
 105  179.6803
 106  249.1351
 107  296.9673
 108  289.3747
 109  217.0184
 110  268.0487
 111  342.6646
 112  333.7954
 113  177.327
 114  67.78858
 115  224.4273
 116  150.8197
 117  203.872
 118  262.164
 119  321.1689
 120  260.3589
 121  256.2449
 122  301.8258
 123  210.6393
 124  195.0759
 125  184.5564
 126  224.1067
 127  334.5045
 128  344.8379
 129  392.863
 130  199.4556
 131  136.9116
 132  319.8992
 133  341.6915
 134  309.746
 135  342.3761
 136  334.0407
 137  377.46
 138  297.8449
 139  260.1414
 140  170.8038
 141  178.7234
 142  253.7748
 143  242.1254
 144  337.1404
 145  244.5087
 146  270.4206
 147  280.5802
 148  209.5495
 149  102.1006
 150  194.7926
 151  318.9935
 152  384.7252
 153  363.1605
 154  398.3694
 155  413.8087
 156  331.7888
 157  261.3504
 158  235.9577
 159  238.0527
 160  343.1346
 161  420.732
 162  391.8174
 163  346.3534
 164  344.8958
 165  288.0646
 166  359.8158
 167  371.1193
 168  374.7301
 169  229.1314
 170  292.9094
 171  233.0206
 172  178.1551
 173  229.1602
 174  342.062
 175  359.6465
 176  341.956
 177  343.4441
 178  324.285
 179  242.0309
 180  140.3185
 181  205.0027
 182  120.7076
 183  190.2317
 184  389.5185
 185  376.0398
 186  175.1587
 187  193.3503
 188  228.1021
 189  219.9196
 190  203.4863
 191  253.2001
 192  253.697
 193  285.6295
 194  308.7781
 195  243.7245
 196  163.4939
 197  106.4531
 198  274.9618
 199  234.8588
 200  251.6325
 201  267.2318
 202  221.2128
 203  250.1784
 204  197.4082
 205  115.1552
 206  198.9847
 207  328.1534
 208  404.1212
 209  267.4817
 210  273.7828
 211  230.222
 212  360.3349
 213  243.957
 214  285.9964
 215  388.0914
 216  419.1305
 217  361.6829
 218  258.0097
 219  319.3498
 220  409.5644
 221  294.4367
 222  314.6693
 223  345.6724
 224  296.1477
 225  268.7355
 226  254.7725
 227  344.6192
 228  395.5498
 229  244.2924
 230  252.351
 231  301.7766
 232  299.8335
 233  199.62
 234  166.5489
 235  143.72
 236  285.0556
 237  291.0535
 238  227.8864
 239  103.6134
 240  214.0304
 241  218.4981
 242  303.1158
 243  319.0142
 244  347.9159
 245  370.2137
 246  312.7842
 247  423.7121
 248  344.0095
 249  263.3421
 250  83.08767
 251  131.8863
 252  375.7302
 253  426.6794
 254  303.7459
 255  294.1396
 256  395.3998
 257  500.6315
 258  340.5905
 259  256.5702
 260  210.1674
 261  200.239
 262  302.2639
 263  306.2785
 264  270.7739
 265  97.13898
 266  102.6868
 267  281.6743
 268  213.9028
 269  179.0944
 270  212.5389
 271  244.6831
 272  216.837
 273  129.3486
 274  328.8588
 275  303.379
 276  255.2186
 277  219.2229
 278  163.62
 279  209.015
 280  208.2458
 281  196.1983
 282  360.2736
 283  442.5831
 284  390.9543
 285  274.0052
 286  388.7348
 287  492.5951
 288  400.4406
 289  436.6547
 290  404.4222
 291  499.8302
 292  364.2095
 293  247.8427
 294  404.7389
 295  510.5722
 296  458.9529
 297  430.0378
 298  386.6455
 299  304.2652
 300  364.4044
 301  314.9479
 302  344.5403
 303  276.9971
 304  259.0992
 305  311.9895
 306  336.2321
 307  333.2269
 308  177.5057
 309  366.3532
 310  436.0384
 311  378.026
 312  396.4234
 313  377.636
 314  232.3976
 315  179.2776
 316  141.8427
 317  226.4384
 318  217.2542
 319  160.8161
 320  286.8466
 321  420.05
 322  271.417
 323  238.917
 324  189.5943
 325  357.3695
 326  381.9985
 327  381.6953
 328  369.8494
 329  271.3494
 330  396.4608
 331  393.5986
 332  357.6893
 333  202.3412
 334  311.7744
 335  359.513
 336  367.7066
 337  442.5909
 338  409.8289
 339  344.9254
 340  384.0609
 341  359.6104
 342  349.7032
 343  246.3569
 344  205.9721
 345  300.4002
 346  337.7625
 347  355.2546
 348  293.8926
 349  158.439
 350  366.9981
 351  274.9651
 352  72.79488
 353  121.4913
 354  262.7036
 355  371.0344
 356  323.8013
 357  222.4944
 358  272.4398
 359  408.8421
 360  369.1544
 361  286.4261
 362  230.696
 363  305.541
 364  222.7375
 365  296.134
 366  222.8642
 367  234.2043
 368  330.6082
 369  299.6163
 370  393.1493
 371  431.2715
 372  434.7414
 373  290.4608
 374  200.2726
 375  275.8916
 376  292.7707
 377  356.1768
 378  446.4622
 379  195.9303
 380  350.9544
 381  432.9261
 382  322.7935
 383  270.1597
 384  271.8768
 385  308.6761
 386  317.5434
 387  316.4925
 388  234.1265
 389  227.2618
 390  214.8218
 391  411.2729
 392  504.1354
 393  359.0458
 394  393.2604
 395  390.5116
 396  317.332
 397  390.4157
 398  358.5416
 399  304.1413
 400  371.2271
 401  306.3055
 402  343.2867
 403  425.3903
 404  389.8736
 405  381.9066
 406  433.5262
 407  429.381
 408  378.312
 409  264.9195
 410  311.2189
 411  259.2359
 412  218.1646
 413  419.5849
 414  379.3266
 415  239.5905
 416  204.7084
 417  278.8023
 418  369.6575
 419  277.6754
 420  319.3615
 421  450.6128
 422  496.724
 423  349.326
 424  161.4222
 425  206.9262
 426  353.2435
 427  255.2788
 428  283.0234
 429  352.2513
 430  247.9923
 431  397.3669
 432  295.2759
 433  309.5686
 434  325.102
 435  246.8495
 436  189.6297
 437  128.9702
 438  197.6784
 439  276.8438
 440  353.3422
 441  323.8311
 442  413.8871
 443  313.4097
 444  324.0871
 445  458.7762
 446  339.8506
 447  165.9713
 448  214.1055
 449  147.8788
 450  289.7093
 451  362.2389
 452  436.5913
 453  425.7903
 454  261.6991
 455  298.4315
 456  350.7654
 457  290.8433
 458  421.3332
 459  440.3784
 460  347.0042
 461  344.4986
 462  291.9696
 463  364.4945
 464  396.9353
 465  545.8007
 466  458.0524
 467  254.6131
 468  353.3191
 469  347.0344
 470  316.9941
 471  296.8133
 472  343.9465
 473  304.1479
 474  347.3205
 475  387.9545
 476  435.201
 477  356.742
 478  234.4606
 479  238.9754
 480  304.1736
 481  257.1553
 482  208.9896
 483  287.722
 484  319.7863
 485  307.4793
 486  284.7307
 487  314.3012
 488  387.7281
 489  317.007
 490  239.5875
 491  211.8075
 492  188.8201
 493  174.9524
 494  300.7022
 495  279.5558
 496  196.6806
 497  303.6004
 498  437.4208
 499  394.7678
 500  288.3442
 501  351.1583
 502  330.814
 503  416.4563
 504  510.6687
 505  528.1169
 506  487.0063
 507  467.5461
 508  425.6224
 509  486.3754
 510  650.0972
 511  868.6166
