# Input file       =  1179029680.096024_cleaned.dat
# Candidate        =  PSR_0332+5434
# Telescope        =  AR
# Epoch_topo       =  57890.176644629908
# Epoch_bary       =  N/A
# T_sample         =  0.002
# Data Folded      =  7208960
# Data Avg         =  0.0359044276610271
# Data StdDev      =  1.00002765926845 
# Profile Bins     =  512
# Profile Avg      =  505.614984994205 
# Profile StdDev   =  118.662457819528 
# Reduced chi-sqr  =  0.903
# Prob(Noise)      <  0.943   (~0.0 sigma)
# P_topo (ms)      =  714.5311532453    +/- 0.000115
# P'_topo (s/s)    =  -0                +/- 6.16e-11
# P''_topo (s/s^2) =  0                 +/- 2.77e-14
# P_bary (ms)      =  N/A
# P'_bary (s/s)    =  N/A
# P''_bary (s/s^2) =  N/A
# P_orb (s)        =  N/A
# asin(i)/c (s)    =  N/A
# eccentricity     =  N/A
# w (rad)          =  N/A
# T_peri           =  N/A
######################################################
   0  862.4865
   1  855.1666
   2  856.2009
   3  711.3156
   4  659.6895
   5  593.9361
   6  566.7552
   7  521.7157
   8  502.1266
   9  507.6505
  10  525.2021
  11  651.7326
  12  614.3608
  13  638.3391
  14  562.9024
  15  540.9476
  16  535.7418
  17  537.3361
  18  559.5255
  19  506.3076
  20  528.7971
  21  560.9075
  22  591.9545
  23  473.4475
  24  506.2857
  25  553.0553
  26  475.3925
  27  438.5479
  28  476.681
  29  562.2874
  30  613.8715
  31  633.6212
  32  553.7061
  33  513.1618
  34  430.4001
  35  418.9097
  36  429.7808
  37  540.345
  38  533.7378
  39  456.5281
  40  568.3354
  41  486.5268
  42  560.9415
  43  659.8954
  44  585.61
  45  512.7715
  46  444.7074
  47  541.273
  48  498.7296
  49  477.4024
  50  551.0753
  51  629.6049
  52  559.6337
  53  527.704
  54  587.2692
  55  517.0428
  56  477.1331
  57  597.7047
  58  670.3695
  59  648.9216
  60  555.2776
  61  516.2166
  62  545.3437
  63  510.3735
  64  510.6124
  65  578.9421
  66  510.051
  67  523.8544
  68  536.0204
  69  585.1766
  70  552.09
  71  468.1166
  72  325.7503
  73  389.7763
  74  437.0907
  75  415.8813
  76  478.5419
  77  464.6693
  78  648.2712
  79  615.9478
  80  472.4544
  81  409.6589
  82  377.3837
  83  550.215
  84  464.6328
  85  436.6754
  86  479.6676
  87  516.9646
  88  539.1452
  89  486.554
  90  491.1287
  91  526.3882
  92  575.5203
  93  546.3058
  94  557.1502
  95  474.6511
  96  477.1366
  97  533.7867
  98  533.7137
  99  441.5718
 100  437.5911
 101  429.8374
 102  539.9752
 103  623.5802
 104  517.3397
 105  464.5217
 106  458.2503
 107  574.5685
 108  544.2963
 109  533.4196
 110  449.3356
 111  434.8491
 112  413.6389
 113  515.1762
 114  521.3405
 115  493.9422
 116  447.3441
 117  458.3817
 118  322.8867
 119  428.5767
 120  538.6927
 121  465.8172
 122  344.3719
 123  374.0144
 124  490.1675
 125  480.1987
 126  558.745
 127  642.5373
 128  575.0551
 129  467.0006
 130  496.0516
 131  468.5487
 132  453.8919
 133  520.8765
 134  549.585
 135  494.0958
 136  504.9174
 137  553.6555
 138  414.4313
 139  440.4487
 140  506.8313
 141  659.8528
 142  545.8234
 143  528.035
 144  655.2701
 145  481.7074
 146  443.7083
 147  435.8775
 148  478.8036
 149  589.9588
 150  614.9535
 151  616.7123
 152  627.6995
 153  512.7141
 154  485.1746
 155  458.8924
 156  510.7232
 157  643.9535
 158  478.2663
 159  493.7372
 160  497.8097
 161  504.3218
 162  557.4272
 163  531.7809
 164  452.1397
 165  442.481
 166  482.5071
 167  476.9158
 168  475.385
 169  355.4265
 170  441.8124
 171  465.4526
 172  454.7413
 173  398.8411
 174  377.938
 175  535.3599
 176  471.6093
 177  539.6701
 178  458.563
 179  452.0373
 180  443.3657
 181  458.0072
 182  474.5383
 183  436.3737
 184  479.1844
 185  568.9104
 186  574.8384
 187  487.3808
 188  460.5853
 189  487.6181
 190  584.5148
 191  508.7609
 192  420.4231
 193  528.5309
 194  543.7274
 195  553.5851
 196  450.6556
 197  450.5092
 198  567.5265
 199  480.4099
 200  421.8246
 201  419.1401
 202  545.4022
 203  455.122
 204  384.5847
 205  409.1576
 206  423.3434
 207  441.3761
 208  488.6149
 209  526.4144
 210  531.4104
 211  552.6534
 212  520.1881
 213  523.0644
 214  575.4053
 215  489.3716
 216  534.0099
 217  488.6871
 218  492.339
 219  591.6077
 220  614.4991
 221  474.7119
 222  534.7593
 223  597.2186
 224  553.1021
 225  519.5487
 226  494.7076
 227  635.6433
 228  593.9869
 229  472.254
 230  437.8052
 231  350.3424
 232  440.1845
 233  483.0277
 234  540.9142
 235  522.8251
 236  467.9655
 237  439.8707
 238  307.3296
 239  287.0978
 240  447.6773
 241  598.9021
 242  574.7369
 243  477.0227
 244  469.4078
 245  369.4925
 246  508.3495
 247  684.7603
 248  636.1534
 249  548.5623
 250  525.2542
 251  564.7734
 252  560.1525
 253  537.7176
 254  476.0508
 255  363.1082
 256  506.9629
 257  459.4831
 258  521.682
 259  451.9975
 260  506.9474
 261  488.1549
 262  362.7274
 263  397.3555
 264  462.0695
 265  443.6825
 266  376.6218
 267  443.2478
 268  495.523
 269  502.0455
 270  543.9733
 271  487.7249
 272  506.4261
 273  414.2484
 274  528.0142
 275  562.1825
 276  575.6345
 277  445.4073
 278  551.7603
 279  572.0108
 280  594.1783
 281  488.0197
 282  457.7782
 283  504.0562
 284  539.583
 285  541.1661
 286  512.4577
 287  372.0547
 288  421.1506
 289  496.3997
 290  605.9747
 291  515.6748
 292  540.3866
 293  594.6528
 294  649.0993
 295  579.4849
 296  457.829
 297  378.9764
 298  357.9512
 299  457.1859
 300  480.4256
 301  512.6963
 302  506.4753
 303  526.0543
 304  492.8402
 305  471.2037
 306  453.8209
 307  453.1554
 308  404.2386
 309  482.397
 310  456.2594
 311  443.965
 312  532.1616
 313  608.0303
 314  457.8503
 315  433.232
 316  444.7434
 317  415.7141
 318  507.4978
 319  416.8916
 320  404.5924
 321  423.1973
 322  496.3577
 323  655.779
 324  595.4932
 325  490.9848
 326  549.8912
 327  523.5765
 328  353.394
 329  315.0302
 330  498.341
 331  569.23
 332  473.5386
 333  441.0312
 334  496.8369
 335  372.3592
 336  404.7153
 337  406.7636
 338  491.2968
 339  534.0656
 340  491.371
 341  561.5234
 342  585.5667
 343  512.4092
 344  399.5001
 345  454.3794
 346  388.8859
 347  380.0712
 348  567.8604
 349  555.7404
 350  556.1569
 351  492.1205
 352  527.4666
 353  410.8674
 354  428.061
 355  483.6282
 356  485.5877
 357  577.3626
 358  574.4963
 359  586.5817
 360  532.7941
 361  443.5316
 362  441.5087
 363  447.8996
 364  348.3979
 365  467.6269
 366  579.0652
 367  531.441
 368  630.7019
 369  633.3148
 370  533.7101
 371  418.5314
 372  493.5689
 373  538.0574
 374  505.9196
 375  478.3297
 376  506.1305
 377  469.7474
 378  422.9082
 379  463.5831
 380  474.7876
 381  479.537
 382  498.6409
 383  419.2484
 384  441.649
 385  538.3615
 386  488.4301
 387  529.4829
 388  561.4187
 389  511.8646
 390  453.1823
 391  531.2834
 392  579.7187
 393  540.2993
 394  378.5393
 395  333.6448
 396  475.283
 397  472.8773
 398  416.4545
 399  422.4231
 400  463.948
 401  499.6659
 402  537.1097
 403  493.9668
 404  467.8555
 405  469.7668
 406  422.9382
 407  504.5954
 408  568.7373
 409  454.7016
 410  445.5107
 411  395.3608
 412  468.5149
 413  528.6268
 414  473.8675
 415  437.758
 416  358.5266
 417  429.0353
 418  452.7053
 419  434.5188
 420  551.3232
 421  543.299
 422  468.0938
 423  507.8452
 424  559.7247
 425  439.0876
 426  498.2838
 427  527.4093
 428  446.9596
 429  347.3097
 430  430.5334
 431  463.4147
 432  507.7162
 433  516.596
 434  539.8135
 435  505.8212
 436  500.9291
 437  476.6124
 438  589.2545
 439  463.9443
 440  509.3217
 441  680.1611
 442  675.6039
 443  643.2766
 444  383.127
 445  410.2587
 446  381.011
 447  443.0654
 448  404.1405
 449  525.9022
 450  642.4503
 451  500.6567
 452  385.5516
 453  413.3052
 454  500.6566
 455  571.017
 456  593.368
 457  423.3333
 458  449.9248
 459  613.4415
 460  630.473
 461  634.3509
 462  733.3519
 463  537.278
 464  449.0875
 465  486.3766
 466  438.4139
 467  444.6812
 468  558.1495
 469  472.9109
 470  488.4546
 471  520.5099
 472  489.5035
 473  416.0074
 474  433.4712
 475  512.224
 476  521.5884
 477  470.3865
 478  483.7766
 479  619.9426
 480  512.1962
 481  475.2986
 482  395.0578
 483  475.1818
 484  452.4549
 485  501.0631
 486  478.5247
 487  423.1542
 488  478.4648
 489  479.4252
 490  418.9432
 491  652.988
 492  546.7422
 493  342.6236
 494  444.1763
 495  564.6152
 496  605.609
 497  504.8191
 498  521.0988
 499  562.7436
 500  601.7563
 501  647.1411
 502  539.0382
 503  523.8843
 504  509.9017
 505  727.6335
 506  695.3693
 507  702.6843
 508  663.4931
 509  758.6809
 510  844.5671
 511  795.5833
