# Input file       =  1179891925.097309_cleaned.dat
# Candidate        =  PSR_0332+5434
# Telescope        =  AR
# Epoch_topo       =  57900.156332144783
# Epoch_bary       =  N/A
# T_sample         =  0.002
# Data Folded      =  7208960
# Data Avg         =  0.0300507529057617
# Data StdDev      =  1.00007058878771 
# Profile Bins     =  512
# Profile Avg      =  422.858452293649 
# Profile StdDev   =  118.667551800901 
# Reduced chi-sqr  =  1.096
# Prob(Noise)      <  0.0663   (~1.5 sigma)
# P_topo (ms)      =  714.521330226662  +/- 0.000361
# P'_topo (s/s)    =  -0                +/- 1.94e-10
# P''_topo (s/s^2) =  0                 +/- 8.73e-14
# P_bary (ms)      =  N/A
# P'_bary (s/s)    =  N/A
# P''_bary (s/s^2) =  N/A
# P_orb (s)        =  N/A
# asin(i)/c (s)    =  N/A
# eccentricity     =  N/A
# w (rad)          =  N/A
# T_peri           =  N/A
######################################################
   0  425.9162
   1  461.5673
   2  421.2363
   3  508.6073
   4  513.4875
   5  578.1785
   6  526.5992
   7  472.1547
   8  348.8175
   9  436.9739
  10  402.1254
  11  284.6387
  12  279.2144
  13  320.1685
  14  455.2894
  15  422.0704
  16  379.9499
  17  428.3023
  18  426.7964
  19  501.7527
  20  390.066
  21  337.6731
  22  342.7079
  23  457.5102
  24  358.1725
  25  373.3458
  26  384.296
  27  433.65
  28  363.2365
  29  420.14
  30  464.406
  31  507.5654
  32  526.1844
  33  473.2288
  34  429.9389
  35  410.3674
  36  496.6762
  37  415.7275
  38  396.3854
  39  402.4577
  40  415.8674
  41  482.5823
  42  492.801
  43  551.8106
  44  534.2517
  45  434.2476
  46  422.6074
  47  379.8414
  48  411.2332
  49  423.3345
  50  435.0183
  51  425.5862
  52  398.6294
  53  411.1854
  54  364.4398
  55  428.2417
  56  449.5927
  57  456.6187
  58  399.8282
  59  365.4087
  60  411.5643
  61  466.8354
  62  364.1092
  63  445.7803
  64  491.6853
  65  508.5285
  66  545.6152
  67  411.9115
  68  340.8527
  69  275.5539
  70  337.5031
  71  282.564
  72  308.8053
  73  391.7177
  74  438.772
  75  369.9928
  76  368.3201
  77  322.9945
  78  327.8335
  79  394.1642
  80  472.4216
  81  466.3111
  82  432.4458
  83  467.6122
  84  371.9078
  85  277.8895
  86  343.1709
  87  440.5456
  88  457.1855
  89  461.727
  90  490.3359
  91  375.2527
  92  367.5295
  93  398.8181
  94  452.7285
  95  520.3417
  96  581.7892
  97  484.9101
  98  409.7574
  99  497.8081
 100  472.2952
 101  480.2591
 102  494.5759
 103  562.4642
 104  575.1374
 105  497.7059
 106  521.2008
 107  572.4826
 108  497.7832
 109  567.6764
 110  539.6718
 111  516.9525
 112  617.8292
 113  626.918
 114  588.4269
 115  577.9909
 116  479.6233
 117  452.1271
 118  503.614
 119  592.6265
 120  589.443
 121  547.582
 122  565.1959
 123  488.4447
 124  480.4139
 125  579.8265
 126  479.5761
 127  489.3363
 128  528.1945
 129  479.6025
 130  435.8918
 131  514.0703
 132  420.2964
 133  345.9214
 134  335.396
 135  322.9269
 136  416.755
 137  530.43
 138  421.2078
 139  329.3315
 140  339.8565
 141  260.0908
 142  305.9523
 143  334.4909
 144  382.9224
 145  374.9256
 146  293.4755
 147  391.3019
 148  513.7782
 149  522.6042
 150  502.594
 151  520.493
 152  490.0853
 153  431.3982
 154  439.6363
 155  501.6845
 156  480.5173
 157  416.5732
 158  510.5387
 159  422.1167
 160  492.353
 161  504.1541
 162  497.0333
 163  509.7021
 164  482.9898
 165  452.5391
 166  437.4144
 167  507.6174
 168  356.5749
 169  450.2782
 170  550.9509
 171  597.4868
 172  519.1538
 173  398.7454
 174  330.6916
 175  383.7588
 176  509.6587
 177  423.8926
 178  448.245
 179  510.8438
 180  451.6637
 181  450.7471
 182  502.0172
 183  372.4885
 184  434.5444
 185  512.7274
 186  603.8786
 187  502.4975
 188  501.2751
 189  459.5695
 190  355.5548
 191  343.1768
 192  457.1906
 193  412.8311
 194  504.991
 195  523.78
 196  373.3687
 197  382.6669
 198  427.9418
 199  470.9456
 200  543.3347
 201  591.1794
 202  472.6212
 203  475.3123
 204  492.1632
 205  505.5617
 206  521.4922
 207  617.4881
 208  733.5958
 209  798.1187
 210  898.9819
 211  812.4136
 212  721.2584
 213  599.716
 214  498.441
 215  445.4516
 216  384.7453
 217  404.7125
 218  357.4515
 219  428.9654
 220  326.5388
 221  288.6469
 222  355.4622
 223  319.0075
 224  341.3947
 225  414.8608
 226  387.704
 227  363.7767
 228  345.1445
 229  408.8362
 230  422.1176
 231  357.4137
 232  357.2392
 233  422.2052
 234  435.6445
 235  492.3825
 236  576.686
 237  494.0574
 238  370.8344
 239  349.1971
 240  391.1929
 241  455.7669
 242  504.6326
 243  541.9495
 244  487.4472
 245  521.8777
 246  466.2046
 247  504.1862
 248  493.1241
 249  373.5716
 250  374.3194
 251  359.9448
 252  308.1832
 253  387.0519
 254  331.7515
 255  376.4171
 256  262.7085
 257  288.1076
 258  358.1449
 259  363.9177
 260  279.657
 261  290.239
 262  423.7752
 263  517.4901
 264  509.2124
 265  470.8723
 266  439.1049
 267  271.8127
 268  431.2733
 269  426.9674
 270  332.0457
 271  296.013
 272  444.8042
 273  410.0695
 274  314.0554
 275  306.1086
 276  257.6737
 277  358.4285
 278  424.5221
 279  378.0327
 280  380.6463
 281  281.5625
 282  371.567
 283  414.0403
 284  445.0476
 285  395.4568
 286  451.0692
 287  415.1028
 288  444.5468
 289  316.1749
 290  463.48
 291  482.9087
 292  415.4978
 293  452.7825
 294  490.2613
 295  465.6225
 296  477.4099
 297  333.3758
 298  363.1143
 299  384.297
 300  568.939
 301  598.1951
 302  545.3584
 303  438.0482
 304  447.5523
 305  430.0167
 306  479.2132
 307  514.7545
 308  465.9014
 309  492.6797
 310  491.8142
 311  435.2752
 312  523.8589
 313  378.8575
 314  452.1848
 315  472.9523
 316  455.197
 317  446.7446
 318  475.4002
 319  490.258
 320  544.5476
 321  516.3819
 322  382.837
 323  345.0333
 324  434.779
 325  516.8101
 326  578.5842
 327  540.5184
 328  376.3977
 329  408.973
 330  479.5111
 331  541.8187
 332  514.3096
 333  462.1596
 334  428.7222
 335  349.9631
 336  441.8656
 337  462.1599
 338  405.5989
 339  469.955
 340  445.9341
 341  428.2445
 342  379.1678
 343  373.1793
 344  428.3359
 345  505.7322
 346  495.8542
 347  433.9236
 348  435.8196
 349  383.7354
 350  422.5699
 351  470.2656
 352  440.6727
 353  431.6466
 354  382.3965
 355  285.1565
 356  268.2521
 357  394.2401
 358  406.4339
 359  347.5446
 360  376.3142
 361  493.531
 362  518.7326
 363  457.8746
 364  366.6088
 365  355.9342
 366  501.6166
 367  518.3729
 368  471.6359
 369  486.0382
 370  559.866
 371  491.0087
 372  470.9046
 373  429.0309
 374  491.9765
 375  487.2857
 376  497.5354
 377  475.8799
 378  406.3272
 379  486.0341
 380  467.7415
 381  357.2581
 382  358.6355
 383  455.3292
 384  450.1954
 385  309.8462
 386  399.2516
 387  473.127
 388  419.704
 389  404.8958
 390  458.4344
 391  425.3314
 392  360.2528
 393  306.2141
 394  306.1287
 395  401.7933
 396  486.8908
 397  474.5894
 398  359.5455
 399  298.5802
 400  361.2445
 401  397.1357
 402  430.2824
 403  365.0699
 404  300.4893
 405  376.4821
 406  389.8494
 407  446.1124
 408  489.9002
 409  486.7949
 410  414.4949
 411  407.0764
 412  425.6474
 413  395.3823
 414  316.7704
 415  301.0265
 416  295.9681
 417  142.2667
 418  276.0717
 419  226.4958
 420  249.6643
 421  278.9905
 422  327.5819
 423  352.9781
 424  266.5051
 425  239.0267
 426  266.1762
 427  346.1434
 428  384.4219
 429  269.4063
 430  255.9079
 431  348.7339
 432  425.0068
 433  344.6556
 434  260.6366
 435  380.7466
 436  358.764
 437  292.0568
 438  234.0927
 439  299.7275
 440  376.3111
 441  304.3911
 442  222.9152
 443  260.7422
 444  420.9561
 445  342.4641
 446  343.9084
 447  338.0786
 448  264.2919
 449  305.3251
 450  358.1807
 451  407.1687
 452  438.0007
 453  408.6872
 454  395.0003
 455  410.0424
 456  488.6667
 457  373.5476
 458  359.6015
 459  344.8063
 460  441.218
 461  543.7236
 462  414.2848
 463  340.2089
 464  255.7392
 465  355.9989
 466  421.4437
 467  355.0478
 468  419.6067
 469  406.5679
 470  375.8329
 471  373.3869
 472  476.0258
 473  490.9477
 474  430.3235
 475  302.5703
 476  369.0341
 477  359.7086
 478  423.3807
 479  446.2969
 480  460.2209
 481  387.0116
 482  385.0699
 483  353.8169
 484  336.1726
 485  197.4393
 486  242.7373
 487  205.1134
 488  308.8261
 489  328.3578
 490  371.1909
 491  405.9477
 492  315.9385
 493  307.8172
 494  426.2301
 495  431.3613
 496  423.7609
 497  385.7971
 498  345.0644
 499  309.9835
 500  367.4759
 501  376.608
 502  379.3634
 503  349.6768
 504  272.9168
 505  361.6424
 506  328.4218
 507  332.463
 508  443.9898
 509  437.2683
 510  344.5552
 511  486.3308
