# Input file       =  1179805725.112519_cleaned.dat
# Candidate        =  PSR_0332+5434
# Telescope        =  AR
# Epoch_topo       =  57899.158647135635
# Epoch_bary       =  N/A
# T_sample         =  0.002
# Data Folded      =  7208960
# Data Avg         =  0.0315997909330361
# Data StdDev      =  1.0000627979776  
# Profile Bins     =  512
# Profile Avg      =  445.084927841857 
# Profile StdDev   =  118.666627349794 
# Reduced chi-sqr  =  0.859
# Prob(Noise)      <  0.99   (~0.0 sigma)
# P_topo (ms)      =  714.522316262538  +/- 0.000429
# P'_topo (s/s)    =  -0                +/- 2.3e-10
# P''_topo (s/s^2) =  0                 +/- 1.04e-13
# P_bary (ms)      =  N/A
# P'_bary (s/s)    =  N/A
# P''_bary (s/s^2) =  N/A
# P_orb (s)        =  N/A
# asin(i)/c (s)    =  N/A
# eccentricity     =  N/A
# w (rad)          =  N/A
# T_peri           =  N/A
######################################################
   0  842.0906
   1  683.338
   2  582.2503
   3  480.432
   4  509.3238
   5  548.7614
   6  428.7898
   7  405.9745
   8  401.9259
   9  452.7623
  10  463.1587
  11  495.649
  12  417.1087
  13  466.5435
  14  493.2349
  15  385.7471
  16  488.3219
  17  554.7386
  18  457.0662
  19  509.2802
  20  401.5792
  21  291.0902
  22  530.3586
  23  546.5593
  24  474.8643
  25  470.3115
  26  404.7926
  27  454.9366
  28  329.33
  29  432.9973
  30  486.9123
  31  560.1223
  32  443.0921
  33  367.5072
  34  429.1094
  35  466.8882
  36  427.0916
  37  413.8881
  38  429.7419
  39  521.1575
  40  474.4617
  41  376.1138
  42  331.6627
  43  391.8233
  44  324.6591
  45  315.9506
  46  363.448
  47  388.97
  48  325.7681
  49  409.2635
  50  391.3612
  51  404.1423
  52  450.7729
  53  513.2722
  54  467.4358
  55  515.9619
  56  610.2902
  57  541.8308
  58  501.9234
  59  462.2671
  60  532.8932
  61  479.4465
  62  441.55
  63  434.9779
  64  522.0509
  65  430.3383
  66  409.6207
  67  462.1184
  68  396.0817
  69  435.0407
  70  417.1991
  71  518.7348
  72  502.5847
  73  470.4333
  74  485.8845
  75  327.8138
  76  407.8217
  77  505.1385
  78  398.0791
  79  424.3424
  80  430.2867
  81  402.8636
  82  398.5637
  83  388.1978
  84  363.7254
  85  352.5243
  86  408.3742
  87  442.094
  88  439.921
  89  472.8412
  90  499.6704
  91  425.8482
  92  397.9234
  93  366.687
  94  450.14
  95  455.1421
  96  473.9313
  97  446.1608
  98  414.2487
  99  471.2271
 100  358.3131
 101  313.0887
 102  347.1979
 103  473.7484
 104  499.1855
 105  481.0088
 106  452.6359
 107  435.4394
 108  519.8397
 109  483.9391
 110  526.4041
 111  510.2183
 112  598.6945
 113  550.5679
 114  444.9991
 115  381.4966
 116  458.8718
 117  519.3162
 118  488.9881
 119  573.5551
 120  518.7115
 121  460.8528
 122  461.9899
 123  462.1593
 124  543.1025
 125  570.5487
 126  608.2644
 127  526.6047
 128  398.3087
 129  434.5368
 130  455.9234
 131  457.4267
 132  468.7607
 133  363.9554
 134  315.3311
 135  359.0163
 136  398.4951
 137  384.7819
 138  492.9265
 139  497.7957
 140  463.9801
 141  434.7996
 142  334.9662
 143  561.2338
 144  581.819
 145  488.1939
 146  510.2996
 147  470.0873
 148  512.3852
 149  600.22
 150  486.6479
 151  498.4113
 152  531.0076
 153  515.8821
 154  418.1121
 155  331.1191
 156  383.7884
 157  366.6974
 158  334.7011
 159  353.0019
 160  373.456
 161  461.3639
 162  333.251
 163  386.9756
 164  389.5252
 165  359.687
 166  321.2579
 167  379.7235
 168  397.7881
 169  301.169
 170  297.0229
 171  370.707
 172  391.7396
 173  441.867
 174  415.2024
 175  418.1923
 176  428.3582
 177  341.5916
 178  372.837
 179  436.2528
 180  434.328
 181  373.0647
 182  307.5014
 183  399.2605
 184  501.0266
 185  503.1028
 186  600.8923
 187  524.6663
 188  300.4027
 189  266.8321
 190  322.2178
 191  478.3288
 192  489.3042
 193  509.6712
 194  490.4019
 195  445.5216
 196  419.6499
 197  401.7046
 198  429.6712
 199  507.8019
 200  456.5485
 201  399.6303
 202  364.3407
 203  432.0057
 204  461.3878
 205  502.668
 206  450.6186
 207  471.3461
 208  570.6833
 209  502.067
 210  395.2838
 211  358.6786
 212  399.2764
 213  390.9816
 214  459.5708
 215  389.0162
 216  317.6512
 217  377.7801
 218  452.7164
 219  394.1028
 220  334.4769
 221  393.5784
 222  347.1683
 223  357.7957
 224  360.154
 225  461.6482
 226  535.2927
 227  499.5746
 228  404.7141
 229  483.5222
 230  432.4042
 231  333.3824
 232  414.7217
 233  408.7039
 234  421.9077
 235  513.8876
 236  496.1236
 237  431.9797
 238  380.4939
 239  381.9697
 240  380.7043
 241  451.317
 242  457.7353
 243  446.9164
 244  372.1868
 245  253.9394
 246  309.0808
 247  283.752
 248  299.9768
 249  278.1635
 250  385.1704
 251  456.3323
 252  297.0414
 253  300.4853
 254  301.6998
 255  304.3603
 256  251.7606
 257  333.8942
 258  318.5911
 259  418.5723
 260  437.5178
 261  466.1686
 262  400.0595
 263  450.6893
 264  460.1339
 265  386.8896
 266  506.5847
 267  606.5401
 268  450.401
 269  472.5062
 270  450.9233
 271  527.4561
 272  403.9917
 273  362.7733
 274  509.5954
 275  631.9071
 276  624.6818
 277  481.7071
 278  536.1617
 279  536.5173
 280  456.1158
 281  429.8858
 282  499.5699
 283  455.9207
 284  404.6085
 285  371.9561
 286  425.7661
 287  463.4979
 288  511.5175
 289  558.559
 290  503.3339
 291  520.6234
 292  464.7488
 293  481.0621
 294  373.7156
 295  391.4478
 296  464.9442
 297  380.9619
 298  395.0573
 299  246.2753
 300  275.7145
 301  325.3978
 302  333.6885
 303  369.0022
 304  475.7349
 305  456.2147
 306  344.9407
 307  312.2623
 308  345.1185
 309  480.1059
 310  506.5105
 311  453.1623
 312  437.2905
 313  477.3061
 314  433.4524
 315  337.9044
 316  450.6834
 317  508.6433
 318  446.8018
 319  549.0945
 320  622.2319
 321  544.4236
 322  533.457
 323  487.5865
 324  549.8092
 325  681.7808
 326  520.3224
 327  381.3007
 328  377.7472
 329  431.3717
 330  422.4133
 331  434.1635
 332  388.098
 333  415.1198
 334  421.2768
 335  454.3657
 336  514.2318
 337  608.9294
 338  441.2932
 339  351.6111
 340  409.3849
 341  425.6687
 342  361.291
 343  362.0252
 344  389.1785
 345  376.4042
 346  377.7775
 347  361.1373
 348  341.9249
 349  290.07
 350  291.3105
 351  334.9673
 352  333.3486
 353  377.8415
 354  405.0545
 355  399.4797
 356  463.407
 357  498.8619
 358  441.1296
 359  373.9764
 360  374.2706
 361  444.4484
 362  473.4104
 363  400.5035
 364  364.4435
 365  435.5206
 366  389.2623
 367  462.9217
 368  538.3347
 369  484.3816
 370  472.4987
 371  368.9028
 372  438.6964
 373  567.3165
 374  535.4391
 375  462.1935
 376  546.8645
 377  564.5346
 378  496.7385
 379  387.3634
 380  378.7675
 381  346.2903
 382  401.8974
 383  387.1971
 384  483.1664
 385  597.1104
 386  434.1709
 387  354.1555
 388  387.7546
 389  416.6907
 390  462.9834
 391  554.7147
 392  525.533
 393  466.9568
 394  384.2806
 395  419.8904
 396  533.8967
 397  576.6539
 398  528.2525
 399  483.2984
 400  503.3954
 401  615.4632
 402  469.5611
 403  419.9614
 404  473.4565
 405  501.9718
 406  467.1496
 407  434.5839
 408  486.1075
 409  503.9827
 410  453.9361
 411  541.9938
 412  477.0475
 413  433.7372
 414  492.2273
 415  623.7217
 416  557.6123
 417  444.225
 418  371.1179
 419  433.3445
 420  527.9222
 421  507.5383
 422  574.1947
 423  460.5871
 424  472.3989
 425  456.2249
 426  514.18
 427  464.6526
 428  471.5991
 429  438.8248
 430  469.3125
 431  476.39
 432  456.2135
 433  532.329
 434  499.5506
 435  567.992
 436  595.6963
 437  422.4462
 438  377.2918
 439  281.2865
 440  385.1084
 441  493.3664
 442  407.0663
 443  591.8776
 444  517.9536
 445  475.0624
 446  438.6308
 447  455.1514
 448  435.8925
 449  359.9576
 450  423.9074
 451  465.5193
 452  598.4419
 453  496.403
 454  413.412
 455  452.5793
 456  398.4429
 457  384.7682
 458  522.8054
 459  507.3372
 460  355.4341
 461  336.3389
 462  320.7132
 463  435.2168
 464  383.4812
 465  387.5073
 466  483.1192
 467  441.7847
 468  442.5233
 469  401.3693
 470  417.3946
 471  405.5507
 472  342.5511
 473  434.6075
 474  407.6546
 475  339.2247
 476  443.4377
 477  449.2612
 478  401.6414
 479  428.192
 480  479.2716
 481  465.2889
 482  377.7848
 483  447.6097
 484  501.9798
 485  430.071
 486  476.956
 487  529.6213
 488  527.5227
 489  497.3477
 490  491.1209
 491  565.7557
 492  497.3889
 493  453.2829
 494  451.8273
 495  581.4481
 496  446.4463
 497  382.572
 498  398.6706
 499  413.1847
 500  444.0891
 501  431.989
 502  428.1163
 503  442.4382
 504  588.4125
 505  587.5748
 506  546.7262
 507  533.5156
 508  585.5279
 509  588.8382
 510  657.4043
 511  780.572
