# Input file       =  1179202078.094115_cleaned.dat
# Candidate        =  PSR_0332+5434
# Telescope        =  AR
# Epoch_topo       =  57892.171991830037
# Epoch_bary       =  N/A
# T_sample         =  0.002
# Data Folded      =  7208960
# Data Avg         =  0.0337080062573132
# Data StdDev      =  1.00003556689963 
# Profile Bins     =  512
# Profile Avg      =  474.553062218028 
# Profile StdDev   =  118.663396132526 
# Reduced chi-sqr  =  1.072
# Prob(Noise)      <  0.127   (~1.1 sigma)
# P_topo (ms)      =  714.529208118668  +/- 6.44e-05
# P'_topo (s/s)    =  -0                +/- 3.46e-11
# P''_topo (s/s^2) =  0                 +/- 1.55e-14
# P_bary (ms)      =  N/A
# P'_bary (s/s)    =  N/A
# P''_bary (s/s^2) =  N/A
# P_orb (s)        =  N/A
# asin(i)/c (s)    =  N/A
# eccentricity     =  N/A
# w (rad)          =  N/A
# T_peri           =  N/A
######################################################
   0  503.381
   1  546.5097
   2  526.2672
   3  481.9459
   4  532.4829
   5  490.1394
   6  550.347
   7  423.5941
   8  519.7986
   9  518.0143
  10  448.7136
  11  421.9315
  12  448.1839
  13  464.7036
  14  388.9879
  15  417.7416
  16  370.3596
  17  420.7726
  18  396.7178
  19  451.3356
  20  257.912
  21  418.8595
  22  525.3892
  23  440.5864
  24  341.1052
  25  256.0979
  26  355.4404
  27  344.7888
  28  316.7991
  29  344.0504
  30  345.5234
  31  491.3011
  32  474.5554
  33  420.402
  34  489.4365
  35  377.5534
  36  316.3002
  37  323.5653
  38  369.0593
  39  440.3229
  40  532.3793
  41  544.7717
  42  386.15
  43  325.0073
  44  383.8959
  45  424.9624
  46  369.4732
  47  398.1339
  48  544.5248
  49  434.6008
  50  475.8558
  51  521.9214
  52  566.3961
  53  457.4203
  54  402.4506
  55  460.5882
  56  514.7897
  57  455.5272
  58  418.4384
  59  500.7934
  60  508.9009
  61  411.6027
  62  423.1591
  63  539.7542
  64  574.1219
  65  588.4077
  66  622.9517
  67  501.2028
  68  448.7505
  69  533.7657
  70  517.2408
  71  415.807
  72  470.7623
  73  533.3213
  74  460.8926
  75  484.7856
  76  456.7612
  77  378.2304
  78  454.902
  79  427.499
  80  489.0807
  81  549.6483
  82  495.8926
  83  519.5394
  84  509.0151
  85  562.1229
  86  601.0623
  87  543.2148
  88  491.9624
  89  478.7602
  90  571.6564
  91  628.4983
  92  537.3052
  93  490.4142
  94  537.0652
  95  517.9007
  96  504.0799
  97  609.6696
  98  609.8224
  99  609.3068
 100  572.3956
 101  491.8722
 102  503.2624
 103  505.8268
 104  441.3054
 105  442.1308
 106  526.291
 107  512.5923
 108  522.8635
 109  428.9571
 110  359.4391
 111  384.3646
 112  485.1891
 113  443.7725
 114  527.9339
 115  474.1854
 116  496.067
 117  392.1978
 118  309.3549
 119  430.2184
 120  494.3484
 121  543.4459
 122  407.0587
 123  406.9446
 124  455.1448
 125  382.7299
 126  404.0955
 127  442.4278
 128  423.0078
 129  455.5844
 130  537.5958
 131  562.3272
 132  511.787
 133  462.9256
 134  386.4415
 135  425.1516
 136  479.1551
 137  488.93
 138  455.9033
 139  458.8324
 140  404.8649
 141  537.9666
 142  445.0568
 143  437.1978
 144  325.58
 145  390.585
 146  425.9496
 147  499.6069
 148  664.5764
 149  521.4338
 150  529.2449
 151  552.8733
 152  484.516
 153  460.4812
 154  541.3076
 155  551.1945
 156  456.5294
 157  431.9836
 158  478.858
 159  500.7879
 160  371.5737
 161  328.525
 162  470.1206
 163  601.0031
 164  612.7808
 165  643.1631
 166  551.8535
 167  455.7856
 168  409.6931
 169  318.0735
 170  347.1905
 171  484.8706
 172  561.288
 173  454.5284
 174  411.8744
 175  431.0878
 176  473.5703
 177  400.4732
 178  328.1436
 179  504.8344
 180  545.5217
 181  511.0562
 182  397.7147
 183  509.1412
 184  444.3456
 185  362.6972
 186  359.1806
 187  391.2281
 188  504.0584
 189  485.2475
 190  464.3105
 191  411.1138
 192  434.6434
 193  298.617
 194  370.4037
 195  511.0942
 196  545.2649
 197  576.1148
 198  603.0137
 199  420.9919
 200  325.8475
 201  362.6116
 202  442.749
 203  365.6071
 204  386.5309
 205  469.4333
 206  466.6661
 207  490.5688
 208  454.7275
 209  393.8873
 210  335.5385
 211  373.3527
 212  477.0508
 213  483.8868
 214  475.4571
 215  493.4473
 216  499.9712
 217  482.916
 218  544.5121
 219  501.2886
 220  511.0986
 221  462.3099
 222  454.3773
 223  497.332
 224  570.4661
 225  422.6952
 226  474.9691
 227  391.0772
 228  437.0167
 229  512.5812
 230  578.3411
 231  562.2466
 232  574.4653
 233  524.1752
 234  553.0717
 235  586.7136
 236  554.5231
 237  539.4745
 238  413.5376
 239  435.3763
 240  469.0507
 241  390.2628
 242  312.2611
 243  285.0359
 244  373.5158
 245  471.6628
 246  466.2274
 247  325.7102
 248  328.5851
 249  434.0936
 250  444.7771
 251  415.6076
 252  410.6652
 253  416.3079
 254  508.2903
 255  477.9598
 256  385.6039
 257  322.2467
 258  390.1378
 259  396.0073
 260  413.7806
 261  375.2027
 262  386.0395
 263  384.8496
 264  448.6697
 265  390.5947
 266  282.6185
 267  370.795
 268  467.6515
 269  430.4449
 270  327.3534
 271  385.9872
 272  421.3419
 273  357.6222
 274  378.7513
 275  516.6547
 276  466.1755
 277  469.7817
 278  454.3139
 279  554.767
 280  439.4867
 281  415.0141
 282  457.3952
 283  413.0322
 284  363.2152
 285  254.8437
 286  323.5815
 287  395.5711
 288  447.1552
 289  513.6878
 290  539.7823
 291  493.4886
 292  419.7921
 293  313.8669
 294  261.9182
 295  393.6972
 296  435.8846
 297  435.2482
 298  461.2981
 299  422.8269
 300  360.5359
 301  351.0865
 302  425.1045
 303  399.6506
 304  544.0096
 305  509.4287
 306  523.3802
 307  412.354
 308  373.4466
 309  514.4286
 310  423.3693
 311  492.9077
 312  556.5047
 313  536.1588
 314  509.0281
 315  585.585
 316  550.697
 317  484.5846
 318  520.8889
 319  419.6657
 320  464.0198
 321  475.385
 322  514.3114
 323  514.8087
 324  433.1943
 325  357.4743
 326  362.4305
 327  456.3717
 328  571.5026
 329  597.2003
 330  609.9784
 331  610.0775
 332  540.0212
 333  443.1345
 334  381.0205
 335  388.613
 336  455.5597
 337  485.3033
 338  454.6669
 339  450.8596
 340  453.9543
 341  428.3498
 342  453.6174
 343  562.1546
 344  480.983
 345  600.0006
 346  560.97
 347  480.5727
 348  495.6245
 349  543.899
 350  471.6942
 351  458.8911
 352  560.0076
 353  569.0341
 354  514.3465
 355  495.0564
 356  518.2819
 357  439.1477
 358  582.4261
 359  600.2636
 360  481.0768
 361  478.8828
 362  591.556
 363  532.3026
 364  495.2467
 365  580.9169
 366  516.7277
 367  397.8451
 368  435.7319
 369  566.0193
 370  544.0214
 371  579.8582
 372  558.3871
 373  498.0081
 374  461.6122
 375  419.3957
 376  431.6155
 377  450.5803
 378  475.0609
 379  556.1759
 380  587.7521
 381  559.7336
 382  408.1429
 383  355.8868
 384  486.247
 385  490.7493
 386  540.4028
 387  574.6426
 388  583.0862
 389  504.4016
 390  453.816
 391  462.7945
 392  409.2513
 393  452.4973
 394  451.4227
 395  513.6763
 396  575.8761
 397  574.2092
 398  475.393
 399  463.4658
 400  448.4615
 401  477.4214
 402  480.9552
 403  527.2463
 404  464.9099
 405  474.6106
 406  490.389
 407  378.0841
 408  439.3264
 409  378.8002
 410  447.5033
 411  488.4059
 412  496.2698
 413  418.4618
 414  400.4006
 415  366.1022
 416  338.6774
 417  405.4419
 418  584.1654
 419  581.9595
 420  505.6996
 421  547.6636
 422  537.1799
 423  416.2695
 424  413.0597
 425  527.7207
 426  557.0684
 427  570.924
 428  603.8519
 429  620.1597
 430  619.7346
 431  524.7083
 432  496.0507
 433  572.8938
 434  534.8443
 435  526.8785
 436  478.8255
 437  480.4216
 438  479.478
 439  450.6454
 440  475.2284
 441  462.0895
 442  469.7051
 443  429.9825
 444  527.9031
 445  593.9582
 446  598.5235
 447  549.9817
 448  465.8483
 449  439.7012
 450  445.7431
 451  493.6544
 452  486.2857
 453  456.0555
 454  473.0144
 455  468.6187
 456  405.9998
 457  492.1535
 458  384.3216
 459  499.3706
 460  617.5681
 461  539.6602
 462  590.0424
 463  655.3442
 464  553.9274
 465  425.7159
 466  484.2911
 467  443.7759
 468  529.2262
 469  526.0713
 470  593.5954
 471  530.4963
 472  498.04
 473  438.7365
 474  427.195
 475  330.4224
 476  353.9117
 477  467.58
 478  557.4494
 479  531.1352
 480  533.9772
 481  490.6509
 482  370.9424
 483  366.4177
 484  412.5881
 485  486.4509
 486  499.9129
 487  431.4188
 488  293.2174
 489  355.3789
 490  371.9461
 491  482.9545
 492  508.7511
 493  513.0351
 494  515.4293
 495  518.9596
 496  584.4969
 497  611.2618
 498  663.1728
 499  512.959
 500  750.9098
 501  936.4203
 502  990.2712
 503  930.7559
 504  918.2902
 505  772.1624
 506  652.9823
 507  488.6807
 508  531.9108
 509  529.8704
 510  382.8679
 511  526.8146
