# Input file       =  1179977562.10106_cleaned.dat
# Candidate        =  PSR_0332+5434
# Telescope        =  AR
# Epoch_topo       =  57901.147501169675
# Epoch_bary       =  N/A
# T_sample         =  0.002
# Data Folded      =  7208960
# Data Avg         =  0.0327536806756122
# Data StdDev      =  1.0009281716772  
# Profile Bins     =  512
# Profile Avg      =  461.140850483073 
# Profile StdDev   =  118.769311879743 
# Reduced chi-sqr  =  1.309
# Prob(Noise)      <  3.02e-06   (~4.5 sigma)
# P_topo (ms)      =  714.520356475333  +/- 6.4e-05
# P'_topo (s/s)    =  -0                +/- 3.44e-11
# P''_topo (s/s^2) =  0                 +/- 1.55e-14
# P_bary (ms)      =  N/A
# P'_bary (s/s)    =  N/A
# P''_bary (s/s^2) =  N/A
# P_orb (s)        =  N/A
# asin(i)/c (s)    =  N/A
# eccentricity     =  N/A
# w (rad)          =  N/A
# T_peri           =  N/A
######################################################
   0  959.6578
   1  913.6052
   2  755.5572
   3  553.7139
   4  523.303
   5  528.7787
   6  474.6285
   7  473.7557
   8  447.9097
   9  413.3103
  10  524.7178
  11  579.2949
  12  426.6999
  13  488.3139
  14  688.2347
  15  632.3173
  16  558.1435
  17  485.5717
  18  508.7921
  19  416.9091
  20  363.0252
  21  411.4165
  22  491.0762
  23  514.8074
  24  514.0347
  25  390.3912
  26  376.9003
  27  392.7005
  28  434.4617
  29  467.4872
  30  500.4409
  31  487.205
  32  481.6787
  33  455.9646
  34  334.9842
  35  357.3367
  36  210.7742
  37  237.472
  38  362.6502
  39  504.2894
  40  414.5388
  41  297.6394
  42  230.071
  43  353.6674
  44  405.5685
  45  413.3331
  46  395.2661
  47  359.6038
  48  443.5071
  49  333.966
  50  265.5259
  51  346.9716
  52  238.8758
  53  305.6797
  54  436.2268
  55  536.5978
  56  502.9431
  57  419.0982
  58  341.9733
  59  336.0128
  60  395.0896
  61  536.8022
  62  623.1165
  63  516.011
  64  495.7727
  65  487.7171
  66  488.7582
  67  394.6226
  68  411.8711
  69  402.3471
  70  408.4847
  71  524.2047
  72  536.6885
  73  495.5095
  74  525.0349
  75  494.4459
  76  491.8562
  77  446.2915
  78  476.0291
  79  434.688
  80  474.9232
  81  550.9426
  82  573.2615
  83  473.6526
  84  419.4603
  85  419.9737
  86  474.0757
  87  604.2142
  88  681.2551
  89  666.7775
  90  490.7514
  91  370.0296
  92  221.346
  93  429.7631
  94  628.1575
  95  618.7975
  96  592.8523
  97  590.1321
  98  495.2522
  99  436.686
 100  553.146
 101  485.3385
 102  505.8952
 103  548.0947
 104  617.4025
 105  651.0333
 106  430.4453
 107  307.5491
 108  328.4344
 109  413.8441
 110  572.6546
 111  585.366
 112  513.0372
 113  524.9911
 114  478.958
 115  416.565
 116  367.9085
 117  377.5247
 118  305.3869
 119  184.9066
 120  286.2804
 121  446.3804
 122  312.6074
 123  224.6988
 124  281.3398
 125  367.8994
 126  303.5942
 127  355.3075
 128  356.5577
 129  444.5812
 130  388.0386
 131  249.3121
 132  301.1794
 133  404.5482
 134  409.702
 135  438.3195
 136  406.5939
 137  443.1795
 138  460.7786
 139  407.6375
 140  393.8997
 141  393.0536
 142  378.6003
 143  409.5491
 144  470.6386
 145  529.0193
 146  603.6793
 147  608.5367
 148  441.6281
 149  374.192
 150  318.2238
 151  393.2386
 152  520.5746
 153  466.7303
 154  526.5383
 155  499.0657
 156  522.0707
 157  532.7087
 158  404.3245
 159  343.3864
 160  508.4587
 161  526.8155
 162  595.8295
 163  548.1002
 164  513.0396
 165  368.9865
 166  340.8896
 167  408.1303
 168  389.8997
 169  534.674
 170  451.4962
 171  389.7437
 172  514.9514
 173  544.1243
 174  424.6708
 175  452.7445
 176  524.0034
 177  567.8695
 178  554.9633
 179  517.3716
 180  479.5496
 181  472.8922
 182  483.3766
 183  482.8698
 184  502.2961
 185  357.7375
 186  361.1599
 187  404.6239
 188  568.5835
 189  541.5958
 190  473.3999
 191  521.5353
 192  482.7078
 193  470.3437
 194  563.2223
 195  597.5176
 196  571.2314
 197  518.1475
 198  422.587
 199  543.7573
 200  546.7545
 201  444.0578
 202  516.8512
 203  527.4006
 204  463.7538
 205  541.8312
 206  585.883
 207  528.2491
 208  481.7448
 209  413.6677
 210  540.3751
 211  443.6985
 212  467.278
 213  602.642
 214  545.382
 215  476.2271
 216  495.9373
 217  497.8835
 218  518.563
 219  510.9142
 220  531.2681
 221  520.2267
 222  621.8412
 223  564.5997
 224  484.325
 225  525.0103
 226  569.6691
 227  680.8405
 228  711.8452
 229  697.4744
 230  538.567
 231  451.3348
 232  454.2834
 233  456.3048
 234  504.4883
 235  498.3915
 236  509.7366
 237  562.3357
 238  522.356
 239  472.4412
 240  537.6588
 241  624.9191
 242  533.9235
 243  525.0189
 244  535.0187
 245  551.212
 246  520.9432
 247  484.5469
 248  431.6161
 249  366.8566
 250  399.1457
 251  391.0583
 252  415.3134
 253  548.7664
 254  485.2101
 255  504.352
 256  530.8274
 257  474.0852
 258  408.5981
 259  285.027
 260  402.8246
 261  476.8842
 262  514.1323
 263  419.513
 264  414.3401
 265  447.9991
 266  543.9802
 267  370.5187
 268  166.1181
 269  449.752
 270  625.5385
 271  537.9489
 272  488.2073
 273  355.9152
 274  441.3547
 275  471.4973
 276  474.9677
 277  551.0173
 278  568.852
 279  540.1264
 280  566.5466
 281  483.5921
 282  426.2724
 283  426.5531
 284  359.039
 285  357.7797
 286  441.139
 287  401.3524
 288  444.8097
 289  440.9422
 290  375.7913
 291  300.4252
 292  403.8705
 293  445.0992
 294  494.6017
 295  376.326
 296  389.0894
 297  412.2308
 298  365.5483
 299  413.309
 300  394.2441
 301  357.8993
 302  493.9458
 303  420.0052
 304  426.6616
 305  482.9826
 306  485.8217
 307  335.0153
 308  456.5184
 309  583.2576
 310  533.1144
 311  462.995
 312  376.4131
 313  330.9319
 314  342.5562
 315  380.2397
 316  424.9901
 317  441.9514
 318  432.5806
 319  544.5966
 320  475.4586
 321  535.1576
 322  533.2371
 323  435.7805
 324  431.5638
 325  478.7382
 326  440.5832
 327  452.3506
 328  495.714
 329  490.0862
 330  392.0797
 331  397.8976
 332  365.2725
 333  169.1738
 334  210.2783
 335  375.7822
 336  499.5013
 337  499.6295
 338  511.6996
 339  575.4653
 340  374.7917
 341  430.4506
 342  495.0038
 343  344.3763
 344  528.2394
 345  615.5126
 346  525.5562
 347  305.8667
 348  387.2111
 349  454.7051
 350  498.7222
 351  488.1241
 352  430.8943
 353  521.9836
 354  478.9128
 355  490.2692
 356  491.6987
 357  488.2193
 358  560.9188
 359  471.2923
 360  553.9717
 361  583.8783
 362  469.782
 363  496.4622
 364  488.1845
 365  502.0266
 366  436.2279
 367  409.9109
 368  505.48
 369  529.7263
 370  436.5394
 371  408.8372
 372  402.913
 373  516.9076
 374  475.6172
 375  453.9415
 376  556.8694
 377  493.2544
 378  410.1915
 379  495.0723
 380  486.2106
 381  331.8388
 382  364.9449
 383  360.9926
 384  380.671
 385  406.8446
 386  447.6855
 387  470.174
 388  365.968
 389  307.1892
 390  350.792
 391  464.6335
 392  512.4092
 393  445.2083
 394  386.4918
 395  519.5939
 396  520.4258
 397  431.2144
 398  431.8488
 399  353.8186
 400  418.8423
 401  610.2382
 402  692.1389
 403  549.5833
 404  506.8282
 405  498.9552
 406  417.7624
 407  326.1677
 408  435.7279
 409  472.1401
 410  402.53
 411  427.1964
 412  441.2361
 413  509.3264
 414  481.901
 415  385.6728
 416  250.4011
 417  430.4599
 418  473.6284
 419  356.8781
 420  422.3293
 421  386.9846
 422  365.075
 423  356.1601
 424  391.6549
 425  368.3626
 426  469.57
 427  515.608
 428  397.2943
 429  443.1957
 430  447.7838
 431  357.2518
 432  429.5088
 433  416.605
 434  423.9905
 435  495.9386
 436  511.1708
 437  401.393
 438  376.1427
 439  327.8544
 440  364.679
 441  409.7126
 442  450.2507
 443  682.5012
 444  567.7456
 445  417.1973
 446  534.7163
 447  598.1713
 448  606.2218
 449  514.6431
 450  339.8892
 451  466.138
 452  556.4292
 453  506.8019
 454  411.5863
 455  361.181
 456  393.7773
 457  387.9015
 458  457.2194
 459  544.563
 460  465.1844
 461  424.2073
 462  389.2915
 463  276.5264
 464  466.2447
 465  457.8946
 466  401.5135
 467  447.4488
 468  512.5934
 469  434.1457
 470  467.3264
 471  434.2962
 472  400.2817
 473  421.3925
 474  497.0577
 475  465.8053
 476  600.7048
 477  561.2966
 478  455.9015
 479  353.5147
 480  370.9826
 481  387.0367
 482  454.9842
 483  500.4278
 484  495.7448
 485  449.1817
 486  489.8478
 487  444.9708
 488  499.7167
 489  456.9461
 490  379.5532
 491  402.8943
 492  444.0649
 493  486.1616
 494  497.6437
 495  533.4965
 496  430.6827
 497  372.5475
 498  429.2207
 499  415.59
 500  395.1312
 501  405.4358
 502  337.1485
 503  402.5286
 504  380.8008
 505  371.6049
 506  399.1459
 507  438.334
 508  640.2466
 509  755.7264
 510  848.8418
 511  1006.434
