# Input file       =  1179460511.106845_cleaned.dat
# Candidate        =  PSR_0332+5434
# Telescope        =  AR
# Epoch_topo       =  57895.163114662559
# Epoch_bary       =  N/A
# T_sample         =  0.002
# Data Folded      =  7208960
# Data Avg         =  0.0326435599243474
# Data StdDev      =  1.00003793896173 
# Profile Bins     =  512
# Profile Avg      =  459.622526909046 
# Profile StdDev   =  118.66367759946  
# Reduced chi-sqr  =  1.007
# Prob(Noise)      <  0.449   (~0.1 sigma)
# P_topo (ms)      =  714.526272234318  +/- 0.000181
# P'_topo (s/s)    =  -0                +/- 9.75e-11
# P''_topo (s/s^2) =  0                 +/- 4.38e-14
# P_bary (ms)      =  N/A
# P'_bary (s/s)    =  N/A
# P''_bary (s/s^2) =  N/A
# P_orb (s)        =  N/A
# asin(i)/c (s)    =  N/A
# eccentricity     =  N/A
# w (rad)          =  N/A
# T_peri           =  N/A
######################################################
   0  469.2284
   1  547.313
   2  473.2455
   3  527.7988
   4  489.7018
   5  410.4181
   6  397.9099
   7  450.3447
   8  447.1464
   9  469.3148
  10  488.4875
  11  487.8154
  12  452.1917
  13  372.9799
  14  459.1518
  15  508.1758
  16  532.277
  17  504.9932
  18  494.6184
  19  529.4608
  20  594.5714
  21  585.4557
  22  498.7433
  23  452.3535
  24  457.7406
  25  529.7974
  26  541.4365
  27  463.4296
  28  447.6874
  29  415.6851
  30  354.7795
  31  362.5018
  32  511.0699
  33  513.665
  34  455.2109
  35  481.8895
  36  482.5666
  37  406.2002
  38  462.5778
  39  425.4961
  40  388.2697
  41  346.5708
  42  369.9455
  43  540.5273
  44  558.6368
  45  658.017
  46  455.2407
  47  422.1236
  48  375.9141
  49  376.7806
  50  353.0153
  51  420.8584
  52  464.2136
  53  490.8113
  54  447.3864
  55  407.3944
  56  413.9601
  57  457.7844
  58  383.8068
  59  362.2704
  60  470.8284
  61  427.0722
  62  456.8832
  63  395.3009
  64  342.5899
  65  472.611
  66  466.4345
  67  359.9209
  68  353.5027
  69  465.3612
  70  479.1981
  71  528.1721
  72  483.3885
  73  540.1289
  74  521.7914
  75  591.2838
  76  573.4016
  77  534.538
  78  554.1389
  79  475.0149
  80  492.3834
  81  580.157
  82  634.8176
  83  503.949
  84  431.5306
  85  540.683
  86  491.141
  87  539.7283
  88  419.4246
  89  365.9319
  90  533.6419
  91  604.4667
  92  496.108
  93  493.8249
  94  530.1482
  95  531.7927
  96  450.794
  97  435.6108
  98  433.739
  99  523.9606
 100  480.8622
 101  529.8488
 102  496.1146
 103  444.1594
 104  389.7288
 105  345.6156
 106  344.2767
 107  497.8917
 108  525.3397
 109  497.964
 110  471.1766
 111  525.4948
 112  485.5071
 113  479.9248
 114  631.2737
 115  622.0219
 116  543.2968
 117  638.0536
 118  684.774
 119  649.054
 120  546.8948
 121  570.1472
 122  580.0276
 123  539.1588
 124  615.5068
 125  664.6561
 126  596.9938
 127  617.5049
 128  618.6454
 129  609.0038
 130  547.1747
 131  545.4366
 132  504.9184
 133  596.5917
 134  560.0894
 135  593.7231
 136  489.1282
 137  428.6059
 138  400.9684
 139  485.2946
 140  557.4263
 141  460.9241
 142  476.5037
 143  412.1412
 144  407.8112
 145  446.1217
 146  373.0757
 147  478.7605
 148  429.5222
 149  369.2952
 150  278.389
 151  413.0706
 152  592.0933
 153  513.5587
 154  486.3462
 155  468.9667
 156  428.0675
 157  368.3278
 158  243.1568
 159  321.5066
 160  395.9813
 161  374.8048
 162  460.7415
 163  384.8279
 164  422.4085
 165  356.8613
 166  412.2774
 167  348.5443
 168  408.7372
 169  532.8483
 170  518.647
 171  506.302
 172  355.6665
 173  332.4047
 174  314.6418
 175  454.7096
 176  580.8524
 177  537.5179
 178  441.8207
 179  323.6615
 180  364.3207
 181  331.8135
 182  312.3955
 183  481.4409
 184  559.9536
 185  510.6571
 186  536.3053
 187  422.7768
 188  430.7507
 189  420.5231
 190  471.9488
 191  438.3688
 192  336.8485
 193  387.0001
 194  432.6168
 195  395.4678
 196  440.3414
 197  468.0755
 198  385.7252
 199  320.3818
 200  404.8505
 201  465.3372
 202  524.2039
 203  511.1231
 204  490.6596
 205  482.2696
 206  409.917
 207  354.1154
 208  402.9295
 209  412.527
 210  295.3996
 211  314.1064
 212  445.9519
 213  449.2667
 214  457.3656
 215  528.8917
 216  598.5817
 217  472.1967
 218  416.2937
 219  436.1689
 220  474.3586
 221  499.9166
 222  451.115
 223  422.5883
 224  349.9016
 225  489.3755
 226  537.474
 227  393.5126
 228  372.9115
 229  459.09
 230  376.3128
 231  330.0624
 232  333.6901
 233  369.8855
 234  424.924
 235  436.8842
 236  507.8793
 237  493.0034
 238  505.1071
 239  494.9585
 240  630.6909
 241  781.2648
 242  858.6029
 243  952.7648
 244  940.187
 245  893.6685
 246  759.9665
 247  665.8683
 248  481.0836
 249  426.7695
 250  472.3784
 251  429.7692
 252  432.9777
 253  495.0083
 254  389.9192
 255  411.2678
 256  467.029
 257  445.3445
 258  423.8853
 259  543.4557
 260  499.0175
 261  528.6636
 262  456.7258
 263  385.1162
 264  476.9597
 265  429.5119
 266  428.3311
 267  503.4184
 268  500.3033
 269  418.4034
 270  436.8568
 271  425.3634
 272  410.7769
 273  337.5907
 274  458.5493
 275  594.4155
 276  451.4384
 277  371.363
 278  520.3705
 279  532.299
 280  482.6801
 281  477.208
 282  483.1739
 283  534.6482
 284  521.219
 285  503.815
 286  494.4827
 287  452.7089
 288  407.451
 289  368.7996
 290  453.9977
 291  395.6933
 292  395.6863
 293  400.4035
 294  473.6179
 295  420.0035
 296  476.8774
 297  291.733
 298  287.7769
 299  404.2235
 300  416.265
 301  449.496
 302  544.946
 303  527.3787
 304  415.5909
 305  375.6561
 306  386.717
 307  423.9204
 308  511.9516
 309  473.1884
 310  494.3416
 311  434.0736
 312  397.2906
 313  469.6906
 314  478.122
 315  512.5949
 316  534.5889
 317  501.644
 318  473.8599
 319  394.7896
 320  494.8917
 321  537.6135
 322  510.0421
 323  464.5734
 324  507.2052
 325  476.3068
 326  464.7595
 327  567.3845
 328  449.452
 329  428.6289
 330  501.0143
 331  382.3135
 332  416.7153
 333  417.1823
 334  458.7921
 335  426.1431
 336  494.1161
 337  490.0532
 338  545.1564
 339  523.4055
 340  395.9305
 341  507.9607
 342  513.5053
 343  462.4899
 344  463.6616
 345  430.1923
 346  483.383
 347  463.586
 348  559.8566
 349  556.1415
 350  505.3112
 351  491.0088
 352  432.9178
 353  417.8781
 354  452.9128
 355  425.9031
 356  388.0339
 357  480.7409
 358  484.0322
 359  523.2943
 360  313.6547
 361  282.5916
 362  278.1111
 363  294.9023
 364  420.425
 365  422.4788
 366  415.3054
 367  413.2381
 368  373.7223
 369  461.3289
 370  363.2223
 371  392.1706
 372  330.795
 373  438.9235
 374  506.5452
 375  383.5966
 376  438.0122
 377  330.5845
 378  400.067
 379  368.8717
 380  390.1866
 381  442.415
 382  363.6204
 383  447.5645
 384  425.7069
 385  416.1216
 386  516.4601
 387  435.7773
 388  422.3925
 389  544.4954
 390  513.1606
 391  525.0658
 392  504.2211
 393  418.4707
 394  390.4501
 395  456.0007
 396  484.0473
 397  415.8288
 398  419.6274
 399  443.1047
 400  342.152
 401  431.7545
 402  406.6824
 403  371.8318
 404  548.5541
 405  382.9479
 406  468.7044
 407  512.4011
 408  436.9093
 409  361.0827
 410  298.2986
 411  385.0457
 412  381.7434
 413  412.6009
 414  516.9984
 415  544.7287
 416  604.3638
 417  501.6779
 418  377.7569
 419  372.7533
 420  484.1103
 421  524.9539
 422  466.9506
 423  413.4463
 424  354.395
 425  437.5745
 426  390.925
 427  360.7812
 428  494.4924
 429  491.4629
 430  494.3372
 431  485.4144
 432  506.7504
 433  351.2699
 434  315.826
 435  340.7814
 436  370.6527
 437  317.0773
 438  367.6913
 439  394.6928
 440  522.1623
 441  536.1793
 442  449.2172
 443  431.0746
 444  403.5179
 445  438.4917
 446  471.8904
 447  570.7161
 448  566.8755
 449  549.1223
 450  496.5655
 451  449.1508
 452  480.4827
 453  375.4122
 454  363.7068
 455  486.7295
 456  453.0946
 457  528.6666
 458  458.9914
 459  489.0313
 460  511.4569
 461  467.4956
 462  434.3806
 463  510.4833
 464  543.1366
 465  534.2482
 466  420.8994
 467  509.1729
 468  474.541
 469  376.3753
 470  386.8957
 471  421.5527
 472  427.2935
 473  540.9147
 474  519.8565
 475  405
 476  415.2787
 477  450.8959
 478  507.6985
 479  456.554
 480  486.5247
 481  490.2656
 482  495.9197
 483  366.974
 484  331.1575
 485  367.2969
 486  461.5107
 487  400.7453
 488  378.9789
 489  388.3874
 490  376.1642
 491  386.0461
 492  415.5032
 493  346.457
 494  440.7644
 495  486.6369
 496  506.6108
 497  499.1371
 498  462.7006
 499  438.3657
 500  375.6194
 501  451.9443
 502  406.8757
 503  355.7222
 504  486.4785
 505  349.4101
 506  361.7133
 507  491.908
 508  440.9137
 509  296.3947
 510  363.7682
 511  355.2813
