# Input file       =  1179231636.095346_cleaned.dat
# Candidate        =  PSR_0332+5434
# Telescope        =  AR
# Epoch_topo       =  57892.514098325766
# Epoch_bary       =  N/A
# T_sample         =  0.002
# Data Folded      =  7340032
# Data Avg         =  0.0191140253537897
# Data StdDev      =  1.00012064697345 
# Profile Bins     =  512
# Profile Avg      =  274.024499999893 
# Profile StdDev   =  119.747481805227 
# Reduced chi-sqr  =  1.255
# Prob(Noise)      <  7.33e-05   (~3.8 sigma)
# P_topo (ms)      =  714.529217588228  +/- 0.000315
# P'_topo (s/s)    =  -0                +/- 1.66e-10
# P''_topo (s/s^2) =  0                 +/- 7.33e-14
# P_bary (ms)      =  N/A
# P'_bary (s/s)    =  N/A
# P''_bary (s/s^2) =  N/A
# P_orb (s)        =  N/A
# asin(i)/c (s)    =  N/A
# eccentricity     =  N/A
# w (rad)          =  N/A
# T_peri           =  N/A
######################################################
   0  279.6994
   1  347.593
   2  293.0972
   3  230.5154
   4  229.6895
   5  205.567
   6  144.041
   7  137.46
   8  142.5984
   9  214.9338
  10  371.757
  11  265.5583
  12  179.9224
  13  199.3705
  14  224.5434
  15  221.1047
  16  177.9982
  17  109.4761
  18  139.1958
  19  162.1414
  20  228.9453
  21  265.8585
  22  386.8577
  23  264.7581
  24  155.0926
  25  170.8819
  26  180.3997
  27  230.2691
  28  227.6422
  29  242.6163
  30  224.0571
  31  197.1669
  32  288.553
  33  402.657
  34  417.5739
  35  393.5103
  36  372.7509
  37  211.7467
  38  146.4834
  39  213.0282
  40  315.8914
  41  371.2581
  42  314.433
  43  161.4085
  44  226.0507
  45  263.2857
  46  356.6939
  47  290.4899
  48  293.2644
  49  412.3335
  50  268.7173
  51  144.0357
  52  237.3268
  53  257.8525
  54  321.6936
  55  365.9795
  56  225.6324
  57  192.1252
  58  248.7035
  59  235.1802
  60  253.291
  61  249.0145
  62  323.0728
  63  267.5699
  64  261.7195
  65  330.9382
  66  267.97
  67  146.4439
  68  311.4037
  69  262.0376
  70  189.5107
  71  253.3658
  72  187.9713
  73  304.5428
  74  357.9597
  75  233.9885
  76  369.7748
  77  344.5466
  78  250.6509
  79  247.1263
  80  321.6559
  81  339.0229
  82  314.6891
  83  272.2323
  84  126.4726
  85  241.2667
  86  309.0993
  87  334.8451
  88  348.6953
  89  311.7578
  90  231.1904
  91  266.4376
  92  362.1824
  93  338.4739
  94  365.0956
  95  341.7122
  96  221.0336
  97  230.5243
  98  317.2216
  99  332.8688
 100  307.6651
 101  416.0482
 102  339.6358
 103  238.005
 104  249.4351
 105  269.2499
 106  398.5219
 107  243.6073
 108  267.2781
 109  283.0027
 110  266.3712
 111  324.1302
 112  180.5679
 113  234.1582
 114  237.6351
 115  338.121
 116  339.1768
 117  305.7971
 118  288.054
 119  290.1364
 120  324.6569
 121  402.2944
 122  350.2212
 123  267.7392
 124  299.8028
 125  442.1453
 126  543.1363
 127  456.4712
 128  229.6515
 129  272.3068
 130  271.6585
 131  284.6365
 132  269.6996
 133  239.9986
 134  202.0034
 135  299.5872
 136  291.4427
 137  245.849
 138  291.0849
 139  247.237
 140  326.2784
 141  217.9857
 142  324.6448
 143  288.671
 144  259.4919
 145  269.6841
 146  358.3063
 147  311.1161
 148  235.049
 149  238.0984
 150  209.5594
 151  265.9662
 152  240.6819
 153  204.3076
 154  204.6292
 155  277.6332
 156  292.9739
 157  210.6521
 158  158.0309
 159  129.8945
 160  222.0891
 161  279.558
 162  330.7121
 163  317.0018
 164  188.0571
 165  218.3565
 166  263.2509
 167  287.1787
 168  400.6345
 169  189.3336
 170  182.2221
 171  244.236
 172  264.2956
 173  327.5502
 174  251.4948
 175  340.3651
 176  334.8394
 177  362.4876
 178  297.5863
 179  368.774
 180  393.6429
 181  338.0135
 182  303.7107
 183  334.3059
 184  282.2434
 185  333.6754
 186  405.7164
 187  363.9049
 188  269.2522
 189  190.6036
 190  212.0145
 191  230.1166
 192  201.3372
 193  173.4259
 194  262.6931
 195  284.1097
 196  295.6147
 197  329.1454
 198  277.3296
 199  243.0981
 200  204.5315
 201  269.0538
 202  389.2099
 203  289.2935
 204  323.9583
 205  393.2825
 206  366.2167
 207  489.3578
 208  401.0475
 209  265.1662
 210  139.7133
 211  164.5375
 212  311.272
 213  237.5558
 214  317.1247
 215  315.5258
 216  290.8073
 217  244.7494
 218  222.2669
 219  207.9937
 220  167.663
 221  201.6488
 222  165.7925
 223  135.6015
 224  250.3697
 225  226.6378
 226  245.9607
 227  148.6893
 228  170.5336
 229  170.2485
 230  164.8566
 231  169.5196
 232  219.993
 233  261.4602
 234  347.6457
 235  279.9717
 236  311.2411
 237  182.0142
 238  57.20794
 239  219.6318
 240  301.1432
 241  353.2947
 242  234.3786
 243  271.3678
 244  299.7358
 245  188.3299
 246  122.3734
 247  225.602
 248  121.0432
 249  230.0607
 250  214.1933
 251  265.7289
 252  324.1414
 253  366.9677
 254  345.3229
 255  357.3326
 256  337.1918
 257  250.7373
 258  240.5831
 259  264.7418
 260  192.4105
 261  304.406
 262  423.4581
 263  247.8062
 264  297.2541
 265  401.7685
 266  383.0509
 267  322.8152
 268  282.6927
 269  298.7823
 270  311.2947
 271  291.6976
 272  138.0077
 273  206.0467
 274  235.4112
 275  191.6561
 276  130.5586
 277  149.4282
 278  174.3003
 279  221.159
 280  272.92
 281  352.0197
 282  283.1526
 283  100.5837
 284  244.2043
 285  457.0263
 286  414.5493
 287  304.6046
 288  327.2164
 289  278.9635
 290  249.5994
 291  292.8189
 292  282.7776
 293  247.3935
 294  198.7156
 295  125.3827
 296  166.6584
 297  194.5065
 298  284.9106
 299  205.6382
 300  230.9079
 301  237.6621
 302  222.0608
 303  295.4321
 304  366.8209
 305  645.116
 306  411.826
 307  263.5509
 308  156.3683
 309  363.5291
 310  318.9145
 311  285.6555
 312  288.965
 313  183.9629
 314  87.20551
 315  70.92265
 316  237.2991
 317  192.5505
 318  247.2267
 319  268.0641
 320  307.7949
 321  176.6829
 322  231.1404
 323  258.9198
 324  198.3128
 325  140.4543
 326  245.7346
 327  196.7766
 328  64.9673
 329  98.4683
 330  148.8622
 331  250.4147
 332  175.0737
 333  221.2155
 334  266.8517
 335  232.7355
 336  211.2841
 337  193.6833
 338  281.8652
 339  251.2048
 340  243.621
 341  197.136
 342  237.0657
 343  169.2441
 344  198.0171
 345  250.4021
 346  192.2221
 347  318.9507
 348  429.2567
 349  313.9831
 350  124.7852
 351  147.0756
 352  233.3535
 353  229.7949
 354  213.7609
 355  114.322
 356  254.9712
 357  219.5626
 358  265.0977
 359  226.2919
 360  212.6157
 361  281.3764
 362  301.6021
 363  315.0376
 364  212.9609
 365  308.9961
 366  461.6012
 367  276.0415
 368  296.8069
 369  286.0459
 370  326.1599
 371  262.4477
 372  236.8377
 373  335.6083
 374  383.8132
 375  450.4092
 376  319.483
 377  244.7503
 378  245.9995
 379  219.9951
 380  252.6312
 381  356.8309
 382  365.6948
 383  399.335
 384  186.7987
 385  244.0127
 386  199.2552
 387  215.3081
 388  431.8714
 389  321.6521
 390  323.5984
 391  392.0389
 392  393.3434
 393  326.3805
 394  318.3879
 395  384.909
 396  336.4271
 397  308.5393
 398  261.6834
 399  298.6934
 400  254.926
 401  339.2548
 402  328.6364
 403  316.5292
 404  212.0759
 405  284.0901
 406  292.0435
 407  158.8884
 408  83.65307
 409  70.6975
 410  161.5208
 411  213.9347
 412  77.57961
 413  113.6894
 414  129.5409
 415  229.7743
 416  298.2463
 417  295.8759
 418  248.6442
 419  174.8293
 420  142.6528
 421  218.7834
 422  236.4507
 423  275.2908
 424  229.9948
 425  173.3638
 426  286.6794
 427  267.7435
 428  356.0599
 429  397.2232
 430  349.8993
 431  377.6982
 432  299.752
 433  175.2498
 434  327.6109
 435  270.4071
 436  210.0871
 437  174.9337
 438  319.4225
 439  356.3566
 440  345.1051
 441  441.3631
 442  287.6923
 443  267.8857
 444  433.5976
 445  562.0257
 446  692.9505
 447  865.9996
 448  965.2538
 449  826.0678
 450  759.3364
 451  535.288
 452  391.1532
 453  324.1089
 454  342.7187
 455  310.2766
 456  240.2898
 457  290.4098
 458  324.9689
 459  251.9379
 460  357.2413
 461  334.778
 462  300.1752
 463  286.1543
 464  287.5128
 465  224.722
 466  273.6608
 467  281.275
 468  288.0626
 469  199.9153
 470  282.1217
 471  362.7188
 472  283.9848
 473  214.8126
 474  290.2262
 475  234.8182
 476  265.3895
 477  234.797
 478  243.9511
 479  357.4862
 480  155.93
 481  268.5025
 482  282.0915
 483  354.391
 484  297.1287
 485  236.6682
 486  221.8831
 487  229.7972
 488  273.0992
 489  352.1338
 490  246.5677
 491  256.9624
 492  201.1234
 493  179.5903
 494  292.5056
 495  329.5703
 496  445.7223
 497  364.3463
 498  311.176
 499  242.4772
 500  274.0975
 501  322.1529
 502  381.8795
 503  241.8534
 504  230.6427
 505  321.0313
 506  333.2079
 507  156.6855
 508  172.0292
 509  217.4483
 510  218.2588
 511  149.9294
