# Input file       =  1179805725.112519_cleaned.dat
# Candidate        =  PSR_0332+5434
# Telescope        =  AR
# Epoch_topo       =  57899.158647135635
# Epoch_bary       =  N/A
# T_sample         =  0.002
# Data Folded      =  7208960
# Data Avg         =  0.0315997909330361
# Data StdDev      =  1.0000627979776  
# Profile Bins     =  512
# Profile Avg      =  445.084927771342 
# Profile StdDev   =  118.666627349794 
# Reduced chi-sqr  =  0.864
# Prob(Noise)      <  0.988   (~0.0 sigma)
# P_topo (ms)      =  714.522316271596  +/- 0.000423
# P'_topo (s/s)    =  -0                +/- 2.27e-10
# P''_topo (s/s^2) =  0                 +/- 1.02e-13
# P_bary (ms)      =  N/A
# P'_bary (s/s)    =  N/A
# P''_bary (s/s^2) =  N/A
# P_orb (s)        =  N/A
# asin(i)/c (s)    =  N/A
# eccentricity     =  N/A
# w (rad)          =  N/A
# T_peri           =  N/A
######################################################
   0  849.1431
   1  771.3233
   2  639.0132
   3  520.8542
   4  488.5317
   5  533.7496
   6  508.2481
   7  401.8545
   8  404.1442
   9  418.5462
  10  452.679
  11  489.5153
  12  471.0795
  13  399.0811
  14  513.559
  15  439.2401
  16  399.1521
  17  572.8724
  18  465.3039
  19  504.4632
  20  459.6223
  21  341.9995
  22  357.3567
  23  614.913
  24  470.4398
  25  508.2423
  26  399.4093
  27  453.6537
  28  399.7569
  29  358.3711
  30  464.1502
  31  511.3305
  32  541.0404
  33  391.1099
  34  390.5829
  35  456.0242
  36  447.4789
  37  421.465
  38  423.2665
  39  456.9991
  40  523.5449
  41  421.3719
  42  335.6349
  43  366.166
  44  373.0318
  45  305.0089
  46  342.9887
  47  372.1645
  48  369.9827
  49  337.8784
  50  427.5133
  51  383.2198
  52  411.6135
  53  499.2599
  54  478.4317
  55  490.95
  56  566.0815
  57  597.055
  58  508.5772
  59  486.8752
  60  486.3874
  61  527.372
  62  464.8525
  63  427.5525
  64  476.7634
  65  494.4211
  66  378.1853
  67  464.0623
  68  419.7417
  69  425.0199
  70  409.135
  71  475.1276
  72  520.302
  73  480.6926
  74  490.7219
  75  422.67
  76  318.0403
  77  490.4661
  78  459.6612
  79  391.1828
  80  431.6315
  81  412.0464
  82  405.743
  83  377.5104
  84  396.6365
  85  342.0474
  86  387.7008
  87  430.8656
  88  432.2206
  89  458.3847
  90  480.7888
  91  484.3863
  92  396.928
  93  391.5573
  94  392.2809
  95  466.9785
  96  445.8301
  97  472.4144
  98  429.7624
  99  440.1919
 100  442.7542
 101  301.1158
 102  334.8494
 103  387.022
 104  509.1109
 105  491.8424
 106  469.7802
 107  445.523
 108  461.5655
 109  517.0647
 110  497.9145
 111  505.4659
 112  557.8193
 113  589.512
 114  523.1729
 115  393.1292
 116  405.1657
 117  501.087
 118  506.0356
 119  532.2402
 120  560.7465
 121  477.7787
 122  459.1026
 123  450.2278
 124  496.0843
 125  558.3411
 126  586.1401
 127  598.8645
 128  460.4684
 129  400.743
 130  446.1752
 131  446.1158
 132  479.9015
 133  419.6473
 134  337.225
 135  322.6977
 136  403.8488
 137  377.1215
 138  409.3084
 139  528.9398
 140  467.0816
 141  489.531
 142  352.7773
 143  417.7778
 144  608.6774
 145  536.5453
 146  485.7229
 147  495.26
 148  468.3544
 149  560.0164
 150  572.6279
 151  461.5659
 152  536.2291
 153  522.635
 154  496.4831
 155  347.6299
 156  351.3711
 157  386.6852
 158  350.0568
 159  352.6527
 160  340.1812
 161  441.6223
 162  400.7998
 163  339.3448
 164  386.6703
 165  389.8648
 166  324.5531
 167  358.4127
 168  381.568
 169  374.7698
 170  266.1337
 171  356.6552
 172  363.7597
 173  426.462
 174  422.0763
 175  417.1209
 176  422.1915
 177  403.0399
 178  332.6126
 179  408.4643
 180  444.4634
 181  411.1443
 182  329.5076
 183  326.675
 184  473.9663
 185  488.4593
 186  541.6953
 187  601.9229
 188  413.1309
 189  288.622
 190  251.2154
 191  419.8752
 192  488.275
 193  505.9631
 194  498.0782
 195  458.726
 196  438.6506
 197  415.8069
 198  395.9747
 199  476.7719
 200  488.2807
 201  443.0292
 202  369.8566
 203  390.0762
 204  447.7172
 205  484.5276
 206  475.0692
 207  452.7735
 208  508.0059
 209  582.405
 210  429.7586
 211  382.3753
 212  365.6005
 213  399.1949
 214  410.2064
 215  454.5833
 216  342.0428
 217  330.2805
 218  435.8596
 219  433.1498
 220  357.3474
 221  346.2885
 222  390.4389
 223  348.351
 224  344.9606
 225  392.2861
 226  511.8594
 227  535.7198
 228  458.6697
 229  399.8911
 230  512.4787
 231  341.9006
 232  387.2527
 233  404.452
 234  429.3776
 235  454.7877
 236  526.59
 237  446.045
 238  416.7698
 239  371.1362
 240  396.7933
 241  398.0485
 242  458.1268
 243  453.0056
 244  426.9713
 245  317.0727
 246  251.1567
 247  336.3904
 248  259.9726
 249  317.3337
 250  273.9763
 251  469.9499
 252  380.2657
 253  292.7155
 254  291.9393
 255  323.5112
 256  252.5216
 257  302.4684
 258  314.0449
 259  358.8636
 260  437.2118
 261  460.3041
 262  440.2492
 263  408.7378
 264  473.8705
 265  420.5765
 266  407.152
 267  594.8386
 268  526.1292
 269  467.3021
 270  456.3099
 271  484.8182
 272  487.7659
 273  343.5019
 274  432.3769
 275  574.0607
 276  646.9308
 277  560.0223
 278  481.7671
 279  572.3428
 280  473.7883
 281  455.236
 282  443.038
 283  515.3721
 284  408.2407
 285  386.8405
 286  400.8228
 287  443.8935
 288  493.1319
 289  519.9148
 290  546.5723
 291  497.1461
 292  501.104
 293  476.9433
 294  446.4692
 295  352.7983
 296  442.6909
 297  412.1046
 298  398.0258
 299  336.0345
 300  238.2867
 301  313.4274
 302  327.826
 303  330.4088
 304  423.93
 305  493.481
 306  398.154
 307  314.6494
 308  323.1269
 309  401.5163
 310  513.1614
 311  475.287
 312  432.1257
 313  463.2542
 314  461.8295
 315  393.7162
 316  360.3352
 317  511.7988
 318  476.9023
 319  457.2875
 320  621.5495
 321  576.438
 322  549.3635
 323  506.8936
 324  484.5644
 325  643.7546
 326  636.0129
 327  435.6145
 328  364.0551
 329  406.2169
 330  431.3987
 331  429.8552
 332  405.0227
 333  403.2283
 334  423.2662
 335  429.0138
 336  470.257
 337  558.0882
 338  573.9012
 339  360.6393
 340  380.5587
 341  428.5722
 342  410.9665
 343  346.7112
 344  370.76
 345  380.31
 346  371.4338
 347  385.3578
 348  345.8823
 349  335.308
 350  270.6097
 351  315.9168
 352  334.3739
 353  341.9213
 354  404.7202
 355  387.815
 356  430.4845
 357  494.3316
 358  475.534
 359  409.8983
 360  352.0132
 361  422.4303
 362  443.2784
 363  475.3665
 364  348.61
 365  414.9595
 366  418.2196
 367  388.683
 368  545.1492
 369  482.232
 370  504.5822
 371  403.6988
 372  396.3472
 373  497.4472
 374  573.1749
 375  486.7806
 376  487.2053
 377  581.4871
 378  538.1933
 379  441.5731
 380  362.2707
 381  382.8589
 382  347.8401
 383  425.0859
 384  386.0019
 385  570.7637
 386  555.8677
 387  353.151
 388  386.4836
 389  375.8762
 390  457.6017
 391  483.9805
 392  570.4484
 393  494.881
 394  426.5152
 395  379.7925
 396  463.32
 397  583.1757
 398  558.456
 399  509.5343
 400  474.1372
 401  549.9495
 402  580.5231
 403  418.7456
 404  432.7466
 405  494.8299
 406  498.6652
 407  452.0591
 408  458.2826
 409  491.8893
 410  468.5165
 411  495.2513
 412  544.9307
 413  433.0879
 414  442.9854
 415  559.272
 416  633.2009
 417  503.809
 418  398.5061
 419  368.4854
 420  499.7688
 421  510.8977
 422  546.314
 423  526.1133
 424  454.004
 425  466.8546
 426  481.2607
 427  504.5384
 428  455.1564
 429  469.4529
 430  432.8489
 431  494.4102
 432  441.6635
 433  495.4818
 434  532.4055
 435  497.0536
 436  627.0943
 437  501.1644
 438  410.6536
 439  316.7549
 440  298.3848
 441  476.656
 442  447.3526
 443  480.0424
 444  576.5358
 445  486.3305
 446  465.2885
 447  431.9962
 448  467.5205
 449  388.2387
 450  396.7942
 451  429.1403
 452  541.8682
 453  563.6693
 454  453.204
 455  412.4401
 456  457.8633
 457  355.0217
 458  458.4576
 459  533.7859
 460  433.6882
 461  334.3473
 462  325.5291
 463  371.0524
 464  440.3449
 465  345.7917
 466  441.9756
 467  477.0404
 468  436.7001
 469  432.6573
 470  397.9818
 471  429.1771
 472  369.522
 473  366.456
 474  457.1636
 475  342.4065
 476  387.2704
 477  462.7369
 478  422.3365
 479  412.017
 480  450.5173
 481  488.9626
 482  420.6251
 483  377.6782
 484  501.7401
 485  466.1985
 486  441.1442
 487  500.6247
 488  529.8928
 489  525.5973
 490  480.6963
 491  539.5158
 492  540.2028
 493  466.6279
 494  441.9435
 495  508.5013
 496  562.2173
 497  382.5884
 498  400.7275
 499  385.7806
 500  431.7936
 501  439.8915
 502  434.724
 503  418.7353
 504  494.1436
 505  618.6866
 506  573.3787
 507  537.1471
 508  552.1869
 509  580.6741
 510  620.2447
 511  698.4094
