# Input file       =  1179561381.09626_cleaned.dat
# Candidate        =  PSR_0332+5434
# Telescope        =  AR
# Epoch_topo       =  57896.330591391896
# Epoch_bary       =  N/A
# T_sample         =  0.002
# Data Folded      =  7340032
# Data Avg         =  0.0283310710027847
# Data StdDev      =  1.00002850291826 
# Profile Bins     =  512
# Profile Avg      =  406.118774742073 
# Profile StdDev   =  119.736449117715 
# Reduced chi-sqr  =  0.936
# Prob(Noise)      <  0.847   (~0.0 sigma)
# P_topo (ms)      =  714.525129380728  +/- 0.000457
# P'_topo (s/s)    =  -0                +/- 2.41e-10
# P''_topo (s/s^2) =  0                 +/- 1.06e-13
# P_bary (ms)      =  N/A
# P'_bary (s/s)    =  N/A
# P''_bary (s/s^2) =  N/A
# P_orb (s)        =  N/A
# asin(i)/c (s)    =  N/A
# eccentricity     =  N/A
# w (rad)          =  N/A
# T_peri           =  N/A
######################################################
   0  900.2747
   1  904.3825
   2  737.5521
   3  631.9107
   4  494.3031
   5  415.8412
   6  470.9984
   7  465.2151
   8  322.9906
   9  389.7585
  10  411.4062
  11  452.463
  12  419.6377
  13  428.9991
  14  399.0934
  15  419.5829
  16  512.917
  17  478.16
  18  479.4522
  19  528.795
  20  495.2418
  21  394.7477
  22  461.3864
  23  459.5293
  24  404.1253
  25  404.7545
  26  367.0072
  27  367.1067
  28  385.9688
  29  306.9433
  30  263.482
  31  315.7685
  32  454.1815
  33  408.029
  34  507.4279
  35  433.6896
  36  371.8482
  37  403.1661
  38  340.8645
  39  374.0639
  40  420.0843
  41  488.838
  42  536.1561
  43  377.128
  44  345.9716
  45  477.3292
  46  423.6654
  47  533.7571
  48  488.2524
  49  441.895
  50  416.378
  51  375.0581
  52  458.3494
  53  535.7861
  54  451.7266
  55  397.2115
  56  383.5381
  57  355.5742
  58  370.9346
  59  397.4191
  60  386.2256
  61  354.5114
  62  388.5725
  63  298.6565
  64  291.6574
  65  381.1948
  66  410.3206
  67  479.6895
  68  480.7939
  69  437.5486
  70  440.1512
  71  419.8926
  72  463.6191
  73  332.7795
  74  423.0211
  75  476.3835
  76  392.2334
  77  511.0862
  78  460.713
  79  509.3848
  80  470.4692
  81  371.9727
  82  370.5815
  83  460.8254
  84  494.1175
  85  418.9289
  86  534.5732
  87  501.9807
  88  389.3603
  89  368.9624
  90  380.3904
  91  420.4185
  92  362.4025
  93  354.3869
  94  385.1807
  95  473.8394
  96  412.1154
  97  473.4994
  98  563.3224
  99  513.0129
 100  418.2705
 101  403.4918
 102  390.9733
 103  412.9036
 104  327.2108
 105  442.5018
 106  311.3632
 107  403.2573
 108  500.6073
 109  527.6959
 110  477.2781
 111  485.4229
 112  464.2504
 113  463.324
 114  363.2552
 115  412.3688
 116  338.3556
 117  336.2429
 118  281.7411
 119  228.4264
 120  309.3478
 121  310.8426
 122  361.5091
 123  346.8282
 124  466.3653
 125  342.0935
 126  307.7152
 127  327.2757
 128  356.4067
 129  376.7303
 130  392.1096
 131  524.2291
 132  537.7087
 133  425.7259
 134  372.3729
 135  460.2875
 136  390.4081
 137  261.3331
 138  300.3607
 139  445.8696
 140  407.4455
 141  317.728
 142  384.2599
 143  422.6925
 144  367.3305
 145  275.0176
 146  330.0368
 147  369.0467
 148  384.2119
 149  406.8494
 150  409.765
 151  329.2524
 152  275.5728
 153  357.0967
 154  484.4054
 155  451.7238
 156  411.9437
 157  352.1829
 158  437.6228
 159  338.0645
 160  395.7791
 161  400.2351
 162  380.3332
 163  370.3159
 164  448.0513
 165  422.7238
 166  363.1174
 167  381.2316
 168  391.1767
 169  369.4759
 170  481.174
 171  451.1235
 172  371.5933
 173  389.6579
 174  475.9409
 175  538.6384
 176  493.3901
 177  464.1362
 178  341.8362
 179  306.9946
 180  437.1156
 181  438.6001
 182  435.3726
 183  425.2987
 184  437.2324
 185  443.0148
 186  387.7611
 187  378.4785
 188  344.796
 189  353.4534
 190  420.3493
 191  437.4584
 192  343.219
 193  488.0918
 194  525.2636
 195  431.8858
 196  404.3001
 197  436.4945
 198  394.4697
 199  328.0076
 200  362.8959
 201  249.3726
 202  233.1507
 203  498.65
 204  439.3174
 205  288.8047
 206  220.6803
 207  368.3772
 208  350.2542
 209  418.9142
 210  405.451
 211  391.3448
 212  401.2757
 213  381.6755
 214  406.381
 215  416.9877
 216  293.5983
 217  382.7582
 218  323.0274
 219  243.9647
 220  284.023
 221  384.8521
 222  466.3161
 223  410.7178
 224  394.6594
 225  450.6043
 226  454.4084
 227  561.0469
 228  613.3339
 229  434.3686
 230  418.9561
 231  407.9472
 232  372.63
 233  350.0417
 234  402.7412
 235  376.4003
 236  479.8845
 237  468.7888
 238  458.7788
 239  456.3094
 240  425.0214
 241  441.0408
 242  294.256
 243  400.0918
 244  519.666
 245  453.4822
 246  429.1015
 247  373.6633
 248  469.7633
 249  491.0901
 250  499.5542
 251  424.4589
 252  405.0482
 253  440.1465
 254  441.0563
 255  523.5515
 256  566.2051
 257  476.1379
 258  505.4827
 259  472.4333
 260  473.4148
 261  400.6793
 262  574.6499
 263  537.8401
 264  291.1306
 265  494.1497
 266  528.486
 267  517.3688
 268  404.5289
 269  360.9521
 270  398.9569
 271  448.0824
 272  403.3769
 273  462.1526
 274  514.3326
 275  397.7431
 276  418.9614
 277  496.3888
 278  444.5772
 279  501.6089
 280  419.2927
 281  314.3033
 282  320.1151
 283  372.5855
 284  373.0708
 285  337.1028
 286  330.9552
 287  452.509
 288  483.3322
 289  483.2346
 290  509.8167
 291  427.7861
 292  362.6561
 293  354.6409
 294  504.5065
 295  488.6077
 296  523.8458
 297  453.687
 298  435.9009
 299  408.3456
 300  467.1556
 301  462.9633
 302  442.1198
 303  386.8689
 304  412.9365
 305  482.4921
 306  467.4723
 307  435.4131
 308  374.3617
 309  354.2754
 310  389.4694
 311  456.5368
 312  499.7358
 313  395.1329
 314  324.4333
 315  453.9178
 316  485.1402
 317  387.852
 318  466.0099
 319  502.1632
 320  585.4302
 321  470.7552
 322  298.0386
 323  321.5866
 324  360.7072
 325  361.5995
 326  371.3816
 327  370.9178
 328  366.6325
 329  341.6879
 330  368.5893
 331  439.3325
 332  337.8134
 333  295.603
 334  405.1923
 335  416.188
 336  437.2048
 337  440.3568
 338  341.7887
 339  324.6613
 340  399.6428
 341  279
 342  375.512
 343  443.1825
 344  417.459
 345  477.5262
 346  498.66
 347  522.7166
 348  373.7505
 349  283.6205
 350  405.6683
 351  438.4111
 352  447.2832
 353  342.5251
 354  299.2384
 355  190.2041
 356  305.1793
 357  351.7905
 358  299.6265
 359  367.2696
 360  374.6782
 361  321.0564
 362  224.2289
 363  190.9663
 364  273.2203
 365  383.8784
 366  314.6797
 367  347.116
 368  299.2931
 369  379.7213
 370  449.7442
 371  328.8685
 372  382.82
 373  356.9697
 374  390.2827
 375  488.7298
 376  434.4073
 377  307.4857
 378  296.2581
 379  316.6463
 380  366.9709
 381  392.1612
 382  347.7198
 383  349.5624
 384  314.9358
 385  450.6763
 386  519.2372
 387  463.3319
 388  456.0046
 389  455.1564
 390  501.6092
 391  590.3988
 392  520.2713
 393  530.7351
 394  481.8295
 395  417.823
 396  403.0618
 397  457.1278
 398  448.3481
 399  417.7933
 400  358.2445
 401  356.792
 402  294.2385
 403  320.9283
 404  369.0198
 405  310.7994
 406  204.419
 407  351.9789
 408  385.1709
 409  384.6661
 410  408.3757
 411  306.974
 412  281.9777
 413  394.9883
 414  379.1896
 415  353.2408
 416  329.6256
 417  279.3785
 418  274.8866
 419  345.6101
 420  492.7462
 421  344.2522
 422  251.1339
 423  343.4875
 424  406.6708
 425  345.8233
 426  333.4782
 427  256.8053
 428  260.1685
 429  420.9973
 430  419.1495
 431  381.2003
 432  409.5439
 433  404.2887
 434  362.6158
 435  352.6269
 436  412.2506
 437  427.5039
 438  329.9049
 439  367.9085
 440  451.4149
 441  393.2609
 442  346.8217
 443  415.4106
 444  410.5312
 445  364.5896
 446  390.4361
 447  329.3568
 448  315.4847
 449  426.8665
 450  419.9625
 451  439.9032
 452  403.8876
 453  369.4066
 454  339.6361
 455  340.0105
 456  481.4412
 457  492.4594
 458  451.945
 459  467.2758
 460  447.6489
 461  428.5055
 462  442.2604
 463  386.0406
 464  303.0093
 465  359.997
 466  370.7246
 467  339.8695
 468  449.8427
 469  389.1344
 470  423.9366
 471  343.7679
 472  325.9639
 473  281.9752
 474  356.6668
 475  356.0004
 476  309.7029
 477  333.8352
 478  431.0359
 479  356.9962
 480  196.3887
 481  214.2437
 482  332.6812
 483  356.54
 484  330.4005
 485  291.7986
 486  313.675
 487  389.3995
 488  426.287
 489  439.9904
 490  456.7932
 491  381.8704
 492  272.4058
 493  396.1233
 494  411.6813
 495  287.4312
 496  345.3827
 497  412.9618
 498  489.5621
 499  306.8039
 500  258.4953
 501  389.2824
 502  439.6676
 503  425.9523
 504  461.304
 505  508.2387
 506  428.8184
 507  457.9506
 508  487.3682
 509  701.3472
 510  700.6594
 511  793.4355
