# Input file       =  1179044386.113434_cleaned.dat
# Candidate        =  PSR_0332+5434
# Telescope        =  AR
# Epoch_topo       =  57890.346853164745
# Epoch_bary       =  N/A
# T_sample         =  0.002
# Data Folded      =  7340032
# Data Avg         =  0.0285954620451805
# Data StdDev      =  1.00003949988733 
# Profile Bins     =  512
# Profile Avg      =  409.940141881418 
# Profile StdDev   =  119.737765818213 
# Reduced chi-sqr  =  1.059
# Prob(Noise)      <  0.173   (~0.9 sigma)
# P_topo (ms)      =  714.530997298918  +/- 0.00019
# P'_topo (s/s)    =  -0                +/- 1e-10
# P''_topo (s/s^2) =  0                 +/- 4.43e-14
# P_bary (ms)      =  N/A
# P'_bary (s/s)    =  N/A
# P''_bary (s/s^2) =  N/A
# P_orb (s)        =  N/A
# asin(i)/c (s)    =  N/A
# eccentricity     =  N/A
# w (rad)          =  N/A
# T_peri           =  N/A
######################################################
   0  878.5062
   1  884.6008
   2  774.3375
   3  752.1115
   4  671.9932
   5  490.6659
   6  399.868
   7  352.5354
   8  445.5685
   9  445.3346
  10  396.5302
  11  412.5179
  12  469.1264
  13  562.9304
  14  511.0657
  15  459.6757
  16  528.2278
  17  680.5394
  18  548.1991
  19  450.5719
  20  360.8984
  21  384.0564
  22  396.1819
  23  398.8673
  24  549.1385
  25  556.6327
  26  386.6496
  27  372.239
  28  272.5922
  29  447.9923
  30  424.7362
  31  354.0346
  32  359.8824
  33  209.0708
  34  382.6949
  35  370.7783
  36  217.9607
  37  355.5166
  38  319.6848
  39  271.0897
  40  371.0408
  41  386.8385
  42  389.2482
  43  337.893
  44  444.8807
  45  479.2144
  46  422.2447
  47  412.7262
  48  469.0178
  49  363.231
  50  401.1583
  51  464.9886
  52  548.7046
  53  560.4331
  54  382.9474
  55  367.7615
  56  438.8572
  57  387.1425
  58  427.5724
  59  435.4026
  60  489.0769
  61  453.9857
  62  349.3057
  63  484.2826
  64  484.2477
  65  384.8437
  66  352.8948
  67  475.5498
  68  401.4849
  69  299.081
  70  308.9561
  71  319.066
  72  248.3399
  73  360.9681
  74  446.0265
  75  425.2282
  76  465.1411
  77  462.7395
  78  364.6704
  79  324.4847
  80  233.4402
  81  287.1309
  82  410.9606
  83  368.9043
  84  381.5251
  85  368.8749
  86  403.242
  87  422.3381
  88  371.5327
  89  357.1928
  90  356.7919
  91  389.5713
  92  483.9613
  93  430.4735
  94  414.752
  95  410.1504
  96  357.1507
  97  382.8954
  98  318.6409
  99  365.1698
 100  382.1634
 101  411.219
 102  330.8655
 103  404.5369
 104  539.3156
 105  457.7583
 106  275.895
 107  497.4372
 108  431.4391
 109  468.8691
 110  452.4796
 111  368.2544
 112  361.0062
 113  296.1372
 114  303.8246
 115  294.4543
 116  279.6798
 117  466.672
 118  450.0956
 119  417.4735
 120  448.407
 121  374.2649
 122  322.3102
 123  369.6962
 124  433.2465
 125  432.5779
 126  344.5131
 127  251.3466
 128  364.8141
 129  444.1739
 130  478.5826
 131  408.4748
 132  455.1534
 133  399.6607
 134  336.7108
 135  462.2038
 136  450.5208
 137  462.7066
 138  411.1563
 139  394.4551
 140  446.2057
 141  488.7423
 142  360.5262
 143  324.3353
 144  304.4325
 145  447.955
 146  389.4026
 147  357.8735
 148  400.7098
 149  408.879
 150  390.8052
 151  416.2474
 152  419.2242
 153  361.4871
 154  411.0552
 155  354.2675
 156  293.1684
 157  346.4285
 158  527.8545
 159  467.391
 160  341.9363
 161  355.0364
 162  378.5759
 163  363.3364
 164  341.8081
 165  312.0576
 166  403.3207
 167  401.2752
 168  414.6004
 169  335.3653
 170  360.802
 171  319.1501
 172  344.7338
 173  364.7818
 174  462.7533
 175  377.4888
 176  296.7283
 177  387.5099
 178  424.4327
 179  421.3044
 180  384.9635
 181  355.1135
 182  267.8924
 183  357.8425
 184  311.628
 185  416.5937
 186  452.3226
 187  424.6666
 188  337.694
 189  299.2901
 190  311.5602
 191  498.6374
 192  399.9283
 193  287.5099
 194  417.3845
 195  440.7833
 196  516.2721
 197  427.3661
 198  445.9759
 199  439.2887
 200  361.007
 201  294.8886
 202  292.4017
 203  278.5706
 204  304.864
 205  404.7944
 206  525.7484
 207  487.4828
 208  423.3741
 209  408.4731
 210  386.7432
 211  423.1508
 212  342.2275
 213  391.6702
 214  435.9465
 215  564.3894
 216  476.4852
 217  363.7455
 218  384.5087
 219  450.0199
 220  446.4905
 221  441.1487
 222  360.1486
 223  364.5739
 224  333.6318
 225  485.0557
 226  441.6882
 227  405.8314
 228  458.2368
 229  469.6688
 230  445.8367
 231  462.7763
 232  457.0116
 233  405.1403
 234  356.7124
 235  334.9048
 236  266.1191
 237  305.5092
 238  306.759
 239  292.264
 240  341.7986
 241  262.9375
 242  235.0856
 243  334.6303
 244  298.4076
 245  338.1227
 246  245.8633
 247  198.9166
 248  273.9785
 249  409.2834
 250  521.9194
 251  444.8498
 252  360.3694
 253  330.803
 254  336.3691
 255  422.9084
 256  469.2038
 257  464.4651
 258  363.915
 259  380.7116
 260  478.5001
 261  339.6649
 262  334.7374
 263  386.0693
 264  367.5748
 265  421.3579
 266  343.9274
 267  268.8799
 268  275.2642
 269  385.25
 270  473.1106
 271  428.9518
 272  376.3714
 273  406.1222
 274  427.0466
 275  420.1509
 276  411.7936
 277  435.9469
 278  471.7375
 279  436.9612
 280  328.1004
 281  312.2451
 282  433.989
 283  543.2626
 284  540.0487
 285  415.6986
 286  457.2088
 287  433.1478
 288  353.7897
 289  281.7024
 290  278.7978
 291  263.9477
 292  336.8298
 293  294.0032
 294  358.6714
 295  469.5177
 296  443.5634
 297  512.3694
 298  523.2599
 299  446.4304
 300  275.6086
 301  348.8043
 302  446.4128
 303  394.5791
 304  323.4921
 305  420.3701
 306  369.8698
 307  371.2898
 308  309.9102
 309  339.0876
 310  468.4878
 311  349.3894
 312  251.5551
 313  374.2177
 314  329.5783
 315  265.0052
 316  323.2407
 317  382.9168
 318  369.4843
 319  368.6078
 320  290.079
 321  359.6599
 322  425.5746
 323  365.5984
 324  480.2029
 325  439.2321
 326  540.9049
 327  463.6542
 328  339.9772
 329  434.2383
 330  474.5207
 331  463.3942
 332  504.66
 333  439.2023
 334  364.4461
 335  271.4396
 336  324.3798
 337  501.4955
 338  445.296
 339  429.7851
 340  301.2149
 341  318.3828
 342  424.111
 343  489.6915
 344  456.4423
 345  473.9923
 346  635.469
 347  499.1826
 348  487.7292
 349  477.5527
 350  441.6602
 351  436.7264
 352  433.7197
 353  506.0462
 354  519.9124
 355  507.9596
 356  529.0571
 357  506.7171
 358  434.6653
 359  383.5356
 360  490.8059
 361  590.1722
 362  669.4505
 363  507.5048
 364  432.6128
 365  363.4616
 366  404.6872
 367  450.8852
 368  466.3145
 369  432.9127
 370  394.2641
 371  392.7523
 372  437.6559
 373  368.883
 374  425.6665
 375  354.3436
 376  330.4649
 377  401.4425
 378  390.0227
 379  334.0724
 380  322.7614
 381  377.8745
 382  483.8936
 383  412.8824
 384  434.6655
 385  489.8867
 386  471.5858
 387  583.7661
 388  473.2469
 389  341.2852
 390  350.8362
 391  390.9635
 392  467.9426
 393  391.3723
 394  417.7091
 395  475.3376
 396  540.0286
 397  504.7062
 398  594.3151
 399  483.7664
 400  366.4094
 401  411.097
 402  469.9433
 403  521.8083
 404  371.8484
 405  386.8872
 406  481.1041
 407  326.9342
 408  280.1468
 409  304.8423
 410  267.0034
 411  308.5521
 412  484.3503
 413  554.3602
 414  511.456
 415  405.8622
 416  398.3396
 417  487.5103
 418  388.6838
 419  434.0435
 420  484.5354
 421  471.2652
 422  518.5826
 423  393.3118
 424  267.5578
 425  179.5043
 426  359.0951
 427  403.3325
 428  399.2982
 429  450.7597
 430  402.4333
 431  348.4249
 432  327.8696
 433  434.2894
 434  362.1997
 435  362.5842
 436  422.9966
 437  301.7401
 438  306.8122
 439  343.2221
 440  310.5656
 441  307.8762
 442  428.8778
 443  506.3585
 444  536.9539
 445  541.0966
 446  557.5991
 447  481.3303
 448  401.7759
 449  419.5265
 450  518.7839
 451  488.7272
 452  388.3575
 453  536.0242
 454  563.4003
 455  529.5414
 456  457.9023
 457  473.1995
 458  473.372
 459  401.6917
 460  445.4836
 461  543.8348
 462  556.0254
 463  476.0489
 464  417.4524
 465  441.975
 466  373.2814
 467  345.2539
 468  327.7794
 469  390.7908
 470  447.3661
 471  349.4835
 472  423.1585
 473  287.4578
 474  339.4989
 475  332.6796
 476  291.881
 477  298.8824
 478  338.4503
 479  369.5023
 480  321.3694
 481  365.381
 482  530.8279
 483  502.0712
 484  436.1298
 485  429.8001
 486  460.1364
 487  436.7017
 488  451.7114
 489  427.7917
 490  320.3343
 491  368.0682
 492  388.5175
 493  486.1271
 494  619.0469
 495  583.5782
 496  431.0365
 497  318.7061
 498  244.7065
 499  386.8766
 500  413.219
 501  541.9033
 502  531.837
 503  447.9486
 504  506.3678
 505  412.655
 506  372.3885
 507  382.8782
 508  386.7787
 509  494.7891
 510  698.3887
 511  766.6465
