# Input file       =  1179231636.095346_cleaned.dat
# Candidate        =  PSR_0332+5434
# Telescope        =  AR
# Epoch_topo       =  57892.514098325766
# Epoch_bary       =  N/A
# T_sample         =  0.002
# Data Folded      =  7340032
# Data Avg         =  0.0191140253537897
# Data StdDev      =  1.00012064697345 
# Profile Bins     =  512
# Profile Avg      =  274.024447234389 
# Profile StdDev   =  119.747481805227 
# Reduced chi-sqr  =  1.258
# Prob(Noise)      <  6.27e-05   (~3.8 sigma)
# P_topo (ms)      =  714.529216485211  +/- 0.000314
# P'_topo (s/s)    =  -0                +/- 1.66e-10
# P''_topo (s/s^2) =  0                 +/- 7.32e-14
# P_bary (ms)      =  N/A
# P'_bary (s/s)    =  N/A
# P''_bary (s/s^2) =  N/A
# P_orb (s)        =  N/A
# asin(i)/c (s)    =  N/A
# eccentricity     =  N/A
# w (rad)          =  N/A
# T_peri           =  N/A
######################################################
   0  847.9088
   1  796.1976
   2  569.0823
   3  438.1137
   4  304.6604
   5  361.2136
   6  308.9256
   7  267.7414
   8  249.8258
   9  348.344
  10  250.6021
  11  331.8582
  12  348.3775
  13  308.0143
  14  289.8251
  15  288.2305
  16  246.1667
  17  254.7722
  18  279.2297
  19  293.1273
  20  210.7992
  21  243.9867
  22  368.056
  23  304.859
  24  213.1956
  25  279.6122
  26  253.7908
  27  246.2239
  28  261.0273
  29  202.5962
  30  376.0827
  31  182.0713
  32  243.0806
  33  279.0676
  34  337.9313
  35  322.1551
  36  231.8135
  37  231.6967
  38  213.6264
  39  265.2542
  40  348.0981
  41  279.3255
  42  238.9871
  43  241.9648
  44  151.0255
  45  290.0454
  46  301.4661
  47  443.2525
  48  376.4911
  49  324.8694
  50  253.3016
  51  248.3994
  52  321.8911
  53  378.6096
  54  288.0022
  55  201.1163
  56  307.4958
  57  346.2725
  58  191.557
  59  162.9345
  60  205.1244
  61  237.3717
  62  140.6536
  63  250.8878
  64  340.6985
  65  304.5363
  66  251.2778
  67  208.6998
  68  247.9606
  69  130.1102
  70  156.8831
  71  122.2046
  72  191.2115
  73  344.6209
  74  304.2485
  75  202.2325
  76  165.0023
  77  237.7022
  78  206.3755
  79  205.891
  80  125.3087
  81  129.6317
  82  158.0141
  83  209.3336
  84  249.553
  85  366.3905
  86  314.5961
  87  161.3853
  88  166.3348
  89  165.7202
  90  226.7792
  91  223.7996
  92  241.3324
  93  231.3675
  94  204.9252
  95  262.404
  96  382.6507
  97  424.1048
  98  378.409
  99  406.793
 100  237.6134
 101  156.1778
 102  190.1011
 103  285.4941
 104  379.2704
 105  323.7054
 106  199.9147
 107  196.0292
 108  252.2536
 109  343.7766
 110  320.1281
 111  263.5438
 112  403.0923
 113  317.3885
 114  151.1458
 115  206.8454
 116  268.6698
 117  288.801
 118  382.251
 119  258.3184
 120  171.826
 121  248.1011
 122  237.0515
 123  261.9391
 124  234.561
 125  316.8034
 126  286.9583
 127  249.1009
 128  327.0611
 129  284.4754
 130  167.1798
 131  260.2151
 132  316.7734
 133  160.3927
 134  276.9415
 135  177.6042
 136  272.3228
 137  366.9453
 138  252.137
 139  323.8241
 140  384.9832
 141  260.3738
 142  234.4156
 143  312.4244
 144  335.2953
 145  324.3368
 146  292.6856
 147  146.7931
 148  189.2671
 149  313.6438
 150  317.5584
 151  355.4306
 152  319.7575
 153  256.6191
 154  233.3141
 155  366.1537
 156  333.6595
 157  359.6304
 158  351.0912
 159  260.447
 160  208.2832
 161  295.6609
 162  344.7777
 163  290.1913
 164  409.0117
 165  370.2584
 166  252.8383
 167  230.7087
 168  261.4
 169  375.5886
 170  290.4389
 171  248.519
 172  287.9445
 173  265.8145
 174  315.0943
 175  217.6285
 176  203.4138
 177  249.0347
 178  314.7316
 179  347.4527
 180  308.3591
 181  294.5397
 182  285.4325
 183  308.704
 184  387.2427
 185  371.9633
 186  291.6532
 187  272.3219
 188  415.8954
 189  518.27
 190  512.0139
 191  265.1355
 192  240.1432
 193  281.5552
 194  273.5823
 195  288.3957
 196  236.8335
 197  206.5339
 198  272.6805
 199  318.8086
 200  227.9319
 201  298.5886
 202  249.6614
 203  315.9116
 204  252.4888
 205  272.6168
 206  323.0019
 207  244.9557
 208  270.4254
 209  334.2823
 210  342.8612
 211  238.1704
 212  242.0065
 213  210.8287
 214  265.1463
 215  239.5705
 216  217.1919
 217  185.9358
 218  274.5657
 219  288.9223
 220  232.2535
 221  165.432
 222  128.2321
 223  206.7006
 224  259.4319
 225  323.1417
 226  333.7682
 227  218.7542
 228  185.5846
 229  276.5168
 230  257.8518
 231  404.093
 232  246.019
 233  159.9715
 234  237.1706
 235  244.722
 236  335.3295
 237  262.2365
 238  328.1458
 239  324.4995
 240  370.7491
 241  298.2505
 242  353.2328
 243  393.1443
 244  351.4113
 245  304.3449
 246  322.9375
 247  299.6078
 248  308.0488
 249  401.3146
 250  382.27
 251  291.2779
 252  199.8645
 253  205.6155
 254  232.0631
 255  206.9333
 256  171.441
 257  239.2507
 258  288.2312
 259  277.6939
 260  326.9177
 261  308.284
 262  238.9309
 263  225.5686
 264  228.7731
 265  378.882
 266  312.8254
 267  289.1426
 268  417.0267
 269  352.405
 270  472.239
 271  426.4251
 272  306.5894
 273  158.3905
 274  129.033
 275  297.8411
 276  259.2796
 277  287.156
 278  318.3605
 279  297.5585
 280  256.0438
 281  221.4045
 282  213.0684
 283  176.1898
 284  196.4571
 285  188.2347
 286  132.2842
 287  211.3204
 288  246.7018
 289  236.8081
 290  178.9042
 291  150.5358
 292  177.9386
 293  171.3866
 294  153.9438
 295  214.8598
 296  239.5119
 297  350.5962
 298  286.2302
 299  312.8596
 300  221.1194
 301  57.47826
 302  184.3954
 303  279.5854
 304  364.2854
 305  256.158
 306  244.7988
 307  311.8427
 308  225.31
 309  107.904
 310  229.1169
 311  122.0864
 312  210.0247
 313  215.3751
 314  258.2762
 315  307.3221
 316  366.2992
 317  347.7572
 318  355.0869
 319  343.4452
 320  275.273
 321  230.4769
 322  272.8294
 323  208.8513
 324  253.4598
 325  422.6803
 326  295.3906
 327  249.9824
 328  394.1353
 329  381.97
 330  352.9529
 331  269.7627
 332  313.5046
 333  293.8592
 334  324.6769
 335  154.4629
 336  178.0604
 337  236.7863
 338  217.7084
 339  130.2789
 340  143.5041
 341  175.0336
 342  207.906
 343  264.2087
 344  331.8114
 345  319.0293
 346  119.7497
 347  191.6911
 348  419.2578
 349  455.2802
 350  318.0872
 351  312.0497
 352  300.8198
 353  238.7177
 354  296.7373
 355  283.8172
 356  253.2586
 357  218.4113
 358  129.4644
 359  158.7423
 360  182.3414
 361  269.6516
 362  231.3024
 363  209.2095
 364  254.0816
 365  206.1207
 366  293.4564
 367  308.8462
 368  625.3194
 369  473.8815
 370  300.4052
 371  143.4578
 372  330.8907
 373  341.8495
 374  283.4204
 375  281.9429
 376  219.1565
 377  113.7834
 378  52.61205
 379  213.038
 380  214.0838
 381  232.0186
 382  251.2589
 383  308.3085
 384  203.1884
 385  208.6677
 386  280.9128
 387  206.0626
 388  135.2314
 389  214.9747
 390  232.9939
 391  85.91421
 392  81.70084
 393  125.8187
 394  238.2131
 395  200.2088
 396  195.3893
 397  277.9105
 398  229.0828
 399  233.4467
 400  166.9988
 401  279.022
 402  259.3661
 403  239.9197
 404  211.65
 405  233.1246
 406  193.7253
 407  168.0886
 408  257.0173
 409  185.0751
 410  295.7838
 411  402.5761
 412  364.6255
 413  150.8616
 414  132.1677
 415  235.8121
 416  215.7523
 417  233.1671
 418  106.1909
 419  234.5941
 420  222.7911
 421  259.9574
 422  235.8728
 423  211.5734
 424  279.9017
 425  288.4218
 426  325.0144
 427  232.1001
 428  262.074
 429  459.7896
 430  324.6127
 431  274.0059
 432  286.9814
 433  306.9694
 434  293.5341
 435  216.2911
 436  335.9906
 437  355.3518
 438  461.6096
 439  345.6541
 440  260.0367
 441  234.9882
 442  225.4342
 443  229.9414
 444  343.721
 445  366.626
 446  409.2382
 447  234.9887
 448  201.6693
 449  249.7997
 450  158.6816
 451  423.5305
 452  338.7263
 453  317.0081
 454  373.903
 455  396.6825
 456  349.6889
 457  298.4814
 458  388.64
 459  338.4817
 460  331.2679
 461  251.7459
 462  307.8407
 463  252.548
 464  315.9816
 465  334.9387
 466  334.7203
 467  227.8663
 468  260.859
 469  308.0165
 470  185.8725
 471  92.97211
 472  65.60967
 473  131.8533
 474  235.3161
 475  94.68819
 476  93.01067
 477  129.3595
 478  201.7805
 479  304.4624
 480  281.248
 481  271.8108
 482  182.4934
 483  149.0332
 484  201.0155
 485  238.4409
 486  246.0341
 487  265.9041
 488  157.5329
 489  281.1239
 490  264.9883
 491  330.8879
 492  402.5124
 493  349.7741
 494  382.9101
 495  320.8886
 496  194.1448
 497  275.6155
 498  312.9979
 499  210.4681
 500  173.6412
 501  283.9184
 502  373.1382
 503  329.4087
 504  429.2316
 505  334.4819
 506  237.6933
 507  397.241
 508  536.0015
 509  665.6235
 510  823.0852
 511  969.9807
