# Input file       =  1179044386.113434_cleaned.dat
# Candidate        =  PSR_0332+5434
# Telescope        =  AR
# Epoch_topo       =  57890.346853164745
# Epoch_bary       =  N/A
# T_sample         =  0.002
# Data Folded      =  7340032
# Data Avg         =  0.0285954620451805
# Data StdDev      =  1.00003949988733 
# Profile Bins     =  512
# Profile Avg      =  409.940141712509 
# Profile StdDev   =  119.737765818213 
# Reduced chi-sqr  =  1.065
# Prob(Noise)      <  0.151   (~1.0 sigma)
# P_topo (ms)      =  714.530997219329  +/- 0.000188
# P'_topo (s/s)    =  -0                +/- 9.9e-11
# P''_topo (s/s^2) =  0                 +/- 4.37e-14
# P_bary (ms)      =  N/A
# P'_bary (s/s)    =  N/A
# P''_bary (s/s^2) =  N/A
# P_orb (s)        =  N/A
# asin(i)/c (s)    =  N/A
# eccentricity     =  N/A
# w (rad)          =  N/A
# T_peri           =  N/A
######################################################
   0  914.1982
   1  819.1832
   2  750.063
   3  725.0059
   4  574.1698
   5  419.1953
   6  373.18
   7  392.7047
   8  466.7357
   9  409.6838
  10  388.0418
  11  444.0194
  12  538.3187
  13  536.3586
  14  478.1354
  15  458.2777
  16  644.6669
  17  644.4422
  18  465.9484
  19  419.404
  20  337.0518
  21  415.2798
  22  369.8299
  23  478.6217
  24  595.3138
  25  450.7777
  26  382.013
  27  307.3728
  28  354.9576
  29  472.4717
  30  354.6615
  31  376.3193
  32  263.4709
  33  280.7347
  34  434.1374
  35  261.3089
  36  270.6621
  37  367.9478
  38  262.3232
  39  326.8946
  40  392.5728
  41  385.3947
  42  353.0352
  43  395.1345
  44  466.1408
  45  475.9725
  46  377.3587
  47  479.7
  48  407.4788
  49  365.9927
  50  440.9507
  51  506.5205
  52  586.973
  53  457.4865
  54  338.35
  55  424.9958
  56  410.9112
  57  402.2861
  58  431.6324
  59  452.8969
  60  500.563
  61  395.4603
  62  404.2228
  63  499.5189
  64  431.6962
  65  343.1335
  66  429.6097
  67  457.3208
  68  318.0779
  69  317.7889
  70  315.4551
  71  294.412
  72  262.8802
  73  448.4496
  74  425.8506
  75  437.1226
  76  483.4904
  77  385.8891
  78  362.2765
  79  269.2499
  80  242.2445
  81  375.4163
  82  392.5385
  83  356.0055
  84  388.9393
  85  361.23
  86  440.4858
  87  392.7377
  88  350.1374
  89  367.3683
  90  355.8665
  91  468.3657
  92  452.0433
  93  412.5837
  94  424.5706
  95  370.4214
  96  378.5254
  97  338.7459
  98  339.6886
  99  375.8437
 100  405.7211
 101  368.066
 102  343.9043
 103  489.3548
 104  542.1041
 105  303.0627
 106  404.3099
 107  482.7989
 108  430.8503
 109  484.8412
 110  397.0852
 111  363.3844
 112  313.7308
 113  294.004
 114  319.1971
 115  262.1068
 116  387.3295
 117  478.1107
 118  428.3962
 119  422.6542
 120  427.5296
 121  318.5946
 122  374.0729
 123  388.0823
 124  468.7152
 125  365.3677
 126  286.4597
 127  280.0312
 128  444.6377
 129  475.8032
 130  431.9606
 131  437.747
 132  425.8967
 133  347.8297
 134  387.8644
 135  489.0004
 136  444.0924
 137  453.6157
 138  376.9356
 139  422.9111
 140  495.0063
 141  416.4427
 142  339.9342
 143  286.2431
 144  395.1877
 145  434.16
 146  344.8418
 147  367.7332
 148  427.0636
 149  393.0579
 150  411.4554
 151  423.0834
 152  377.4633
 153  381.7754
 154  404.201
 155  307.7506
 156  311.5991
 157  445.3574
 158  530.4985
 159  378.5377
 160  336.9542
 161  374.5781
 162  372.9429
 163  372.6203
 164  291.9218
 165  378.0616
 166  391.8852
 167  432.4037
 168  363.4165
 169  344.26
 170  341.8699
 171  333.509
 172  339.0129
 173  431.1395
 174  438.2279
 175  310.4733
 176  342.9242
 177  401.0682
 178  445.5945
 179  385.864
 180  403.617
 181  264.2534
 182  340.6222
 183  328.1651
 184  358.1022
 185  451.8866
 186  420.5648
 187  391.6004
 188  295.7953
 189  300.1247
 190  397.5164
 191  507.6659
 192  289.0067
 193  372.0855
 194  423.3147
 195  487.9436
 196  480.1452
 197  416.9517
 198  469.4629
 199  391.6209
 200  321.25
 201  285.4542
 202  271.5737
 203  294.9875
 204  336.0094
 205  506.7185
 206  511.2929
 207  469.3677
 208  404.2648
 209  380.1423
 210  431.5142
 211  355.066
 212  373.7003
 213  391.2982
 214  526.548
 215  538.2682
 216  393.6573
 217  360.0934
 218  432.1368
 219  466.4221
 220  448.3451
 221  389.6387
 222  354.5769
 223  328.3428
 224  425.7458
 225  488.067
 226  405.8304
 227  435.8617
 228  470.7355
 229  451.5789
 230  459.3079
 231  452.5193
 232  436.8352
 233  376.3617
 234  344.1344
 235  290.8134
 236  259.2517
 237  333.4212
 238  284.8839
 239  333.3083
 240  319.4619
 241  202.5559
 242  321.6945
 243  296.7991
 244  345.6221
 245  274.109
 246  205.941
 247  224.542
 248  361.4214
 249  487.8095
 250  497.8738
 251  378.1127
 252  334.3097
 253  343.4523
 254  366.1601
 255  460.4608
 256  461.9915
 257  422.4122
 258  345.8367
 259  458.2094
 260  418.7186
 261  291.8385
 262  398.9168
 263  348.1541
 264  427.6095
 265  362.6767
 266  315.4489
 267  245.9936
 268  339.8853
 269  450.4326
 270  460.2085
 271  391.7521
 272  389.0638
 273  420.663
 274  424.3485
 275  421.0116
 276  410.7689
 277  467.1165
 278  458.4824
 279  371.0317
 280  297.8372
 281  378.531
 282  496.28
 283  577.191
 284  436.6844
 285  447.5112
 286  449.2036
 287  400.4369
 288  301.1121
 289  288.4822
 290  260.8378
 291  319.5588
 292  316.4689
 293  293.0027
 294  439.8958
 295  448.9786
 296  477.7576
 297  529.8601
 298  488.3469
 299  337.1756
 300  286.959
 301  426.9368
 302  448.6725
 303  331.2196
 304  382.5171
 305  402.2827
 306  360.631
 307  353.3917
 308  279.1992
 309  438.4162
 310  408.5896
 311  274.3745
 312  308.8606
 313  379.8969
 314  284.2755
 315  292.287
 316  366.0636
 317  377.8195
 318  367.4069
 319  337.3754
 320  293.0797
 321  430.3641
 322  371.1092
 323  421.7198
 324  482.9656
 325  466.3595
 326  558.8401
 327  334.6594
 328  395.1595
 329  464.2379
 330  468.3702
 331  498.0676
 332  485.3877
 333  396.3599
 334  302.454
 335  263.1441
 336  456.4776
 337  470.0628
 338  458.6436
 339  346.6728
 340  288.6443
 341  375.0953
 342  469.592
 343  483.7251
 344  426.442
 345  582.5475
 346  577.9595
 347  479.2882
 348  502.0043
 349  446.5961
 350  435.6005
 351  436.9238
 352  459.6313
 353  527.231
 354  509.3644
 355  520.4318
 356  525.3875
 357  473.5604
 358  375.5934
 359  459.4261
 360  516.2473
 361  691.4631
 362  557.4758
 363  476.5461
 364  375.7993
 365  371.5417
 366  453.4545
 367  443.8552
 368  474.3264
 369  383.4631
 370  405.0912
 371  427.7366
 372  398.8626
 373  404.8231
 374  383.162
 375  330.3162
 376  344.4109
 377  435.9051
 378  342.6763
 379  340.5087
 380  318.6213
 381  462.3015
 382  457.3106
 383  381.4
 384  489.5777
 385  461.0189
 386  561.5312
 387  536.255
 388  381.5681
 389  345.5783
 390  350.8328
 391  460.994
 392  423.7025
 393  402.8763
 394  446.4865
 395  512.4772
 396  524.319
 397  550.8549
 398  574.2289
 399  364.7058
 400  410.1895
 401  411.3032
 402  550.6126
 403  432.9221
 404  356.6689
 405  454.7113
 406  400.4707
 407  289.6756
 408  282.6335
 409  303.115
 410  260.5892
 411  397.7339
 412  553.938
 413  540.7247
 414  442.5792
 415  381.9531
 416  457.4795
 417  441.9455
 418  397.0678
 419  481.0099
 420  469.9557
 421  506.9502
 422  449.97
 423  335.3979
 424  198.0118
 425  276.3447
 426  395.437
 427  373.6572
 428  436.337
 429  427.1896
 430  385.5428
 431  314.4008
 432  392.7905
 433  425.5896
 434  322.9187
 435  443.0481
 436  336.7959
 437  295.0546
 438  317.8554
 439  332.2424
 440  290.8935
 441  380.0055
 442  478.8977
 443  532.3389
 444  535.1365
 445  548.6603
 446  539.8387
 447  423.9928
 448  401.8374
 449  462.7342
 450  541.8968
 451  397.1186
 452  462.6779
 453  564.4962
 454  551.3502
 455  491.0653
 456  458.6294
 457  484.3678
 458  428.7799
 459  401.1119
 460  508.8088
 461  563.5081
 462  529.4464
 463  419.7863
 464  446.6663
 465  400.4853
 466  353.0883
 467  341.4862
 468  329.0864
 469  464.4944
 470  368.3409
 471  420.0763
 472  338.1071
 473  302.6623
 474  348.5936
 475  309.5159
 476  275.0219
 477  317.8285
 478  366.9789
 479  359.1584
 480  326.5152
 481  448.7399
 482  539.2993
 483  438.0549
 484  435.6908
 485  461.4073
 486  448.481
 487  434.6672
 488  458.5446
 489  364.6388
 490  345.0898
 491  374.1552
 492  435.8346
 493  545.9017
 494  643.3929
 495  473.5284
 496  396.868
 497  232.3788
 498  340.0729
 499  393.8178
 500  494.0459
 501  548.153
 502  482.3406
 503  454.9425
 504  498.2564
 505  357.6543
 506  387.4332
 507  387.2873
 508  423.0177
 509  617.414
 510  744.9031
 511  816.3891
