# Input file       =  1179130528.109754_cleaned.dat
# Candidate        =  PSR_0332+5434
# Telescope        =  AR
# Epoch_topo       =  57891.343867011041
# Epoch_bary       =  N/A
# T_sample         =  0.002
# Data Folded      =  7340032
# Data Avg         =  0.0250653309423408
# Data StdDev      =  1.00004614012718 
# Profile Bins     =  512
# Profile Avg      =  359.35050547963  
# Profile StdDev   =  119.738560874293 
# Reduced chi-sqr  =  1.160
# Prob(Noise)      <  0.00719   (~2.4 sigma)
# P_topo (ms)      =  714.530025826711  +/- 0.000441
# P'_topo (s/s)    =  -0                +/- 2.33e-10
# P''_topo (s/s^2) =  0                 +/- 1.03e-13
# P_bary (ms)      =  N/A
# P'_bary (s/s)    =  N/A
# P''_bary (s/s^2) =  N/A
# P_orb (s)        =  N/A
# asin(i)/c (s)    =  N/A
# eccentricity     =  N/A
# w (rad)          =  N/A
# T_peri           =  N/A
######################################################
   0  949.4623
   1  889.3077
   2  698.451
   3  543.8518
   4  494.5324
   5  447.6999
   6  316.7102
   7  382.7422
   8  331.845
   9  274.7817
  10  436.114
  11  415.0662
  12  342.2814
  13  402.8356
  14  372.1082
  15  424.3428
  16  492.0331
  17  345.6458
  18  247.5332
  19  267.9963
  20  252.1326
  21  349.2398
  22  288.7746
  23  276.6163
  24  317.1207
  25  295.2118
  26  200.4527
  27  303.0592
  28  332.441
  29  286.3872
  30  337.2394
  31  466.0979
  32  414.2978
  33  334.8329
  34  402.3356
  35  461.5568
  36  472.0526
  37  483.943
  38  323.3753
  39  270.8357
  40  311.3351
  41  393.4232
  42  396.5284
  43  329.5612
  44  443.1402
  45  457.381
  46  318.9259
  47  436.4868
  48  455.8365
  49  438.5292
  50  378.1316
  51  342.4771
  52  420.9963
  53  362.6466
  54  430.2967
  55  329.2113
  56  321.6978
  57  394.7439
  58  406.4768
  59  429.5647
  60  474.7088
  61  365.525
  62  324.6468
  63  369.0881
  64  383.2593
  65  451.3663
  66  437.5778
  67  418.8826
  68  439.1921
  69  362.6663
  70  388.9372
  71  624.0165
  72  540.4756
  73  480.42
  74  387.8737
  75  424.8876
  76  484.9167
  77  337.042
  78  351.7978
  79  397.1257
  80  453.3843
  81  405.2297
  82  344.7096
  83  355.5225
  84  434.7177
  85  542.2927
  86  436.6682
  87  458.6045
  88  536.779
  89  447.8208
  90  476.2286
  91  424.4578
  92  441.8224
  93  375.8981
  94  518.9431
  95  479.882
  96  411.6205
  97  441.4584
  98  450.9208
  99  325.5608
 100  365.7979
 101  460.8654
 102  375.1072
 103  248.858
 104  345.2124
 105  399.6594
 106  379.7818
 107  419.972
 108  372.4183
 109  376.2982
 110  324.6887
 111  253.8007
 112  280.5689
 113  222.9676
 114  167.4228
 115  286.5622
 116  423.7662
 117  325.4243
 118  321.53
 119  458.1736
 120  399.1506
 121  356.1712
 122  316.3029
 123  349.4842
 124  227.1175
 125  257.8339
 126  352.2617
 127  233.9713
 128  206.6308
 129  334.0692
 130  363.4547
 131  396.4883
 132  364.8668
 133  428.431
 134  309.7693
 135  252.4313
 136  273.4356
 137  276.0276
 138  258.8886
 139  329.9602
 140  376.7402
 141  443.7202
 142  343.2784
 143  338.1828
 144  282.3123
 145  372.2259
 146  368.6683
 147  290.942
 148  243.4339
 149  250.18
 150  312.8147
 151  410.1423
 152  381.305
 153  288.3925
 154  340.6666
 155  319.1511
 156  373.4572
 157  279.0577
 158  235.1801
 159  265.2721
 160  349.635
 161  439.1681
 162  339.2984
 163  261.9169
 164  282.8774
 165  401.6056
 166  415.4556
 167  385.8153
 168  272.4187
 169  398.7918
 170  424.6362
 171  393.1735
 172  448.3328
 173  322.5635
 174  406.2617
 175  405.3748
 176  472.0417
 177  384.2036
 178  378.4335
 179  465.8034
 180  440.6669
 181  330.6961
 182  178.4417
 183  321.4971
 184  370.0508
 185  349.2736
 186  386.2905
 187  361.2197
 188  415.6262
 189  420.5677
 190  388.4458
 191  414.7969
 192  438.2084
 193  411.5318
 194  273.079
 195  243.8524
 196  321.0706
 197  336.9951
 198  262.8676
 199  361.3929
 200  286.068
 201  211.2956
 202  174.317
 203  332.1834
 204  353.8191
 205  127.5223
 206  82.93018
 207  324.5381
 208  409.0027
 209  337.7826
 210  356.4604
 211  280.2246
 212  276.5446
 213  325.0917
 214  295.5779
 215  277.2038
 216  351.6305
 217  396.8439
 218  278.1563
 219  245.039
 220  309.2461
 221  356.1144
 222  245.1623
 223  235.9229
 224  379.2021
 225  338.9502
 226  342.7992
 227  337.9336
 228  236.7679
 229  214.5088
 230  348.2065
 231  417.1077
 232  333.5932
 233  317.388
 234  353.6918
 235  328.4017
 236  301.5379
 237  313.7014
 238  383.4897
 239  377.9104
 240  377.6918
 241  272.8938
 242  477.6837
 243  455.1838
 244  413.4082
 245  480.8219
 246  395.3289
 247  283.562
 248  405.6835
 249  405.7253
 250  326.1999
 251  300.3326
 252  364.4782
 253  268.0479
 254  271.9918
 255  278.22
 256  272.4104
 257  260.6536
 258  267.6927
 259  307.2988
 260  245.3203
 261  156.1809
 262  194.3622
 263  378.768
 264  318.1505
 265  287.809
 266  417.9109
 267  312.5892
 268  323.2315
 269  395.6144
 270  317.4219
 271  305.2953
 272  363.7959
 273  332.7736
 274  380.0991
 275  306.3841
 276  313.1517
 277  309.4454
 278  259.3814
 279  193.834
 280  246.4347
 281  283.749
 282  237.02
 283  375.9454
 284  339.4427
 285  357.9431
 286  381.4486
 287  277.0858
 288  344.6982
 289  227.2021
 290  314.0282
 291  312.6315
 292  220.8286
 293  256.8909
 294  209.0412
 295  283.3061
 296  353.6932
 297  350.8412
 298  377.6535
 299  386.6917
 300  375.2209
 301  328.7888
 302  351.029
 303  433.041
 304  402.2744
 305  359.0593
 306  365.9024
 307  361.0747
 308  456.6053
 309  520.6766
 310  407.5727
 311  404.4059
 312  366.8543
 313  360.6664
 314  416.2786
 315  347.3657
 316  400.5398
 317  373.751
 318  410.9963
 319  389.8653
 320  344.9372
 321  444.6844
 322  561.5443
 323  492.1867
 324  386.9571
 325  406.8713
 326  349.809
 327  472.5526
 328  492.5628
 329  452.2761
 330  449.567
 331  422.178
 332  447.1676
 333  387.3595
 334  361.8614
 335  346.6073
 336  345.472
 337  479.9256
 338  461.1538
 339  394.8583
 340  396.8831
 341  380.67
 342  268.8106
 343  377.9397
 344  311.5434
 345  298.6076
 346  321.9185
 347  259.0165
 348  193.4343
 349  323.1333
 350  286.2065
 351  255.8006
 352  367.8463
 353  537.6661
 354  461.3742
 355  424.6798
 356  311.2658
 357  323.4208
 358  397.0048
 359  435.6152
 360  405.691
 361  511.6808
 362  467.5999
 363  363.7042
 364  262.4647
 365  300.7815
 366  389.8547
 367  395.7941
 368  315.4091
 369  260.251
 370  322.6021
 371  408.4655
 372  366.0343
 373  378.5974
 374  394.7349
 375  339.7925
 376  379.1801
 377  355.0753
 378  396.0598
 379  428.2035
 380  482.7613
 381  472.4477
 382  375.7114
 383  309.3627
 384  359.2529
 385  461.0206
 386  338.071
 387  171.1368
 388  324.1632
 389  335.3693
 390  493.7505
 391  347.3158
 392  277.8511
 393  436.8136
 394  359.1732
 395  321.6725
 396  280.609
 397  377.2983
 398  475.7411
 399  308.7278
 400  403.1956
 401  364.5882
 402  378.6757
 403  438.8924
 404  436.9669
 405  360.7983
 406  379.2957
 407  465.2355
 408  514.7549
 409  507.7915
 410  330.0638
 411  240.7428
 412  349.3472
 413  561.3764
 414  462.1165
 415  255.4469
 416  301.862
 417  451.362
 418  463.237
 419  377.8837
 420  290.2033
 421  345.6016
 422  403.7058
 423  356.3768
 424  344.5246
 425  341.2764
 426  337.2836
 427  266.1187
 428  276.7312
 429  196.4737
 430  233.1186
 431  358.0876
 432  376.317
 433  314.4532
 434  338.3982
 435  399.5084
 436  470.48
 437  299.8747
 438  220.5664
 439  364.8967
 440  327.0539
 441  236.0275
 442  296.9114
 443  351.1549
 444  291.7657
 445  386.6969
 446  413.3004
 447  394.2589
 448  329.564
 449  317.0676
 450  230.5257
 451  381.4722
 452  375.627
 453  387.6964
 454  370.7566
 455  302.4404
 456  238.5538
 457  182.2659
 458  228.8698
 459  235.9364
 460  169.2911
 461  300.5384
 462  243.3871
 463  215.8755
 464  418.0023
 465  252.9398
 466  217.2252
 467  325.3727
 468  346.4413
 469  336.741
 470  303.9454
 471  211.9546
 472  191.6742
 473  150.1895
 474  218.2328
 475  360.6022
 476  328.9315
 477  288.1706
 478  411.4437
 479  252.7549
 480  302.3377
 481  311.2313
 482  339.3523
 483  273.7384
 484  307.6541
 485  362.9886
 486  379.8922
 487  364.5859
 488  307.9934
 489  374.3878
 490  386.9848
 491  307.7472
 492  347.4517
 493  484.4351
 494  584.0615
 495  461.4614
 496  330.7179
 497  266.1283
 498  272.0778
 499  265.6982
 500  414.1326
 501  396.9371
 502  429.6382
 503  341.3639
 504  405.9895
 505  477.8577
 506  324.5059
 507  454.9381
 508  570.5938
 509  590.8042
 510  674.3353
 511  900.5279
