# Input file       =  1179546704.108974_cleaned.dat
# Candidate        =  PSR_0332+5434
# Telescope        =  AR
# Epoch_topo       =  57896.160718853862
# Epoch_bary       =  N/A
# T_sample         =  0.002
# Data Folded      =  7208960
# Data Avg         =  0.0352519464352191
# Data StdDev      =  1.00011349861462 
# Profile Bins     =  512
# Profile Avg      =  496.431885878459 
# Profile StdDev   =  118.672643445595 
# Reduced chi-sqr  =  1.133
# Prob(Noise)      <  0.0195   (~2.1 sigma)
# P_topo (ms)      =  714.525286715101  +/- 0.000153
# P'_topo (s/s)    =  -0                +/- 8.24e-11
# P''_topo (s/s^2) =  0                 +/- 3.7e-14
# P_bary (ms)      =  N/A
# P'_bary (s/s)    =  N/A
# P''_bary (s/s^2) =  N/A
# P_orb (s)        =  N/A
# asin(i)/c (s)    =  N/A
# eccentricity     =  N/A
# w (rad)          =  N/A
# T_peri           =  N/A
######################################################
   0  887.2217
   1  893.1779
   2  835.6135
   3  597.0126
   4  485.8334
   5  489.1736
   6  494.4452
   7  517.716
   8  541.7134
   9  500.2919
  10  460.4655
  11  455.2739
  12  428.6127
  13  423.9843
  14  530.7696
  15  582.0657
  16  576.9236
  17  492.2941
  18  409.8671
  19  398.5501
  20  461.6502
  21  508.0855
  22  427.2372
  23  386.4748
  24  347.1416
  25  310.3042
  26  449.8553
  27  464.7164
  28  418.98
  29  464.1271
  30  344.5721
  31  439.5011
  32  457.4711
  33  460.4966
  34  538.746
  35  502.307
  36  439.1566
  37  437.2189
  38  306.853
  39  422.3878
  40  366.5408
  41  322.0442
  42  404.8226
  43  378.3515
  44  357.3604
  45  368.916
  46  456.3432
  47  515.5201
  48  454.8801
  49  438.4835
  50  542.6876
  51  454.0703
  52  550.9139
  53  524.8225
  54  477.1804
  55  497.8324
  56  471.5278
  57  430.1182
  58  505.198
  59  545.9763
  60  619.2532
  61  529.3542
  62  349.2172
  63  343.3614
  64  443.281
  65  355.0959
  66  382.9678
  67  418.6887
  68  578.5682
  69  586.3088
  70  474.8021
  71  503.1316
  72  417.779
  73  434.2812
  74  464.6561
  75  465.7514
  76  505.6677
  77  570.7669
  78  495.2122
  79  442.0177
  80  396.7578
  81  394.9778
  82  464.7486
  83  463.8762
  84  488.2646
  85  488.9758
  86  537.2873
  87  487.5142
  88  423.912
  89  424.4166
  90  428.668
  91  384.3679
  92  363.092
  93  451.134
  94  500.2109
  95  411.161
  96  328.604
  97  415.8939
  98  439.0546
  99  444.4515
 100  459.6613
 101  522.5806
 102  549.6243
 103  453.7899
 104  350.7581
 105  450.7069
 106  398.6111
 107  379.3339
 108  301.9574
 109  310.8062
 110  454.3806
 111  365.2336
 112  411.6722
 113  486.1849
 114  449.1548
 115  304.6544
 116  320.236
 117  399.4207
 118  404.9066
 119  322.2773
 120  364.4657
 121  384.2542
 122  457.284
 123  492.3052
 124  505.6553
 125  558.9807
 126  583.1171
 127  484.7528
 128  470.1457
 129  534.6396
 130  519.8147
 131  496.1286
 132  583.7874
 133  544.1123
 134  502.2186
 135  382.9193
 136  404.8755
 137  498.9163
 138  427.3775
 139  406.9659
 140  414.4344
 141  539.2845
 142  546.5687
 143  510.5912
 144  500.5102
 145  555.4859
 146  515.5195
 147  490.0995
 148  506.6862
 149  556.584
 150  430.8127
 151  405.7935
 152  417.0067
 153  426.8461
 154  322.7406
 155  367.1971
 156  399.5269
 157  498.3141
 158  462.0939
 159  487.9856
 160  490.8981
 161  434.0397
 162  287.4926
 163  353.519
 164  396.4187
 165  465.149
 166  453.8499
 167  499.8092
 168  491.0511
 169  514.781
 170  459.2078
 171  487.0432
 172  460.0652
 173  469.6818
 174  421.557
 175  411.0387
 176  375.938
 177  447.8437
 178  439.9935
 179  442.4516
 180  403.1873
 181  375.5552
 182  305.567
 183  422.6884
 184  621.1404
 185  602.5704
 186  394.3827
 187  398.9673
 188  356.6235
 189  397.5788
 190  410.0032
 191  463.0088
 192  491.0376
 193  554.1027
 194  483.3514
 195  390.7887
 196  391.7153
 197  480.0364
 198  549.6755
 199  513.8759
 200  519.7341
 201  594.7103
 202  543.0073
 203  433.3163
 204  334.2229
 205  442.3143
 206  594.9672
 207  533.467
 208  378.8849
 209  467.0472
 210  479.6277
 211  573.9549
 212  549.5308
 213  498.0437
 214  532.6457
 215  523.9694
 216  635.5747
 217  538.9288
 218  465.3139
 219  533.9062
 220  628.2278
 221  513.2657
 222  433.2316
 223  448.3565
 224  431.8635
 225  583.8411
 226  463.8895
 227  430.4222
 228  399.9761
 229  416.043
 230  466.6987
 231  547.2835
 232  543.8519
 233  656.3664
 234  681.0346
 235  431.2494
 236  306.7481
 237  398.3345
 238  420.1853
 239  379.6848
 240  465.6991
 241  558.6677
 242  598.8378
 243  560.421
 244  460.8761
 245  509.6569
 246  471.2709
 247  488.8494
 248  523.4937
 249  617.0161
 250  649.6829
 251  648.5449
 252  521.7094
 253  400.0012
 254  431.0844
 255  533.7152
 256  418.6024
 257  452.9269
 258  573.2426
 259  461.0785
 260  452.2906
 261  415.0476
 262  478.8954
 263  597.9088
 264  562.1735
 265  578.4354
 266  609.4732
 267  651.8118
 268  581.4836
 269  456.3005
 270  314.8425
 271  323.1732
 272  350.4267
 273  450.3018
 274  464.9369
 275  383.0647
 276  371.2731
 277  380.4017
 278  382.7276
 279  477.4617
 280  373.613
 281  436.2024
 282  491.2149
 283  442.07
 284  502.0332
 285  515.9846
 286  399.1344
 287  408.8317
 288  439.241
 289  387.6075
 290  498.4732
 291  593.3959
 292  578.8342
 293  444.5177
 294  437.7929
 295  434.8558
 296  417.9563
 297  451.9925
 298  472.0811
 299  502.1643
 300  586.345
 301  517.96
 302  487.1111
 303  563.4465
 304  558.0988
 305  434.8925
 306  480.7964
 307  564.8496
 308  538.7327
 309  473.2904
 310  451.3178
 311  550.4851
 312  433.257
 313  499.5616
 314  530.3117
 315  551.9377
 316  666.7228
 317  569.7963
 318  541.1581
 319  409.5018
 320  468.0414
 321  517.6518
 322  315.7962
 323  358.5086
 324  438.3575
 325  514.0038
 326  490.2717
 327  440.5225
 328  412.5517
 329  534.249
 330  520.0613
 331  487.3506
 332  587.6012
 333  646.4011
 334  644.8387
 335  567.0941
 336  564.5016
 337  439.1971
 338  515.1276
 339  450.063
 340  447.9229
 341  516.1007
 342  553.4662
 343  591.7272
 344  600.2235
 345  596.5567
 346  544.9744
 347  500.0296
 348  529.1296
 349  656.041
 350  668.6658
 351  560.77
 352  525.5662
 353  541.3799
 354  472.5818
 355  442.4028
 356  467.9803
 357  491.7551
 358  575.2831
 359  628.7961
 360  564.4537
 361  449.7319
 362  451.596
 363  423.2523
 364  441.1647
 365  413.0826
 366  506.3489
 367  516.9501
 368  442.3784
 369  367.4681
 370  468.3384
 371  455.4328
 372  461.171
 373  540.2067
 374  549.0484
 375  585.5414
 376  542.079
 377  527.7554
 378  600.9301
 379  656.7862
 380  687.4307
 381  605.3931
 382  710.0111
 383  542.985
 384  536.3395
 385  556.7416
 386  588.4232
 387  471.9034
 388  470.2749
 389  508.5408
 390  522.0659
 391  546.466
 392  598.2847
 393  516.5423
 394  492.5295
 395  611.6237
 396  518.9064
 397  527.3662
 398  598.8806
 399  506.3756
 400  415.5404
 401  385.0314
 402  470.0916
 403  559.0324
 404  499.4288
 405  551.8107
 406  568.6569
 407  514.4592
 408  541.9886
 409  598.8821
 410  584.3445
 411  499.145
 412  591.3909
 413  617.8007
 414  559.701
 415  526.6785
 416  516.5908
 417  536.7706
 418  533.9615
 419  607.6317
 420  671.698
 421  593.0544
 422  595.9412
 423  654.5738
 424  693.0908
 425  659.949
 426  643.1676
 427  655.1411
 428  600.1787
 429  515.0414
 430  625.1963
 431  634.8561
 432  501.5302
 433  555.5949
 434  587.2993
 435  607.4542
 436  525.938
 437  523.9976
 438  491.0552
 439  519.194
 440  617.3493
 441  572.8049
 442  553.0511
 443  532.3671
 444  484.6749
 445  543.6024
 446  558.3194
 447  463.9506
 448  368.3798
 449  505.3089
 450  425.018
 451  444.9889
 452  479.1225
 453  427.1018
 454  538.4667
 455  497.067
 456  464.1736
 457  539.2063
 458  557.6856
 459  617.0374
 460  632.3173
 461  512.9348
 462  563.6697
 463  536.7295
 464  529.3422
 465  720.7448
 466  594.9885
 467  539.8583
 468  554.8188
 469  650.4395
 470  636.2669
 471  455.3015
 472  510.2648
 473  585.0045
 474  438.9905
 475  508.9367
 476  621.7466
 477  619.4163
 478  579.1967
 479  682.7916
 480  575.736
 481  573.7247
 482  550.9073
 483  494.8686
 484  490.0648
 485  364.0761
 486  383.5635
 487  550.3239
 488  463.5081
 489  591.0699
 490  465.9424
 491  432.0211
 492  463.7535
 493  385.8257
 494  503.6488
 495  505.3429
 496  547.133
 497  539.7363
 498  576.5683
 499  566.5771
 500  518.5087
 501  597.6968
 502  571.7705
 503  491.0258
 504  413.1599
 505  480.7517
 506  649.3904
 507  636.9202
 508  577.5901
 509  621.2089
 510  846.6174
 511  994.4833
