# Input file       =  1179216699.106159_cleaned.dat
# Candidate        =  PSR_0332+5434
# Telescope        =  AR
# Epoch_topo       =  57892.341216506473
# Epoch_bary       =  N/A
# T_sample         =  0.002
# Data Folded      =  7340032
# Data Avg         =  0.0259250020203131
# Data StdDev      =  1.0000239376054  
# Profile Bins     =  512
# Profile Avg      =  371.720808265567 
# Profile StdDev   =  119.735902498945 
# Reduced chi-sqr  =  1.153
# Prob(Noise)      <  0.00921   (~2.4 sigma)
# P_topo (ms)      =  714.529051600509  +/- 0.000171
# P'_topo (s/s)    =  -0                +/- 9.04e-11
# P''_topo (s/s^2) =  0                 +/- 3.99e-14
# P_bary (ms)      =  N/A
# P'_bary (s/s)    =  N/A
# P''_bary (s/s^2) =  N/A
# P_orb (s)        =  N/A
# asin(i)/c (s)    =  N/A
# eccentricity     =  N/A
# w (rad)          =  N/A
# T_peri           =  N/A
######################################################
   0  824.4711
   1  1015.568
   2  894.9088
   3  578.4307
   4  390.7292
   5  432.4761
   6  536.6446
   7  460.4174
   8  578.4996
   9  493.0426
  10  502.9221
  11  430.8682
  12  299.9774
  13  372.251
  14  474.5948
  15  541.7324
  16  439.1317
  17  436.597
  18  360.8131
  19  361.509
  20  365.9128
  21  437.2032
  22  380.6103
  23  340.4869
  24  361.8632
  25  295.5433
  26  237.2578
  27  305.942
  28  358.4223
  29  334.41
  30  377.149
  31  227.1169
  32  262.6429
  33  252.3521
  34  124.6035
  35  248.5398
  36  356.0082
  37  452.3969
  38  423.072
  39  316.0633
  40  293.2294
  41  310.4743
  42  423.2016
  43  297.5317
  44  324.7987
  45  352.935
  46  361.9767
  47  501.2597
  48  453.1967
  49  372.3627
  50  299.9985
  51  359.2703
  52  381.8566
  53  413.1883
  54  486.342
  55  377.1849
  56  398.7694
  57  380.3743
  58  441.2111
  59  514.1191
  60  561.6845
  61  452.876
  62  383.5099
  63  355.8423
  64  438.9377
  65  426.7338
  66  450.9087
  67  351.7672
  68  407.6928
  69  386.1644
  70  334.8062
  71  359.0565
  72  227.7597
  73  232.4307
  74  365.456
  75  429.8532
  76  359.3067
  77  363.8296
  78  421.8267
  79  359.3027
  80  288.0055
  81  380.4518
  82  499.5581
  83  397.9296
  84  401.4587
  85  344.214
  86  395.57
  87  408.7741
  88  476.3052
  89  601.2647
  90  502.6852
  91  491.4087
  92  447.1825
  93  330.2905
  94  415.5886
  95  450.338
  96  479.9793
  97  402.9239
  98  473.0149
  99  408.3992
 100  416.1737
 101  347.3335
 102  386.1219
 103  430.2804
 104  390.5764
 105  345.7244
 106  373.1244
 107  347.4778
 108  283.7602
 109  229.2495
 110  283.8835
 111  316.5732
 112  360.7749
 113  345.5635
 114  353.8804
 115  238.2357
 116  159.1284
 117  266.4236
 118  335.9698
 119  396.2528
 120  332.7057
 121  361.3579
 122  312.1891
 123  254.2774
 124  332.963
 125  416.9118
 126  400.01
 127  395.4443
 128  335.4684
 129  268.5324
 130  219.461
 131  227.3607
 132  385.6469
 133  429.2607
 134  435.2398
 135  411.4304
 136  311.482
 137  288.8983
 138  484.5446
 139  394.9803
 140  303.9141
 141  258.4568
 142  295.2675
 143  347.2742
 144  330.856
 145  304.9018
 146  371.882
 147  376.7534
 148  401.8025
 149  324.9386
 150  358.028
 151  464.8733
 152  419.1918
 153  360.9812
 154  359.116
 155  472.818
 156  556.8219
 157  456.824
 158  434.4416
 159  525.2246
 160  567.9175
 161  524.5435
 162  457.4556
 163  500.6156
 164  440.6753
 165  323.7367
 166  420.9858
 167  362.0905
 168  437.2951
 169  442.7327
 170  387.3041
 171  262.2013
 172  286.0147
 173  381.9995
 174  403.7746
 175  495.68
 176  335.3924
 177  325.4856
 178  332.0437
 179  231.4384
 180  288.6098
 181  364.668
 182  266.3445
 183  272.8114
 184  333.8462
 185  511.0038
 186  353.5535
 187  284.1403
 188  329.5056
 189  479.5079
 190  447.1828
 191  230.3472
 192  346.851
 193  387.4015
 194  369.4352
 195  284.3187
 196  268.4117
 197  326.5131
 198  335.972
 199  328.162
 200  345.5592
 201  445.1089
 202  404.7616
 203  378.5182
 204  444.7318
 205  361.2685
 206  483.9192
 207  311.0062
 208  269.4509
 209  339.4221
 210  272.1239
 211  336.2116
 212  298.1422
 213  536.8077
 214  570.742
 215  505.2026
 216  434.0074
 217  415.9167
 218  385.877
 219  364.0777
 220  374.7673
 221  345.1494
 222  350.4594
 223  417.421
 224  359.3892
 225  253.8558
 226  261.679
 227  390.6546
 228  458.4938
 229  441.791
 230  379.598
 231  273.0232
 232  347.7594
 233  346.9294
 234  365.765
 235  461.6625
 236  396.2593
 237  326.6125
 238  250.9184
 239  405.7248
 240  288.8039
 241  351.765
 242  419.2025
 243  355.6342
 244  397.8242
 245  398.7769
 246  353.7967
 247  282.2964
 248  411.3567
 249  409.8726
 250  476.9995
 251  577.0053
 252  430.3198
 253  231.5184
 254  347.7839
 255  427.6952
 256  414.379
 257  470.0891
 258  558.9194
 259  463.3344
 260  336.9141
 261  374.0088
 262  406.4826
 263  263.1254
 264  292.2345
 265  354.6734
 266  308.096
 267  320.1676
 268  376.4996
 269  381.8139
 270  342.468
 271  272.7714
 272  233.6346
 273  342.4666
 274  242.077
 275  237.0793
 276  269.4579
 277  288.3145
 278  417.9468
 279  396.0633
 280  408.8604
 281  264.7552
 282  176.959
 283  285.6693
 284  251.4352
 285  226.2898
 286  263.6476
 287  327.4656
 288  451.0569
 289  409.4787
 290  302.6605
 291  338.4976
 292  284.7695
 293  444.9732
 294  396.8794
 295  281.5786
 296  424.5451
 297  485.83
 298  325.0365
 299  380.7308
 300  355.1788
 301  431.4995
 302  370.9428
 303  422.1794
 304  447.997
 305  515.3206
 306  485.4608
 307  340.8144
 308  186.2578
 309  384.3824
 310  323.7381
 311  312.8057
 312  371.7852
 313  336.5976
 314  284.438
 315  235.8899
 316  379.4192
 317  314.1711
 318  274.1066
 319  262.1962
 320  346.0022
 321  287.9153
 322  263.9113
 323  230.3563
 324  234.4688
 325  274.4586
 326  405.7226
 327  328.1026
 328  266.7712
 329  335.0829
 330  390.6335
 331  437.4108
 332  443.2527
 333  438.4799
 334  420.1814
 335  418.2441
 336  362.3206
 337  333.0163
 338  398.6122
 339  442.9711
 340  449.6466
 341  350.8721
 342  305.033
 343  379.7632
 344  403.8502
 345  441.232
 346  413.7048
 347  360.6283
 348  323.253
 349  388.8757
 350  341.4151
 351  335.7141
 352  296.1501
 353  375.5875
 354  351.2111
 355  320.7568
 356  335.4336
 357  427.7735
 358  385.8522
 359  286.9205
 360  278.2335
 361  323.5281
 362  384.3639
 363  405.7467
 364  350.1095
 365  407.2705
 366  387.3927
 367  315.024
 368  207.8981
 369  261.585
 370  296.2801
 371  365.8522
 372  360.3532
 373  362.7334
 374  306.2389
 375  303.0739
 376  278.8769
 377  367.2711
 378  439.0929
 379  425.1436
 380  446.1693
 381  464.4102
 382  356.932
 383  466.3595
 384  469.6184
 385  366.3367
 386  321.7196
 387  332.9766
 388  324.4023
 389  254.4489
 390  248.1937
 391  341.6952
 392  365.6477
 393  391.0236
 394  286.9042
 395  340.4422
 396  417.5717
 397  309.8761
 398  313.8846
 399  440.3295
 400  430.2506
 401  408.6319
 402  358.198
 403  301.6626
 404  258.5483
 405  191.9577
 406  248.904
 407  379.6473
 408  317.4612
 409  321.3461
 410  319.9006
 411  349.1841
 412  457.4023
 413  558.7779
 414  540.5568
 415  392.8088
 416  385.2498
 417  378.6696
 418  427.6871
 419  400.6114
 420  416.388
 421  356.743
 422  378.8845
 423  397.4568
 424  277.9063
 425  357.3156
 426  312.4423
 427  286.7778
 428  268.9211
 429  337.5019
 430  389.571
 431  389.2908
 432  345.5335
 433  376.4755
 434  312.8314
 435  354.0365
 436  506.4923
 437  430.2559
 438  355.7598
 439  386.0446
 440  463.2142
 441  369.4392
 442  332.7786
 443  278.3494
 444  389.8547
 445  348.2405
 446  285.8693
 447  384.3684
 448  301.214
 449  276.8006
 450  197.6529
 451  241.9729
 452  316.9643
 453  341.407
 454  393.1822
 455  487.718
 456  353.5391
 457  304.1591
 458  242.5517
 459  222.1048
 460  262.1725
 461  248.3436
 462  250.6514
 463  242.1796
 464  213.0722
 465  401.9926
 466  421.4503
 467  432.9018
 468  414.5065
 469  374.7271
 470  382.5369
 471  457.0426
 472  415.5161
 473  327.454
 474  390.652
 475  467.1972
 476  403.1511
 477  465.6731
 478  280.8709
 479  276.0623
 480  455.8352
 481  392.1038
 482  378.2349
 483  349.2643
 484  289.8705
 485  302.8116
 486  277.4007
 487  408.9865
 488  297.2358
 489  407.642
 490  384.9581
 491  313.5349
 492  437.5797
 493  359.6576
 494  380.4173
 495  494.8093
 496  424.2023
 497  419.7372
 498  413.2278
 499  423.0106
 500  339.0366
 501  232.6135
 502  275.8541
 503  224.7858
 504  440.7334
 505  541.5238
 506  517.3019
 507  412.5632
 508  479.9998
 509  621.5311
 510  776.5139
 511  758.5651
