# Input file       =  1179906622.097327_cleaned.dat
# Candidate        =  PSR_0332+5434
# Telescope        =  AR
# Epoch_topo       =  57900.326436311654
# Epoch_bary       =  N/A
# T_sample         =  0.002
# Data Folded      =  7340032
# Data Avg         =  0.0268687722907125
# Data StdDev      =  1.00003547060729 
# Profile Bins     =  512
# Profile Avg      =  385.21674479098  
# Profile StdDev   =  119.737283380279 
# Reduced chi-sqr  =  1.170
# Prob(Noise)      <  0.00473   (~2.6 sigma)
# P_topo (ms)      =  714.521187690146  +/- 0.00036
# P'_topo (s/s)    =  -0                +/- 1.9e-10
# P''_topo (s/s^2) =  0                 +/- 8.38e-14
# P_bary (ms)      =  N/A
# P'_bary (s/s)    =  N/A
# P''_bary (s/s^2) =  N/A
# P_orb (s)        =  N/A
# asin(i)/c (s)    =  N/A
# eccentricity     =  N/A
# w (rad)          =  N/A
# T_peri           =  N/A
######################################################
   0  216.4196
   1  503.3306
   2  525.8531
   3  378.0398
   4  322.2601
   5  329.4551
   6  343.4943
   7  440.4836
   8  468.3851
   9  309.3885
  10  384.7203
  11  405.646
  12  359.7675
  13  352.9977
  14  472.5898
  15  527.5567
  16  523.4757
  17  389.0256
  18  299.656
  19  364.8918
  20  446.8778
  21  494.176
  22  529.0829
  23  490.6833
  24  594.2208
  25  514.7888
  26  432.0782
  27  547.0889
  28  496.2549
  29  473.6998
  30  434.4775
  31  396.1011
  32  400.8212
  33  421.8147
  34  449.2461
  35  356.6835
  36  321.8203
  37  351.116
  38  241.9136
  39  265.8673
  40  347.8316
  41  329.0764
  42  353.3015
  43  373.8599
  44  445.2856
  45  457.9346
  46  309.3951
  47  388.7031
  48  326.0201
  49  371.2903
  50  464.9505
  51  478.2089
  52  487.4434
  53  385.2011
  54  372.6059
  55  405.1677
  56  495.6151
  57  418.9069
  58  480.2509
  59  558.6805
  60  515.1456
  61  433.3139
  62  519.2238
  63  486.041
  64  444.7088
  65  426.6695
  66  375.2915
  67  315.9369
  68  416.2162
  69  432.2298
  70  385.8602
  71  383.5541
  72  463.7644
  73  330.022
  74  344.8416
  75  424.773
  76  326.4717
  77  237.3951
  78  320.2722
  79  375.4108
  80  398.0063
  81  343.2944
  82  423.1274
  83  355.4375
  84  471.2443
  85  423.8267
  86  382.9983
  87  347.6458
  88  393.5587
  89  414.3396
  90  510.4756
  91  444.711
  92  525.8408
  93  435.5186
  94  548.341
  95  600.8071
  96  524.7084
  97  522.7465
  98  513.6214
  99  474.1469
 100  362.7385
 101  506.1631
 102  615.6246
 103  474.7793
 104  331.3318
 105  342.7039
 106  426.2639
 107  493.5205
 108  575.9995
 109  509.1158
 110  352.5093
 111  492.815
 112  551.0593
 113  535.7381
 114  439.1136
 115  487.7221
 116  453.9197
 117  397.5992
 118  483.4194
 119  541.2375
 120  458.6857
 121  359.0691
 122  465.5402
 123  493.4761
 124  452.468
 125  451.6701
 126  333.6575
 127  316.2575
 128  307.1674
 129  261.7361
 130  372.1999
 131  379.2285
 132  295.3709
 133  297.5116
 134  293.7732
 135  314.0132
 136  482.6264
 137  458.912
 138  386.0929
 139  368.7856
 140  431.6238
 141  448.6374
 142  359.1006
 143  356.7332
 144  312.0351
 145  290.9088
 146  313.6036
 147  358.232
 148  373.8366
 149  336.7148
 150  264.9838
 151  386.003
 152  448.5572
 153  433.4936
 154  502.482
 155  553.4615
 156  447.1642
 157  401.609
 158  255.4227
 159  281.3901
 160  355.929
 161  377.3195
 162  303.2249
 163  252.7609
 164  425.9743
 165  407.7899
 166  305.3059
 167  254.3085
 168  252.2015
 169  357.9189
 170  379.6246
 171  216.033
 172  236.0222
 173  374.8435
 174  470.954
 175  305.5963
 176  296.758
 177  372.0451
 178  358.6442
 179  276.2496
 180  276.4364
 181  323.8176
 182  385.059
 183  341.0414
 184  345.0086
 185  392.7429
 186  307.5745
 187  282.5162
 188  479.3554
 189  427.0542
 190  400.9532
 191  398.8678
 192  349.0612
 193  590.6183
 194  345.5152
 195  299.1171
 196  469.0833
 197  565.0565
 198  701.5331
 199  800.407
 200  958.9197
 201  877.2641
 202  724.0888
 203  770.8369
 204  653.1135
 205  458.8246
 206  368.2047
 207  256.9359
 208  313.8733
 209  301.0223
 210  365.4092
 211  288.2889
 212  321.7861
 213  324.4233
 214  368.9027
 215  396.5151
 216  409.9717
 217  475.9691
 218  356.782
 219  275.9566
 220  312.8779
 221  400.7466
 222  449.6661
 223  291.0331
 224  281.3257
 225  407.2948
 226  376.7306
 227  350.5632
 228  365.5448
 229  397.0035
 230  418.0862
 231  404.4293
 232  383.1816
 233  386.2334
 234  354.1897
 235  367.6053
 236  526.0806
 237  485.851
 238  344.4672
 239  415.8452
 240  413.3852
 241  407.5345
 242  468.914
 243  388.6097
 244  340.2589
 245  278.1587
 246  377.5152
 247  424.8526
 248  463.0727
 249  447.3983
 250  389.0276
 251  316.1712
 252  288.6257
 253  306.4072
 254  393.7896
 255  353.7387
 256  311.3773
 257  196.3799
 258  193.3529
 259  290.9705
 260  359.0792
 261  376.9358
 262  328.054
 263  264.6239
 264  341.0226
 265  284.8416
 266  270.8621
 267  425.7405
 268  378.3558
 269  290.8112
 270  326.2591
 271  333.3879
 272  343.2119
 273  282.6983
 274  291.6684
 275  426.9877
 276  396.6929
 277  353.1877
 278  341.5815
 279  309.188
 280  301.1165
 281  330.63
 282  334.732
 283  386.5335
 284  430.6396
 285  359.1498
 286  323.8185
 287  318.1523
 288  477.893
 289  418.4717
 290  386.2307
 291  436.6215
 292  404.1973
 293  275.3094
 294  317.8463
 295  399.0119
 296  418.4508
 297  411.7383
 298  389.6031
 299  462.6337
 300  336.1346
 301  235.9442
 302  347.5375
 303  305.5045
 304  352.9465
 305  424.9605
 306  418.8499
 307  332.7988
 308  348.1679
 309  335.2574
 310  353.7214
 311  366.9618
 312  370.6099
 313  407.285
 314  379.4256
 315  375.3129
 316  296.42
 317  385.4803
 318  343.7402
 319  389.4988
 320  414.4072
 321  392.9874
 322  338.3356
 323  346.8075
 324  462.6133
 325  357.2054
 326  328.1366
 327  189.2739
 328  271.9276
 329  283.8111
 330  294.9313
 331  313.3097
 332  282.3806
 333  360.5781
 334  353.2792
 335  318.5917
 336  313.6721
 337  296.2685
 338  462.9175
 339  386.0438
 340  305.0703
 341  391.0615
 342  360.755
 343  353.7768
 344  411.7615
 345  333.9922
 346  256.2169
 347  328.9037
 348  247.094
 349  273.4742
 350  361.5677
 351  356.6741
 352  367.726
 353  302.116
 354  314.3646
 355  380.6422
 356  410.3434
 357  302.4698
 358  317.4369
 359  409.5528
 360  350.916
 361  377.3721
 362  282.7152
 363  335.5605
 364  374.2475
 365  366.1631
 366  332.3989
 367  329.8242
 368  335.5509
 369  285.2443
 370  320.9429
 371  284.2776
 372  190.4543
 373  192.6702
 374  164.4433
 375  232.6076
 376  316.421
 377  264.4274
 378  265.9514
 379  302.7058
 380  396.7196
 381  437.4052
 382  417.9353
 383  509.7783
 384  458.2938
 385  384.3896
 386  377.1079
 387  403.9424
 388  488.7674
 389  435.2999
 390  306.2476
 391  306.4702
 392  406.1736
 393  426.0125
 394  383.437
 395  401.482
 396  333.0078
 397  285.5113
 398  402.7069
 399  419.7081
 400  405.9713
 401  420.1365
 402  392.7903
 403  349.375
 404  380.5426
 405  468.9349
 406  369.9164
 407  331.1505
 408  483.2948
 409  405.3135
 410  397.8949
 411  520.3815
 412  516.4767
 413  435.5721
 414  361.8747
 415  445.9774
 416  342.1577
 417  417.5539
 418  431.2104
 419  330.4904
 420  213.9573
 421  195.8144
 422  243.88
 423  259.2431
 424  332.8494
 425  411.0588
 426  347.9413
 427  335.4511
 428  339.7628
 429  411.4661
 430  340.9042
 431  318.4154
 432  368.8375
 433  398.2858
 434  280.4338
 435  276.8489
 436  307.6215
 437  360.53
 438  388.0862
 439  354.2005
 440  402.8161
 441  373.9217
 442  352.989
 443  359.6489
 444  411.2513
 445  402.8821
 446  469.8448
 447  397.5752
 448  367.9235
 449  380.7331
 450  393.0677
 451  390.2049
 452  256.4976
 453  200.0747
 454  299.1638
 455  347.2332
 456  398.7834
 457  407.5314
 458  258.8005
 459  337.5636
 460  278.6749
 461  325.22
 462  302.2086
 463  348.9065
 464  272.2466
 465  279.094
 466  358.4947
 467  309.3626
 468  263.3018
 469  234.4208
 470  215.8922
 471  317.1499
 472  296.3304
 473  324.43
 474  330.8414
 475  330.5019
 476  461.6978
 477  340.8079
 478  244.043
 479  433.9297
 480  535.3369
 481  485.4279
 482  467.0225
 483  556.3354
 484  522.9442
 485  417.0865
 486  480.1384
 487  551.1163
 488  517.0725
 489  555.6702
 490  609.0421
 491  509.3256
 492  434.1049
 493  463.2597
 494  539.6059
 495  523.0964
 496  398.4373
 497  365.9637
 498  525.4534
 499  419.3269
 500  416.0236
 501  504.3603
 502  485.6831
 503  454.717
 504  359.2417
 505  355.5678
 506  457.3702
 507  367.5504
 508  358.5724
 509  381.5753
 510  392.3391
 511  390.4127
