# Input file       =  1179389028.098606_cleaned.dat
# Candidate        =  PSR_0332+5434
# Telescope        =  AR
# Epoch_topo       =  57894.335765030162
# Epoch_bary       =  N/A
# T_sample         =  0.002
# Data Folded      =  7340032
# Data Avg         =  0.0252236945363746
# Data StdDev      =  1.00007165065066 
# Profile Bins     =  512
# Profile Avg      =  361.617048493247 
# Profile StdDev   =  119.741615326728 
# Reduced chi-sqr  =  1.373
# Prob(Noise)      <  3.99e-08   (~5.4 sigma)
# P_topo (ms)      =  714.527095156685  +/- 0.000376
# P'_topo (s/s)    =  -0                +/- 1.98e-10
# P''_topo (s/s^2) =  0                 +/- 8.75e-14
# P_bary (ms)      =  N/A
# P'_bary (s/s)    =  N/A
# P''_bary (s/s^2) =  N/A
# P_orb (s)        =  N/A
# asin(i)/c (s)    =  N/A
# eccentricity     =  N/A
# w (rad)          =  N/A
# T_peri           =  N/A
######################################################
   0  849.5595
   1  864.9546
   2  852.975
   3  628.5316
   4  388.2366
   5  391.549
   6  430.2703
   7  394.5917
   8  315.1111
   9  383.2893
  10  516.897
  11  466.7403
  12  407.9252
  13  349.5808
  14  445.2081
  15  410.1717
  16  396.9471
  17  459.7723
  18  369.4698
  19  459.5583
  20  509.7388
  21  506.2619
  22  306.2737
  23  338.3565
  24  350.2436
  25  300.4349
  26  281.4829
  27  289.0872
  28  321.2014
  29  298.7035
  30  223.8555
  31  179.7245
  32  328.2073
  33  344.1692
  34  232.4253
  35  357.3986
  36  416.5758
  37  341.9683
  38  307.5883
  39  266.9939
  40  385.7392
  41  282.8177
  42  417.5797
  43  359.9545
  44  347.7956
  45  225.8567
  46  194.6692
  47  206.8703
  48  275.2281
  49  274.5012
  50  405.7312
  51  413.2926
  52  329.7046
  53  435.628
  54  479.5407
  55  325.8914
  56  305.4396
  57  277.0539
  58  402.5583
  59  489.9078
  60  522.1138
  61  560.0653
  62  293.6647
  63  276.0744
  64  282.2694
  65  332.3596
  66  409.2878
  67  426.8212
  68  425.4825
  69  424.7072
  70  327.0922
  71  369.9157
  72  422.7251
  73  333.9914
  74  224.8732
  75  319.073
  76  435.4624
  77  340.1965
  78  306.9709
  79  227.5036
  80  209.7306
  81  381.9715
  82  394.2203
  83  337.4318
  84  305.5687
  85  393.8484
  86  441.7297
  87  338.9878
  88  324.9676
  89  286.9258
  90  234.2519
  91  218.8207
  92  282.6421
  93  333.989
  94  351.4754
  95  443.8227
  96  478.9209
  97  447.1116
  98  335.8232
  99  475.2141
 100  418.754
 101  328.6592
 102  370.8341
 103  312.0001
 104  375.4456
 105  332.3392
 106  324.541
 107  359.8475
 108  392.6172
 109  278.1477
 110  313.4355
 111  355.6207
 112  244.227
 113  394.2482
 114  422.8099
 115  299.8472
 116  262.7234
 117  365.3145
 118  287.7386
 119  295.036
 120  255.4675
 121  268.558
 122  266.1107
 123  412.7343
 124  396.4325
 125  227.6453
 126  207.7754
 127  246.4302
 128  284.941
 129  417.7555
 130  369.2427
 131  355.9874
 132  387.4132
 133  252.0645
 134  310.6236
 135  327.9795
 136  368.0463
 137  404.7739
 138  421.7776
 139  506.1532
 140  337.5584
 141  281.4116
 142  377.3098
 143  427.3553
 144  459.3977
 145  471.8957
 146  350.0742
 147  387.3015
 148  291.2715
 149  186.7252
 150  197.5777
 151  346.7823
 152  441.1107
 153  403.3627
 154  529.5882
 155  453.7258
 156  423.0195
 157  308.7316
 158  254.4713
 159  310.5447
 160  378.3864
 161  325.6572
 162  208.1792
 163  260.2603
 164  213.1307
 165  318.4808
 166  414.9874
 167  483.0534
 168  436.3221
 169  429.7797
 170  455.8298
 171  453.7777
 172  417.921
 173  449.956
 174  405.6298
 175  269.2447
 176  250.0078
 177  311.7179
 178  370.9937
 179  471.4569
 180  426.0585
 181  379.7035
 182  385.6922
 183  431.0539
 184  352.9796
 185  362.9583
 186  443.0263
 187  586.4025
 188  394.8328
 189  253.0641
 190  437.9122
 191  464.0991
 192  443.5194
 193  397.4557
 194  384.0813
 195  425.9358
 196  366.8598
 197  432.3307
 198  421.0151
 199  432.9725
 200  451.1414
 201  384.229
 202  399.1419
 203  364.5918
 204  311.9872
 205  376.3685
 206  439.4622
 207  391.5576
 208  293.9965
 209  429.1245
 210  269.2354
 211  290.7919
 212  370.3592
 213  497.77
 214  383.3584
 215  297.9845
 216  205.5203
 217  389.318
 218  380.4836
 219  348.5409
 220  364.9328
 221  426.0258
 222  398.6703
 223  299.2971
 224  324.8949
 225  406.5083
 226  359.9561
 227  356.8571
 228  387.4009
 229  412.1003
 230  368.3277
 231  269.9739
 232  403.7901
 233  362.4953
 234  203.5747
 235  280.2818
 236  365.3906
 237  254.0026
 238  226.5888
 239  376.69
 240  349.2193
 241  258.1224
 242  330.0158
 243  257.2247
 244  351.5509
 245  419.6137
 246  355.3862
 247  283.0087
 248  352.0335
 249  464.0135
 250  377.702
 251  338.6178
 252  323.1497
 253  320.7733
 254  352.5342
 255  375.4833
 256  308.2083
 257  201.2782
 258  172.3324
 259  281.5218
 260  211.7377
 261  191.8384
 262  84.69466
 263  256.4704
 264  227.3519
 265  393.6336
 266  431.8487
 267  334.3875
 268  244.0126
 269  257.745
 270  206.3858
 271  409.8068
 272  404.2473
 273  331.123
 274  335.871
 275  233.45
 276  284.8617
 277  256.3678
 278  341.3515
 279  255.2927
 280  242.9976
 281  318.5165
 282  329.184
 283  336.1468
 284  282.8832
 285  181.9761
 286  251.697
 287  293.399
 288  290.8055
 289  231.0347
 290  359.1086
 291  397.6628
 292  408.292
 293  275.2831
 294  217.422
 295  274.1256
 296  273.3002
 297  254.0523
 298  300.8852
 299  232.6228
 300  119.6011
 301  262.5252
 302  273.0037
 303  369.0618
 304  305.1537
 305  263.2052
 306  279.407
 307  237.8116
 308  288.1686
 309  207.2289
 310  283.4511
 311  218.274
 312  237.603
 313  322.4878
 314  310.393
 315  297.6029
 316  287.988
 317  294.7317
 318  290.3691
 319  196.1505
 320  241.0596
 321  295.3303
 322  316.8109
 323  209.9916
 324  204.5895
 325  292.1636
 326  257.2503
 327  222.4366
 328  278.4031
 329  406.0475
 330  381.7296
 331  387.5481
 332  408.1519
 333  404.9766
 334  369.4359
 335  345.6155
 336  417.0979
 337  464.8431
 338  399.075
 339  327.8787
 340  249.071
 341  318.4763
 342  256.8467
 343  284.8435
 344  462.199
 345  344.4775
 346  450.7637
 347  390.6364
 348  296.6751
 349  260.4973
 350  325.3143
 351  298.5121
 352  282.8846
 353  421.9308
 354  396.6837
 355  305.7134
 356  277.0602
 357  251.2255
 358  246.5014
 359  238.5309
 360  309.0541
 361  376.4596
 362  334.1065
 363  356.4521
 364  377.6013
 365  385.8958
 366  399.1482
 367  357.9632
 368  264.2781
 369  254.4147
 370  278.3734
 371  216.2434
 372  296.2338
 373  397.3183
 374  448.3432
 375  329.759
 376  362.8831
 377  383.5011
 378  487.4651
 379  416.7967
 380  319.2067
 381  346.7897
 382  521.8931
 383  387.5373
 384  279.4612
 385  371.3636
 386  421.449
 387  394.9998
 388  348.3087
 389  276.8151
 390  312.0513
 391  423.1601
 392  453.9246
 393  553.8477
 394  458.9567
 395  369.4276
 396  492.4488
 397  501.8777
 398  502.4189
 399  450.9377
 400  587.0417
 401  528.3428
 402  455.0017
 403  532.7523
 404  467.9998
 405  492.3561
 406  465.0692
 407  401.5588
 408  422.9428
 409  510.3964
 410  443.939
 411  389.8148
 412  370.6866
 413  416.0237
 414  333.6389
 415  386.8431
 416  375.818
 417  361.8509
 418  414.0656
 419  366.2735
 420  539.6609
 421  553.6981
 422  378.6592
 423  268.022
 424  289.6918
 425  320.0091
 426  241.7743
 427  221.4223
 428  242.9088
 429  270.9545
 430  218.9033
 431  284.5508
 432  351.7816
 433  421.131
 434  423.2092
 435  457.5234
 436  384.7464
 437  409.2115
 438  378.3201
 439  486.902
 440  493.6637
 441  439.0401
 442  409.1361
 443  402.4541
 444  345.4831
 445  436.6736
 446  552.7552
 447  458.298
 448  454.6767
 449  281.9341
 450  331.3907
 451  282.4131
 452  377.1165
 453  518.9832
 454  376.5593
 455  389.7516
 456  519.2872
 457  479.7073
 458  397.8217
 459  298.8408
 460  338.1783
 461  390.9982
 462  444.3091
 463  398.7982
 464  327.8102
 465  258.1562
 466  419.9197
 467  458.3025
 468  340.5848
 469  298.0394
 470  302.7331
 471  426.5703
 472  339.037
 473  185.0088
 474  238.244
 475  401.5684
 476  305.8703
 477  379.4382
 478  455.2554
 479  393.5485
 480  462.9778
 481  498.4258
 482  508.1729
 483  492.7808
 484  482.1739
 485  341.2993
 486  225.255
 487  288.2904
 488  566.5858
 489  509.8299
 490  424.5191
 491  467.814
 492  385.8831
 493  456.3396
 494  354.8257
 495  372.4348
 496  324.6734
 497  268.9458
 498  329.4756
 499  406.7216
 500  374.4268
 501  427.6083
 502  510.8196
 503  377.989
 504  338.4478
 505  333.82
 506  511.1936
 507  666.7865
 508  570.4251
 509  682.0292
 510  842.7091
 511  935.4166
