# Input file       =  1179403935.110874_cleaned.dat
# Candidate        =  PSR_0332+5434
# Telescope        =  AR
# Epoch_topo       =  57894.508299894376
# Epoch_bary       =  N/A
# T_sample         =  0.002
# Data Folded      =  7340032
# Data Avg         =  0.0201220400870177
# Data StdDev      =  1.00008273384745 
# Profile Bins     =  512
# Profile Avg      =  288.504983138406 
# Profile StdDev   =  119.742942351532 
# Reduced chi-sqr  =  1.307
# Prob(Noise)      <  3.31e-06   (~4.5 sigma)
# P_topo (ms)      =  714.527259631587  +/- 0.000251
# P'_topo (s/s)    =  -0                +/- 1.33e-10
# P''_topo (s/s^2) =  0                 +/- 5.85e-14
# P_bary (ms)      =  N/A
# P'_bary (s/s)    =  N/A
# P''_bary (s/s^2) =  N/A
# P_orb (s)        =  N/A
# asin(i)/c (s)    =  N/A
# eccentricity     =  N/A
# w (rad)          =  N/A
# T_peri           =  N/A
######################################################
   0  241.6682
   1  246.3503
   2  329.1953
   3  339.4305
   4  360.0269
   5  364.5656
   6  442.0116
   7  429.8728
   8  343.0094
   9  386.7457
  10  280.4282
  11  244.6505
  12  253.4574
  13  247.411
  14  188.0436
  15  234.168
  16  278.1878
  17  320.5627
  18  241.5648
  19  331.8909
  20  400.9834
  21  310.3532
  22  180.4855
  23  192.7961
  24  401.9354
  25  328.7314
  26  169.2443
  27  264.207
  28  241.5751
  29  388.3134
  30  494.0964
  31  363.8861
  32  281.9297
  33  303.4834
  34  272.0988
  35  165.5216
  36  143.4268
  37  156.2973
  38  226.8613
  39  312.3207
  40  291.1924
  41  273.7806
  42  407.6985
  43  406.1229
  44  373.1229
  45  376.3672
  46  357.3849
  47  388.9969
  48  405.8787
  49  310.5908
  50  316.8051
  51  251.405
  52  298.4294
  53  274.7063
  54  412.9172
  55  394.3434
  56  298.1108
  57  379.8496
  58  640.1092
  59  766.023
  60  855.6899
  61  880.5829
  62  803.9417
  63  555.9597
  64  386.6514
  65  473.8494
  66  479.6095
  67  326.7038
  68  275.9145
  69  202.7198
  70  338.4163
  71  472.9244
  72  341.3764
  73  412.7802
  74  420.0401
  75  398.4937
  76  318.1646
  77  329.95
  78  254.4794
  79  419.8878
  80  422.4689
  81  423.2891
  82  377.8121
  83  481.1402
  84  365.5351
  85  312.53
  86  364.727
  87  402.5514
  88  224.5442
  89  211.6764
  90  251.6836
  91  248.642
  92  361.1839
  93  358.153
  94  434.1914
  95  393.9066
  96  366.33
  97  428.7588
  98  403.756
  99  341.632
 100  319.1518
 101  274.7314
 102  161.214
 103  209.4809
 104  146.7753
 105  154.849
 106  289.3794
 107  267.3984
 108  187.3499
 109  184.9106
 110  218.2287
 111  366.4358
 112  394.8977
 113  315.2787
 114  336.745
 115  333.703
 116  319.0091
 117  381.223
 118  403.7971
 119  438.5136
 120  378.1813
 121  342.0849
 122  245.834
 123  293.6626
 124  304.6498
 125  340.2379
 126  249.2883
 127  196.3859
 128  267.197
 129  290.5229
 130  297.9072
 131  248.2615
 132  319.9571
 133  344.7507
 134  338.4602
 135  310.8804
 136  358.631
 137  297.8826
 138  307.9628
 139  389.1722
 140  381.7443
 141  309.8777
 142  146.4516
 143  258.6461
 144  265.7192
 145  365.2455
 146  378.4551
 147  325.7234
 148  231.3787
 149  285.5415
 150  296.1773
 151  241.7096
 152  324.7162
 153  218.5246
 154  246.8052
 155  221.0423
 156  258.6869
 157  288.1473
 158  303.9698
 159  322.6007
 160  414.3158
 161  316.7022
 162  258.9948
 163  291.0674
 164  281.1553
 165  287.2871
 166  333.5665
 167  249.1225
 168  272.4631
 169  236.5277
 170  309.1588
 171  304.5022
 172  342.644
 173  394.6614
 174  253.4396
 175  134.7385
 176  150.9878
 177  213.732
 178  260.8393
 179  128.1045
 180  165.6183
 181  188.9036
 182  130.7536
 183  151.665
 184  242.5357
 185  103.2846
 186  142.2731
 187  105.686
 188  144.524
 189  113.291
 190  152.9934
 191  103.0808
 192  267.9995
 193  220.1182
 194  43.05783
 195  24.20772
 196  72.53368
 197  276.1338
 198  430.4304
 199  250.0008
 200  153.4546
 201  146.5719
 202  391.1327
 203  258.2071
 204  164.8296
 205  169.7084
 206  212.8096
 207  223.239
 208  187.1703
 209  270.4441
 210  329.9183
 211  302.4515
 212  126.1415
 213  254.1744
 214  258.5085
 215  276.1429
 216  213.0945
 217  253.9905
 218  332.7979
 219  282.1914
 220  225.4465
 221  366.5493
 222  219.0685
 223  280.1312
 224  210.2243
 225  240.8468
 226  204.6506
 227  261.6228
 228  417.7599
 229  278.9487
 230  229.441
 231  261.555
 232  270.8763
 233  306.9783
 234  308.2953
 235  278.3053
 236  193.8795
 237  176.6897
 238  291.7531
 239  353.4517
 240  245.5266
 241  280.0759
 242  445.5568
 243  410.5523
 244  213.627
 245  154.9409
 246  212.6177
 247  324.5891
 248  341.2218
 249  342.7088
 250  288.5546
 251  345.7759
 252  490.2305
 253  413.5204
 254  414.9226
 255  417.4482
 256  321.1856
 257  340.3251
 258  345.7919
 259  236.6997
 260  215.0435
 261  325.5857
 262  295.6634
 263  197.5977
 264  221.2354
 265  225.2211
 266  312.2345
 267  342.0208
 268  290.6934
 269  292.3214
 270  355.1371
 271  423.385
 272  336.3937
 273  305.8548
 274  171.7909
 275  191.0584
 276  309.1943
 277  310.3795
 278  302.7733
 279  308.1329
 280  306.9904
 281  179.0682
 282  151.8003
 283  237.2148
 284  338.8895
 285  221.7633
 286  298.3562
 287  427.1621
 288  422.3004
 289  317.5799
 290  241.204
 291  241.0141
 292  205.0606
 293  197.0264
 294  325.2533
 295  332.3128
 296  240.0028
 297  275.6419
 298  223.9457
 299  311.5758
 300  408.001
 301  384.3602
 302  305.1852
 303  347.7333
 304  336.3996
 305  237.6733
 306  233.0582
 307  282.242
 308  288.055
 309  327.8264
 310  315.4597
 311  230.8671
 312  139.7559
 313  167.3827
 314  274.6469
 315  282.0413
 316  372.5685
 317  198.9144
 318  269.3904
 319  362.1526
 320  365.4368
 321  353.6733
 322  375.6035
 323  405.0261
 324  350.7271
 325  353.9747
 326  299.9899
 327  294.8156
 328  314.3593
 329  244.1024
 330  222.9254
 331  268.8851
 332  429.6535
 333  424.4593
 334  314.1596
 335  255.6847
 336  275.0973
 337  314.3093
 338  382.2182
 339  261.8318
 340  287.0592
 341  292.1637
 342  369.7643
 343  385.8988
 344  383.4464
 345  394.6506
 346  426.7335
 347  347.7915
 348  279.6616
 349  320.4896
 350  124.3015
 351  215.8144
 352  310.5441
 353  350.9094
 354  300.581
 355  357.994
 356  228.7317
 357  159.7799
 358  196.4666
 359  188.4287
 360  236.4582
 361  292.8015
 362  296.0624
 363  333.4117
 364  395.8931
 365  268.1729
 366  274.3374
 367  354.2623
 368  340.4725
 369  236.1487
 370  162.7023
 371  159.2006
 372  238.1235
 373  377.9588
 374  385.6472
 375  179.6767
 376  121.0511
 377  259.6404
 378  284.5377
 379  280.1829
 380  415.5988
 381  366.6012
 382  257.2055
 383  354.9091
 384  221.4655
 385  215.8357
 386  193.2796
 387  200.5183
 388  216.931
 389  341.2137
 390  276.8781
 391  218.5794
 392  267.7543
 393  235.9233
 394  181.2164
 395  245.3956
 396  242.3964
 397  178.4191
 398  246.6418
 399  245.6541
 400  237.5088
 401  256.4337
 402  256.7908
 403  192.8692
 404  202.0684
 405  289.3377
 406  275.4193
 407  328.0793
 408  259.7809
 409  96.9719
 410  89.70407
 411  150.6672
 412  209.2409
 413  197.7711
 414  238.075
 415  296.9738
 416  164.0906
 417  231.0824
 418  341.8331
 419  280.8228
 420  316.5837
 421  283.5935
 422  305.1756
 423  288.1118
 424  224.5668
 425  161.4207
 426  196.3906
 427  235.125
 428  154.9689
 429  98.5772
 430  119.4435
 431  184.2825
 432  152.9897
 433  231.3591
 434  153.5185
 435  247.016
 436  198.5215
 437  265.8143
 438  264.9402
 439  315.791
 440  421.8684
 441  150.9672
 442  206.648
 443  371.1673
 444  352.8254
 445  320.5222
 446  281.6934
 447  353.4939
 448  296.2558
 449  46.02835
 450  148.4253
 451  234.0423
 452  82.81112
 453  232.4393
 454  248.0542
 455  192.739
 456  241.1822
 457  228.0199
 458  159.4657
 459  222.1795
 460  307.9903
 461  365.9014
 462  241.2819
 463  149.722
 464  302.5411
 465  348.0584
 466  312.713
 467  276.7151
 468  225.2711
 469  224.5116
 470  328.3546
 471  289.7461
 472  270.5274
 473  255.1379
 474  329.8848
 475  331.5329
 476  350.0131
 477  351.9773
 478  315.537
 479  387.4908
 480  353.87
 481  374.0245
 482  355.3372
 483  165.637
 484  205.4296
 485  420.1337
 486  295.3207
 487  279.7981
 488  382.0947
 489  506.1693
 490  370.0227
 491  355.1277
 492  459.9195
 493  347.0573
 494  349.3805
 495  333.6848
 496  128.0319
 497  117.8467
 498  210.5928
 499  213.3612
 500  75.4379
 501  159.6994
 502  215.0983
 503  341.0275
 504  339.7437
 505  255.0259
 506  342.1298
 507  265.0749
 508  284.2739
 509  362.1701
 510  269.651
 511  339.1943
