# Input file       =  1179719062.10811_cleaned.dat
# Candidate        =  PSR_0332+5434
# Telescope        =  AR
# Epoch_topo       =  57898.155603103121
# Epoch_bary       =  N/A
# T_sample         =  0.002
# Data Folded      =  7143424
# Data Avg         =  0.031839300509067
# Data StdDev      =  1.00003910879365 
# Profile Bins     =  512
# Profile Avg      =  444.061907987827 
# Profile StdDev   =  118.123203957214 
# Reduced chi-sqr  =  1.001
# Prob(Noise)      <  0.485   (~0.0 sigma)
# P_topo (ms)      =  714.523315896568  +/- 0.000264
# P'_topo (s/s)    =  -0                +/- 1.43e-10
# P''_topo (s/s^2) =  0                 +/- 6.5e-14
# P_bary (ms)      =  N/A
# P'_bary (s/s)    =  N/A
# P''_bary (s/s^2) =  N/A
# P_orb (s)        =  N/A
# asin(i)/c (s)    =  N/A
# eccentricity     =  N/A
# w (rad)          =  N/A
# T_peri           =  N/A
######################################################
   0  443.0204
   1  455.3798
   2  538.8687
   3  552.4237
   4  422.6436
   5  453.4226
   6  437.3864
   7  441.124
   8  439.0868
   9  373.5654
  10  427.6879
  11  516.3361
  12  452.3424
  13  378.6076
  14  442.6219
  15  392.1917
  16  434.4883
  17  474.7715
  18  397.0154
  19  447.0292
  20  450.6404
  21  479.6658
  22  456.9673
  23  373.367
  24  402.1497
  25  336.985
  26  321.2292
  27  405.2756
  28  445.7368
  29  463.8473
  30  335.9562
  31  443.2867
  32  384.6954
  33  441.4703
  34  420.9312
  35  502.216
  36  500.7715
  37  395.9324
  38  487.6916
  39  541.2986
  40  585.9382
  41  502.9853
  42  398.836
  43  384.0217
  44  432.791
  45  392.3624
  46  405.6195
  47  483.6778
  48  488.6651
  49  426.9055
  50  452.5403
  51  521.0389
  52  534.0018
  53  553.8395
  54  534.6077
  55  453.9129
  56  425.4119
  57  433.2019
  58  385.6103
  59  360.9441
  60  487.7853
  61  499.6006
  62  344.3344
  63  372.1319
  64  520.5901
  65  476.3736
  66  317.1183
  67  435.8802
  68  524.0806
  69  450.8323
  70  453.8976
  71  494.2583
  72  367.1561
  73  411.5851
  74  373.362
  75  373.3331
  76  414.9414
  77  414.4075
  78  370.3957
  79  432.4554
  80  393.5387
  81  281.1364
  82  342.3318
  83  439.6577
  84  591.9167
  85  517.3898
  86  501.1765
  87  542.1714
  88  518.9388
  89  631.9039
  90  492.6278
  91  469.5777
  92  452.3258
  93  519.2952
  94  478.0035
  95  488.6653
  96  461.748
  97  388.0192
  98  372.8352
  99  295.0244
 100  412.5952
 101  381.2975
 102  420.3104
 103  305.2483
 104  338.3848
 105  416.3898
 106  284.1337
 107  202.5747
 108  334.1777
 109  330.5558
 110  281.3921
 111  318.9744
 112  333.9868
 113  241.5419
 114  264.4456
 115  383.4633
 116  404.4647
 117  427.8571
 118  412.7401
 119  463.909
 120  439.927
 121  375.4014
 122  350.7671
 123  433.9214
 124  455.7477
 125  437.023
 126  416.1092
 127  387.4806
 128  391.6007
 129  501.755
 130  488.6702
 131  400.0184
 132  335.356
 133  232.692
 134  337.5272
 135  480.4388
 136  502.8148
 137  497.9284
 138  489.9424
 139  376.8607
 140  407.8889
 141  397.827
 142  410.7655
 143  452.333
 144  484.6098
 145  347.921
 146  327.7092
 147  412.0821
 148  435.19
 149  452.72
 150  389.7037
 151  339.4385
 152  419.0329
 153  506.0543
 154  449.4598
 155  361.2981
 156  461.311
 157  465.4143
 158  399.8307
 159  432.8917
 160  323.7197
 161  368.3492
 162  400.745
 163  542.8491
 164  479.1528
 165  580.8583
 166  560.7952
 167  509.0239
 168  513.633
 169  589.6201
 170  581.3325
 171  553.9583
 172  627.2892
 173  755.8002
 174  698.5613
 175  578.5979
 176  567.5128
 177  723.9541
 178  820.4129
 179  814.809
 180  759.6887
 181  634.6931
 182  605.8704
 183  540.9609
 184  599.1783
 185  626.36
 186  474.7997
 187  394.1787
 188  397.6337
 189  495.8158
 190  414.4207
 191  480.3376
 192  544.2039
 193  414.3813
 194  307.1259
 195  263.2975
 196  314.0246
 197  354.249
 198  334.9863
 199  370.7708
 200  369.9644
 201  418.4085
 202  571.4982
 203  503.5822
 204  404.4618
 205  474.6376
 206  519.6265
 207  542.7335
 208  401.7674
 209  334.9377
 210  436.8664
 211  472.8432
 212  442.6398
 213  472.6697
 214  447.8047
 215  371.6985
 216  428.7957
 217  498.5612
 218  477.1014
 219  395.5337
 220  352.0446
 221  433.1733
 222  279.9776
 223  300.8928
 224  328.9182
 225  394.905
 226  348.9197
 227  293.1664
 228  440.5838
 229  378.1052
 230  447.4374
 231  378.9605
 232  418.958
 233  401.4733
 234  388.9086
 235  373.6442
 236  397.9249
 237  434.4696
 238  503.6593
 239  463.6136
 240  489.9401
 241  297.9736
 242  427.7703
 243  475.1219
 244  357.237
 245  290.0543
 246  411.5008
 247  466.1609
 248  490.0849
 249  392.7223
 250  431.3308
 251  363.5512
 252  414.1554
 253  438.4219
 254  338.0742
 255  433.7975
 256  471.8459
 257  463.3886
 258  362.2617
 259  336.8225
 260  383.0964
 261  304.1483
 262  446.1593
 263  519.7466
 264  554.6964
 265  416.3542
 266  347.9907
 267  458.9694
 268  463.2388
 269  363.502
 270  407.3965
 271  401.8773
 272  368.9935
 273  369.5681
 274  427.4452
 275  469.5795
 276  365.9355
 277  283.4487
 278  374.966
 279  335.7321
 280  310.0601
 281  240.9989
 282  325.2544
 283  282.801
 284  357.8796
 285  401.2612
 286  370.174
 287  489.0061
 288  507.8794
 289  324.8484
 290  352.2859
 291  410.4542
 292  461.1766
 293  399.9957
 294  470.7954
 295  367.8205
 296  380.6826
 297  441.816
 298  469.9395
 299  566.6138
 300  627.43
 301  532.526
 302  571.4568
 303  561.1173
 304  538.8779
 305  472.9341
 306  418.2879
 307  344.6916
 308  415.9921
 309  521.9675
 310  392.526
 311  429.5639
 312  447.7809
 313  428.9914
 314  404.67
 315  442.2764
 316  403.4589
 317  429.2476
 318  456.0682
 319  356.4
 320  386.852
 321  334.6846
 322  288.1798
 323  415.3343
 324  447.2326
 325  415.9323
 326  340.8652
 327  309.7567
 328  342.5966
 329  434.5102
 330  458.0986
 331  406.517
 332  398.4966
 333  453.1529
 334  566.9357
 335  500.5498
 336  518.8272
 337  519.9738
 338  472.8802
 339  434.8868
 340  610.5757
 341  569.2812
 342  487.9817
 343  458.0399
 344  452.8338
 345  466.5288
 346  470.0804
 347  583.7026
 348  558.9189
 349  595.2622
 350  516.6804
 351  425.562
 352  579.7574
 353  577.6752
 354  424.2334
 355  419.2679
 356  504.9034
 357  418.2486
 358  344.1342
 359  451.0462
 360  427.9678
 361  378.9395
 362  352.9167
 363  345.0876
 364  425.9373
 365  389.623
 366  375.4236
 367  521.7121
 368  393.0771
 369  410.0082
 370  330.0382
 371  376.1324
 372  479.2067
 373  491.1338
 374  556.1013
 375  492.6528
 376  534.1279
 377  439.0974
 378  419.0208
 379  537.5035
 380  554.4832
 381  543.1324
 382  583.2121
 383  637.6624
 384  553.3033
 385  684.3305
 386  646.3668
 387  564.4954
 388  526.9631
 389  483.4705
 390  467.2987
 391  549.1859
 392  519.0761
 393  486.7355
 394  542.4713
 395  536.5891
 396  459.5486
 397  374.9499
 398  574.4961
 399  484.14
 400  447.1983
 401  418.3591
 402  421.7397
 403  400.6831
 404  448.6166
 405  489.6766
 406  382.0492
 407  366.7422
 408  440.2894
 409  342.8964
 410  337.2636
 411  391.2107
 412  524.0367
 413  584.9307
 414  557.3577
 415  528.8911
 416  518.4554
 417  498.9327
 418  453.2129
 419  466.054
 420  591.2228
 421  507.5666
 422  513.2584
 423  535.7048
 424  632.7944
 425  527.9433
 426  429.056
 427  451.7755
 428  518.5676
 429  587.007
 430  583.6832
 431  519.6119
 432  503.3388
 433  520.0868
 434  508.3881
 435  490.7957
 436  454.7685
 437  382.2553
 438  413.0049
 439  422.1817
 440  450.89
 441  404.5723
 442  472.0974
 443  449.477
 444  405.0572
 445  428.7073
 446  453.863
 447  367.7762
 448  422.2932
 449  413.3555
 450  451.1641
 451  432.0629
 452  425.8
 453  528.4012
 454  502.7386
 455  357.5041
 456  401.3602
 457  521.5417
 458  514.41
 459  409.2369
 460  310.0841
 461  321.7524
 462  431.2378
 463  459.0551
 464  476.8464
 465  416.9433
 466  467.9962
 467  403.3462
 468  460.3975
 469  469.0312
 470  442.9358
 471  439.6068
 472  449.7727
 473  410.5047
 474  454.5394
 475  457.3203
 476  457.6845
 477  488.0819
 478  514.7621
 479  496.0551
 480  567.5653
 481  480.021
 482  355.8514
 483  456.8937
 484  518.9128
 485  459.5946
 486  474.4299
 487  373.5935
 488  391.2358
 489  393.483
 490  327.4073
 491  346.1441
 492  304.8314
 493  410.6521
 494  467.5999
 495  360.3819
 496  501.4555
 497  481.9265
 498  448.4854
 499  377.1485
 500  386.8003
 501  375.1614
 502  359.8847
 503  460.7925
 504  501.172
 505  557.577
 506  462.7661
 507  370.118
 508  390.7129
 509  382.5247
 510  518.4714
 511  505.0013
