# Input file       =  1179475185.131431_cleaned.dat
# Candidate        =  PSR_0332+5434
# Telescope        =  AR
# Epoch_topo       =  57895.332952910081
# Epoch_bary       =  N/A
# T_sample         =  0.002
# Data Folded      =  7340032
# Data Avg         =  0.0220212769726982
# Data StdDev      =  1.00002363630284 
# Profile Bins     =  512
# Profile Avg      =  315.725764326602 
# Profile StdDev   =  119.735866423074 
# Reduced chi-sqr  =  1.027
# Prob(Noise)      <  0.326   (~0.5 sigma)
# P_topo (ms)      =  714.526113073936  +/- 0.000167
# P'_topo (s/s)    =  -0                +/- 8.82e-11
# P''_topo (s/s^2) =  0                 +/- 3.89e-14
# P_bary (ms)      =  N/A
# P'_bary (s/s)    =  N/A
# P''_bary (s/s^2) =  N/A
# P_orb (s)        =  N/A
# asin(i)/c (s)    =  N/A
# eccentricity     =  N/A
# w (rad)          =  N/A
# T_peri           =  N/A
######################################################
   0  802.9779
   1  652.7889
   2  498.5227
   3  365.6927
   4  446.0427
   5  340.9725
   6  412.8733
   7  359.3497
   8  390.9993
   9  359.8387
  10  430.6183
  11  350.6852
  12  412.9862
  13  391.6711
  14  435.3539
  15  342.5129
  16  325.7349
  17  271.2081
  18  371.9862
  19  329.5632
  20  481.8852
  21  433.8606
  22  368.0826
  23  381.2935
  24  375.1129
  25  301.3372
  26  196.6947
  27  269.1405
  28  322.7772
  29  309.7792
  30  288.5983
  31  304.6373
  32  413.7232
  33  407.0289
  34  404.3953
  35  173.0112
  36  134.6745
  37  227.3433
  38  204.4686
  39  337.9196
  40  377.0639
  41  326.9172
  42  300.1223
  43  282.5942
  44  273.0577
  45  260.6548
  46  351.5042
  47  385.9305
  48  403.7606
  49  300.5466
  50  276.7672
  51  185.8367
  52  115.0416
  53  262.4328
  54  229.7378
  55  218.9832
  56  233.4638
  57  307.3594
  58  303.2958
  59  326.9231
  60  319.458
  61  345.9845
  62  326.8563
  63  250.6552
  64  223.0867
  65  199.7538
  66  302.1997
  67  375.3622
  68  378.9116
  69  372.0135
  70  348.7579
  71  352.2493
  72  368.4911
  73  380.3538
  74  292.3915
  75  372.5648
  76  444.1287
  77  480.1441
  78  417.8839
  79  412.0438
  80  390.5822
  81  316.6325
  82  376.0341
  83  378.3585
  84  361.9451
  85  389.2538
  86  455.165
  87  447.4972
  88  365.2012
  89  289.758
  90  404.152
  91  276.8152
  92  285.7669
  93  393.5047
  94  318.7644
  95  247.0941
  96  254.1416
  97  403.4332
  98  352.9838
  99  197.6473
 100  350.2099
 101  327.2583
 102  309.6727
 103  332.7539
 104  198.5502
 105  303.9343
 106  359.9513
 107  380.6632
 108  302.2791
 109  272.8463
 110  340.6329
 111  334.0095
 112  293.3626
 113  278.3757
 114  311.2452
 115  389.6419
 116  386.7237
 117  435.2144
 118  434.4706
 119  466.1186
 120  283.5477
 121  219.5081
 122  182.6949
 123  279.7314
 124  261.7854
 125  196.3719
 126  259.1908
 127  379.9932
 128  358.8676
 129  362.4889
 130  304.9873
 131  461.7713
 132  375.5257
 133  337.9227
 134  319.0863
 135  346.6996
 136  321.5448
 137  309.4709
 138  387.3933
 139  320.7687
 140  318.9322
 141  465.8246
 142  375.6765
 143  260.9717
 144  297.6415
 145  245.6084
 146  258.9305
 147  260.2927
 148  331.5466
 149  378.3784
 150  332.7076
 151  250.3565
 152  291.0219
 153  203.0385
 154  165.7759
 155  254.2445
 156  431.956
 157  451.2166
 158  312.9375
 159  229.9904
 160  245.9644
 161  275.9096
 162  333.3454
 163  423.9066
 164  338.9865
 165  194.7552
 166  334.7893
 167  360.3808
 168  379.8052
 169  365.5371
 170  386.9959
 171  269.5234
 172  335.8553
 173  383.2106
 174  287.8217
 175  318.6895
 176  318.4497
 177  439.1598
 178  430.3947
 179  445.0363
 180  370.574
 181  336.6366
 182  363.5885
 183  259.2385
 184  184.6904
 185  386.3422
 186  432.0817
 187  465.9721
 188  500.6163
 189  466.484
 190  452.1252
 191  318.8574
 192  313.9019
 193  277.9857
 194  220.167
 195  255.4849
 196  329.7184
 197  249.9458
 198  306.3791
 199  318.4917
 200  384.9815
 201  289.4454
 202  164.7257
 203  247.2077
 204  269.0654
 205  319.0502
 206  226.6652
 207  188.7443
 208  248.5465
 209  187.5136
 210  154.3901
 211  179.3888
 212  136.6974
 213  277.0662
 214  305.7458
 215  257.2094
 216  236.6665
 217  358.4304
 218  396.7252
 219  273.0089
 220  234.8069
 221  323.9183
 222  304.424
 223  234.4796
 224  243.0528
 225  404.9245
 226  363.6811
 227  338.2717
 228  229.2858
 229  279.6142
 230  383.4722
 231  372.0465
 232  267.4592
 233  246.085
 234  306.788
 235  330.3201
 236  415.6679
 237  259.136
 238  294.766
 239  331.0345
 240  320.6109
 241  281.1482
 242  223.6
 243  286.8909
 244  331.0154
 245  272.6768
 246  266.8961
 247  348.0241
 248  226.928
 249  300.8663
 250  409.8602
 251  348.8094
 252  232.859
 253  200.331
 254  266.9228
 255  286.9403
 256  291.8956
 257  126.4928
 258  205.4426
 259  271.3046
 260  399.5251
 261  247.774
 262  310.85
 263  324.886
 264  280.908
 265  303.767
 266  325.9553
 267  174.3453
 268  154.2135
 269  129.2329
 270  280.8892
 271  157.7226
 272  297.3194
 273  418.9274
 274  409.5076
 275  340.7852
 276  328.0767
 277  349.5346
 278  309.4385
 279  367.7993
 280  342.6488
 281  393.6547
 282  328.1004
 283  301.8784
 284  317.058
 285  302.6775
 286  183.8386
 287  201.6961
 288  337.3227
 289  293.849
 290  288.1245
 291  156.0136
 292  152.7055
 293  171.0348
 294  251.838
 295  290.2933
 296  309.8049
 297  300.1007
 298  294.8881
 299  276.1483
 300  369.8041
 301  323.6602
 302  275.4573
 303  285.1032
 304  315.2387
 305  348.0162
 306  433.7981
 307  378.8345
 308  289.4636
 309  304.2181
 310  319.3787
 311  375.9682
 312  323.9285
 313  213.4975
 314  212.9261
 315  231.9339
 316  263.2721
 317  338.8191
 318  252.3522
 319  135.2412
 320  85.7326
 321  202.5362
 322  278.0083
 323  330.2114
 324  265.9962
 325  277.7084
 326  257.2722
 327  379.7338
 328  363.8051
 329  330.2883
 330  323.0528
 331  310.0312
 332  274.8454
 333  220.7707
 334  250.3107
 335  277.4117
 336  140.0418
 337  209.0488
 338  247.2521
 339  235.8883
 340  324.065
 341  320.6432
 342  213.5798
 343  271.1706
 344  334.0095
 345  270.351
 346  317.2962
 347  348.5721
 348  297.8589
 349  201.6009
 350  274.6804
 351  225.2747
 352  217.8097
 353  361.4944
 354  345.8266
 355  278.1663
 356  301.5049
 357  415.6631
 358  323.737
 359  368.6252
 360  295.7245
 361  385.5923
 362  437.1879
 363  343.6709
 364  223.6395
 365  206.2525
 366  185.335
 367  298.751
 368  305.8338
 369  259.6177
 370  218.1122
 371  232.828
 372  247.22
 373  302.5436
 374  420.6594
 375  374.2016
 376  278.4138
 377  325.2027
 378  267.1811
 379  146.5052
 380  161.6948
 381  88.90937
 382  210.6718
 383  318.3111
 384  317.834
 385  416.8022
 386  405.8464
 387  405.0016
 388  267.7394
 389  224.5939
 390  222.1933
 391  242.1496
 392  362.8705
 393  396.4846
 394  301.7322
 395  359.3246
 396  321.2769
 397  342.6925
 398  339.8138
 399  307.3942
 400  362.5306
 401  277.1938
 402  299.2819
 403  210.0212
 404  213.1519
 405  350.8562
 406  407.4309
 407  322.6716
 408  175.2191
 409  188.1234
 410  352.0102
 411  380.34
 412  322.9266
 413  217.557
 414  257.3269
 415  359.7852
 416  365.7885
 417  255.159
 418  258.9854
 419  275.7835
 420  220.643
 421  280.6495
 422  272.5234
 423  361.6247
 424  499.9335
 425  428.5232
 426  388.7804
 427  276.6408
 428  371.3928
 429  383.2808
 430  460.9222
 431  436.1484
 432  403.0912
 433  361.9962
 434  393.0179
 435  387.3886
 436  261.4552
 437  248.9391
 438  283.9128
 439  327.9833
 440  414.0397
 441  352.2849
 442  376.6131
 443  541.6792
 444  319.3312
 445  346.3012
 446  430.5306
 447  400.636
 448  304.4411
 449  185.0715
 450  257.4262
 451  324.9458
 452  276.0428
 453  342.4338
 454  403.7702
 455  382.5517
 456  337.9608
 457  345.2927
 458  306.7672
 459  231.3774
 460  220.3815
 461  404.3456
 462  327.5823
 463  274.5153
 464  310.9655
 465  303.9825
 466  265.1816
 467  248.3211
 468  332.2047
 469  390.8118
 470  346.2809
 471  267.6141
 472  273.4961
 473  342.4748
 474  352.0297
 475  319.1833
 476  327.2408
 477  451.5454
 478  309.183
 479  157.9394
 480  193.3108
 481  326.9827
 482  506.238
 483  443.869
 484  347.7233
 485  205.1283
 486  245.8132
 487  324.8704
 488  463.7925
 489  353.6293
 490  198.0873
 491  149.651
 492  236.7539
 493  253.9377
 494  181.5931
 495  140.9513
 496  305.34
 497  438.1903
 498  363.1777
 499  315.0031
 500  315.4651
 501  307.2668
 502  397.4562
 503  331.9511
 504  318.9749
 505  273.4007
 506  332.6334
 507  390.7482
 508  545.2352
 509  668.549
 510  695.9074
 511  784.172
