# Input file       =  1179546704.108974_cleaned.dat
# Candidate        =  PSR_0332+5434
# Telescope        =  AR
# Epoch_topo       =  57896.160718853862
# Epoch_bary       =  N/A
# T_sample         =  0.002
# Data Folded      =  7208960
# Data Avg         =  0.0352519464352191
# Data StdDev      =  1.00011349861462 
# Profile Bins     =  512
# Profile Avg      =  496.431886306357 
# Profile StdDev   =  118.672643445595 
# Reduced chi-sqr  =  1.137
# Prob(Noise)      <  0.017   (~2.1 sigma)
# P_topo (ms)      =  714.525286735589  +/- 0.000152
# P'_topo (s/s)    =  -0                +/- 8.18e-11
# P''_topo (s/s^2) =  0                 +/- 3.68e-14
# P_bary (ms)      =  N/A
# P'_bary (s/s)    =  N/A
# P''_bary (s/s^2) =  N/A
# P_orb (s)        =  N/A
# asin(i)/c (s)    =  N/A
# eccentricity     =  N/A
# w (rad)          =  N/A
# T_peri           =  N/A
######################################################
   0  958.3047
   1  870.9114
   2  903.6628
   3  732.0795
   4  528.9917
   5  470.28
   6  502.4374
   7  489.9814
   8  545.0055
   9  526.9656
  10  464.075
  11  476.0127
  12  417.2316
  13  454.3733
  14  442.3736
  15  584.9763
  16  574.6246
  17  539.0878
  18  469.1113
  19  374.6077
  20  437.6627
  21  468.9827
  22  504.6261
  23  380.6105
  24  400.8685
  25  303.4362
  26  369.0237
  27  475.5158
  28  431.0125
  29  434.3618
  30  423.0382
  31  362.0795
  32  483.58
  33  446.5201
  34  486.1485
  35  554.6725
  36  435.3546
  37  465.7879
  38  355.68
  39  349.4501
  40  427.1801
  41  311.9922
  42  366.7413
  43  405.1771
  44  360.1589
  45  362.2942
  46  389.6793
  47  505.1136
  48  488.7331
  49  432.0434
  50  494.4723
  51  519.046
  52  480.7275
  53  575.8721
  54  478.896
  55  484.3839
  56  496.0598
  57  444.7051
  58  461.301
  59  514.3333
  60  589.6273
  61  600.8809
  62  445.0191
  63  325.0188
  64  391.2091
  65  442.5114
  66  302.8145
  67  445.0063
  68  432.7534
  69  652.9597
  70  500.2223
  71  493.9309
  72  478.1877
  73  402.5619
  74  454.8827
  75  468.9889
  76  471.4662
  77  549.0942
  78  551.9658
  79  457.1434
  80  420.7739
  81  367.2412
  82  443.1863
  83  464.7039
  84  484.4597
  85  477.2341
  86  521.0627
  87  511.2215
  88  470.5909
  89  405.2133
  90  444.5773
  91  392.925
  92  380.7891
  93  382.6768
  94  509.7088
  95  456.7631
  96  365.9404
  97  346.6981
  98  454.6688
  99  422.6751
 100  458.1077
 101  478.6779
 102  542.5021
 103  538.8922
 104  370.4886
 105  401.3558
 106  430.3425
 107  397.2507
 108  357.44
 109  274.937
 110  389.3977
 111  422.5331
 112  371.368
 113  438.0492
 114  489.2289
 115  370.7935
 116  300.0182
 117  357.4359
 118  427.5555
 119  356.9742
 120  331.2925
 121  386.9592
 122  397.5471
 123  492.2886
 124  481.5305
 125  537.4028
 126  578.0302
 127  549.0709
 128  461.7802
 129  493.613
 130  549.0488
 131  477.2552
 132  552.7072
 133  561.0598
 134  550.8259
 135  440.2528
 136  380.2741
 137  439.014
 138  485.1626
 139  407.831
 140  396.2426
 141  472.1113
 142  567.7307
 143  533.8881
 144  486.9701
 145  519.9316
 146  554.0707
 147  489.9955
 148  504.6065
 149  525.2916
 150  535.373
 151  380.2324
 152  410.0302
 153  432.4313
 154  387.1712
 155  321.6018
 156  392.1536
 157  424.5423
 158  510.7719
 159  464.3226
 160  500.3428
 161  476.137
 162  359.1312
 163  280.1007
 164  400.569
 165  405.4458
 166  487.1306
 167  447.7365
 168  521.9384
 169  481.4723
 170  514.2624
 171  459.0226
 172  489.0321
 173  452.298
 174  454.0366
 175  415.6678
 176  384.855
 177  392.9912
 178  455.7479
 179  440.6167
 180  429.3006
 181  399.0168
 182  339.987
 183  339.0464
 184  509.965
 185  659.9461
 186  490.3585
 187  385.1792
 188  380.2686
 189  370.1496
 190  411.5103
 191  429.875
 192  469.9212
 193  514.6776
 194  554.0207
 195  432.9543
 196  382.5642
 197  410.0581
 198  531.6279
 199  537.7845
 200  507.6991
 201  550.6327
 202  588.4286
 203  510.3702
 204  372.3833
 205  357.0957
 206  528.0459
 207  587.2747
 208  461.3221
 209  375.6137
 210  503.5822
 211  502.5062
 212  591.9411
 213  517.2189
 214  498.3165
 215  537.551
 216  561.6893
 217  623.8494
 218  492.5236
 219  460.5374
 220  610.2771
 221  583.455
 222  469.1176
 223  425.0799
 224  433.7796
 225  512.099
 226  556.8123
 227  433.906
 228  401.7229
 229  417.1009
 230  414.9919
 231  544.754
 232  518.6932
 233  600.7666
 234  685.3549
 235  595.0802
 236  328.1482
 237  344.2573
 238  418.1802
 239  402.7324
 240  400.7046
 241  520.6895
 242  576.1055
 243  599.1851
 244  500.366
 245  482.8645
 246  491.9087
 247  478.3036
 248  503.6955
 249  561.1523
 250  632.4968
 251  653.3079
 252  608.7691
 253  456.7866
 254  392.7471
 255  484.3754
 256  516.311
 257  395.0755
 258  532.2247
 259  531.4753
 260  438.2183
 261  445.6107
 262  420.5235
 263  531.0128
 264  602.3977
 265  544.34
 266  608.8928
 267  624.8906
 268  633.6377
 269  540.8577
 270  367.0423
 271  328.579
 272  312.3185
 273  396.4724
 274  468.5004
 275  442.0245
 276  360.1008
 277  384.0341
 278  363.9861
 279  426.0644
 280  464.5618
 281  349.31
 282  499.1463
 283  455.8779
 284  465.5586
 285  537.0026
 286  462.0074
 287  382.877
 288  437.3125
 289  412.8611
 290  420.7154
 291  538.3008
 292  600.7377
 293  528.1945
 294  430.2234
 295  445.5343
 296  417.8173
 297  432.6263
 298  457.6051
 299  488.7879
 300  536.7015
 301  579.2343
 302  472.6261
 303  535.941
 304  565.0063
 305  507.5406
 306  430.8715
 307  519.8886
 308  583.0994
 309  503.2352
 310  447.2341
 311  514.4551
 312  479.5619
 313  460.8067
 314  508.2562
 315  543.3803
 316  590.194
 317  655.8776
 318  540.1334
 319  514.0337
 320  377.9931
 321  547.095
 322  413.8823
 323  328.5988
 324  376.3362
 325  487.6008
 326  489.8506
 327  490.5607
 328  402.249
 329  460.4133
 330  562.7232
 331  475.7967
 332  558.6224
 333  588.702
 334  687.7847
 335  563.3611
 336  611.4225
 337  472.2666
 338  497.0265
 339  474.258
 340  444.3922
 341  470.897
 342  539.029
 343  569.4281
 344  601.2865
 345  595.6273
 346  586.3086
 347  513.7239
 348  507.4533
 349  570.3046
 350  702.1999
 351  615.4026
 352  541.102
 353  518.1378
 354  528.0488
 355  435.582
 356  467.0869
 357  473.8101
 358  525.9318
 359  616.3262
 360  611.5103
 361  496.3137
 362  445.745
 363  430.5374
 364  446.2592
 365  414.9141
 366  455.4406
 367  524.2082
 368  497.7807
 369  377.4355
 370  406.3159
 371  476.9837
 372  447.7442
 373  510.1213
 374  536.9675
 375  566.1261
 376  564.0579
 377  532.5886
 378  559.8279
 379  624.6613
 380  686.8783
 381  643.5253
 382  666.6237
 383  657.0475
 384  505.1443
 385  531.5858
 386  595.7515
 387  532.5085
 388  464.0193
 389  485.6483
 390  518.5198
 391  522.3895
 392  584.8511
 393  581.0489
 394  470.2725
 395  554.5856
 396  579.0012
 397  508.1258
 398  563.2877
 399  581.0589
 400  456.4407
 401  397.1628
 402  407.3906
 403  517.0955
 404  546.96
 405  492.9372
 406  587.5372
 407  540.8139
 408  532.0027
 409  566.0951
 410  592.7593
 411  527.0441
 412  526.0141
 413  627.1095
 414  599.1918
 415  526.4908
 416  536.3863
 417  515.21
 418  550.4979
 419  542.5273
 420  651.6036
 421  648.5963
 422  573.113
 423  628.7911
 424  678.6003
 425  680.9553
 426  644.6135
 427  642.3351
 428  659.4435
 429  537.6777
 430  556.511
 431  656.4571
 432  567.6445
 433  498.7902
 434  587.4504
 435  586.2549
 436  591.3991
 437  500.8195
 438  519.8085
 439  487.6227
 440  567.2814
 441  628.043
 442  537.2125
 443  565.7203
 444  496.2899
 445  499.9089
 446  556.0955
 447  543.4494
 448  401.2196
 449  425.6447
 450  487.6993
 451  403.4342
 452  483.2314
 453  452.6815
 454  461.9769
 455  562.7365
 456  439.0591
 457  518.4285
 458  536.226
 459  575.6586
 460  651.5734
 461  567.1072
 462  537.8895
 463  557.0004
 464  514.7377
 465  622.3107
 466  700.2503
 467  543.1498
 468  533.9935
 469  593.4859
 470  667.8811
 471  553.2756
 472  437.0878
 473  590.3541
 474  511.4437
 475  447.9273
 476  549.9521
 477  652.8812
 478  577.4472
 479  626.7411
 480  670.0896
 481  531.0784
 482  605.1412
 483  505.6469
 484  500.7261
 485  437.6336
 486  335.7325
 487  491.2716
 488  496.6531
 489  514.4391
 490  557.4442
 491  438.4965
 492  445.2074
 493  431.9207
 494  419.8719
 495  538.4218
 496  497.0674
 497  560.5486
 498  540.6299
 499  598.146
 500  525.9687
 501  551.4131
 502  606.6388
 503  531.9443
 504  441.4521
 505  431.6368
 506  544.6357
 507  694.2277
 508  591.7856
 509  585.1575
 510  687.384
 511  951.6837
