# Input file       =  1179216699.106159_cleaned.dat
# Candidate        =  PSR_0332+5434
# Telescope        =  AR
# Epoch_topo       =  57892.341216506473
# Epoch_bary       =  N/A
# T_sample         =  0.002
# Data Folded      =  7340032
# Data Avg         =  0.0259250020203131
# Data StdDev      =  1.0000239376054  
# Profile Bins     =  512
# Profile Avg      =  371.720787231139 
# Profile StdDev   =  119.735902498945 
# Reduced chi-sqr  =  1.143
# Prob(Noise)      <  0.0136   (~2.2 sigma)
# P_topo (ms)      =  714.529052773781  +/- 0.000175
# P'_topo (s/s)    =  -0                +/- 9.25e-11
# P''_topo (s/s^2) =  0                 +/- 4.08e-14
# P_bary (ms)      =  N/A
# P'_bary (s/s)    =  N/A
# P''_bary (s/s^2) =  N/A
# P_orb (s)        =  N/A
# asin(i)/c (s)    =  N/A
# eccentricity     =  N/A
# w (rad)          =  N/A
# T_peri           =  N/A
######################################################
   0  304.6946
   1  273.2543
   2  407.6212
   3  271.1543
   4  393.4837
   5  395.3635
   6  367.1221
   7  400.9519
   8  396.5605
   9  328.6638
  10  296.8919
  11  429.5938
  12  402.1522
  13  508.6792
  14  568.9686
  15  372.4716
  16  233.8223
  17  388.6992
  18  422.3264
  19  422.97
  20  484.9952
  21  559.0795
  22  417.3489
  23  328.4609
  24  402.4258
  25  382.0073
  26  257.5716
  27  311.5354
  28  348.1027
  29  306.5141
  30  320.1824
  31  391.682
  32  369.453
  33  342.6786
  34  241.8127
  35  265.9919
  36  329.377
  37  231.4039
  38  251.3295
  39  252.923
  40  332.0097
  41  405.5741
  42  408.656
  43  378.4162
  44  247.4161
  45  185.2389
  46  297.2004
  47  221.6317
  48  252.1553
  49  256.4256
  50  369.8095
  51  453.3517
  52  380.3098
  53  305.244
  54  327.2033
  55  302.6783
  56  473.7408
  57  350.0065
  58  296.6851
  59  452.5167
  60  465.4937
  61  317.7256
  62  378.5673
  63  374.1032
  64  432.3768
  65  354.6329
  66  447.0432
  67  444.8457
  68  534.2955
  69  452.3234
  70  298.0174
  71  213.1159
  72  399.4489
  73  300.9333
  74  323.4978
  75  382.2247
  76  325.2932
  77  259.3537
  78  260.0291
  79  393.0962
  80  293.2101
  81  264.237
  82  278.0682
  83  338.3455
  84  285.3759
  85  241.6575
  86  248.0984
  87  223.6605
  88  320.3289
  89  396.5849
  90  300.9528
  91  280.6308
  92  347.9699
  93  411.7415
  94  424.9067
  95  452.3505
  96  433.9458
  97  419.8709
  98  411.7516
  99  341.5422
 100  348.1432
 101  409.6829
 102  449.5489
 103  437.0197
 104  331.2172
 105  309.728
 106  395.7757
 107  392.6228
 108  459.938
 109  401.2928
 110  353.6494
 111  329.4642
 112  390.3989
 113  333.1912
 114  336.394
 115  301.5493
 116  377.7295
 117  341.7213
 118  310.8898
 119  352.0496
 120  439.654
 121  368.0832
 122  273.526
 123  282.6577
 124  334.8374
 125  405.7986
 126  388.9655
 127  350.567
 128  415.7394
 129  372.4141
 130  286.5444
 131  223.1292
 132  248.7397
 133  316.9256
 134  369.046
 135  364.927
 136  354.7487
 137  310.2344
 138  292.4691
 139  285.31
 140  389.3619
 141  442.4311
 142  426.4955
 143  452.9163
 144  443.0212
 145  362.2494
 146  486.0227
 147  453.8931
 148  347.3997
 149  325.9329
 150  317.8444
 151  326.231
 152  224.7129
 153  276.9207
 154  353.1974
 155  380.2198
 156  373.8966
 157  275.7533
 158  377.0187
 159  390.2331
 160  295.9152
 161  341.4955
 162  458.2925
 163  424.4248
 164  395.2759
 165  349.4767
 166  287.3613
 167  247.841
 168  192.2303
 169  276.7049
 170  375.0363
 171  312.2519
 172  323.4225
 173  333.5492
 174  359.4082
 175  486.0929
 176  564.1789
 177  498.6512
 178  386.1189
 179  397.2787
 180  386.6781
 181  424.4266
 182  390.4895
 183  405.3579
 184  346.9483
 185  406.429
 186  371.1421
 187  278.7237
 188  363.6593
 189  304.3054
 190  276.8441
 191  285.5468
 192  345.634
 193  396.3679
 194  373.3128
 195  352.3625
 196  377.9094
 197  300.7054
 198  403.1336
 199  480.8213
 200  423.0161
 201  337.6813
 202  418.9691
 203  448.7346
 204  363.1933
 205  315.748
 206  299.711
 207  396.6485
 208  318.559
 209  298.6289
 210  395.9211
 211  272.1276
 212  278.9
 213  177.0478
 214  282.2448
 215  317.9295
 216  342.4109
 217  422.07
 218  463.2259
 219  339.7758
 220  281.9137
 221  246.1408
 222  229.8966
 223  262.5097
 224  244.6837
 225  247.2359
 226  240.4442
 227  232.46
 228  433.633
 229  415.0007
 230  428.0092
 231  414.8081
 232  354.1007
 233  414.8124
 234  454.1012
 235  398.6465
 236  324.9306
 237  404.4318
 238  472.0673
 239  407.6051
 240  453.5554
 241  238.985
 242  319.8206
 243  471.175
 244  354.4875
 245  396.5286
 246  317.6942
 247  315.8065
 248  266.8488
 249  316.6204
 250  392.6252
 251  301.6491
 252  441.4535
 253  348.674
 254  331.8998
 255  431.3905
 256  354.5115
 257  406.0392
 258  493.7865
 259  410.4784
 260  425.131
 261  405.6938
 262  421.6668
 263  302.2823
 264  248.5897
 265  264.3334
 266  254.7399
 267  477.0446
 268  537.8452
 269  498.3728
 270  408.9235
 271  511.2817
 272  657.0505
 273  791.0267
 274  755.1096
 275  862.9036
 276  1026.897
 277  819.5644
 278  538.7773
 279  369.1246
 280  468.0741
 281  514.9755
 282  481.7152
 283  570.8304
 284  479.3486
 285  513.8549
 286  392.9165
 287  305.2991
 288  393.6301
 289  489.0226
 290  528.3756
 291  432.1463
 292  426.9772
 293  352.2312
 294  359.0398
 295  380.8472
 296  443.5543
 297  361.8603
 298  344.6153
 299  354.3161
 300  279.3835
 301  240.5357
 302  329.4348
 303  353.9355
 304  346.3668
 305  353.9443
 306  213.6251
 307  274.4024
 308  217.8756
 309  138.8051
 310  267.7815
 311  391.4062
 312  449.6812
 313  411.7404
 314  298.0068
 315  279.9022
 316  346.2177
 317  409.2867
 318  286.0695
 319  347.9798
 320  340.4441
 321  399.0367
 322  495.942
 323  433.4575
 324  364.0825
 325  299.8339
 326  370.5476
 327  376.6552
 328  434.9254
 329  482.0744
 330  362.5952
 331  403.2372
 332  395.1461
 333  447.6809
 334  538.398
 335  542.5061
 336  422.6595
 337  375.8412
 338  375.6972
 339  447.9196
 340  424.0915
 341  426.5854
 342  348.5919
 343  424.7821
 344  361.9748
 345  353.153
 346  339.7065
 347  204.2301
 348  262.3355
 349  383.6268
 350  424.6146
 351  344.8227
 352  382.8176
 353  410.2576
 354  341.5546
 355  280.9372
 356  434.568
 357  484.3542
 358  393.4162
 359  388.2638
 360  345.8441
 361  409.2105
 362  414.5017
 363  503.9258
 364  604.5464
 365  475.7527
 366  499.7293
 367  403.2729
 368  342.8517
 369  428.494
 370  466.5414
 371  457.4234
 372  417.4018
 373  466.3072
 374  406.3537
 375  405.6384
 376  339.4398
 377  403.6206
 378  428.5634
 379  377.3811
 380  361.7696
 381  362.8959
 382  341.0998
 383  262.6566
 384  224.0736
 385  305.5417
 386  312.9667
 387  367.4961
 388  352.3751
 389  342.1967
 390  208.2901
 391  166.2073
 392  282.1758
 393  362.9049
 394  391.8311
 395  328.7535
 396  364.0869
 397  282.9225
 398  271.1961
 399  349.0167
 400  426.1346
 401  388.5134
 402  393.3554
 403  316.7249
 404  261.6827
 405  204.8865
 406  259.1562
 407  401.2482
 408  430.9448
 409  429.7285
 410  395.9244
 411  290.3997
 412  340.1821
 413  481.7806
 414  368.4896
 415  289.7155
 416  268.1816
 417  310.3704
 418  342.4275
 419  319.1896
 420  314.7518
 421  388.6243
 422  369.9627
 423  393.2999
 424  312.3994
 425  390.537
 426  471.8877
 427  393.2911
 428  362.0401
 429  367.5315
 430  500.8656
 431  550.5491
 432  430.3202
 433  457.8304
 434  538.2
 435  568.0261
 436  501.2543
 437  464.2631
 438  509.8352
 439  399.8224
 440  336.632
 441  426.3346
 442  366.6943
 443  451.8612
 444  430.0857
 445  356.3101
 446  253.3675
 447  315.2596
 448  377.9495
 449  428.2464
 450  471.9484
 451  321.1825
 452  335.9716
 453  314.7861
 454  236.2686
 455  298.5182
 456  358.6705
 457  249.7531
 458  289.4677
 459  374.686
 460  503.3968
 461  313.0067
 462  290.5302
 463  345.0641
 464  512.0134
 465  392.1388
 466  239.1669
 467  363.2546
 468  385.148
 469  360.9162
 470  265.482
 471  283.4272
 472  338.0929
 473  327.0025
 474  328.0564
 475  362.9592
 476  453.1977
 477  383.5883
 478  393.0986
 479  434.1953
 480  381.0469
 481  466.8764
 482  272.7448
 483  296.4311
 484  331.2922
 485  275.1531
 486  332.6909
 487  318.3336
 488  578.619
 489  554.062
 490  492.1716
 491  423.1972
 492  417.7119
 493  372.1493
 494  370.233
 495  374.3248
 496  336.3253
 497  371.5112
 498  417.7087
 499  335.233
 500  233.6486
 501  283.7855
 502  415.748
 503  453.3769
 504  445.4897
 505  346.1877
 506  278.601
 507  356.9273
 508  357.2624
 509  379.0094
 510  472.8006
 511  361.2207
