# Input file       =  1179130528.109754_cleaned.dat
# Candidate        =  PSR_0332+5434
# Telescope        =  AR
# Epoch_topo       =  57891.343867011041
# Epoch_bary       =  N/A
# T_sample         =  0.002
# Data Folded      =  7340032
# Data Avg         =  0.0250653309423408
# Data StdDev      =  1.00004614012718 
# Profile Bins     =  512
# Profile Avg      =  359.350537471999 
# Profile StdDev   =  119.738560874293 
# Reduced chi-sqr  =  1.164
# Prob(Noise)      <  0.00595   (~2.5 sigma)
# P_topo (ms)      =  714.530027061301  +/- 0.000436
# P'_topo (s/s)    =  -0                +/- 2.3e-10
# P''_topo (s/s^2) =  0                 +/- 1.01e-13
# P_bary (ms)      =  N/A
# P'_bary (s/s)    =  N/A
# P''_bary (s/s^2) =  N/A
# P_orb (s)        =  N/A
# asin(i)/c (s)    =  N/A
# eccentricity     =  N/A
# w (rad)          =  N/A
# T_peri           =  N/A
######################################################
   0  306.1072
   1  259.0702
   2  237.9315
   3  291.7455
   4  384.7433
   5  415.5601
   6  292.865
   7  335.9594
   8  317.0601
   9  362.0067
  10  315.9426
  11  233.4861
  12  240.6921
  13  338.4756
  14  414.2038
  15  395.3088
  16  246.6558
  17  267.5392
  18  383.7678
  19  429.7155
  20  400.7596
  21  278.0553
  22  361.4899
  23  435.7392
  24  385.3847
  25  447.6703
  26  344.428
  27  382.8383
  28  415.7357
  29  454.6053
  30  424.5327
  31  348.3639
  32  466.0878
  33  440.6671
  34  373.2968
  35  191.9745
  36  275.1007
  37  376.4394
  38  345.2261
  39  381.2459
  40  374.3142
  41  394.1199
  42  433.3238
  43  397.214
  44  385.4339
  45  446.0698
  46  421.2849
  47  326.2036
  48  207.8991
  49  329.6806
  50  324.8379
  51  283.4844
  52  324.8877
  53  323.7269
  54  218.3704
  55  179.4389
  56  278.5323
  57  396.3959
  58  168.7533
  59  68.69828
  60  257.2571
  61  418.6044
  62  341.3372
  63  364.4939
  64  298.7439
  65  271.2058
  66  307.4144
  67  317.4989
  68  276.4783
  69  331.5346
  70  382.521
  71  321.261
  72  230.0572
  73  298.326
  74  348.3195
  75  277.5851
  76  225.0385
  77  352.1375
  78  355.5763
  79  337.9266
  80  338.0333
  81  276.6449
  82  176.6091
  83  336.0524
  84  400.7294
  85  366.0851
  86  303.4577
  87  359.4345
  88  333.1043
  89  313.2449
  90  298.6292
  91  367.1466
  92  379.6821
  93  385.4394
  94  291.45
  95  414.9795
  96  488.3224
  97  409.3787
  98  473.1005
  99  426.9346
 100  283.6705
 101  382.2084
 102  417.7016
 103  357.172
 104  278.4788
 105  358.3614
 106  296.2461
 107  260.8535
 108  291.4976
 109  255.6651
 110  281.5072
 111  257.1541
 112  311.2499
 113  251.8179
 114  170.9624
 115  155.8464
 116  353.132
 117  358.1863
 118  273.7009
 119  401.3277
 120  346.0473
 121  285.8026
 122  406.0771
 123  327.3433
 124  312.2844
 125  346.3628
 126  337.5315
 127  371.0023
 128  328.2362
 129  313.118
 130  310.0689
 131  281.7357
 132  192.0763
 133  222.4495
 134  289.273
 135  237.0198
 136  340.0954
 137  377.4846
 138  331.7587
 139  411.2537
 140  268.4598
 141  340.0666
 142  246.7683
 143  280.0673
 144  334.6942
 145  229.8606
 146  254.5368
 147  211.4414
 148  255.1186
 149  343.3654
 150  366.8047
 151  368.5914
 152  387.0253
 153  387.9633
 154  323.2626
 155  335.3394
 156  415.6603
 157  415.7921
 158  372.256
 159  369.3281
 160  357.1786
 161  427.2952
 162  529.1605
 163  430.138
 164  396.3871
 165  378.8752
 166  348.5108
 167  408.9252
 168  369.7989
 169  366.8642
 170  405.7232
 171  383.5904
 172  416.9055
 173  342.571
 174  402.6165
 175  548.7953
 176  527.3275
 177  403.9579
 178  394.3234
 179  358.6264
 180  429.2483
 181  519.3154
 182  451.7478
 183  447.6947
 184  423.99
 185  435.3831
 186  416.8895
 187  348.4521
 188  381.1472
 189  311.0861
 190  474.7521
 191  454.5152
 192  418.3552
 193  385.2472
 194  407.5194
 195  284.0086
 196  342.4018
 197  348.2818
 198  286.1772
 199  320.58
 200  292.0345
 201  184.0037
 202  285.7969
 203  321.8336
 204  247.3984
 205  320.5261
 206  519.8952
 207  471.6352
 208  443.8568
 209  333.209
 210  312.2891
 211  378.0731
 212  441.6818
 213  402.9928
 214  476.2415
 215  500.5478
 216  390.9028
 217  283.1869
 218  270.7031
 219  378.0738
 220  403.4489
 221  331.4438
 222  267.4742
 223  292.3901
 224  411.3116
 225  382.7397
 226  358.0406
 227  402.4249
 228  337.7417
 229  381.6004
 230  369.9654
 231  379.3254
 232  419.4136
 233  459.7063
 234  495.4472
 235  396.1144
 236  312.6495
 237  340.2735
 238  434.548
 239  407.2377
 240  174.9928
 241  302.572
 242  316.8034
 243  469.8616
 244  395.4779
 245  262.9475
 246  416.1219
 247  386.9674
 248  334.2896
 249  274.6193
 250  334.9222
 251  487.3328
 252  336.8263
 253  381.7515
 254  368.506
 255  369.9578
 256  406.2419
 257  467.8275
 258  373.2455
 259  367.8135
 260  445.1139
 261  501.5306
 262  520.1016
 263  376.6341
 264  263.1187
 265  291.3426
 266  527.8735
 267  509.3484
 268  294.7635
 269  263.6801
 270  438.1385
 271  457.3636
 272  412.6714
 273  296.0309
 274  318.3722
 275  405.3097
 276  363.3595
 277  351.8503
 278  334.9214
 279  348.5339
 280  278.4788
 281  287.7697
 282  200.7928
 283  221.2405
 284  315.8785
 285  388.7894
 286  332.7889
 287  322.6254
 288  383.2221
 289  469.8868
 290  354.003
 291  210.5483
 292  332.2053
 293  354.1224
 294  247.457
 295  270.6888
 296  364.6645
 297  285.5227
 298  366.5311
 299  399.8344
 300  411.199
 301  320.5236
 302  351.7046
 303  228.9273
 304  354.9641
 305  380.7803
 306  381.08
 307  382.9044
 308  321.6635
 309  257.7192
 310  191.7864
 311  202.7315
 312  258.5611
 313  159.7411
 314  268.9201
 315  270.6814
 316  201.7329
 317  377.005
 318  322.3937
 319  189.9693
 320  300.1501
 321  358.8445
 322  334.4857
 323  326.5793
 324  219.2787
 325  198.2749
 326  154.6312
 327  193.3227
 328  322.9333
 329  371.5756
 330  261.9749
 331  412.7122
 332  282.5959
 333  277.7563
 334  317.2315
 335  334.6907
 336  291.45
 337  281.1696
 338  358.8816
 339  372.035
 340  388.6476
 341  301.8772
 342  351.0006
 343  407.7235
 344  306.6889
 345  343.6234
 346  419.2551
 347  611.6621
 348  470.1931
 349  391.7504
 350  244.8315
 351  299.6388
 352  233.8233
 353  394.5572
 354  393.5549
 355  441.6364
 356  360.1986
 357  376.8784
 358  478.5274
 359  353.0869
 360  391.5282
 361  563.2678
 362  585.6179
 363  632.1718
 364  844.6276
 365  961.4706
 366  923.0587
 367  744.3934
 368  579.2888
 369  494.113
 370  473.5297
 371  348.1583
 372  348.2797
 373  374.3754
 374  245.7982
 375  408.2504
 376  430.8697
 377  351.2945
 378  388.2348
 379  386.6291
 380  399.0107
 381  489.5262
 382  396.2765
 383  234.5112
 384  286.8577
 385  235.6125
 386  344.3574
 387  298.6746
 388  284.7562
 389  289.4588
 390  331.1712
 391  188.6184
 392  282.034
 393  332.4182
 394  310.1161
 395  289.4272
 396  464.1818
 397  422.8013
 398  357.723
 399  374.2006
 400  464.0432
 401  460.1359
 402  492.6138
 403  375.9025
 404  261.3027
 405  309.1491
 406  356.872
 407  421.2799
 408  335.2633
 409  397.8792
 410  497.1519
 411  328.6668
 412  401.4224
 413  456.3632
 414  433.1595
 415  409.4482
 416  318.2784
 417  432.6159
 418  361.9915
 419  420.5009
 420  368.8005
 421  304.4281
 422  368.8902
 423  421.0792
 424  404.1497
 425  488.7893
 426  387.9135
 427  338.6212
 428  341.5642
 429  389.2468
 430  425.9639
 431  450.4058
 432  415.4496
 433  434.8502
 434  393.3161
 435  351.5408
 436  580.6957
 437  576.9369
 438  494.2047
 439  415.1586
 440  383.6408
 441  497.0807
 442  374.3721
 443  335.6384
 444  397.04
 445  434.0971
 446  426.4622
 447  345.9513
 448  352.1747
 449  400.2744
 450  530.0099
 451  467.1444
 452  439.5495
 453  528.9077
 454  475.6876
 455  462.1489
 456  442.6244
 457  441.422
 458  381.7609
 459  480.0371
 460  505.4136
 461  417.6443
 462  422.2989
 463  476.02
 464  343.3364
 465  357.5238
 466  440.8657
 467  427.6193
 468  236.7093
 469  331.2311
 470  382.8748
 471  387.838
 472  400.833
 473  399.333
 474  366.7126
 475  355.6512
 476  255.6881
 477  264.5312
 478  262.0272
 479  158.4285
 480  258.327
 481  397.583
 482  366.387
 483  285.5016
 484  439.6834
 485  415.2099
 486  371.8097
 487  315.0138
 488  342.0515
 489  268.4936
 490  216.8358
 491  359.7099
 492  281.1433
 493  182.272
 494  322.7357
 495  344.9644
 496  399.0415
 497  357.4364
 498  423.886
 499  336.2787
 500  254.8532
 501  276.0481
 502  277.4548
 503  267.9542
 504  297.9756
 505  376.8104
 506  423.5384
 507  383.9218
 508  331.0598
 509  287.8791
 510  340.7289
 511  387.0134
