# Input file       =  1179130528.109754_cleaned.dat
# Candidate        =  PSR_0332+5434
# Telescope        =  AR
# Epoch_topo       =  57891.343867011041
# Epoch_bary       =  N/A
# T_sample         =  0.002
# Data Folded      =  7340032
# Data Avg         =  0.0250653309423408
# Data StdDev      =  1.00004614012718 
# Profile Bins     =  512
# Profile Avg      =  359.35050548046  
# Profile StdDev   =  119.738560874293 
# Reduced chi-sqr  =  1.165
# Prob(Noise)      <  0.00567   (~2.5 sigma)
# P_topo (ms)      =  714.530025772762  +/- 0.000438
# P'_topo (s/s)    =  -0                +/- 2.31e-10
# P''_topo (s/s^2) =  0                 +/- 1.02e-13
# P_bary (ms)      =  N/A
# P'_bary (s/s)    =  N/A
# P''_bary (s/s^2) =  N/A
# P_orb (s)        =  N/A
# asin(i)/c (s)    =  N/A
# eccentricity     =  N/A
# w (rad)          =  N/A
# T_peri           =  N/A
######################################################
   0  937.0587
   1  785.1259
   2  611.2726
   3  495.6204
   4  487.2303
   5  379.3806
   6  316.5705
   7  397.6482
   8  243.7327
   9  380.2985
  10  437.916
  11  364.2938
  12  379.5764
  13  394.6057
  14  386.332
  15  471.7037
  16  443.0923
  17  241.0494
  18  286.3771
  19  230.2788
  20  334.8615
  21  311.9146
  22  284.6724
  23  274.1334
  24  344.8244
  25  199.1348
  26  265.4262
  27  328.1646
  28  320.2056
  29  270.1972
  30  438.4803
  31  433.4116
  32  385.7018
  33  347.8423
  34  454.4142
  35  460.6536
  36  486.308
  37  419.5664
  38  258.8187
  39  311.8938
  40  333.2912
  41  422.0551
  42  351.4273
  43  367.3409
  44  510.367
  45  347.7129
  46  374.2021
  47  458.9708
  48  434.4453
  49  431.5163
  50  317.5016
  51  418.6629
  52  365.6682
  53  407.5687
  54  395.265
  55  302.1746
  56  363.825
  57  414.9278
  58  387.3482
  59  480.2127
  60  413.5796
  61  347.6249
  62  334.7945
  63  390.0264
  64  405.7531
  65  457.5798
  66  415.7359
  67  430.6967
  68  420.7147
  69  330.7114
  70  538.231
  71  599.995
  72  501.7234
  73  440.9995
  74  369.8813
  75  487.4523
  76  402.487
  77  326.3798
  78  393.1164
  79  422.9439
  80  438.0729
  81  353.9177
  82  346.4391
  83  381.2416
  84  518.0101
  85  488.706
  86  431.034
  87  513.6174
  88  503.4299
  89  443.6558
  90  461.8023
  91  428.9503
  92  404.8253
  93  445.1582
  94  518.566
  95  425.0729
  96  415.057
  97  478.5508
  98  365.305
  99  347.1297
 100  418.1422
 101  459.3089
 102  249.7526
 103  307.9228
 104  371.3467
 105  401.978
 106  385.0273
 107  418.8453
 108  361.0894
 109  370.3882
 110  260.536
 111  257.9848
 112  291.8094
 113  161.8402
 114  232.3261
 115  358.8206
 116  400.8044
 117  270.9875
 118  423.6168
 119  425.5265
 120  389.2524
 121  317.2798
 122  336.546
 123  295.7041
 124  195.5917
 125  345.1326
 126  310.8362
 127  183.5172
 128  300.0923
 129  339.8976
 130  393.3005
 131  361.2521
 132  405.7042
 133  366.8328
 134  260.0702
 135  275.1957
 136  275.0002
 137  275.627
 138  277.5237
 139  371.4401
 140  409.1137
 141  410.5113
 142  325.2961
 143  306.4583
 144  318.1935
 145  387.8477
 146  327.1845
 147  266.1631
 148  233.4724
 149  282.8633
 150  365.8686
 151  423.1921
 152  301.5713
 153  328.3435
 154  321.5522
 155  354.4613
 156  336.7516
 157  237.2452
 158  240.8309
 159  320.3767
 160  389.5217
 161  421.0275
 162  254.9007
 163  271.0656
 164  353.8118
 165  431.2968
 166  410.1738
 167  297.4564
 168  332.6961
 169  436.9275
 170  392.1541
 171  433.3997
 172  374.5942
 173  362.013
 174  413.8075
 175  438.0654
 176  454.3493
 177  339.5041
 178  452.3797
 179  438.1957
 180  410.2409
 181  214.5447
 182  234.4055
 183  379.6186
 184  339.1651
 185  377.554
 186  383.7766
 187  379.5927
 188  434.1914
 189  403.1262
 190  381.7803
 191  450.0839
 192  414.8587
 193  365.5843
 194  196.18
 195  314.2992
 196  329.2191
 197  303.1294
 198  303.9202
 199  341.5104
 200  224.9145
 201  193.0454
 202  231.0385
 203  412.4895
 204  217.8685
 205  64.09083
 206  202.529
 207  412.7536
 208  355.7529
 209  347.1489
 210  320.2668
 211  273.5986
 212  300.5798
 213  330.9755
 214  275.8661
 215  318.1427
 216  369.9965
 217  347.1108
 218  226.3907
 219  292.6968
 220  339.4629
 221  304.7206
 222  222.5621
 223  317.2123
 224  378.016
 225  323.7724
 226  339.4894
 227  301.6414
 228  177.8901
 229  308.4482
 230  388.35
 231  392.2078
 232  292.0611
 233  360.61
 234  333.8703
 235  322.3367
 236  296.618
 237  353.7014
 238  381.0193
 239  380.1749
 240  312.077
 241  370.4761
 242  506.1793
 243  413.2253
 244  460.8076
 245  448.6978
 246  301.0322
 247  349.2318
 248  414.3043
 249  387.0349
 250  270.9674
 251  350.533
 252  320.3867
 253  255.0334
 254  290.8877
 255  258.929
 256  285.3617
 257  255.381
 258  297.7409
 259  273.9553
 260  189.0297
 261  136.5577
 262  319.5828
 263  379.4229
 264  276.2487
 265  370.8424
 266  376.8297
 267  266.4813
 268  403.8539
 269  343.4264
 270  310.5202
 271  325.7397
 272  355.7537
 273  357.7568
 274  345.1361
 275  308.7426
 276  316.0869
 277  294.0909
 278  201.5795
 279  205.9714
 280  280.8597
 281  254.5649
 282  305.1154
 283  402.5051
 284  317.6174
 285  412.6776
 286  279.8376
 287  323.7983
 288  265.8844
 289  261.8976
 290  345.5885
 291  240.5238
 292  248.89
 293  221.632
 294  238.5522
 295  323.3825
 296  373.7174
 297  370.8109
 298  384.0548
 299  392.257
 300  322.8188
 301  335.7522
 302  396.0045
 303  427.7356
 304  374.3588
 305  361.5838
 306  371.2562
 307  406.3258
 308  525.0739
 309  451.4076
 310  387.917
 311  394.9603
 312  345.5281
 313  394.5718
 314  381.1859
 315  353.2907
 316  423.8027
 317  362.2109
 318  430.5791
 319  351.4487
 320  380.1031
 321  534.2438
 322  542.1751
 323  413.9055
 324  391.8421
 325  368.5034
 326  399.6992
 327  530.8307
 328  456.4933
 329  442.4293
 330  430.6725
 331  424.2025
 332  431.7544
 333  358.6174
 334  384.5006
 335  297.9755
 336  456.6097
 337  455.3011
 338  435.5742
 339  384.3766
 340  410.112
 341  319.6093
 342  307.7506
 343  370.5571
 344  278.0814
 345  318.9997
 346  306.4882
 347  191.2393
 348  252.0952
 349  339.8373
 350  253.934
 351  287.7846
 352  497.7472
 353  489.9243
 354  453.7738
 355  352.5016
 356  300.207
 357  364.0014
 358  446.8252
 359  403.5923
 360  450.2059
 361  522.1572
 362  399.6377
 363  310.0102
 364  259.359
 365  354.1759
 366  405.7966
 367  349.5913
 368  272.7135
 369  272.7557
 370  403.3322
 371  397.9154
 372  352.2009
 373  404.8142
 374  343.3522
 375  372.3986
 376  375.8958
 377  368.9988
 378  419.9205
 379  444.571
 380  500.294
 381  412.9835
 382  323.5187
 383  328.062
 384  413.4136
 385  449.8994
 386  192.9754
 387  272.1192
 388  317.499
 389  436.6608
 390  438.1082
 391  264.3397
 392  376.5199
 393  411.6918
 394  337.3547
 395  287.1531
 396  310.1729
 397  473.1537
 398  371.5721
 399  352.8235
 400  380.7877
 401  372.187
 402  388.8484
 403  475.1606
 404  382.9454
 405  366.8826
 406  419.4323
 407  490.7672
 408  525.1825
 409  415.8585
 410  273.6214
 411  271.064
 412  492.083
 413  540.8075
 414  334.481
 415  245.3022
 416  408.2299
 417  450.8816
 418  437.4035
 419  305.3971
 420  311.3268
 421  397.5094
 422  370.1387
 423  347.4094
 424  331.4474
 425  364.4789
 426  283.2667
 427  292.7093
 428  208.6823
 429  214.3751
 430  288.2614
 431  394.8315
 432  336.0782
 433  319.2811
 434  373.951
 435  460.494
 436  392.4385
 437  219.2667
 438  292.6182
 439  375.4377
 440  267.5429
 441  249.4309
 442  369.9538
 443  289.6022
 444  341.3358
 445  391.71
 446  426.7614
 447  332.6917
 448  349.6714
 449  243.7556
 450  320.9745
 451  396.3782
 452  369.6273
 453  395.6515
 454  325.0408
 455  268.9861
 456  204.9442
 457  188.6897
 458  263.2757
 459  161.978
 460  241.7587
 461  292.1699
 462  207.9633
 463  331.9882
 464  378.7727
 465  178.0643
 466  277.4077
 467  355.5979
 468  327.2213
 469  345.3022
 470  227.4644
 471  209.0404
 472  158.3905
 473  177.2456
 474  292.2747
 475  386.578
 476  265.8458
 477  390.2347
 478  315.4044
 479  265.6286
 480  323.044
 481  318.9973
 482  321.1739
 483  260.5547
 484  351.3623
 485  368.6858
 486  393.9211
 487  313.5837
 488  334.4146
 489  407.481
 490  321.6501
 491  337.517
 492  381.5509
 493  606.069
 494  493.3551
 495  422.9412
 496  241.5133
 497  304.6252
 498  227.1469
 499  372.0649
 500  402.1026
 501  430.6164
 502  381.9883
 503  352.3767
 504  466.6789
 505  393.0484
 506  359.9979
 507  544.252
 508  570.8988
 509  620.9262
 510  799.1201
 511  957.3244
