# Input file       =  1179374391.100717_cleaned.dat
# Candidate        =  PSR_0332+5434
# Telescope        =  AR
# Epoch_topo       =  57894.166355332374
# Epoch_bary       =  N/A
# T_sample         =  0.002
# Data Folded      =  7208960
# Data Avg         =  0.0317663324626009
# Data StdDev      =  1.00004073206093 
# Profile Bins     =  512
# Profile Avg      =  447.271977464875 
# Profile StdDev   =  118.664009026309 
# Reduced chi-sqr  =  1.073
# Prob(Noise)      <  0.122   (~1.2 sigma)
# P_topo (ms)      =  714.52725157189   +/- 0.00023
# P'_topo (s/s)    =  -0                +/- 1.24e-10
# P''_topo (s/s^2) =  0                 +/- 5.57e-14
# P_bary (ms)      =  N/A
# P'_bary (s/s)    =  N/A
# P''_bary (s/s^2) =  N/A
# P_orb (s)        =  N/A
# asin(i)/c (s)    =  N/A
# eccentricity     =  N/A
# w (rad)          =  N/A
# T_peri           =  N/A
######################################################
   0  765.2825
   1  862.1716
   2  836.0718
   3  671.663
   4  573.8496
   5  460.4411
   6  538.9948
   7  479.8481
   8  467.8836
   9  399.261
  10  474.2257
  11  528.7487
  12  380.2212
  13  349.5862
  14  419.0748
  15  479.702
  16  569.8796
  17  441.2613
  18  435.6094
  19  410.5788
  20  339.166
  21  416.1132
  22  510.6773
  23  422.5919
  24  403.3416
  25  476.0726
  26  490.3498
  27  457.4431
  28  615.0914
  29  630.7166
  30  608.0674
  31  517.0403
  32  483.2797
  33  545.893
  34  588.1298
  35  577.2963
  36  558.1936
  37  532.3821
  38  584.5272
  39  568.6706
  40  590.3843
  41  594.5903
  42  588.4833
  43  536.7712
  44  507.268
  45  542.0215
  46  493.938
  47  445.5705
  48  428.1085
  49  557.0625
  50  497.938
  51  481.7817
  52  601.8737
  53  478.0367
  54  477.4247
  55  458.0519
  56  406.3501
  57  390.8921
  58  346.8684
  59  415.9726
  60  394.3414
  61  454.744
  62  440.24
  63  486.7604
  64  410.9489
  65  367.144
  66  375.7232
  67  385.4019
  68  426.5706
  69  338.6517
  70  382.881
  71  435.5524
  72  421.0055
  73  324.6269
  74  293.9043
  75  349.1919
  76  308.3672
  77  325.0735
  78  349.7255
  79  367.218
  80  357.8649
  81  273.6243
  82  286.2741
  83  356.0638
  84  436.7009
  85  365.595
  86  290.5233
  87  358.19
  88  351.0759
  89  416.9705
  90  543.0701
  91  479.2408
  92  368.482
  93  404.0208
  94  454.9851
  95  409.9042
  96  435.2005
  97  383.6376
  98  303.3289
  99  284.3914
 100  323.8788
 101  457.3515
 102  517.0057
 103  347.9384
 104  321.049
 105  385.3
 106  404.5781
 107  423.7467
 108  511.6039
 109  481.5157
 110  354.752
 111  408.8122
 112  506.9632
 113  456.5509
 114  386.7668
 115  498.7314
 116  494.4063
 117  434.51
 118  385.4725
 119  463.4489
 120  397.8471
 121  432.9958
 122  453.397
 123  518.9722
 124  550.7607
 125  632.5665
 126  758.5414
 127  545.4907
 128  469.6501
 129  493.1495
 130  451.8513
 131  429.2842
 132  500.3913
 133  453.7753
 134  375.8869
 135  429.7662
 136  478.4191
 137  523.7385
 138  464.8422
 139  508.9994
 140  548.679
 141  458.8782
 142  379.9206
 143  447.5682
 144  494.789
 145  469.527
 146  558.9723
 147  516.731
 148  348.9375
 149  398.0005
 150  448.4225
 151  503.5386
 152  443.1089
 153  541.5096
 154  567.9018
 155  590.9292
 156  531.8461
 157  469.115
 158  525.8137
 159  453.6873
 160  404.4846
 161  522.8807
 162  542.3431
 163  573.1119
 164  511.7589
 165  540.7941
 166  448.586
 167  488.6751
 168  494.2878
 169  473.4977
 170  437.0108
 171  427.76
 172  489.9197
 173  591.095
 174  519.2158
 175  469.4717
 176  486.6798
 177  311.0509
 178  302.433
 179  414.4367
 180  481.418
 181  551.7364
 182  568.1729
 183  416.2404
 184  366.5757
 185  370.1451
 186  535.6064
 187  498.204
 188  590.0078
 189  494.0295
 190  444.0305
 191  388.1012
 192  486.9772
 193  444.5731
 194  479.6704
 195  488.0992
 196  430.0275
 197  392.4431
 198  412.1578
 199  538.4418
 200  496.3825
 201  549.9758
 202  558.5529
 203  502.2841
 204  520.2792
 205  538.3448
 206  558.0712
 207  585.7748
 208  497.2525
 209  489.9688
 210  524.2675
 211  630.8235
 212  593.248
 213  547.3934
 214  453.9397
 215  446.886
 216  461.4153
 217  513.1942
 218  503.682
 219  294.2005
 220  376.2408
 221  437.617
 222  286.7928
 223  335.218
 224  450.886
 225  552.8276
 226  613.3085
 227  478.7249
 228  519.4794
 229  586.9791
 230  414.3103
 231  371.3227
 232  443.768
 233  531.6805
 234  584.6819
 235  521.1241
 236  468.3711
 237  589.8232
 238  514.1805
 239  619.9163
 240  569.123
 241  517.8068
 242  497.529
 243  483.4875
 244  499.789
 245  450.0624
 246  497.8213
 247  496.0035
 248  416.7222
 249  319.048
 250  353.7662
 251  418.4935
 252  416.1772
 253  623.5022
 254  604.8019
 255  514.2705
 256  448.8643
 257  483.1565
 258  378.3962
 259  384.8134
 260  447.0448
 261  450.2284
 262  382.3387
 263  398.2233
 264  399.7365
 265  464.7433
 266  488.972
 267  460.4929
 268  384.272
 269  369.3877
 270  386.407
 271  505.3619
 272  530.2314
 273  456.9073
 274  370.8816
 275  403.0662
 276  488.2296
 277  435.9484
 278  461.8112
 279  486.4416
 280  350.4211
 281  361.1247
 282  404.6356
 283  427.7331
 284  356.2778
 285  405.5371
 286  447.2417
 287  388.075
 288  393.3623
 289  263.3535
 290  484.0524
 291  518.5807
 292  404.0467
 293  309.3163
 294  291.6708
 295  407.1593
 296  380.39
 297  400.8134
 298  398.6635
 299  399.6512
 300  387.6912
 301  400.3394
 302  426.0057
 303  421.5333
 304  512.8229
 305  496.2935
 306  424.6503
 307  439.8961
 308  416.4802
 309  473.3128
 310  392.9916
 311  434.9603
 312  511.7562
 313  373.7592
 314  336.1724
 315  372.3944
 316  395.4782
 317  524.1472
 318  476.8129
 319  361.7494
 320  335.9932
 321  330.0094
 322  411.5302
 323  370.2342
 324  464.9669
 325  549.4834
 326  357.5092
 327  344.5918
 328  347.8035
 329  313.6496
 330  373.6294
 331  501.6178
 332  425.6001
 333  405.4416
 334  464.3575
 335  466.841
 336  454.4205
 337  363.6176
 338  401.8264
 339  383.356
 340  425.7107
 341  356.1208
 342  486.1537
 343  456.887
 344  446.2944
 345  448.0626
 346  474.6924
 347  472.4038
 348  345.5078
 349  401.3507
 350  535.0848
 351  457.9439
 352  346.9236
 353  361.7696
 354  455.3004
 355  556.7318
 356  566.4401
 357  438.2245
 358  505.3594
 359  510.5463
 360  541.213
 361  614.9307
 362  509.6378
 363  417.6762
 364  404.9838
 365  303.4248
 366  342.2552
 367  386.744
 368  366.5252
 369  371.271
 370  358.3972
 371  248.6904
 372  324.8638
 373  289.2717
 374  282.6151
 375  377.7405
 376  336.3791
 377  358.5436
 378  422.3398
 379  469.1292
 380  418.0207
 381  412.3095
 382  507.5211
 383  402.2023
 384  360.3105
 385  383.8885
 386  418.138
 387  446.249
 388  448.3105
 389  444.2034
 390  397.5612
 391  354.6208
 392  266.3869
 393  318.8845
 394  466.5743
 395  381.9565
 396  391.4241
 397  433.5079
 398  379.0009
 399  273.4443
 400  335.4402
 401  368.3459
 402  502.0425
 403  387.5944
 404  226.4092
 405  271.588
 406  384.1956
 407  520.9584
 408  406.338
 409  419.3864
 410  367.6776
 411  443.0774
 412  414.266
 413  422.0346
 414  406.2481
 415  396.391
 416  375.8999
 417  373.5444
 418  327.7224
 419  439.7121
 420  445.6203
 421  511.4525
 422  517.112
 423  452.1732
 424  438.64
 425  500.6768
 426  645.6117
 427  631.5863
 428  527.2964
 429  394.0326
 430  464.232
 431  434.331
 432  369.3716
 433  540.7027
 434  566.7994
 435  443.084
 436  422.3201
 437  412.3724
 438  336.4101
 439  328.3536
 440  501.5404
 441  531.7797
 442  530.7767
 443  514.7421
 444  499.9112
 445  478.777
 446  440.5148
 447  390.157
 448  393.0562
 449  430.7744
 450  220.6771
 451  379.395
 452  546.6752
 453  517.5688
 454  478.4893
 455  427.8092
 456  425.2173
 457  424.8432
 458  385.8412
 459  404.637
 460  354.8271
 461  437.4793
 462  340.455
 463  414.4061
 464  406.9003
 465  359.4781
 466  355.8076
 467  466.5881
 468  508.1963
 469  411.5262
 470  436.2532
 471  467.2841
 472  502.1761
 473  477.3667
 474  485.4348
 475  502.2525
 476  539.2465
 477  467.0674
 478  516.3835
 479  478.0563
 480  445.9919
 481  499.0757
 482  503.5236
 483  509.7235
 484  344.9831
 485  355.9982
 486  413.0693
 487  457.1429
 488  382.5312
 489  354.8604
 490  419.4311
 491  308.9881
 492  401.2303
 493  447.0935
 494  396.5907
 495  328.389
 496  305.8127
 497  327.8959
 498  286.7427
 499  302.0962
 500  305.688
 501  291.9502
 502  404.5295
 503  452.4594
 504  454.4941
 505  441.1042
 506  496.1765
 507  527.9157
 508  514.8932
 509  641.4077
 510  770.5317
 511  800.7391
