# Input file       =  1179317779.097507_cleaned.dat
# Candidate        =  PSR_0332+5434
# Telescope        =  AR
# Epoch_topo       =  57893.511123813740
# Epoch_bary       =  N/A
# T_sample         =  0.002
# Data Folded      =  7340032
# Data Avg         =  0.0168626974199818
# Data StdDev      =  1.00006760652002 
# Profile Bins     =  512
# Profile Avg      =  241.730785508673 
# Profile StdDev   =  119.741131110687 
# Reduced chi-sqr  =  1.117
# Prob(Noise)      <  0.0344   (~1.8 sigma)
# P_topo (ms)      =  714.528238605132  +/- 0.000244
# P'_topo (s/s)    =  -0                +/- 1.29e-10
# P''_topo (s/s^2) =  0                 +/- 5.68e-14
# P_bary (ms)      =  N/A
# P'_bary (s/s)    =  N/A
# P''_bary (s/s^2) =  N/A
# P_orb (s)        =  N/A
# asin(i)/c (s)    =  N/A
# eccentricity     =  N/A
# w (rad)          =  N/A
# T_peri           =  N/A
######################################################
   0  633.6864
   1  676.8464
   2  532.8427
   3  345.8458
   4  189.4256
   5  250.9559
   6  173.4657
   7  157.0307
   8  321.8788
   9  276.6773
  10  205.7814
  11  313.7962
  12  326.1106
  13  319.3224
  14  372.6167
  15  355.8475
  16  496.5547
  17  444.2907
  18  338.0203
  19  233.1299
  20  258.1176
  21  284.3677
  22  320.8399
  23  265.5421
  24  349.5063
  25  193.7057
  26  261.9578
  27  307.2557
  28  450.8938
  29  288.2508
  30  200.0724
  31  276.9287
  32  304.1653
  33  187.6034
  34  4.146922
  35  126.2043
  36  176.3121
  37  119.9653
  38  68.17389
  39  189.1302
  40  292.8161
  41  207.3309
  42  101.3346
  43  236.2567
  44  293.3061
  45  141.1989
  46  129.5206
  47  135.3371
  48  173.7696
  49  331.1008
  50  313.8459
  51  206.9809
  52  326.4564
  53  248.567
  54  87.17564
  55  55.41391
  56  132.9737
  57  135.0779
  58  213.205
  59  173.5298
  60  110.8096
  61  174.7622
  62  211.7143
  63  151.8125
  64  166.1353
  65  146.0847
  66  227.4964
  67  226.3572
  68  370.4413
  69  201.7746
  70  164.5767
  71  219.713
  72  192.4913
  73  199.889
  74  255.3067
  75  196.2547
  76  130.0631
  77  313.3678
  78  233.3105
  79  245.6208
  80  293.9758
  81  218.9956
  82  260.4089
  83  281.5634
  84  267.4733
  85  170.5492
  86  202.1868
  87  395.2258
  88  293.8909
  89  295.4204
  90  341.5653
  91  249.4285
  92  175.37
  93  197.5644
  94  238.1289
  95  195.9064
  96  268.5687
  97  241.6193
  98  225.5486
  99  193.9189
 100  186.9987
 101  147.3104
 102  35.48637
 103  225.6378
 104  285.5223
 105  215.1852
 106  247.6065
 107  422.7879
 108  328.9779
 109  264.5092
 110  257.4077
 111  271.5712
 112  253.9493
 113  237.2092
 114  325.726
 115  296.5684
 116  258.7831
 117  308.6191
 118  137.6865
 119  252.7092
 120  289.8172
 121  299.4485
 122  195.584
 123  197.8998
 124  294.8013
 125  288.2325
 126  276.7715
 127  310.0274
 128  204.9607
 129  191.1425
 130  260.6258
 131  166.543
 132  59.50219
 133  80.77672
 134  152.3574
 135  131.6617
 136  70.80223
 137  158.3779
 138  229.8371
 139  272.1354
 140  248.9664
 141  355.821
 142  376.6461
 143  409.8669
 144  489.6435
 145  229.3493
 146  108.121
 147  203.6269
 148  260.5001
 149  429.0032
 150  341.4608
 151  231.3849
 152  250.7183
 153  241.7653
 154  233.5221
 155  197.0714
 156  226.3511
 157  162.0097
 158  155.8756
 159  259.1185
 160  239.2466
 161  249.6212
 162  181.9411
 163  194.6883
 164  297.6139
 165  209.1954
 166  183.9177
 167  123.4972
 168  122.1053
 169  162.1757
 170  110.6825
 171  166.8709
 172  170.0548
 173  67.80694
 174  169.8359
 175  264.8788
 176  336.6812
 177  239.9755
 178  236.1962
 179  387.7395
 180  288.4142
 181  228.9704
 182  252.306
 183  190.4454
 184  346.7831
 185  313.0059
 186  238.3661
 187  258.1619
 188  291.0155
 189  243.0989
 190  281.3642
 191  182.2701
 192  223.1176
 193  253.3367
 194  176.6563
 195  158.0997
 196  68.51694
 197  165.5661
 198  278.7507
 199  217.5231
 200  199.6094
 201  207.7513
 202  187.8991
 203  197.3756
 204  179.637
 205  323.3213
 206  162.9601
 207  199.261
 208  179.3425
 209  174.5473
 210  59.73632
 211  64.98184
 212  283.4204
 213  239.1004
 214  159.798
 215  192.1223
 216  175.9723
 217  355.2597
 218  294.9489
 219  166.2586
 220  191.0156
 221  235.593
 222  222.2444
 223  296.6292
 224  238.0391
 225  265.3535
 226  196.4855
 227  230.5893
 228  168.403
 229  45.01411
 230  60.36611
 231  131.3368
 232  202.944
 233  159.0757
 234  253.4109
 235  262.5456
 236  309.4315
 237  184.6163
 238  111.6845
 239  218.7574
 240  191.3933
 241  284.8251
 242  201.3141
 243  363.2668
 244  353.3731
 245  271.9829
 246  247.9342
 247  350.6742
 248  303.1929
 249  110.541
 250  219.1671
 251  270.5413
 252  201.9678
 253  120.9935
 254  229.4494
 255  154.2378
 256  65.22388
 257  125.8044
 258  175.5764
 259  313.5426
 260  338.0909
 261  263.9825
 262  225.0618
 263  167.8923
 264  126.924
 265  171.4039
 266  252.0644
 267  241.1397
 268  288.8762
 269  297.9155
 270  260.5195
 271  172.6763
 272  127.1914
 273  90.98872
 274  78.15656
 275  132.9914
 276  -11.9753
 277  109.9725
 278  202.6102
 279  88.19526
 280  145.9408
 281  92.13053
 282  148.1472
 283  137.3994
 284  227.6015
 285  246.8076
 286  251.3552
 287  274.7736
 288  204.3206
 289  160.8583
 290  221.2135
 291  247.9331
 292  226.9113
 293  244.5909
 294  11.01202
 295  18.54734
 296  259.804
 297  253.6679
 298  257.8097
 299  187.252
 300  76.2121
 301  249.1891
 302  159.5
 303  173.467
 304  208.2231
 305  216.6541
 306  220.214
 307  281.5827
 308  232.7401
 309  155.3711
 310  112.5841
 311  175.7902
 312  171.0828
 313  163.3893
 314  262.9266
 315  159.9908
 316  195.8885
 317  206.0003
 318  151.3181
 319  296.6174
 320  366.2362
 321  442.0638
 322  293.887
 323  216.7342
 324  159.2108
 325  116.0584
 326  238.5257
 327  270.8094
 328  292.3417
 329  165.3524
 330  218.1955
 331  247.0331
 332  354.0503
 333  302.9546
 334  161.975
 335  227.4063
 336  274.0049
 337  304.1296
 338  251.0094
 339  140.1785
 340  168.1289
 341  286.5288
 342  232.0164
 343  210.2154
 344  129.7001
 345  222.1985
 346  230.5208
 347  228.5601
 348  292.1098
 349  223.6312
 350  256.6778
 351  186.9865
 352  164.1782
 353  257.1829
 354  274.676
 355  284.9688
 356  401.6962
 357  390.2267
 358  292.6192
 359  264.4685
 360  364.0718
 361  463.7635
 362  318.7133
 363  349.6576
 364  345.5105
 365  225.7344
 366  256.1701
 367  267.3518
 368  261.3181
 369  124.7791
 370  182.7156
 371  336.2551
 372  387.9066
 373  253.75
 374  314.6919
 375  419.873
 376  246.8919
 377  222.0483
 378  330.1218
 379  308.0673
 380  242.9726
 381  148.3026
 382  282.0588
 383  290.3395
 384  206.3931
 385  245.9714
 386  322.2714
 387  294.6425
 388  171.5013
 389  257.2137
 390  345.6432
 391  383.6031
 392  232.6597
 393  236.137
 394  188.7168
 395  297.5914
 396  341.6516
 397  243.9622
 398  314.9626
 399  443.2058
 400  369.7647
 401  186.6516
 402  199.6659
 403  311.8506
 404  366.3484
 405  297.8998
 406  368.9998
 407  365.6541
 408  192.6038
 409  172.8677
 410  303.2505
 411  190.6751
 412  172.8262
 413  168.979
 414  146.2121
 415  312.0276
 416  387.317
 417  301.1312
 418  309.0037
 419  338.772
 420  289.8491
 421  327.8209
 422  263.1717
 423  156.3092
 424  280.2045
 425  228.173
 426  235.1412
 427  250.3436
 428  124.0016
 429  196.5794
 430  259.758
 431  232.8021
 432  236.2498
 433  296.2482
 434  162.1043
 435  248.2529
 436  265.0236
 437  282.0657
 438  174.1125
 439  164.7676
 440  290.29
 441  297.5203
 442  323.2361
 443  229.2995
 444  166.6312
 445  271.2278
 446  342.2799
 447  286.797
 448  251.1059
 449  215.3887
 450  331.1494
 451  500.7089
 452  452.5286
 453  411.2917
 454  372.0506
 455  298.2804
 456  160.3266
 457  279.5297
 458  272.2605
 459  260.8655
 460  190.1477
 461  127.2782
 462  260.6309
 463  262.278
 464  270.6591
 465  175.5085
 466  123.3956
 467  311.5004
 468  320.6492
 469  257.1467
 470  197.2408
 471  299.0347
 472  212.698
 473  248.5543
 474  244.5353
 475  202.6036
 476  168.9853
 477  233.2103
 478  179.0291
 479  264.1608
 480  268.5574
 481  187.7734
 482  191.7515
 483  202.6228
 484  138.9855
 485  220.2105
 486  303.3497
 487  332.1107
 488  333.6341
 489  194.0077
 490  257.777
 491  258.7837
 492  388.1143
 493  272.5812
 494  344.0294
 495  323.1225
 496  177.4707
 497  354.4446
 498  277.3496
 499  282.5155
 500  338.8737
 501  277.4495
 502  256.3789
 503  244.5591
 504  391.859
 505  369.8252
 506  189.7555
 507  235.9323
 508  373.4174
 509  464.9765
 510  623.7748
 511  680.0715
