# Input file       =  1179632897.101483_cleaned.dat
# Candidate        =  PSR_0332+5434
# Telescope        =  AR
# Epoch_topo       =  57897.158322933836
# Epoch_bary       =  N/A
# T_sample         =  0.002
# Data Folded      =  7208960
# Data Avg         =  0.0374738135572243
# Data StdDev      =  1.00005638937042 
# Profile Bins     =  512
# Profile Avg      =  527.642667319978 
# Profile StdDev   =  118.665866909748 
# Reduced chi-sqr  =  1.076
# Prob(Noise)      <  0.115   (~1.2 sigma)
# P_topo (ms)      =  714.524302186669  +/- 0.000562
# P'_topo (s/s)    =  -0                +/- 3.02e-10
# P''_topo (s/s^2) =  0                 +/- 1.36e-13
# P_bary (ms)      =  N/A
# P'_bary (s/s)    =  N/A
# P''_bary (s/s^2) =  N/A
# P_orb (s)        =  N/A
# asin(i)/c (s)    =  N/A
# eccentricity     =  N/A
# w (rad)          =  N/A
# T_peri           =  N/A
######################################################
   0  514.0939
   1  623.4077
   2  711.3148
   3  743.2361
   4  637.0836
   5  722.5394
   6  591.4958
   7  656.356
   8  545.6484
   9  402.3701
  10  520.6252
  11  528.5689
  12  551.646
  13  526.9561
  14  564.3694
  15  555.3623
  16  465.199
  17  533.39
  18  561.3474
  19  542.4121
  20  585.1768
  21  620.6943
  22  563.426
  23  570.8161
  24  656.0536
  25  653.6016
  26  661.9449
  27  701.7298
  28  721.2014
  29  645.411
  30  477.9112
  31  494.8203
  32  473.8753
  33  469.7257
  34  476.2107
  35  416.7902
  36  532.1722
  37  472.3665
  38  413.0873
  39  436.4595
  40  401.3546
  41  513.5268
  42  479.3527
  43  529.2334
  44  438.3523
  45  487.6288
  46  483.231
  47  499.584
  48  575.8527
  49  679.7794
  50  712.5953
  51  610.9562
  52  673.5419
  53  839.521
  54  933.1454
  55  1001.032
  56  1014.65
  57  916.6461
  58  781.1204
  59  632.9945
  60  550.6409
  61  626.0084
  62  561.1835
  63  597.9521
  64  631.8423
  65  542.4125
  66  660.6964
  67  689.2233
  68  636.3338
  69  601.6025
  70  617.3591
  71  676.8641
  72  667.3753
  73  637.6164
  74  599.943
  75  450.0923
  76  512.4485
  77  613.7834
  78  521.7535
  79  529.9908
  80  568.0887
  81  542.0353
  82  458.8906
  83  461.5861
  84  576.9415
  85  549.9444
  86  509.6997
  87  537.7513
  88  582.2458
  89  513.8949
  90  589.6541
  91  636.5665
  92  555.1276
  93  579.7525
  94  562.5071
  95  525.2395
  96  431.5919
  97  484.618
  98  451.3696
  99  440.4781
 100  405.926
 101  381.3534
 102  459.125
 103  535.6008
 104  456.4825
 105  445.9737
 106  467.0754
 107  449.941
 108  499.5296
 109  411.3338
 110  490.304
 111  543.0656
 112  691.925
 113  663.2633
 114  510.3568
 115  466.4004
 116  595.7515
 117  550.4479
 118  500.1209
 119  438.3489
 120  473.261
 121  494.1698
 122  480.0103
 123  554.2997
 124  562.0237
 125  460.7834
 126  479.4106
 127  566.2096
 128  428.9349
 129  419.3271
 130  522.2402
 131  482.6967
 132  530.4024
 133  646.6039
 134  569.0471
 135  514.6527
 136  569.8983
 137  511.1183
 138  518.9543
 139  514.8674
 140  543.1442
 141  535.4934
 142  555.7128
 143  429.8855
 144  448.1335
 145  398.8231
 146  402.2893
 147  494.4278
 148  588.3626
 149  519.3293
 150  422.8599
 151  471.1521
 152  466.3114
 153  539.933
 154  527.9146
 155  459.6289
 156  381.0127
 157  495.0652
 158  529.592
 159  546.7687
 160  610.6324
 161  565.7081
 162  527.3304
 163  537.3124
 164  494.908
 165  476.9112
 166  426.8692
 167  422.1109
 168  557.6469
 169  490.7999
 170  514.5404
 171  529.909
 172  561.3352
 173  575.5667
 174  551.025
 175  575.6475
 176  473.6929
 177  399.13
 178  447.8336
 179  502.9342
 180  512.3848
 181  432.5272
 182  573.5649
 183  526.8453
 184  572.9964
 185  533.5529
 186  615.3053
 187  545.3366
 188  447.1059
 189  416.234
 190  375.7677
 191  465.7923
 192  459.1596
 193  533.053
 194  506.2001
 195  414.6251
 196  401.591
 197  416.0458
 198  455.5225
 199  467.9423
 200  446.4178
 201  440.7511
 202  277.4553
 203  393.9067
 204  434.1534
 205  384.0489
 206  458.4571
 207  422.7712
 208  412.3315
 209  505.0566
 210  517.2667
 211  440.6304
 212  463.736
 213  579.5044
 214  620.4074
 215  477.3607
 216  464.2095
 217  465.6707
 218  387.9607
 219  426.1892
 220  543.3145
 221  634.3197
 222  631.5737
 223  573.6738
 224  499.5929
 225  436.0804
 226  442.2029
 227  504.1219
 228  475.0022
 229  497.2001
 230  659.4917
 231  582.6937
 232  520.1243
 233  482.6865
 234  527.459
 235  513.2518
 236  471.6782
 237  531.3873
 238  481.8937
 239  533.8583
 240  497.9773
 241  535.675
 242  517.5822
 243  499.9875
 244  553.4363
 245  511.2402
 246  404.6471
 247  419.2148
 248  379.4124
 249  449.3193
 250  410.3666
 251  452.9971
 252  510.5715
 253  450.6994
 254  535.0831
 255  450.7796
 256  484.8099
 257  437.247
 258  444.8276
 259  435.8635
 260  518.9352
 261  543.037
 262  487.7608
 263  573.7999
 264  579.9794
 265  507.1236
 266  574.8571
 267  615.0279
 268  558.1512
 269  532.3801
 270  606.0855
 271  596.6417
 272  576.8622
 273  590.1333
 274  744.9035
 275  663.1305
 276  555.5509
 277  557.6395
 278  513.0069
 279  619.0101
 280  519.869
 281  558.097
 282  691.5718
 283  771.0375
 284  678.0929
 285  617.5845
 286  622.1259
 287  588.1024
 288  650.037
 289  635.4534
 290  613.8957
 291  641.4859
 292  580.054
 293  605.009
 294  605.1295
 295  541.8738
 296  504.1021
 297  537.1335
 298  596.3926
 299  584.1486
 300  554.8324
 301  521.1381
 302  487.1926
 303  517.7998
 304  572.9028
 305  599.5058
 306  529.9004
 307  666.2146
 308  626.2251
 309  529.1541
 310  600.3112
 311  577.4987
 312  522.6564
 313  507.8521
 314  587.5958
 315  552.5195
 316  532.5405
 317  634.8721
 318  516.8329
 319  451.5693
 320  519.2111
 321  514.8864
 322  576.3011
 323  664.5759
 324  609.6404
 325  635.9549
 326  605.9395
 327  539.3
 328  457.7709
 329  550.4346
 330  662.0661
 331  619.3409
 332  559.0933
 333  566.8193
 334  560.6553
 335  605.1556
 336  495.6745
 337  483.8213
 338  590.4581
 339  576.6758
 340  492.858
 341  558.8389
 342  613.842
 343  430.5219
 344  439.0408
 345  486.1222
 346  492.7146
 347  495.5839
 348  495.3493
 349  522.5143
 350  674.9982
 351  665.3845
 352  529.0436
 353  553.957
 354  543.6089
 355  518.2098
 356  479.8306
 357  596.273
 358  466.8991
 359  505.0888
 360  478.0505
 361  504.162
 362  461.934
 363  514.3591
 364  532.2774
 365  290.9203
 366  298.3564
 367  418.4004
 368  391.656
 369  424.7027
 370  359.0264
 371  543.6011
 372  509.3243
 373  426.272
 374  458.1751
 375  508.5912
 376  374.7325
 377  379.4892
 378  513.2206
 379  518.8441
 380  547.5861
 381  471.2783
 382  385.7874
 383  447.7698
 384  493.6601
 385  448.5779
 386  340.7484
 387  422.1914
 388  502.3201
 389  562.3048
 390  469.2197
 391  462.0378
 392  590.9679
 393  584.7107
 394  533.042
 395  450.3491
 396  518.9716
 397  490.4101
 398  400.173
 399  534.443
 400  559.4723
 401  556.8922
 402  459.2396
 403  503.6349
 404  600.6564
 405  508.4104
 406  584.6903
 407  491.9131
 408  470.1001
 409  543.8472
 410  566.3825
 411  553.8806
 412  562.8785
 413  644.7924
 414  694.6459
 415  463.1335
 416  535.6413
 417  554.2169
 418  639.5279
 419  572.2906
 420  660.3154
 421  764.6078
 422  584.6348
 423  495.9029
 424  508.9021
 425  489.0314
 426  516.303
 427  451.1898
 428  467.2922
 429  483.0038
 430  398.8907
 431  436.9514
 432  505.6708
 433  564.0638
 434  571.4178
 435  471.7775
 436  368.5826
 437  455.2372
 438  621.3495
 439  572.8482
 440  399.7385
 441  447.2343
 442  485.583
 443  468.8301
 444  466.2509
 445  567.8654
 446  446.2016
 447  405.2251
 448  499.436
 449  503.8195
 450  432.213
 451  468.4068
 452  476.0742
 453  531.8009
 454  452.1785
 455  525.9165
 456  556.7255
 457  441.9907
 458  369.269
 459  443.7776
 460  424.1133
 461  447.3675
 462  649.454
 463  729.1023
 464  541.3488
 465  507.5544
 466  601.4438
 467  484.3886
 468  473.036
 469  576.8
 470  613.4598
 471  536.8626
 472  436.1937
 473  449.0105
 474  551.613
 475  513.8402
 476  518.5978
 477  547.9465
 478  545.7654
 479  518.8882
 480  554.0727
 481  440.1654
 482  369.5692
 483  425.6891
 484  478.3155
 485  533.0782
 486  508.2787
 487  562.041
 488  522.1821
 489  523.3517
 490  463.6769
 491  512.3787
 492  459.9987
 493  407.0915
 494  491.9273
 495  526.8063
 496  488.8026
 497  468.3628
 498  490.8362
 499  488.9491
 500  574.2836
 501  579.4544
 502  452.6132
 503  573.8985
 504  619.0169
 505  558.5891
 506  439.079
 507  572.7583
 508  531.1797
 509  515.5051
 510  627.3632
 511  522.5591
