# Input file       =  1179374391.100717_cleaned.dat
# Candidate        =  PSR_0332+5434
# Telescope        =  AR
# Epoch_topo       =  57894.166355332374
# Epoch_bary       =  N/A
# T_sample         =  0.002
# Data Folded      =  7208960
# Data Avg         =  0.0317663324626009
# Data StdDev      =  1.00004073206093 
# Profile Bins     =  512
# Profile Avg      =  447.271977439728 
# Profile StdDev   =  118.664009026309 
# Reduced chi-sqr  =  1.080
# Prob(Noise)      <  0.104   (~1.3 sigma)
# P_topo (ms)      =  714.527251572225  +/- 0.000226
# P'_topo (s/s)    =  -0                +/- 1.21e-10
# P''_topo (s/s^2) =  0                 +/- 5.45e-14
# P_bary (ms)      =  N/A
# P'_bary (s/s)    =  N/A
# P''_bary (s/s^2) =  N/A
# P_orb (s)        =  N/A
# asin(i)/c (s)    =  N/A
# eccentricity     =  N/A
# w (rad)          =  N/A
# T_peri           =  N/A
######################################################
   0  821.1161
   1  867.0098
   2  740.4711
   3  620.4796
   4  493.0329
   5  510.7422
   6  510.473
   7  468.7903
   8  436.2987
   9  408.2388
  10  537.9996
  11  443.7043
  12  347.4166
  13  392.0163
  14  445.568
  15  548.313
  16  507.3719
  17  424.91
  18  420.3302
  19  379.9384
  20  344.9282
  21  506.4224
  22  469.6766
  23  391.4274
  24  436.545
  25  495.2887
  26  451.3719
  27  542.825
  28  647.2669
  29  608.0131
  30  585.1312
  31  469.2399
  32  519.1747
  33  572.2568
  34  579.1143
  35  585.5177
  36  518.0062
  37  578.4511
  38  577.262
  39  585.4909
  40  592.1943
  41  580.0734
  42  571.5004
  43  509.5081
  44  524.4401
  45  526.7918
  46  458.3417
  47  435.5348
  48  488.8619
  49  552.6644
  50  451.7501
  51  563.4445
  52  559.8043
  53  447.6633
  54  491.0041
  55  409.0857
  56  410.9171
  57  343.6262
  58  396.9613
  59  390.3613
  60  443.6619
  61  440.1048
  62  485.7675
  63  441.7274
  64  388.3933
  65  360.8994
  66  375.8759
  67  415.0225
  68  385.6945
  69  336.3029
  70  437.6235
  71  408.2431
  72  398.411
  73  262.1029
  74  357.851
  75  314.4439
  76  314.1906
  77  343.8698
  78  366.1371
  79  366.6546
  80  312.9511
  81  264.8057
  82  326.4776
  83  398.1607
  84  430.8099
  85  290.3019
  86  341.9438
  87  358.7381
  88  364.9515
  89  492.2013
  90  531.2348
  91  403.6528
  92  372.1657
  93  449.4397
  94  426.1555
  95  427.0475
  96  418.9112
  97  324.6871
  98  284.9364
  99  299.8303
 100  378.9241
 101  538.0591
 102  423.3121
 103  314.0486
 104  360.7063
 105  404.6203
 106  408.7449
 107  475.6616
 108  513.4545
 109  403.1703
 110  353.5206
 111  491.3272
 112  487.6282
 113  392.0549
 114  433.7111
 115  507.5795
 116  478.4083
 117  385.5209
 118  441.8195
 119  428.1735
 120  403.789
 121  454.9081
 122  484.5709
 123  539.9581
 124  573.6336
 125  725.4529
 126  674.6393
 127  452.7417
 128  500.9966
 129  473.4445
 130  421.2798
 131  471.0263
 132  495.3351
 133  393.6243
 134  408.5449
 135  450.9323
 136  520.6817
 137  482.5373
 138  492.6366
 139  530.8782
 140  529.5255
 141  369.0116
 142  437.6694
 143  466.2364
 144  501.1628
 145  483.0421
 146  590.4192
 147  388.4662
 148  365.5381
 149  413.9113
 150  497.7733
 151  472.8208
 152  482.6087
 153  583.2596
 154  567.1844
 155  578.0755
 156  467.237
 157  517.5959
 158  498.42
 159  414.0745
 160  449.5438
 161  550.2959
 162  558.6727
 163  537.9018
 164  528.4649
 165  491.7367
 166  465.2778
 167  502.3011
 168  483.9199
 169  449.5638
 170  423.456
 171  454.2326
 172  556.3693
 173  575.5459
 174  460.3777
 175  491.8963
 176  401.2682
 177  267.5514
 178  374.754
 179  454.6738
 180  513.138
 181  574.9312
 182  508.8481
 183  366.9448
 184  359.6045
 185  452.5219
 186  517.7213
 187  552.41
 188  559.2742
 189  458.612
 190  397.5317
 191  452.0157
 192  481.8462
 193  436.2424
 194  504.9712
 195  438.8699
 196  426.1815
 197  377.6141
 198  496.5912
 199  521.8702
 200  508.0334
 201  577.9221
 202  516.4338
 203  513.9508
 204  526.7324
 205  532.5176
 206  596.7615
 207  537.7439
 208  494.1819
 209  489.3821
 210  593.4373
 211  617.5455
 212  578.0565
 213  487.1459
 214  447.1731
 215  448.9297
 216  483.8433
 217  533.1993
 218  397.5159
 219  286.8848
 220  458.3799
 221  347.33
 222  277.2476
 223  412.4863
 224  501.5578
 225  611.524
 226  543.5991
 227  479.4902
 228  577.8723
 229  510.9856
 230  340.0153
 231  426.1831
 232  480.1131
 233  579.4117
 234  555.2463
 235  469.339
 236  540.6556
 237  559.5763
 238  558.3469
 239  628.3246
 240  518.7152
 241  510.8887
 242  477.6016
 243  492.3787
 244  477.1089
 245  467.7368
 246  515.9113
 247  455.7701
 248  346.411
 249  322.3948
 250  404.3908
 251  412.0081
 252  513.1158
 253  655.7473
 254  562.5636
 255  448.4793
 256  484.924
 257  426.9414
 258  361.6053
 259  425.3566
 260  452.9299
 261  414.1328
 262  382.1821
 263  414.3717
 264  406.7175
 265  508.2976
 266  455.7765
 267  449.0251
 268  336.278
 269  389.897
 270  422.1335
 271  571.0453
 272  476.3849
 273  414.257
 274  355.5308
 275  462.8328
 276  486.1291
 277  423.9358
 278  495.0197
 279  393.8055
 280  338.3799
 281  404.3767
 282  428.4407
 283  398.064
 284  351.0212
 285  462.9044
 286  384.1419
 287  424.2883
 288  282.5615
 289  377.3243
 290  545.1746
 291  445.4208
 292  358.2159
 293  268.6102
 294  363.0209
 295  396.7826
 296  395.9028
 297  409.5385
 298  400.9118
 299  392.9662
 300  381.3599
 301  423.0341
 302  416.7302
 303  469.9803
 304  528.8569
 305  439.9695
 306  439.8452
 307  421.8301
 308  448.7833
 309  433.3944
 310  391.3057
 311  506.072
 312  442.1882
 313  308.5089
 314  375.5856
 315  363.9345
 316  490.5295
 317  514.2167
 318  417.6364
 319  337.7057
 320  330.5048
 321  377.2226
 322  381.6689
 323  395.3616
 324  547.0888
 325  457.1899
 326  320.8974
 327  355.9724
 328  319.5566
 329  327.1612
 330  453.8672
 331  493.9542
 332  377.8872
 333  458.6909
 334  440.3669
 335  494.0641
 336  385.2638
 337  393.2785
 338  379.7703
 339  424.722
 340  364.9644
 341  433.5461
 342  490.756
 343  440.8418
 344  447.351
 345  456.4257
 346  495.1298
 347  398.6613
 348  326.5611
 349  512.2497
 350  499.1848
 351  410.2511
 352  321.924
 353  426.7624
 354  495.2297
 355  602.5361
 356  478.2051
 357  455.1079
 358  536.0635
 359  487.262
 360  617.675
 361  553.3898
 362  456.086
 363  418.7724
 364  343.0802
 365  316.4189
 366  359.4608
 367  387.119
 368  351.4645
 369  396.4175
 370  290.6127
 371  265.9567
 372  338.3259
 373  235.0331
 374  372.5461
 375  342.5573
 376  345.7524
 377  395.7461
 378  446.6988
 379  469.9829
 380  367.3293
 381  503.7103
 382  438.6974
 383  387.7357
 384  360.5389
 385  419.1876
 386  418.944
 387  456.2122
 388  431.4155
 389  424.0903
 390  370.9276
 391  307.834
 392  266.8767
 393  423.4922
 394  443.4291
 395  381.6094
 396  404.0435
 397  429.2432
 398  285.9951
 399  323.5234
 400  332.8163
 401  464.4013
 402  445.7396
 403  295.6676
 404  214.5066
 405  334.6048
 406  477.7906
 407  474.0269
 408  396.5883
 409  392.7749
 410  399.5208
 411  448.2888
 412  407.108
 413  426.6553
 414  401.0623
 415  381.0835
 416  384.6613
 417  322.315
 418  401.9125
 419  442.2342
 420  475.5071
 421  539.3632
 422  468.5388
 423  457.1375
 424  425.1813
 425  611.5223
 426  633.1661
 427  609.0577
 428  425.7639
 429  415.2565
 430  480.5245
 431  366.8223
 432  469.4941
 433  566.5689
 434  514.8334
 435  408.8158
 436  448.3839
 437  355.0878
 438  307.9711
 439  420.6802
 440  535.6854
 441  528.7737
 442  523.0302
 443  516.7142
 444  482.0461
 445  455.8284
 446  423.8944
 447  359.664
 448  459.7104
 449  284.9295
 450  270.0994
 451  500.5058
 452  548.6871
 453  484.5652
 454  454.5533
 455  411.8512
 456  448.3811
 457  392.347
 458  402.3412
 459  367.4338
 460  414.3857
 461  395.735
 462  348.8439
 463  428.2161
 464  369.045
 465  364.1549
 466  402.3553
 467  514.4642
 468  435.7103
 469  431.2959
 470  451.8349
 471  505.2005
 472  467.4913
 473  494.4195
 474  487.055
 475  535.8499
 476  488.0266
 477  489.9752
 478  507.9109
 479  446.2848
 480  467.1605
 481  508.2136
 482  526.6354
 483  421.689
 484  341.2109
 485  373.4371
 486  436.6139
 487  430.4772
 488  341.5908
 489  416.7632
 490  347.509
 491  339.8675
 492  448.6232
 493  439.342
 494  336.1631
 495  319.4418
 496  303.8052
 497  317.4735
 498  285.4408
 499  322.4067
 500  281.2608
 501  346.4154
 502  435.3786
 503  472.3948
 504  432.5695
 505  475.1326
 506  509.1874
 507  518.4803
 508  569.2033
 509  726.7194
 510  812.0784
 511  764.9082
