# Input file       =  1179921519.105297_cleaned.dat
# Candidate        =  PSR_0332+5434
# Telescope        =  AR
# Epoch_topo       =  57900.498855385384
# Epoch_bary       =  N/A
# T_sample         =  0.002
# Data Folded      =  7340032
# Data Avg         =  0.030448996399907
# Data StdDev      =  1.00008637176746 
# Profile Bins     =  512
# Profile Avg      =  436.602487749467 
# Profile StdDev   =  119.743377930741 
# Reduced chi-sqr  =  1.018
# Prob(Noise)      <  0.38   (~0.3 sigma)
# P_topo (ms)      =  714.521356266219  +/- 0.000187
# P'_topo (s/s)    =  -0                +/- 9.87e-11
# P''_topo (s/s^2) =  0                 +/- 4.36e-14
# P_bary (ms)      =  N/A
# P'_bary (s/s)    =  N/A
# P''_bary (s/s^2) =  N/A
# P_orb (s)        =  N/A
# asin(i)/c (s)    =  N/A
# eccentricity     =  N/A
# w (rad)          =  N/A
# T_peri           =  N/A
######################################################
   0  796.1609
   1  720.5327
   2  575.605
   3  574.0052
   4  538.0018
   5  441.4652
   6  446.8438
   7  379.2619
   8  340.7411
   9  421.0023
  10  542.4078
  11  524.8895
  12  521.2654
  13  505.0892
  14  393.6141
  15  427.1517
  16  591.9655
  17  571.4844
  18  614.881
  19  587.04
  20  472.9348
  21  492.712
  22  485.8553
  23  408.6788
  24  469.5733
  25  509.3685
  26  508.662
  27  366.2612
  28  597.5264
  29  545.7464
  30  564.6145
  31  537.0931
  32  399.9334
  33  399.4158
  34  331.0381
  35  470.2076
  36  463.6642
  37  495.7251
  38  333.9339
  39  405.8497
  40  520.6827
  41  452.2881
  42  357.0042
  43  388.2029
  44  386.8452
  45  458.3526
  46  501.8256
  47  498.5489
  48  585.5203
  49  615.3304
  50  556.6933
  51  437.3462
  52  518.7355
  53  606.4589
  54  411.6583
  55  340.7295
  56  452.0812
  57  508.6497
  58  491.8756
  59  495.205
  60  440.4906
  61  421.5575
  62  363.4727
  63  458.3009
  64  398.874
  65  434.0483
  66  413.8375
  67  499.5336
  68  481.3806
  69  496.2935
  70  499.2283
  71  480.2585
  72  443.3798
  73  369.5722
  74  304.3336
  75  421.5957
  76  443.2379
  77  479.5229
  78  399.8651
  79  355.8156
  80  311.7055
  81  262.071
  82  328.9351
  83  304.4795
  84  368.2135
  85  379.1645
  86  403.3908
  87  273.9903
  88  264.7526
  89  306.0967
  90  422.6374
  91  424.6394
  92  300.199
  93  237.8189
  94  313.8311
  95  283.0605
  96  314.3687
  97  355.8167
  98  295.629
  99  299.6804
 100  359.9591
 101  367.3255
 102  296.9299
 103  382.2798
 104  332.6795
 105  394.1075
 106  469.7158
 107  482.2582
 108  429.3227
 109  434.2996
 110  544.6482
 111  450.1711
 112  531.4623
 113  579.4785
 114  549.5721
 115  499.9102
 116  351.0435
 117  439.5273
 118  393.1816
 119  484.5961
 120  427.7343
 121  326.0916
 122  420.1765
 123  415.7986
 124  399.2461
 125  434.3203
 126  466.6158
 127  379.0041
 128  432.2091
 129  275.7641
 130  311.548
 131  299.8127
 132  401.6187
 133  387.4002
 134  355.5381
 135  458.3794
 136  506.3314
 137  385.3264
 138  259.7784
 139  425.4059
 140  437.7883
 141  466.1931
 142  594.2857
 143  487.467
 144  452.3827
 145  414.2247
 146  395.4172
 147  551.637
 148  431.2761
 149  458.961
 150  502.455
 151  355.4599
 152  383.4221
 153  404.8844
 154  423.2543
 155  528.289
 156  518.5823
 157  567.5266
 158  490.1144
 159  439.557
 160  390.0995
 161  363.6068
 162  550.0061
 163  545.5041
 164  361.3635
 165  408.6201
 166  444.8219
 167  473.782
 168  451.4169
 169  471.2428
 170  376.3859
 171  340.1356
 172  486.1747
 173  575.6474
 174  483.5399
 175  487.7318
 176  507.9503
 177  538.9982
 178  432.6762
 179  506.2774
 180  556.8952
 181  452.8078
 182  452.5883
 183  515.6106
 184  437.6717
 185  469.2872
 186  459.5361
 187  492.3626
 188  526.5295
 189  617.4194
 190  609.3202
 191  541.3115
 192  445.3799
 193  458.9463
 194  521.8521
 195  543.4827
 196  558.8784
 197  580.7071
 198  509.7745
 199  499.9945
 200  453.2589
 201  338.9348
 202  411.8134
 203  434.0439
 204  363.6721
 205  306.1943
 206  305.3544
 207  379.4602
 208  451.8577
 209  476.4625
 210  459.0151
 211  445.5737
 212  289.6235
 213  243.5053
 214  295.632
 215  444.3327
 216  422.6387
 217  326.9559
 218  391.7229
 219  360.6491
 220  407.3929
 221  380.7934
 222  412.8781
 223  479.8355
 224  405.0859
 225  369.0359
 226  366.0392
 227  421.1097
 228  422.9338
 229  413.2537
 230  393.1843
 231  485.0242
 232  443.2289
 233  354.4257
 234  408.8459
 235  495.7255
 236  478.1625
 237  479.6761
 238  353.7408
 239  306.8034
 240  334.4053
 241  334.9264
 242  321.3542
 243  466.9956
 244  496.5349
 245  455.4698
 246  547.8031
 247  552.1984
 248  566.2847
 249  453.1005
 250  390.0252
 251  364.8941
 252  424.7726
 253  322.6922
 254  306.5981
 255  318.4366
 256  374.7389
 257  472.9035
 258  495.2951
 259  413.751
 260  480.538
 261  458.859
 262  392.6797
 263  364.3543
 264  393.703
 265  465.6875
 266  413.1672
 267  375.1881
 268  331.5351
 269  281.3
 270  319.1115
 271  341.6505
 272  345.1327
 273  314.3459
 274  329.9721
 275  407.4905
 276  363.3081
 277  377.2771
 278  307.9065
 279  359.1448
 280  441.7543
 281  490.9536
 282  545.372
 283  470.9892
 284  442.261
 285  491.6508
 286  335.0458
 287  356.2468
 288  391.4933
 289  394.1318
 290  289.4325
 291  287.6978
 292  333.1855
 293  366.6771
 294  358.0088
 295  307.6982
 296  272.6938
 297  245.1687
 298  317.3954
 299  264.3381
 300  308.9107
 301  399.5633
 302  289.2137
 303  345.531
 304  327.8486
 305  442.6396
 306  446.258
 307  487.9396
 308  505.6443
 309  351.7202
 310  394.9437
 311  443.1948
 312  566.2239
 313  472.2002
 314  435.0876
 315  470.8625
 316  442.0125
 317  537.0419
 318  454.8472
 319  477.5093
 320  600.4565
 321  497.1571
 322  485.9992
 323  465.8412
 324  415.7503
 325  453.8658
 326  457.6272
 327  359.8601
 328  318.9417
 329  357.2522
 330  432.8694
 331  325.6598
 332  429.6412
 333  464.7948
 334  339.3433
 335  322.9594
 336  247.7659
 337  368.8414
 338  336.1995
 339  386.7268
 340  351.5656
 341  249.7215
 342  402.4975
 343  435.9075
 344  337.1651
 345  355.2965
 346  386.1995
 347  484.3743
 348  437.7486
 349  366.0298
 350  450.4976
 351  439.6526
 352  434.8039
 353  474.9257
 354  395.116
 355  323.232
 356  280.4556
 357  523.0712
 358  573.6357
 359  545.4935
 360  430.9415
 361  545.306
 362  531.6338
 363  404.0646
 364  513.1564
 365  465.1002
 366  541.0585
 367  576.3097
 368  516.2952
 369  472.2068
 370  385.0957
 371  379.2181
 372  350.969
 373  359.146
 374  457.67
 375  500.5331
 376  410.9541
 377  364.6712
 378  382.3058
 379  412.3444
 380  403.9156
 381  446.7457
 382  391.5772
 383  459.9972
 384  335.7658
 385  365.445
 386  402.8792
 387  405.2472
 388  274.2205
 389  314.7019
 390  348.2036
 391  482.0876
 392  458.7975
 393  461.9087
 394  442.4381
 395  486.9857
 396  483.6808
 397  474.83
 398  405.5282
 399  395.3316
 400  465.7285
 401  512.2852
 402  585.2261
 403  613.2241
 404  514.0262
 405  329.5186
 406  437.2032
 407  480.9635
 408  545.354
 409  568.1442
 410  567.2188
 411  455.5002
 412  422.4169
 413  512.5706
 414  483.2868
 415  537.7701
 416  465.1902
 417  331.9299
 418  439.9872
 419  521.9854
 420  466.9045
 421  463.9023
 422  518.0538
 423  498.2908
 424  428.5585
 425  429.0901
 426  412.017
 427  524.9259
 428  339.0992
 429  398.7455
 430  386.7816
 431  378.4289
 432  377.9428
 433  440.9888
 434  450.5332
 435  349.9399
 436  310.4039
 437  441.7484
 438  486.286
 439  467.5504
 440  439.8542
 441  387.4889
 442  342.9246
 443  337.6647
 444  447.7127
 445  551.36
 446  513.3209
 447  511.8736
 448  409.9725
 449  411.4077
 450  559.1779
 451  678.2947
 452  640.1279
 453  604.1678
 454  520.0995
 455  457.6993
 456  483.5377
 457  510.2349
 458  512.4464
 459  480.5594
 460  503.024
 461  477.1981
 462  514.4674
 463  577.0903
 464  548.5209
 465  534.0502
 466  549.9091
 467  455.8452
 468  578.3741
 469  519.933
 470  455.4041
 471  490.5686
 472  533.5571
 473  560.7426
 474  474.1927
 475  386.6245
 476  386.4814
 477  398.0385
 478  437.365
 479  439.8697
 480  342.1136
 481  373.8732
 482  403.3882
 483  429.1895
 484  488.9202
 485  378.841
 486  413.1618
 487  343.6645
 488  417.2332
 489  492.4512
 490  404.0881
 491  439.2386
 492  468.301
 493  402.0174
 494  491.7292
 495  515.8338
 496  539.3688
 497  469.1049
 498  485.3666
 499  483.4767
 500  372.9336
 501  322.0128
 502  349.0053
 503  404.5867
 504  374.3542
 505  377.5856
 506  415.4793
 507  447.5814
 508  543.0669
 509  623.6535
 510  683.4144
 511  894.1304
