# Input file       =  1179044386.113434_cleaned.dat
# Candidate        =  PSR_0332+5434
# Telescope        =  AR
# Epoch_topo       =  57890.346853164745
# Epoch_bary       =  N/A
# T_sample         =  0.002
# Data Folded      =  7340032
# Data Avg         =  0.0285954620451805
# Data StdDev      =  1.00003949988733 
# Profile Bins     =  512
# Profile Avg      =  409.940109264226 
# Profile StdDev   =  119.737765818213 
# Reduced chi-sqr  =  1.063
# Prob(Noise)      <  0.157   (~1.0 sigma)
# P_topo (ms)      =  714.530998575881  +/- 0.000185
# P'_topo (s/s)    =  -0                +/- 9.78e-11
# P''_topo (s/s^2) =  0                 +/- 4.32e-14
# P_bary (ms)      =  N/A
# P'_bary (s/s)    =  N/A
# P''_bary (s/s^2) =  N/A
# P_orb (s)        =  N/A
# asin(i)/c (s)    =  N/A
# eccentricity     =  N/A
# w (rad)          =  N/A
# T_peri           =  N/A
######################################################
   0  293.6871
   1  371.8792
   2  471.7373
   3  529.1148
   4  535.544
   5  548.8212
   6  546.6418
   7  429.626
   8  401.0824
   9  453.892
  10  541.8307
  11  403.3705
  12  450.9907
  13  560.9893
  14  557.8642
  15  500.0706
  16  459.5269
  17  479.3072
  18  435.7614
  19  397.4483
  20  501.5372
  21  564.5843
  22  532.8268
  23  425.3591
  24  443.1167
  25  407.7102
  26  351.4831
  27  344.6732
  28  326.0753
  29  461.8631
  30  375.1842
  31  413.726
  32  348.6084
  33  295.7971
  34  352.4798
  35  309.6426
  36  273.8894
  37  318.0478
  38  360.5903
  39  363.2175
  40  323.9107
  41  434.7421
  42  543.4437
  43  444.4735
  44  437.2718
  45  457.205
  46  450.4199
  47  432.715
  48  458.3356
  49  372.0275
  50  342.9703
  51  371.0298
  52  429.459
  53  540.9253
  54  645.1299
  55  482.3185
  56  406.2511
  57  237.28
  58  331.018
  59  392.0993
  60  483.8666
  61  548.6141
  62  487.8255
  63  452.4803
  64  504.5873
  65  360.0032
  66  385.7346
  67  387.3389
  68  416.7931
  69  603.0858
  70  740.542
  71  806.8245
  72  914.7081
  73  829.7473
  74  749.544
  75  728.7682
  76  584.143
  77  429.0118
  78  378.7641
  79  381.9766
  80  466.3971
  81  416.6118
  82  383.9643
  83  440.9193
  84  528.8158
  85  544.434
  86  481.1214
  87  452.5275
  88  631.971
  89  657.7636
  90  469.0929
  91  425.7654
  92  333.6056
  93  417.9288
  94  370.9559
  95  465.1407
  96  596.652
  97  464.2708
  98  383.2504
  99  314.633
 100  341.5736
 101  473.4333
 102  358.793
 103  375.5923
 104  274.6265
 105  266.8123
 106  437.6787
 107  272.7004
 108  258.9803
 109  370.1117
 110  265.2981
 111  317.5015
 112  391.505
 113  385.9571
 114  360.3193
 115  387.0612
 116  464.1033
 117  479.9918
 118  379.0634
 119  474.6727
 120  412.9517
 121  363.5182
 122  437.7534
 123  498.4407
 124  585.1746
 125  474.6241
 126  340.1898
 127  416.5788
 128  414.0779
 129  399.7632
 130  432.9506
 131  447.4207
 132  502.6902
 133  402.9288
 134  392.3951
 135  504.7286
 136  435.0182
 137  347.465
 138  419.4378
 139  466.4539
 140  326.4391
 141  313.266
 142  316.0838
 143  297.9638
 144  255.4424
 145  439.4803
 146  428.7694
 147  433.3507
 148  485.6824
 149  391.8098
 150  366.0797
 151  275.2335
 152  240.7425
 153  367.2044
 154  393.6803
 155  357.2037
 156  389.3227
 157  358.4304
 158  440.5841
 159  391.6848
 160  350.3695
 161  370.5127
 162  354.5846
 163  456.5402
 164  459.7565
 165  414.0658
 166  420.6501
 167  379.6733
 168  372.3456
 169  347.3068
 170  333.8809
 171  375.5736
 172  402.4731
 173  376.5905
 174  336.8661
 175  478.2922
 176  549.0681
 177  316.4992
 178  386.1723
 179  490.7308
 180  426.4274
 181  484.7921
 182  406.1644
 183  363.8268
 184  319.9053
 185  288.8109
 186  322.0116
 187  261.2653
 188  373.2753
 189  485.4904
 190  427.2652
 191  421.897
 192  431.1609
 193  321.9721
 194  370.4597
 195  383.5914
 196  466.3754
 197  370.7047
 198  297.4722
 199  269.0565
 200  441.5065
 201  474.1473
 202  439.0717
 203  431.5955
 204  429.1135
 205  352.4589
 206  374.8166
 207  492.6904
 208  443.9407
 209  460.0835
 210  377.0746
 211  418.0784
 212  490.2049
 213  428.4363
 214  341.4738
 215  290.2672
 216  381.2383
 217  442.1177
 218  344.0372
 219  363.7426
 220  429.0685
 221  394.1071
 222  412.3001
 223  420.7512
 224  380.1153
 225  377.299
 226  411.1737
 227  310.0917
 228  309.6006
 229  430.0493
 230  535.7957
 231  390.2498
 232  334.5721
 233  369.6927
 234  374.4608
 235  373.2193
 236  296.374
 237  369.1766
 238  393.3836
 239  431.9732
 240  369.6255
 241  343.5667
 242  343.6272
 243  329.5801
 244  342.1691
 245  419.7885
 246  445.499
 247  318.4548
 248  334.6728
 249  399.5204
 250  442.9089
 251  390.8866
 252  403.0243
 253  275.3044
 254  330.0261
 255  331.9825
 256  351.6342
 257  450.3809
 258  421.6444
 259  396.5536
 260  301.7184
 261  301.0166
 262  379.3763
 263  512.9896
 264  299.4359
 265  363.7489
 266  422.6558
 267  481.2832
 268  485.0089
 269  416.0028
 270  471.9767
 271  398.1668
 272  325.284
 273  284.134
 274  272.4812
 275  295.6098
 276  328.3618
 277  496.7872
 278  511.2769
 279  477.458
 280  403.1143
 281  386.319
 282  427.4833
 283  356.5087
 284  370.9795
 285  385.1676
 286  522.4802
 287  545.3481
 288  402.4496
 289  355.0797
 290  427.1241
 291  467.4341
 292  446.135
 293  399.9923
 294  351.1729
 295  332.2905
 296  414.0976
 297  492.8818
 298  407.6344
 299  432.9031
 300  468.0508
 301  453.7423
 302  460.1797
 303  451.9475
 304  440.8463
 305  376.3279
 306  348.0753
 307  297.0419
 308  256.4278
 309  334.0629
 310  288.2877
 311  326.8594
 312  323.9495
 313  204.3975
 314  312.5099
 315  302.8042
 316  340.6116
 317  281.4695
 318  210.2912
 319  216.9922
 320  354.6497
 321  475.6468
 322  507.543
 323  383.9628
 324  335.2792
 325  342.4666
 326  359.6023
 327  457.5052
 328  461.1348
 329  430.3808
 330  344.7195
 331  449.1209
 332  431.453
 333  293.5113
 334  392.3387
 335  351.3953
 336  425.4581
 337  367.3898
 338  320.5205
 339  245.4755
 340  331.5992
 341  442.369
 342  463.9112
 343  396.2277
 344  389.0482
 345  419.8673
 346  423.3889
 347  422.0606
 348  406.9472
 349  466.4619
 350  461.6308
 351  378.6211
 352  297.9417
 353  370.3219
 354  488.4658
 355  577.3206
 356  446.341
 357  443.5626
 358  450.5341
 359  403.8698
 360  307.6932
 361  285.8467
 362  263.9947
 363  312.4636
 364  323.0097
 365  287.2473
 366  430.0365
 367  453.9939
 368  473.1355
 369  525.7076
 370  496.89
 371  349.8691
 372  283.1584
 373  416.9109
 374  451.8118
 375  340.1582
 376  371.373
 377  407.9395
 378  358.5984
 379  360.3389
 380  272.4736
 381  426.6604
 382  418.9366
 383  284.0941
 384  299.7882
 385  384.0186
 386  287.2381
 387  289.7666
 388  360.9007
 389  380.4835
 390  366.4668
 391  345.5112
 392  285.3094
 393  424.5846
 394  378.6416
 395  410.6409
 396  488.2842
 397  456.0394
 398  567.62
 399  343.7178
 400  388.39
 401  462.716
 402  467.8158
 403  495.7949
 404  491.1296
 405  400.0578
 406  310.446
 407  254.326
 408  443.9662
 409  477.8044
 410  459.5324
 411  357.9464
 412  284.7676
 413  366.0329
 414  465.6927
 415  484.0612
 416  427.5193
 417  569.9213
 418  590.7956
 419  479.7542
 420  500.133
 421  448.9482
 422  435.163
 423  436.5667
 424  459.9212
 425  524.9105
 426  509.6148
 427  516.2156
 428  529.2158
 429  479.6777
 430  379.206
 431  449.2051
 432  509.193
 433  686.4703
 434  569.8708
 435  484.2768
 436  378.9881
 437  366.3957
 438  452.8524
 439  443.5381
 440  476.453
 441  386.0188
 442  404.8465
 443  425.1297
 444  402.615
 445  398.803
 446  389.4518
 447  333.101
 448  339.4355
 449  435.7301
 450  345.2543
 451  346.3228
 452  313.5927
 453  452.3922
 454  463.1827
 455  380.891
 456  482.1844
 457  463.6175
 458  552.7343
 459  546.6599
 460  391.0032
 461  341.9506
 462  352.787
 463  452.2722
 464  426.9336
 465  401.2565
 466  442.8211
 467  508.5764
 468  526.707
 469  543.4745
 470  585.0258
 471  372.2061
 472  403.0662
 473  409.2379
 474  546.9987
 475  444.0006
 476  358.3155
 477  448.3504
 478  415.1887
 479  288.4533
 480  282.0363
 481  302.2974
 482  257.1745
 483  389.4601
 484  546.8688
 485  543.3258
 486  451.5497
 487  381.2378
 488  449.5541
 489  451.7221
 490  392.792
 491  474.6781
 492  471.0875
 493  505.1553
 494  459.4261
 495  345.1555
 496  203.0966
 497  262.0326
 498  393.9521
 499  374.5726
 500  432.3174
 501  430.2323
 502  389.7918
 503  316.832
 504  381.4514
 505  433.8391
 506  321.9151
 507  438.8121
 508  346.8911
 509  293.2513
 510  314.3867
 511  333.0536
