# Input file       =  1179992187.103937_cleaned.dat
# Candidate        =  PSR_0332+5434
# Telescope        =  AR
# Epoch_topo       =  57901.316772036305
# Epoch_bary       =  N/A
# T_sample         =  0.002
# Data Folded      =  7340032
# Data Avg         =  0.0285519780756388
# Data StdDev      =  0.999972165362486
# Profile Bins     =  512
# Profile Avg      =  409.339667624733 
# Profile StdDev   =  119.7297036511   
# Reduced chi-sqr  =  1.290
# Prob(Noise)      <  9.6e-06   (~4.3 sigma)
# P_topo (ms)      =  714.5201999298    +/- 0.000297
# P'_topo (s/s)    =  -0                +/- 1.57e-10
# P''_topo (s/s^2) =  0                 +/- 6.92e-14
# P_bary (ms)      =  N/A
# P'_bary (s/s)    =  N/A
# P''_bary (s/s^2) =  N/A
# P_orb (s)        =  N/A
# asin(i)/c (s)    =  N/A
# eccentricity     =  N/A
# w (rad)          =  N/A
# T_peri           =  N/A
######################################################
   0  1005.572
   1  980.3569
   2  690.3647
   3  383.3676
   4  439.0563
   5  391.1392
   6  309.3497
   7  291.4205
   8  342.2285
   9  290.0158
  10  290.8789
  11  351.4082
  12  300.0473
  13  302.3939
  14  389.215
  15  426.7338
  16  492.551
  17  384.7155
  18  396.8432
  19  334.481
  20  348.0121
  21  313.4955
  22  409.1393
  23  365.9794
  24  398.6561
  25  414.3178
  26  376.7829
  27  446.3649
  28  430.284
  29  372.2116
  30  288.9321
  31  348.6262
  32  434.3056
  33  426.8032
  34  432.085
  35  526.937
  36  412.2761
  37  473.5739
  38  528.3055
  39  494.9011
  40  332.6384
  41  437.7266
  42  514.7404
  43  527.1404
  44  456.8249
  45  475.2787
  46  493.9714
  47  604.3226
  48  471.5298
  49  382.84
  50  382.8837
  51  439.2725
  52  426.4011
  53  367.8573
  54  311.7859
  55  338.6849
  56  252.2079
  57  330.2537
  58  391.613
  59  299.3126
  60  399.2975
  61  437.5098
  62  390.8576
  63  418.1479
  64  369.2805
  65  303.6238
  66  277.6295
  67  447.691
  68  402.0491
  69  319.8211
  70  365.616
  71  377.2114
  72  429.0706
  73  379.7274
  74  303.3151
  75  304.0411
  76  296.3441
  77  256.2138
  78  339.2862
  79  399.8131
  80  334.2809
  81  464.176
  82  397.4498
  83  389.5879
  84  289.2609
  85  202.3429
  86  248.4456
  87  342.2827
  88  257.2408
  89  285.911
  90  320.5568
  91  282.6424
  92  294.8897
  93  258.8493
  94  175.6497
  95  329.3159
  96  301.6631
  97  297.6488
  98  367.7638
  99  292.8237
 100  353.6707
 101  426.1898
 102  444.6019
 103  464.0994
 104  403.4609
 105  399.7758
 106  410.9869
 107  323.5237
 108  264.3389
 109  362.9574
 110  462.689
 111  426.5227
 112  438.2219
 113  380.8713
 114  271.7445
 115  285.2573
 116  326.2404
 117  325.0883
 118  363.1067
 119  221.2549
 120  208.7253
 121  247.0433
 122  291.3207
 123  372.8001
 124  262.2714
 125  339.1299
 126  268.2141
 127  281.147
 128  312.4975
 129  338.2415
 130  453.8383
 131  328.152
 132  366.5876
 133  315.4483
 134  321.0815
 135  352.3618
 136  306.7562
 137  348.4944
 138  330.4704
 139  373.7093
 140  376.2913
 141  349.0834
 142  344.4017
 143  341.0031
 144  368.2979
 145  266.0756
 146  256.7721
 147  299.0044
 148  335.6739
 149  339.8585
 150  449.959
 151  428.1402
 152  394.5118
 153  384.6849
 154  381.7452
 155  388.9999
 156  454.403
 157  534.1794
 158  488.5772
 159  520.6292
 160  357.574
 161  393.8562
 162  411.6845
 163  411.1661
 164  432.5366
 165  370.4127
 166  350.7929
 167  365.3782
 168  403.9813
 169  415.669
 170  419.1638
 171  441.3928
 172  385.4794
 173  377.04
 174  414.03
 175  434.7966
 176  542.0531
 177  500.643
 178  511.4166
 179  547.812
 180  365.7442
 181  358.506
 182  451.3232
 183  478.3581
 184  589.7972
 185  567.9631
 186  518.6255
 187  489.9406
 188  483.7824
 189  396.721
 190  326.3186
 191  498.905
 192  439.0148
 193  347.9919
 194  508.0819
 195  525.1689
 196  499.5485
 197  343.9972
 198  426.2316
 199  514.7726
 200  466.5172
 201  567.4261
 202  494.6473
 203  511.7597
 204  410.512
 205  323.5498
 206  505.6569
 207  544.6235
 208  569.3622
 209  468.6079
 210  345.6329
 211  300.5727
 212  295.08
 213  299.9748
 214  238.9186
 215  404.9
 216  334.0164
 217  402.9059
 218  407.8138
 219  369.8217
 220  408.1725
 221  396.3175
 222  529.7758
 223  421.1249
 224  338.152
 225  356.8169
 226  392.5517
 227  297.0894
 228  424.9914
 229  455.4811
 230  315.6109
 231  339.1892
 232  410.1537
 233  434.6679
 234  404.233
 235  443.6269
 236  433.1604
 237  433.9289
 238  528.9088
 239  421.495
 240  379.0516
 241  467.6656
 242  311.2617
 243  324.459
 244  371.3523
 245  373.9343
 246  293.2713
 247  270.598
 248  309.2829
 249  258.4693
 250  397.2293
 251  389.3734
 252  273.5573
 253  336.5906
 254  380.9103
 255  340.2516
 256  254.3752
 257  342.0266
 258  394.1955
 259  340.8111
 260  433.2321
 261  416.2313
 262  348.1402
 263  312.7304
 264  357.3546
 265  331.5661
 266  355.1453
 267  196.8307
 268  308.6666
 269  398.8163
 270  411.2852
 271  292.1733
 272  215.9761
 273  382.6313
 274  420.2883
 275  362.4155
 276  371.1262
 277  389.6849
 278  322.8
 279  479.8863
 280  438.2949
 281  229.4129
 282  346.0001
 283  357.7835
 284  374.6525
 285  370.7146
 286  420.4155
 287  476.4963
 288  388.3866
 289  469.3578
 290  470.1085
 291  404.5149
 292  528.6404
 293  500.8362
 294  407.7531
 295  493.6286
 296  424.3735
 297  407.17
 298  281.2885
 299  479.264
 300  461.4687
 301  421.445
 302  491.7029
 303  441.8437
 304  386.66
 305  410.5148
 306  486.9195
 307  457.617
 308  373.9276
 309  406.5368
 310  394.9458
 311  421.5928
 312  456.5877
 313  420.2128
 314  420.8463
 315  484.5043
 316  345.7782
 317  328.4019
 318  388.9189
 319  468.5652
 320  428.0743
 321  369.802
 322  410.9138
 323  446.1284
 324  468.2371
 325  464.1124
 326  465.1309
 327  539.3426
 328  504.2941
 329  520.4168
 330  413.4492
 331  435.5887
 332  390.3548
 333  428.8647
 334  398.2218
 335  414.6498
 336  305.4202
 337  348.7295
 338  312.8431
 339  420.3078
 340  413.2126
 341  420.8206
 342  320.0146
 343  364.1754
 344  512.1241
 345  362.7034
 346  284.4894
 347  308.9038
 348  374.3986
 349  445.9395
 350  382.7215
 351  474.3486
 352  541.8643
 353  423.7109
 354  391.943
 355  379.5939
 356  373.9859
 357  401.9406
 358  460.5383
 359  483.3923
 360  429.3217
 361  433.5002
 362  478.5577
 363  420.9984
 364  422.0924
 365  433.7506
 366  417.7955
 367  380.6173
 368  419.4995
 369  372.1691
 370  458.0918
 371  514.1109
 372  472.479
 373  525.3609
 374  344.0428
 375  402.7523
 376  554.2653
 377  506.4155
 378  564.2272
 379  488.8667
 380  458.5455
 381  349.6833
 382  434.1022
 383  579.3201
 384  535.0514
 385  474.6969
 386  532.8696
 387  491.5353
 388  510.853
 389  551.952
 390  560.3739
 391  540.7956
 392  455.9439
 393  434.8335
 394  505.1117
 395  406.4367
 396  304.9066
 397  343.8799
 398  352.4972
 399  292.0283
 400  462.0494
 401  431.5079
 402  452.462
 403  574.8171
 404  354.1615
 405  353.1637
 406  438.121
 407  583.6033
 408  486.0297
 409  493.758
 410  565.6334
 411  501.4783
 412  362.7941
 413  391.8802
 414  474.4181
 415  439.3499
 416  400.2113
 417  441.9971
 418  547.2968
 419  546.2664
 420  395.5945
 421  504.0202
 422  566.7173
 423  416.0032
 424  433.5122
 425  417.2853
 426  391.4322
 427  428.4616
 428  473.5111
 429  302.1465
 430  241.7286
 431  340.2361
 432  213.9568
 433  215.6135
 434  388.5764
 435  481.1393
 436  308.769
 437  377.4942
 438  440.0537
 439  368.0433
 440  346.274
 441  315.8034
 442  373.9597
 443  385.8919
 444  478.783
 445  518.7217
 446  421.2495
 447  292.0961
 448  427.6331
 449  381.3054
 450  372.2223
 451  545.5081
 452  522.2589
 453  382.0342
 454  326.39
 455  434.7204
 456  422.3038
 457  464.849
 458  482.416
 459  421.3106
 460  407.0864
 461  586.2462
 462  484.2629
 463  526.9288
 464  427.5737
 465  345.706
 466  457.4326
 467  389.0129
 468  433.6891
 469  490.2699
 470  541.5211
 471  448.5251
 472  317.6787
 473  464.5767
 474  567.3356
 475  524.9803
 476  364.3098
 477  384.2898
 478  405.6413
 479  409.6393
 480  427.5937
 481  318.7779
 482  408.9639
 483  390.6616
 484  422.8915
 485  371.2923
 486  424.7631
 487  357.7937
 488  532.4236
 489  439.1695
 490  399.0432
 491  349.3602
 492  430.1875
 493  484.6994
 494  423.4987
 495  410.63
 496  413.5317
 497  476.3998
 498  396.9396
 499  343.6313
 500  428.3682
 501  491.1847
 502  361.9282
 503  470.0257
 504  627.8716
 505  545.103
 506  554.8226
 507  595.9847
 508  640.9584
 509  725.2088
 510  973.0485
 511  1072.31
