# Input file       =  1179719062.10811_cleaned.dat
# Candidate        =  PSR_0332+5434
# Telescope        =  AR
# Epoch_topo       =  57898.155603103121
# Epoch_bary       =  N/A
# T_sample         =  0.002
# Data Folded      =  7143424
# Data Avg         =  0.031839300509067
# Data StdDev      =  1.00003910879365 
# Profile Bins     =  512
# Profile Avg      =  444.061861028101 
# Profile StdDev   =  118.123203957214 
# Reduced chi-sqr  =  0.997
# Prob(Noise)      <  0.512   (~0.0 sigma)
# P_topo (ms)      =  714.523314762886  +/- 0.000264
# P'_topo (s/s)    =  -0                +/- 1.43e-10
# P''_topo (s/s^2) =  0                 +/- 6.5e-14
# P_bary (ms)      =  N/A
# P'_bary (s/s)    =  N/A
# P''_bary (s/s^2) =  N/A
# P_orb (s)        =  N/A
# asin(i)/c (s)    =  N/A
# eccentricity     =  N/A
# w (rad)          =  N/A
# T_peri           =  N/A
######################################################
   0  815.2779
   1  774.7385
   2  655.7768
   3  610.363
   4  560.0849
   5  574.824
   6  643.8304
   7  500.5367
   8  402.045
   9  386.3574
  10  476.2503
  11  447.1822
  12  440.1044
  13  557.3194
  14  441.2874
  15  325.164
  16  265.9579
  17  299.7506
  18  360.238
  19  326.8554
  20  375.4638
  21  355.5443
  22  412.1666
  23  529.6243
  24  549.59
  25  396.1513
  26  469.6024
  27  501.3113
  28  554.4958
  29  431.3766
  30  337.9906
  31  409.3877
  32  474.7588
  33  447.2304
  34  467.1222
  35  457.2474
  36  392.3282
  37  394.4077
  38  499.3323
  39  483.2266
  40  417.336
  41  342.0266
  42  440.2396
  43  310.2376
  44  277.7908
  45  323.0809
  46  381.1617
  47  378.1581
  48  278.4538
  49  420.2469
  50  386.3462
  51  442.8296
  52  397.3691
  53  403.2264
  54  410.7665
  55  391.4924
  56  366.5321
  57  402.699
  58  413.0308
  59  500.7565
  60  458.8884
  61  505.8337
  62  327.7228
  63  391.9966
  64  478.4462
  65  392.7319
  66  279.7953
  67  389.6949
  68  457.8796
  69  491.4392
  70  413.2581
  71  422.8581
  72  387.8453
  73  377.0404
  74  460.1725
  75  333.6991
  76  419.9818
  77  466.9436
  78  474.9255
  79  381.2031
  80  329.3485
  81  384.7019
  82  321.3455
  83  397.0567
  84  521.4708
  85  550.0217
  86  463.9018
  87  328.4691
  88  436.9448
  89  481.3358
  90  368.7627
  91  406.4986
  92  398.4908
  93  378.5267
  94  363.6753
  95  412.9642
  96  475.35
  97  391.0004
  98  288.418
  99  359.4709
 100  349.607
 101  313.6885
 102  247.1928
 103  311.0192
 104  296.5155
 105  326.5567
 106  405.325
 107  374.6995
 108  441.7675
 109  548.8925
 110  352.5015
 111  334.0295
 112  399.7653
 113  455.6607
 114  401.1093
 115  464.0787
 116  387.8532
 117  373.3202
 118  423.9259
 119  479.2458
 120  529.8835
 121  631.7202
 122  548.2336
 123  562.9183
 124  564.1809
 125  539.5505
 126  489.822
 127  424.6678
 128  362.3907
 129  378.1383
 130  531.3298
 131  413.9925
 132  417.3498
 133  451.9492
 134  431.4375
 135  399.4621
 136  437.3864
 137  414.0145
 138  428.3841
 139  449.5233
 140  386.1842
 141  363.9683
 142  362.268
 143  272.7154
 144  392.4539
 145  455.8878
 146  416.5114
 147  366.461
 148  300.774
 149  337.3662
 150  410.191
 151  475.3501
 152  410.5558
 153  398.4196
 154  426.0767
 155  552.3723
 156  512.4515
 157  507.2153
 158  528.1001
 159  495.5438
 160  425.1306
 161  574.1161
 162  597.9753
 163  494.3231
 164  467.5988
 165  452.2702
 166  462.5477
 167  463.822
 168  556.3646
 169  568.6247
 170  585.9441
 171  544.5897
 172  427.3107
 173  546.3698
 174  605.4645
 175  448.4101
 176  411.0945
 177  489.879
 178  448.5784
 179  344.8579
 180  425.2099
 181  452.7641
 182  361.3428
 183  377.6538
 184  326.9175
 185  425.8511
 186  402.5245
 187  348.0625
 188  517.5818
 189  416.4674
 190  408.199
 191  346.2043
 192  351.2516
 193  467.614
 194  481.8525
 195  549.2293
 196  506.008
 197  526.9234
 198  469.5996
 199  402.3117
 200  523.961
 201  545.4432
 202  559.4615
 203  551.1924
 204  654.8545
 205  555.793
 206  654.5353
 207  668.6858
 208  570.5438
 209  531.097
 210  506.011
 211  462.0015
 212  537.8742
 213  530.4063
 214  484.7765
 215  524.1797
 216  540.077
 217  491.838
 218  359.2592
 219  556.7908
 220  504.7456
 221  458.326
 222  408.1101
 223  426.4567
 224  404.5689
 225  430.484
 226  499.9792
 227  412.1751
 228  342.7933
 229  438.7915
 230  356.5311
 231  338.5583
 232  372.7984
 233  496.8518
 234  579.7764
 235  566.5211
 236  530.5878
 237  526.7531
 238  494.088
 239  473.1652
 240  449.9151
 241  584.3824
 242  517.7408
 243  510.9107
 244  512.8832
 245  629.9787
 246  559.1506
 247  440.7609
 248  443.3054
 249  497.0703
 250  588.313
 251  579.022
 252  544.7589
 253  491.9858
 254  518.8038
 255  512.0801
 256  493.8275
 257  470.2071
 258  390.744
 259  394.093
 260  422.295
 261  451.5975
 262  413.8154
 263  455.7489
 264  459.6721
 265  418.6117
 266  413.1078
 267  458.1756
 268  383.8333
 269  404.6612
 270  413.9141
 271  446.7323
 272  437.6029
 273  414.5388
 274  511.2291
 275  528.8455
 276  383.6324
 277  369.9078
 278  496.8263
 279  529.9554
 280  432.9229
 281  333.7392
 282  295.2948
 283  430.0335
 284  437.4641
 285  495.82
 286  409.8749
 287  468.2623
 288  409.7968
 289  443.054
 290  483.0119
 291  436.6181
 292  445.0806
 293  446.5766
 294  425.6531
 295  435.4905
 296  465.708
 297  447.7164
 298  479.4353
 299  521.6688
 300  486.3412
 301  567.3547
 302  502.5646
 303  368.1365
 304  424.0237
 305  529.6881
 306  463.1447
 307  481.6269
 308  396.4343
 309  377.8228
 310  405.0109
 311  330.1871
 312  337.2609
 313  311.5562
 314  371.2748
 315  487.3556
 316  361.108
 317  482.3413
 318  485.1324
 319  467.0783
 320  373.3334
 321  403.6769
 322  361.272
 323  369.6355
 324  422.4097
 325  511.2573
 326  537.1233
 327  500.6227
 328  377.5981
 329  382.9864
 330  385.4643
 331  477.7096
 332  534.7952
 333  442.5312
 334  456.5858
 335  503.7865
 336  575.6382
 337  440.1839
 338  455.3849
 339  441.5396
 340  432.2164
 341  450.1604
 342  371.8275
 343  405.8752
 344  512.575
 345  484.6217
 346  367.0989
 347  437.5895
 348  406.0935
 349  410.5664
 350  482.7033
 351  409.3937
 352  429.067
 353  465.4831
 354  458.5687
 355  474.6716
 356  385.2648
 357  394.2156
 358  364.8231
 359  299.1086
 360  396.6059
 361  432.0329
 362  483.0708
 363  339.1226
 364  432.8448
 365  395.5099
 366  424.0564
 367  432.0812
 368  472.0276
 369  531.2921
 370  391.8875
 371  473.1925
 372  536.1
 373  581.6803
 374  523.9478
 375  418.4542
 376  369.7704
 377  436.568
 378  390.8673
 379  398.4844
 380  470.3385
 381  491.2996
 382  447.5971
 383  431.7932
 384  516.9517
 385  529.0225
 386  551.9462
 387  535.6738
 388  473.8046
 389  415.547
 390  446.3918
 391  397.3712
 392  357.6215
 393  453.0474
 394  527.1333
 395  356.2433
 396  358.363
 397  489.2505
 398  511.6498
 399  331.1516
 400  395.2854
 401  535.8289
 402  451.9924
 403  455.0825
 404  483.1826
 405  396.4044
 406  397.2842
 407  396.1559
 408  359.254
 409  409.9756
 410  414.3045
 411  389.3037
 412  398.1103
 413  432.6626
 414  275.4805
 415  343.3876
 416  403.6425
 417  572.8101
 418  543.0291
 419  488.3415
 420  549.7119
 421  505.8238
 422  623.0812
 423  526.2031
 424  457.7101
 425  453.0029
 426  507.034
 427  499.6582
 428  478.96
 429  480.8962
 430  390.6371
 431  390.2775
 432  292.7257
 433  392.1124
 434  390.2681
 435  415.796
 436  335.9597
 437  312.4174
 438  415.4178
 439  318.8349
 440  199.1737
 441  309.7693
 442  345.6835
 443  276.7354
 444  317.7339
 445  331.5492
 446  274.6028
 447  229.6312
 448  378.4359
 449  392.9576
 450  425.3546
 451  415.3241
 452  448.7425
 453  461.5341
 454  374.8735
 455  355.8906
 456  406.3134
 457  464.7635
 458  433.4407
 459  423.4929
 460  393.0544
 461  382.6619
 462  482.0111
 463  506.9651
 464  418.1777
 465  349.6316
 466  251.5715
 467  297.059
 468  462.338
 469  505.2303
 470  487.5347
 471  511.5461
 472  382.7236
 473  403.9447
 474  403.0361
 475  406.7902
 476  435.6185
 477  493.7278
 478  379.0866
 479  321.3207
 480  394.9437
 481  432.0026
 482  447.9095
 483  407.8116
 484  344.6132
 485  391.1414
 486  507.0631
 487  457.6588
 488  371.0381
 489  427.155
 490  485.5469
 491  405.7723
 492  436.1376
 493  346.2327
 494  354.017
 495  382.3243
 496  523.0552
 497  490.8292
 498  561.2148
 499  567.0472
 500  528.2571
 501  489.7672
 502  590.2498
 503  578.103
 504  565.4786
 505  591.0954
 506  748.8211
 507  712.7925
 508  603.0645
 509  553.8512
 510  697.1585
 511  809.0549
