# Input file       =  1179906622.097327_cleaned.dat
# Candidate        =  PSR_0332+5434
# Telescope        =  AR
# Epoch_topo       =  57900.326436311654
# Epoch_bary       =  N/A
# T_sample         =  0.002
# Data Folded      =  7340032
# Data Avg         =  0.0268687722907125
# Data StdDev      =  1.00003547060729 
# Profile Bins     =  512
# Profile Avg      =  385.216745316272 
# Profile StdDev   =  119.737283380279 
# Reduced chi-sqr  =  1.170
# Prob(Noise)      <  0.00473   (~2.6 sigma)
# P_topo (ms)      =  714.521186625922  +/- 0.00036
# P'_topo (s/s)    =  -0                +/- 1.9e-10
# P''_topo (s/s^2) =  0                 +/- 8.38e-14
# P_bary (ms)      =  N/A
# P'_bary (s/s)    =  N/A
# P''_bary (s/s^2) =  N/A
# P_orb (s)        =  N/A
# asin(i)/c (s)    =  N/A
# eccentricity     =  N/A
# w (rad)          =  N/A
# T_peri           =  N/A
######################################################
   0  875.2388
   1  724.1178
   2  772.1201
   3  649.6174
   4  456.9295
   5  367.6792
   6  257.6747
   7  313.1642
   8  301.8645
   9  365.848
  10  287.624
  11  321.5161
  12  324.2361
  13  369.9038
  14  397.2192
  15  409.4966
  16  477.2619
  17  354.7646
  18  276.2474
  19  312.5232
  20  401.894
  21  447.8907
  22  290.3378
  23  282.6806
  24  408.4363
  25  375.5705
  26  351.8809
  27  364.1723
  28  397.6902
  29  418.3843
  30  404.6096
  31  382.6458
  32  386.5607
  33  353.8485
  34  368.1662
  35  527.0112
  36  484.7339
  37  343.8853
  38  416.7341
  39  413.5152
  40  407.4702
  41  468.2354
  42  387.7749
  43  340.5236
  44  278.0274
  45  378.1064
  46  425.6334
  47  464.4698
  48  445.6978
  49  389.197
  50  315.1449
  51  289.022
  52  305.8821
  53  395.3562
  54  352.8028
  55  310.393
  56  196.6627
  57  193.4137
  58  291.2909
  59  359.7298
  60  376.8336
  61  327.3843
  62  263.5981
  63  341.8442
  64  284.2917
  65  271.2925
  66  427.8499
  67  376.7797
  68  291.1084
  69  325.1586
  70  334.4125
  71  342.2697
  72  282.3363
  73  292.3559
  74  428.6027
  75  395.8574
  76  352.6597
  77  340.993
  78  309.8569
  79  300.9717
  80  331.4307
  81  333.3885
  82  388.4059
  83  430.3306
  84  359.0694
  85  323.2673
  86  319.8042
  87  477.5242
  88  418.0496
  89  385.4626
  90  437.2302
  91  401.5037
  92  275.409
  93  319.8067
  94  399.9128
  95  418.4362
  96  411.233
  97  388.6039
  98  463.5138
  99  334.6605
 100  237.0245
 101  347.4877
 102  305.959
 103  353.7464
 104  424.4109
 105  419.1999
 106  332.2348
 107  348.5745
 108  334.2024
 109  353.6788
 110  367.1814
 111  371.0403
 112  406.4187
 113  379.4492
 114  375.2522
 115  296.782
 116  385.8954
 117  342.4121
 118  390.9059
 119  414.5237
 120  392.3873
 121  338.761
 122  347.9863
 123  462.8306
 124  355.7518
 125  326.7502
 126  188.5109
 127  273.8319
 128  284.2141
 129  294.5613
 130  311.9754
 131  282.7674
 132  362.7619
 133  350.7082
 134  319.9031
 135  312.9575
 136  298.2636
 137  463.0846
 138  383.613
 139  306.1444
 140  391.5728
 141  360.1344
 142  353.731
 143  411.567
 144  333.1434
 145  257.0668
 146  328.6998
 147  247.7236
 148  272.9517
 149  362.7201
 150  356.6846
 151  367.0615
 152  301.2302
 153  314.7634
 154  381.5625
 155  408.8948
 156  302.7444
 157  318.3005
 158  409.7992
 159  350.3086
 160  377.4868
 161  281.7659
 162  335.3413
 163  374.9303
 164  366.0371
 165  332.4955
 166  330.5453
 167  334.2983
 168  285.2638
 169  321.601
 170  283.431
 171  189.4084
 172  192.7813
 173  164.493
 174  233.5306
 175  316.8607
 176  263.7717
 177  265.4671
 178  304.1548
 179  397.0636
 180  437.8234
 181  418.0344
 182  509.605
 183  458.2186
 184  384.9695
 185  376.588
 186  404.5734
 187  488.3231
 188  434.1141
 189  307.3777
 190  306.175
 191  406.4858
 192  425.8809
 193  383.201
 194  402.3285
 195  331.9411
 196  286.7181
 197  401.6299
 198  419.5885
 199  406.463
 200  419.6852
 201  392.6787
 202  349.1378
 203  380.4474
 204  469.492
 205  368.899
 206  332.9923
 207  482.9539
 208  404.2397
 209  400.2033
 210  521.3601
 211  515.1957
 212  433.8863
 213  362.9462
 214  444.6487
 215  342.7982
 216  418.2753
 217  430.2634
 218  329.9333
 219  212.2578
 220  197.0044
 221  243.1762
 222  260.2289
 223  334.0173
 224  411.6426
 225  347.103
 226  334.2709
 227  340.13
 228  413.2928
 229  338.3316
 230  319.213
 231  370.0317
 232  397.5587
 233  278.9473
 234  277.7232
 235  308.3159
 236  360.9921
 237  387.6653
 238  353.6801
 239  402.934
 240  373.8158
 241  352.6192
 242  360.719
 243  411.1422
 244  403.8743
 245  470.073
 246  395.7557
 247  367.7697
 248  381.31
 249  393.7514
 250  389.1191
 251  255.6453
 252  200.5249
 253  299.6823
 254  347.3375
 255  399.6296
 256  407.0104
 257  257.2357
 258  338.4565
 259  278.332
 260  326.0706
 261  301.861
 262  348.3127
 263  271.7847
 264  281.0052
 265  358.8303
 266  308.9177
 267  263.0051
 268  233.837
 269  215.3312
 270  318.5382
 271  294.6699
 272  326.3484
 273  330.8237
 274  330.798
 275  462.2761
 276  338.8512
 277  245.058
 278  434.6736
 279  535.4055
 280  484.9213
 281  467.484
 282  557.2237
 283  522.019
 284  417.4179
 285  479.2638
 286  552.0594
 287  517.6813
 288  556.2033
 289  608.8415
 290  508.7571
 291  433.3478
 292  463.681
 293  539.4557
 294  523.0326
 295  397.594
 296  366.7576
 297  526.1332
 298  417.1112
 299  418.2102
 300  504.2404
 301  485.9483
 302  453.1255
 303  358.0189
 304  356.3498
 305  458.0803
 306  367.8332
 307  358.8667
 308  381.7111
 309  392.8521
 310  387.9191
 311  216.2621
 312  506.8375
 313  523.5018
 314  377.8233
 315  320.5097
 316  329.7379
 317  345.3054
 318  440.2669
 319  468.671
 320  308.0955
 321  386.381
 322  405.1685
 323  359.8763
 324  353.0714
 325  473.3874
 326  527.8137
 327  522.4673
 328  387.0744
 329  299.3457
 330  366.8851
 331  447.2799
 332  495.2089
 333  528.2859
 334  491.2094
 335  594.6918
 336  514.0273
 337  433.1662
 338  546.4806
 339  496.3742
 340  473.5673
 341  433.9486
 342  394.1571
 343  401.5389
 344  421.3897
 345  450.0886
 346  355.3536
 347  322.5919
 348  350.8821
 349  240.7808
 350  266.5157
 351  348.1126
 352  329.3466
 353  352.8947
 354  373.8658
 355  447.3772
 356  457.4371
 357  307.7211
 358  390.2487
 359  325.0307
 360  372.6239
 361  464.8663
 362  478.4907
 363  486.9225
 364  384.3524
 365  372.2517
 366  406.5246
 367  495.6151
 368  418.2498
 369  482.6573
 370  557.764
 371  514.572
 372  433.2804
 373  519.847
 374  485.5373
 375  443.7169
 376  426.0164
 377  375.2175
 378  315.6019
 379  417.5098
 380  431.7734
 381  386.3278
 382  383.5091
 383  464.0652
 384  327.3813
 385  347.4464
 386  424.4038
 387  324.0807
 388  237.838
 389  321.7712
 390  376.659
 391  396.9571
 392  344.3028
 393  423.3226
 394  355.1866
 395  472.0079
 396  422.0408
 397  382.6571
 398  348.8812
 399  393.9517
 400  414.3814
 401  510.475
 402  444.8202
 403  526.7305
 404  433.5686
 405  551.0688
 406  598.705
 407  525.1982
 408  522.5027
 409  514.2146
 410  471.9285
 411  363.1852
 412  507.6038
 413  615.4833
 414  473.2339
 415  331.3665
 416  343.1236
 417  426.3851
 418  494.022
 419  576.9918
 420  507.099
 421  352.7803
 422  494.7966
 423  550.9042
 424  535.0419
 425  438.4863
 426  488.8651
 427  452.0864
 428  399.2301
 429  482.8225
 430  541.2599
 431  457.2894
 432  359.8129
 433  466.5328
 434  492.1443
 435  454.2366
 436  450.3915
 437  332.8789
 438  316.8674
 439  307.3563
 440  260.9428
 441  373.0231
 442  378.3217
 443  295.1416
 444  297.8763
 445  293.5553
 446  314.2195
 447  483.5867
 448  457.8366
 449  386.5136
 450  368.7338
 451  432.4536
 452  447.9229
 453  358.2906
 454  356.1262
 455  311.8297
 456  290.8092
 457  314.8211
 458  359.0484
 459  374.3177
 460  333.9068
 461  266.2566
 462  387.6743
 463  448.1084
 464  433.399
 465  503.9997
 466  552.8071
 467  446.1248
 468  399.884
 469  254.886
 470  283.0574
 471  355.3586
 472  377.5155
 473  302.0724
 474  253.7175
 475  427.5948
 476  405.6703
 477  304.9903
 478  254.5554
 479  253.1351
 480  358.4772
 481  378.6415
 482  214.6118
 483  237.3455
 484  376.3234
 485  471.2762
 486  303.9031
 487  297.9835
 488  372.0388
 489  358.5633
 490  275.4187
 491  276.2362
 492  325.1645
 493  384.7338
 494  339.5782
 495  345.398
 496  392.6239
 497  307.5841
 498  283.5507
 499  479.8988
 500  425.7442
 501  401.5674
 502  398.5952
 503  350.3359
 504  590.7817
 505  343.1699
 506  300.3058
 507  469.736
 508  567.7472
 509  701.222
 510  802.9495
 511  958.7787
