# Input file       =  1179977562.10106_cleaned.dat
# Candidate        =  PSR_0332+5434
# Telescope        =  AR
# Epoch_topo       =  57901.147501169675
# Epoch_bary       =  N/A
# T_sample         =  0.002
# Data Folded      =  7208960
# Data Avg         =  0.0327536806756122
# Data StdDev      =  1.0009281716772  
# Profile Bins     =  512
# Profile Avg      =  461.140844695437 
# Profile StdDev   =  118.769311879743 
# Reduced chi-sqr  =  1.307
# Prob(Noise)      <  3.34e-06   (~4.5 sigma)
# P_topo (ms)      =  714.520357587905  +/- 6.49e-05
# P'_topo (s/s)    =  -0                +/- 3.49e-11
# P''_topo (s/s^2) =  0                 +/- 1.57e-14
# P_bary (ms)      =  N/A
# P'_bary (s/s)    =  N/A
# P''_bary (s/s^2) =  N/A
# P_orb (s)        =  N/A
# asin(i)/c (s)    =  N/A
# eccentricity     =  N/A
# w (rad)          =  N/A
# T_peri           =  N/A
######################################################
   0  358.621
   1  389.6108
   2  378.1959
   3  424.2119
   4  504.8776
   5  523.7952
   6  420.6807
   7  444.8603
   8  300.6409
   9  339.3617
  10  511.9564
  11  397.7571
  12  432.6502
  13  490.9783
  14  473.942
  15  453.265
  16  451.678
  17  415.458
  18  392.1207
  19  477.0287
  20  476.4834
  21  515.2817
  22  619.2162
  23  484.6132
  24  411.108
  25  346.4438
  26  399.0942
  27  411.4404
  28  479.5695
  29  502.7416
  30  468.1448
  31  467.5261
  32  474.7276
  33  453.9165
  34  517.546
  35  397.1769
  36  378.0694
  37  425.223
  38  469.8425
  39  491.7781
  40  527.6467
  41  477.5954
  42  401.9663
  43  379.6464
  44  466.4329
  45  354.4875
  46  435.7344
  47  330.6178
  48  388.5095
  49  407.8321
  50  367.8828
  51  389.5988
  52  414.0612
  53  525.6537
  54  732.5869
  55  770.5586
  56  955.1124
  57  990.2078
  58  948.0376
  59  833.221
  60  656.7312
  61  505.398
  62  537.0386
  63  497.4709
  64  449.8695
  65  486.463
  66  403.6561
  67  473.4567
  68  568.752
  69  513.1152
  70  403.4833
  71  622.4036
  72  683.5136
  73  590.5669
  74  509.4334
  75  495.5507
  76  468.9813
  77  387.4594
  78  373.6742
  79  464.6661
  80  489.9765
  81  539.3518
  82  439.4372
  83  393.0878
  84  350.2449
  85  444.9581
  86  428.0726
  87  511.0849
  88  493.6489
  89  474.6674
  90  482.3485
  91  368.0486
  92  366.3608
  93  281.1183
  94  202.975
  95  275.532
  96  465.8003
  97  470.1727
  98  368.6095
  99  237.5385
 100  291.6545
 101  389.1627
 102  402.7564
 103  416.8336
 104  360.7769
 105  415.2206
 106  399.6238
 107  254.7971
 108  332.7757
 109  295.8025
 110  264.7299
 111  352.7386
 112  516.9614
 113  516.5612
 114  479.5913
 115  353.7736
 116  342.5795
 117  350.2116
 118  466.9196
 119  611.5694
 120  578.0452
 121  499.9919
 122  484.337
 123  492.2887
 124  431.5005
 125  397.7249
 126  423.0039
 127  387.7977
 128  469.4827
 129  547.1313
 130  511.9406
 131  505.9219
 132  519.2902
 133  476.4028
 134  485.1088
 135  436.9472
 136  473.0539
 137  426.262
 138  533.4759
 139  576.9807
 140  528.9104
 141  430.7599
 142  406.7008
 143  452.0457
 144  538.3013
 145  661.9755
 146  681.4482
 147  574.4702
 148  427.7939
 149  267.8802
 150  296.8307
 151  575.7355
 152  630.7643
 153  606.2854
 154  575.6734
 155  574.1929
 156  416.7816
 157  512.9686
 158  519.8648
 159  490.2896
 160  533.908
 161  572.9203
 162  666.8976
 163  541.3199
 164  344.8534
 165  310.0042
 166  352.4157
 167  522.7114
 168  592.0518
 169  540.3653
 170  511.2387
 171  508.0684
 172  452.2129
 173  379.6755
 174  380.8548
 175  354.1031
 176  233.8043
 177  204.078
 178  397.5766
 179  396.6831
 180  242.6413
 181  232.2839
 182  349.043
 183  336.7578
 184  332.7529
 185  353.8128
 186  407.1523
 187  435.6322
 188  296.6544
 189  248.8873
 190  369.8456
 191  415.6681
 192  420.2348
 193  424.5899
 194  410.5906
 195  458.67
 196  439.4642
 197  399.9503
 198  397.2138
 199  381.6422
 200  389.2574
 201  439.1595
 202  502.2776
 203  553.8793
 204  637.6042
 205  524.5436
 206  402.501
 207  349.2592
 208  327.3276
 209  481.5647
 210  495.8196
 211  481.1767
 212  527.7766
 213  488.9385
 214  548.9025
 215  478.9151
 216  326.9001
 217  425.308
 218  534.8027
 219  558.64
 220  598.4754
 221  527.3575
 222  453.3249
 223  326.5716
 224  385.8835
 225  384.326
 226  470.0588
 227  521.4042
 228  390.9279
 229  431.677
 230  566.1228
 231  474.6985
 232  422.8719
 233  490.9139
 234  564.132
 235  552.7237
 236  557.2968
 237  482.6544
 238  483.356
 239  474.7625
 240  458.7497
 241  527.1048
 242  419.9531
 243  350.6841
 244  365.0978
 245  505.9962
 246  571.9795
 247  479.3137
 248  509.4146
 249  506.2151
 250  476.56
 251  499.6503
 252  593.2528
 253  579.8014
 254  571.0004
 255  438.2351
 256  485.3116
 257  569.2283
 258  484.0864
 259  463.4328
 260  538.3094
 261  495.0551
 262  480.6918
 263  583.6564
 264  560.7086
 265  507.4843
 266  421.0096
 267  490.1574
 268  511.1661
 269  435.8995
 270  534.1263
 271  612.5394
 272  474.5774
 273  494.6857
 274  479.1864
 275  509.9604
 276  521.715
 277  529.4843
 278  519.0519
 279  575.826
 280  618.9272
 281  498.5431
 282  503.1966
 283  524.8749
 284  650.6921
 285  699.128
 286  712.4591
 287  627.0377
 288  464.1228
 289  473.1295
 290  431.6128
 291  504.3517
 292  486.2721
 293  521.9833
 294  515.3318
 295  572.9587
 296  483.1889
 297  489.9946
 298  602.59
 299  570.8553
 300  525.1211
 301  518.2405
 302  558.0332
 303  529.5466
 304  508.9021
 305  451.8389
 306  384.2201
 307  378.7506
 308  415.6969
 309  388.1972
 310  506.167
 311  514.8898
 312  481.9211
 313  523.5102
 314  513.8076
 315  449.3933
 316  336.9142
 317  309.3033
 318  459.0154
 319  499.7355
 320  483.9603
 321  403.3867
 322  419.5583
 323  516.1165
 324  478.7032
 325  227.0084
 326  254.0598
 327  613.1997
 328  573.1467
 329  506.677
 330  431.6093
 331  362.7143
 332  508.8301
 333  435.5779
 334  522.2805
 335  578.0121
 336  539.0291
 337  562.2368
 338  528.1785
 339  432.6138
 340  446.9547
 341  383.4725
 342  349.5807
 343  415.9717
 344  413.8987
 345  424.1516
 346  434.0249
 347  436.7521
 348  312.7133
 349  351.7248
 350  419.8359
 351  484.7048
 352  439.1639
 353  362.5941
 354  418.65
 355  378.2694
 356  369.9347
 357  432.3279
 358  342.0859
 359  445.6808
 360  461.9036
 361  407.7792
 362  451.9342
 363  524.923
 364  379.7446
 365  380.9036
 366  544.4984
 367  584.2477
 368  490.4405
 369  414.4727
 370  332.3882
 371  347.7932
 372  343.4371
 373  420.1109
 374  428.99
 375  426.6595
 376  495.2818
 377  530.8948
 378  489.2713
 379  558.2873
 380  466.3398
 381  417.319
 382  475.5479
 383  465.9963
 384  438.4412
 385  464.4044
 386  501.109
 387  446.0098
 388  367.401
 389  417.4235
 390  251.0311
 391  159.4212
 392  310.7636
 393  442.61
 394  520.3846
 395  479.3784
 396  577.7926
 397  467.7979
 398  363.054
 399  499.892
 400  402.1548
 401  409.1325
 402  614.965
 403  579.3071
 404  410.1113
 405  306.7017
 406  446.4777
 407  468.3919
 408  506.7488
 409  452.0069
 410  472.5518
 411  514.6797
 412  475.2289
 413  509.5719
 414  477.4189
 415  533.9442
 416  506.5366
 417  485.9495
 418  606.4803
 419  522.0389
 420  459.5585
 421  519.5916
 422  477.8071
 423  486.3054
 424  387.1473
 425  474.8379
 426  539.4256
 427  493.1521
 428  402.1208
 429  388.2766
 430  456.1537
 431  520.6711
 432  441.4783
 433  520.3918
 434  542.0882
 435  436.5379
 436  445.1121
 437  525.7138
 438  386.6609
 439  337.8642
 440  376.0619
 441  356.3251
 442  408.4617
 443  397.9321
 444  488.2018
 445  404.6516
 446  323.4309
 447  320.2237
 448  422.007
 449  511.7994
 450  485.8293
 451  386.6951
 452  437.097
 453  553.3771
 454  450.9605
 455  449.7362
 456  396.7251
 457  371.0122
 458  492.967
 459  699.1749
 460  613.5877
 461  529.2734
 462  494.0971
 463  468.1416
 464  357.621
 465  358.3309
 466  506.1547
 467  407.206
 468  425.2489
 469  424.355
 470  492.0573
 471  490.5747
 472  461.0986
 473  271.9429
 474  322.5173
 475  500.048
 476  399.0619
 477  379.9386
 478  417.8505
 479  363.5927
 480  356.66
 481  381.0818
 482  372.7924
 483  412.5091
 484  522.6366
 485  450.1167
 486  402.3995
 487  464.8793
 488  403.3469
 489  364.1772
 490  455.3207
 491  387.8463
 492  473.631
 493  519.2145
 494  459.9095
 495  377.3255
 496  355.1802
 497  318.4245
 498  417.9311
 499  393.8372
 500  600.1154
 501  655.1345
 502  453.7803
 503  463.7121
 504  584.2052
 505  609.754
 506  568.8627
 507  414.4757
 508  378.2866
 509  546.4423
 510  531.1943
 511  463.5187
