# Input file       =  1179403935.110874_cleaned.dat
# Candidate        =  PSR_0332+5434
# Telescope        =  AR
# Epoch_topo       =  57894.508299894376
# Epoch_bary       =  N/A
# T_sample         =  0.002
# Data Folded      =  7340032
# Data Avg         =  0.0201220400870177
# Data StdDev      =  1.00008273384745 
# Profile Bins     =  512
# Profile Avg      =  288.505042945591 
# Profile StdDev   =  119.742942351532 
# Reduced chi-sqr  =  1.306
# Prob(Noise)      <  3.73e-06   (~4.5 sigma)
# P_topo (ms)      =  714.527258311153  +/- 0.000257
# P'_topo (s/s)    =  -0                +/- 1.36e-10
# P''_topo (s/s^2) =  0                 +/- 5.98e-14
# P_bary (ms)      =  N/A
# P'_bary (s/s)    =  N/A
# P''_bary (s/s^2) =  N/A
# P_orb (s)        =  N/A
# asin(i)/c (s)    =  N/A
# eccentricity     =  N/A
# w (rad)          =  N/A
# T_peri           =  N/A
######################################################
   0  868.2316
   1  869.8916
   2  692.5411
   3  440.5706
   4  422.1715
   5  504.3745
   6  414.1524
   7  287.8449
   8  239.7119
   9  225.3624
  10  447.2802
  11  398.6619
  12  367.4244
  13  413.9536
  14  434.662
  15  331.4116
  16  350.3375
  17  280.3226
  18  305.543
  19  452.8871
  20  419.5829
  21  399.9673
  22  428.9729
  23  444.8317
  24  326.9754
  25  320.3036
  26  410.6529
  27  314.7065
  28  189.7339
  29  259.568
  30  234.4263
  31  294.7729
  32  369.1252
  33  366.4639
  34  461.2171
  35  352.4607
  36  409.5827
  37  432.1439
  38  362.5987
  39  336.8369
  40  304.2537
  41  223.1227
  42  158.5487
  43  203.1781
  44  110.0869
  45  219.9905
  46  305.4689
  47  215.8052
  48  189.2204
  49  174.9944
  50  296.4571
  51  416.8329
  52  353.5114
  53  316.8716
  54  342.4167
  55  312.5254
  56  348.2506
  57  393.0353
  58  433.8687
  59  403.5569
  60  366.7489
  61  280.1857
  62  269.9187
  63  305.2953
  64  323.1022
  65  307.274
  66  194.654
  67  230.8093
  68  291.4708
  69  285.2177
  70  291.978
  71  251.8017
  72  365.484
  73  322.4051
  74  333.3968
  75  336.7071
  76  337.5633
  77  292.3082
  78  332.6323
  79  421.4811
  80  340.0274
  81  228.0601
  82  174.8043
  83  276.116
  84  306.3856
  85  388.1308
  86  361.7262
  87  263.4992
  88  246.2242
  89  313.0419
  90  260.0372
  91  281.5624
  92  290.0206
  93  215.2826
  94  237.2978
  95  242.2669
  96  254.6327
  97  316.6454
  98  286.1105
  99  373.6319
 100  404.337
 101  238.8706
 102  313.4911
 103  266.5893
 104  299.1501
 105  307.7467
 106  295.0645
 107  240.9573
 108  264.1711
 109  255.2545
 110  319.6335
 111  304.4668
 112  392.3272
 113  348.9472
 114  177.4016
 115  121.8219
 116  182.6241
 117  254.9007
 118  199.8179
 119  119.204
 120  186.6609
 121  182.1176
 122  114.3845
 123  236.3539
 124  152.0334
 125  113.7986
 126  126.7818
 127  114.7883
 128  147.2228
 129  118.7101
 130  144.2774
 131  142.6028
 132  299.1636
 133  113.0914
 134  26.08124
 135  46.41272
 136  145.4332
 137  403.4733
 138  341.8322
 139  189.5846
 140  113.0009
 141  286.2108
 142  361.5149
 143  192.2503
 144  160.053
 145  193.4014
 146  224.9151
 147  195.5969
 148  225.5177
 149  303.9155
 150  341.3827
 151  206.9642
 152  172.6388
 153  277.5548
 154  259.6796
 155  229.8451
 156  234.5612
 157  287.208
 158  349.3759
 159  205.4612
 160  311.8364
 161  304.9409
 162  231.4486
 163  255.4131
 164  223.9351
 165  231.0891
 166  223.5147
 167  346.2708
 168  371.7298
 169  207.2476
 170  269.0506
 171  253.708
 172  295.6971
 173  313.5811
 174  293.172
 175  242.8342
 176  153.1151
 177  235.5404
 178  342.5892
 179  306.2337
 180  226.9401
 181  370.2835
 182  449.0145
 183  328.4589
 184  148.3087
 185  199.5443
 186  265.9989
 187  343.197
 188  334.7511
 189  326.1545
 190  286.0344
 191  442.057
 192  458.2155
 193  394.7777
 194  424.3906
 195  369.3941
 196  321.8367
 197  357.9351
 198  289.8557
 199  212.3995
 200  264.4884
 201  344.5121
 202  218.9332
 203  222.3816
 204  218.8555
 205  269.3496
 206  328.9334
 207  309.1757
 208  285.0872
 209  321.7619
 210  410.4277
 211  369.7186
 212  322.5852
 213  257.8302
 214  147.3408
 215  267.8462
 216  305.5294
 217  316.5767
 218  303.2231
 219  326.065
 220  236.3098
 221  152.9129
 222  166.5804
 223  320.0226
 224  282.7927
 225  232.1583
 226  360.3786
 227  458.5724
 228  370.8927
 229  259.7364
 230  243.5871
 231  232.4489
 232  175.7089
 233  267.7225
 234  348.0565
 235  294.0141
 236  241.7913
 237  260.4836
 238  237.0754
 239  384.6943
 240  406.6862
 241  343.1972
 242  306.8583
 243  357.144
 244  287.8657
 245  212.9222
 246  273.2583
 247  281.67
 248  315.2449
 249  335.2702
 250  270.4221
 251  185.4351
 252  111.2021
 253  231.6538
 254  273.602
 255  343.4385
 256  313.2744
 257  178.5459
 258  345.1149
 259  351.7379
 260  371.6537
 261  363.6811
 262  396.2376
 263  385.4145
 264  340.6703
 265  337.2883
 266  282.0714
 267  319.8513
 268  289.5952
 269  220.4033
 270  229.7498
 271  334.3036
 272  471.0432
 273  359.1325
 274  294.2692
 275  239.6247
 276  297.8994
 277  349.8521
 278  324.3643
 279  256.6446
 280  294.6377
 281  329.4502
 282  392.5895
 283  381.204
 284  392.0208
 285  400.5298
 286  414.7132
 287  283.6727
 288  327.8615
 289  221.2724
 290  129.0573
 291  270.2038
 292  344.9709
 293  314.1997
 294  348.4372
 295  303.8378
 296  177.516
 297  177.0126
 298  177.3185
 299  225.1634
 300  236.3335
 301  336.65
 302  278.4754
 303  403.8092
 304  338.941
 305  242.6974
 306  314.6337
 307  376.1841
 308  294.1555
 309  199.1411
 310  136.5274
 311  189.5377
 312  309.8839
 313  414.6314
 314  282.7106
 315  117.9208
 316  171.3536
 317  301.8309
 318  274.5966
 319  336.479
 320  455.397
 321  237.6417
 322  340.1916
 323  284.5016
 324  219.599
 325  200.0428
 326  208.0452
 327  190.1753
 328  287.7838
 329  310.1271
 330  249.5494
 331  231.8046
 332  271.0321
 333  210.6237
 334  180.3078
 335  288.6042
 336  168.882
 337  240.2415
 338  238.0769
 339  254.6229
 340  223.8979
 341  275.298
 342  217.5725
 343  183.7327
 344  252.8358
 345  290.0916
 346  291.1899
 347  323.5134
 348  172.5685
 349  81.911
 350  102.4035
 351  195.5202
 352  195.6355
 353  217.0404
 354  285.0468
 355  236.6295
 356  155.5773
 357  301.3319
 358  313.5459
 359  308.2379
 360  298.2181
 361  309.4006
 362  277.9153
 363  279.8936
 364  162.1178
 365  178.6858
 366  222.908
 367  213.7603
 368  122.6477
 369  91.57143
 370  170.9462
 371  151.2639
 372  195.6459
 373  187.5677
 374  198.6845
 375  221.788
 376  221.144
 377  278.7473
 378  272.6483
 379  407.4554
 380  305.962
 381  111.0503
 382  306.2341
 383  373.6343
 384  350.7332
 385  290.655
 386  306.612
 387  360.0038
 388  150.6272
 389  56.59345
 390  235.0697
 391  150.5196
 392  125.558
 393  275.6359
 394  226.1782
 395  193.9326
 396  282.4808
 397  149.1588
 398  197.0937
 399  260.0718
 400  351.6738
 401  329.2326
 402  153.8699
 403  225.689
 404  354.7631
 405  319.5591
 406  295.9183
 407  232.4235
 408  231.3241
 409  267.2067
 410  338.8831
 411  257.0807
 412  270.9354
 413  275.8292
 414  348.8956
 415  328.7777
 416  363.9604
 417  318.1801
 418  359.3916
 419  383.8809
 420  357.2528
 421  368.8845
 422  272.79
 423  124.1791
 424  344.9422
 425  386.1896
 426  246.965
 427  347.9289
 428  430.7868
 429  504.224
 430  282.7217
 431  450.6038
 432  388.8192
 433  347.9577
 434  357.7646
 435  256.3015
 436  67.22534
 437  189.9455
 438  206.5789
 439  159.1249
 440  72.07867
 441  219.0211
 442  239.6207
 443  398.9812
 444  266.6353
 445  306.9787
 446  314.2563
 447  241.2408
 448  355.2907
 449  308.8746
 450  301.6373
 451  306.2413
 452  224.8281
 453  289.8709
 454  329.2275
 455  342.7212
 456  356.7702
 457  409.0714
 458  454.2371
 459  377.339
 460  356.4524
 461  359.4426
 462  227.3354
 463  282.8953
 464  230.2507
 465  236.8649
 466  184.7547
 467  262.5498
 468  312.7493
 469  287.0206
 470  255.6545
 471  387.5884
 472  367.1938
 473  253.7397
 474  141.655
 475  310.4771
 476  397.4297
 477  230.2795
 478  198.1375
 479  281.8045
 480  271.6798
 481  486.7415
 482  443.3764
 483  305.0876
 484  275.8284
 485  298.192
 486  205.6674
 487  167.6465
 488  145.2223
 489  186.1236
 490  266.9054
 491  322.8151
 492  247.4003
 493  342.1252
 494  429.9332
 495  387.5888
 496  388.6236
 497  353.8663
 498  370.4041
 499  392.5251
 500  358.3276
 501  312.2014
 502  294.0257
 503  280.6312
 504  272.3594
 505  346.5693
 506  413.3422
 507  362.0669
 508  283.0179
 509  525.3538
 510  699.4851
 511  817.6116
