# Input file       =  1179576297.103387_cleaned.dat
# Candidate        =  PSR_0332+5434
# Telescope        =  AR
# Epoch_topo       =  57896.503230363276
# Epoch_bary       =  N/A
# T_sample         =  0.002
# Data Folded      =  7340032
# Data Avg         =  0.0222328890542503
# Data StdDev      =  1.00007400067253 
# Profile Bins     =  512
# Profile Avg      =  318.710884398296 
# Profile StdDev   =  119.741896701983 
# Reduced chi-sqr  =  1.054
# Prob(Noise)      <  0.192   (~0.9 sigma)
# P_topo (ms)      =  714.525293752505  +/- 0.000228
# P'_topo (s/s)    =  -0                +/- 1.2e-10
# P''_topo (s/s^2) =  0                 +/- 5.32e-14
# P_bary (ms)      =  N/A
# P'_bary (s/s)    =  N/A
# P''_bary (s/s^2) =  N/A
# P_orb (s)        =  N/A
# asin(i)/c (s)    =  N/A
# eccentricity     =  N/A
# w (rad)          =  N/A
# T_peri           =  N/A
######################################################
   0  267.8676
   1  199.9529
   2  319.4999
   3  218.7592
   4  305.8483
   5  332.4867
   6  397.1385
   7  251.0794
   8  296.3278
   9  274.436
  10  300.751
  11  272.0306
  12  279.5804
  13  342.7329
  14  300.8661
  15  311.2902
  16  285.7964
  17  292.7414
  18  350.8786
  19  456.2653
  20  427.0559
  21  435.2197
  22  558.7236
  23  543.5318
  24  449.526
  25  448.0427
  26  423.9918
  27  309.9934
  28  383.2628
  29  419.15
  30  389.1668
  31  276.6709
  32  453.2705
  33  302.8779
  34  156.0962
  35  242.7934
  36  416.1983
  37  303.0535
  38  204.9602
  39  216.4812
  40  262.247
  41  389.3955
  42  498.1747
  43  404.4804
  44  497.2148
  45  539.9567
  46  373.8072
  47  426.2095
  48  391.4739
  49  366.7333
  50  276.9554
  51  424.4249
  52  390.7001
  53  425.1716
  54  369.5737
  55  336.6764
  56  290.1269
  57  415.9185
  58  394.2403
  59  366.9653
  60  346.4936
  61  369.6227
  62  354.0039
  63  266.8408
  64  276.4528
  65  370.4374
  66  335.6907
  67  285.4507
  68  392.5682
  69  394.2706
  70  275.0506
  71  324.8171
  72  304.7619
  73  247.6118
  74  314.4026
  75  314.3706
  76  304.4374
  77  394.6144
  78  375.1502
  79  299.0243
  80  355.2029
  81  379.3045
  82  231.8612
  83  252.6244
  84  294.5607
  85  240.8863
  86  319.7028
  87  287.7071
  88  321.8409
  89  345.1378
  90  422.4724
  91  400.918
  92  324.9031
  93  348.8247
  94  250.7357
  95  328.8402
  96  384.3734
  97  303.6916
  98  436.7812
  99  458.7397
 100  479.1998
 101  357.588
 102  317.5336
 103  332.0757
 104  346.1097
 105  439.4256
 106  389.0634
 107  381.2812
 108  261.3564
 109  175.1089
 110  377.7297
 111  465.1326
 112  347.5842
 113  235.8617
 114  223.9213
 115  297.3503
 116  270.1455
 117  145.0258
 118  185.6485
 119  258.5908
 120  274.5105
 121  270.5382
 122  351.9554
 123  328.0705
 124  438.179
 125  365.8273
 126  329.5936
 127  323.2329
 128  334.2157
 129  262.7184
 130  289.747
 131  267.1755
 132  320.712
 133  398.2669
 134  362.1047
 135  307.5596
 136  331.8069
 137  227.2915
 138  228.3722
 139  285.1116
 140  327.7458
 141  358.6187
 142  287.1994
 143  190.5467
 144  241.8027
 145  436.7378
 146  295.3431
 147  269.7614
 148  239.9794
 149  241.7581
 150  279.7467
 151  380.7519
 152  414.866
 153  325.9166
 154  196.4403
 155  322.0551
 156  238.3954
 157  231.9195
 158  306.7292
 159  334.6169
 160  333.9834
 161  191.6866
 162  241.8936
 163  368.738
 164  222.4702
 165  230.3713
 166  269.9189
 167  282.6945
 168  387.9152
 169  306.5929
 170  197.585
 171  265.3092
 172  266.699
 173  382.5872
 174  486.6152
 175  398.9078
 176  383.2172
 177  394.647
 178  311.3949
 179  326.7786
 180  275.0832
 181  311.998
 182  388.9071
 183  329.0319
 184  395.7321
 185  318.9969
 186  284.9745
 187  392.1028
 188  361.0506
 189  361.1356
 190  470.408
 191  379.6678
 192  288.402
 193  169.0243
 194  286.0379
 195  429.0829
 196  351.7568
 197  341.2474
 198  389.2979
 199  418.5619
 200  330.5081
 201  338.0277
 202  344.0107
 203  335.5065
 204  360.84
 205  314.8438
 206  399.8813
 207  487.0758
 208  457.8128
 209  330.7972
 210  263.9379
 211  358.7141
 212  353.7892
 213  196.4582
 214  308.0021
 215  370.122
 216  353.577
 217  295.0882
 218  227.7814
 219  336.0803
 220  300.789
 221  362.6727
 222  341.3945
 223  276.2334
 224  257.2081
 225  293.6339
 226  192.7579
 227  272.2486
 228  323.9658
 229  219.9704
 230  211.059
 231  342.3449
 232  293.7796
 233  422.5938
 234  399.2376
 235  346.7718
 236  383.2901
 237  316.791
 238  269.6596
 239  262.4171
 240  339.739
 241  366.9423
 242  116.4494
 243  194.288
 244  225.1289
 245  173.5751
 246  231.8454
 247  249.0993
 248  208.3978
 249  191.0732
 250  214.9552
 251  291.8819
 252  109.5436
 253  197.7043
 254  342.8882
 255  273.7953
 256  267.2678
 257  317.4672
 258  455.7852
 259  430.5695
 260  381.5094
 261  240.7344
 262  198.5435
 263  250.7518
 264  227.5852
 265  264.1679
 266  294.406
 267  329.3483
 268  217.3829
 269  203.4112
 270  374.8596
 271  335.5588
 272  333.2745
 273  362.8077
 274  325.0014
 275  339.0819
 276  250.8179
 277  386.6458
 278  404.1656
 279  390.0453
 280  328.075
 281  356.4721
 282  454.7233
 283  389.1026
 284  544.5415
 285  552.2881
 286  713.4011
 287  762.9888
 288  814.5963
 289  737.4
 290  547.3994
 291  363.6848
 292  258.9468
 293  248.6169
 294  372.9953
 295  377.3944
 296  442.9697
 297  352.2274
 298  308.2445
 299  341.6427
 300  351.798
 301  354.3115
 302  258.2306
 303  269.5751
 304  242.3658
 305  359.4822
 306  355.375
 307  301.9557
 308  273.6085
 309  220.519
 310  266.4255
 311  215.739
 312  259.8318
 313  282.9148
 314  317.6394
 315  275.1339
 316  334.0456
 317  315.3255
 318  258.7047
 319  201.3351
 320  146.0509
 321  173.0784
 322  159.5943
 323  138.2846
 324  241.06
 325  196.9237
 326  181.7129
 327  320.0332
 328  363.7984
 329  180.3808
 330  44.38094
 331  176.7774
 332  234.6745
 333  267.3933
 334  342.7105
 335  338.4764
 336  300.422
 337  308.73
 338  201.1364
 339  230.2381
 340  167.8689
 341  142.0805
 342  239.5979
 343  285.4922
 344  189.259
 345  223.8931
 346  366.5547
 347  384.2986
 348  252.6079
 349  257.3756
 350  262.5317
 351  344.765
 352  355.8238
 353  371.8756
 354  404.6286
 355  370.0735
 356  284.6321
 357  385.2722
 358  318.8518
 359  312.2361
 360  210.7037
 361  284.7704
 362  197.8361
 363  304.5778
 364  304.1824
 365  306.1891
 366  303.557
 367  276.8015
 368  350.853
 369  455.9847
 370  386.4137
 371  414.614
 372  408.317
 373  479.6554
 374  400.5632
 375  344.7588
 376  322.1487
 377  189.5152
 378  146.2867
 379  304.5297
 380  259.9945
 381  237.5529
 382  279.7126
 383  393.0345
 384  373.5407
 385  339.8905
 386  386.2633
 387  334.79
 388  484.5378
 389  425.2307
 390  428.6479
 391  296.7977
 392  323.3704
 393  286.7876
 394  203.6562
 395  344.5023
 396  336.9766
 397  517.5222
 398  468.7363
 399  385.3034
 400  351.3511
 401  360.5872
 402  357.2504
 403  370.8661
 404  324.3369
 405  294.9305
 406  301.2698
 407  341.4323
 408  297.7817
 409  342.5659
 410  363.0194
 411  305.8711
 412  210.6266
 413  219.7112
 414  171.6501
 415  266.6433
 416  224.7104
 417  242.478
 418  379.4519
 419  314.6115
 420  164.5608
 421  289.1074
 422  285.2252
 423  181.8649
 424  158.9848
 425  167.0187
 426  261.226
 427  327.3875
 428  242.553
 429  208.8646
 430  236.5827
 431  233.3373
 432  216.3237
 433  220.0839
 434  243.2347
 435  201.6599
 436  203.809
 437  305.9037
 438  274.9962
 439  249.4306
 440  266.2168
 441  125.2504
 442  228.8672
 443  300.1862
 444  340.1335
 445  315.968
 446  220.9367
 447  243.7058
 448  301.688
 449  319.7935
 450  320.7817
 451  319.3481
 452  354.6614
 453  384.929
 454  271.9867
 455  187.9907
 456  294.8956
 457  340.2001
 458  439.3995
 459  400.8153
 460  304.9984
 461  370.2566
 462  327.8496
 463  311.6048
 464  376.1752
 465  367.2513
 466  405.3644
 467  351.6715
 468  296.4279
 469  377.5451
 470  276.3055
 471  271.0182
 472  332.5058
 473  192.6127
 474  270.9787
 475  356.6549
 476  360.8161
 477  365.3935
 478  362.0091
 479  335.5003
 480  428.9254
 481  331.9219
 482  321.6692
 483  367.8845
 484  284.4155
 485  217.7785
 486  241.793
 487  438.1471
 488  459.8305
 489  423.7089
 490  393.3296
 491  332.9358
 492  276.8821
 493  330.1482
 494  274.3838
 495  271.1855
 496  322.0518
 497  288.5602
 498  295.6873
 499  432.4918
 500  378.9399
 501  398.941
 502  307.3855
 503  394.1349
 504  373.4752
 505  288.0847
 506  163.1099
 507  331.4206
 508  351.2447
 509  249.0557
 510  262.38
 511  349.0176
