# Input file       =  1179460511.106845_cleaned.dat
# Candidate        =  PSR_0332+5434
# Telescope        =  AR
# Epoch_topo       =  57895.163114662559
# Epoch_bary       =  N/A
# T_sample         =  0.002
# Data Folded      =  7208960
# Data Avg         =  0.0326435599243474
# Data StdDev      =  1.00003793896173 
# Profile Bins     =  512
# Profile Avg      =  459.622521219731 
# Profile StdDev   =  118.66367759946  
# Reduced chi-sqr  =  1.009
# Prob(Noise)      <  0.433   (~0.2 sigma)
# P_topo (ms)      =  714.52627108255   +/- 0.000178
# P'_topo (s/s)    =  -0                +/- 9.54e-11
# P''_topo (s/s^2) =  0                 +/- 4.29e-14
# P_bary (ms)      =  N/A
# P'_bary (s/s)    =  N/A
# P''_bary (s/s^2) =  N/A
# P_orb (s)        =  N/A
# asin(i)/c (s)    =  N/A
# eccentricity     =  N/A
# w (rad)          =  N/A
# T_peri           =  N/A
######################################################
   0  935.605
   1  927.8951
   2  794.2636
   3  708.4714
   4  534.1738
   5  419.4548
   6  464.4537
   7  434.6436
   8  418.2496
   9  496.7099
  10  433.3889
  11  392.7277
  12  452.2462
  13  457.4308
  14  409.4598
  15  518.5051
  16  516.5997
  17  510.025
  18  499.9051
  19  385.0667
  20  463.1973
  21  447.4094
  22  404.3638
  23  472.1107
  24  524.6871
  25  433.4473
  26  431.3017
  27  437.2112
  28  421.9577
  29  356.0284
  30  407.3931
  31  566.5703
  32  516.4086
  33  350.8936
  34  482.7106
  35  545.2231
  36  494.586
  37  479.2339
  38  472.5752
  39  531.4915
  40  519.1343
  41  520.3788
  42  492.3366
  43  466.2829
  44  416.8504
  45  367.4788
  46  438.1838
  47  423.2563
  48  388.3289
  49  390.8661
  50  465.8864
  51  425.1192
  52  474.2142
  53  351.2282
  54  265.2473
  55  375.0047
  56  424.0106
  57  423.003
  58  521.7617
  59  540.3011
  60  452.0422
  61  373.3439
  62  391.8719
  63  388.9619
  64  509.2791
  65  482.4511
  66  498.3762
  67  453.4052
  68  398.1165
  69  437.8171
  70  496.025
  71  490.8556
  72  543.0027
  73  498.327
  74  505.3431
  75  393.1115
  76  459.5856
  77  540.1803
  78  521.9523
  79  463.545
  80  502.8146
  81  473.9029
  82  462.1047
  83  548.6607
  84  504.8539
  85  390.1123
  86  513.4699
  87  403.2493
  88  403.8542
  89  421.1961
  90  451.3486
  91  440.1104
  92  472.0204
  93  485.224
  94  522.0475
  95  543.6375
  96  419.2923
  97  461.1635
  98  549.981
  99  457.6727
 100  487.9634
 101  414.2355
 102  476.6051
 103  464.4577
 104  529.4423
 105  571.5211
 106  514.3033
 107  502.1965
 108  438.9454
 109  408.8258
 110  448.4422
 111  447.3308
 112  385.4967
 113  462.3864
 114  475.8177
 115  535.1449
 116  382.5468
 117  261.6646
 118  299.7918
 119  257.0738
 120  406.4512
 121  418.7643
 122  426.7056
 123  416.6262
 124  362.8647
 125  437.9976
 126  402.7102
 127  366.8044
 128  371.9901
 129  367.7122
 130  535.711
 131  394.415
 132  430.299
 133  365.2033
 134  361.5221
 135  385.4304
 136  368.4693
 137  452.7802
 138  379.8145
 139  421.025
 140  441.4958
 141  405.1076
 142  490.0448
 143  481.7073
 144  382.1634
 145  535.4069
 146  513.4492
 147  527.0603
 148  509.3317
 149  460.1519
 150  374.1931
 151  442.8361
 152  485.0455
 153  443.6435
 154  395.1774
 155  471.3323
 156  345.3836
 157  407.9457
 158  429.1948
 159  342.4994
 160  534.5439
 161  425.5439
 162  422.1387
 163  521.639
 164  464.7038
 165  379.3187
 166  306.9973
 167  351.199
 168  405.6268
 169  370.3575
 170  504.0819
 171  528.6063
 172  593.6579
 173  549.6675
 174  405.1093
 175  361.4169
 176  447.0903
 177  524.4738
 178  481.3735
 179  437.345
 180  362.4764
 181  416.968
 182  413.3197
 183  352.0102
 184  460.9723
 185  496.7941
 186  492.4861
 187  471.4211
 188  536.2838
 189  395.8783
 190  320.9074
 191  319.7106
 192  365.3825
 193  326.0309
 194  349.3705
 195  391.3788
 196  486.6118
 197  552.4266
 198  455.2587
 199  434.7873
 200  407.7166
 201  427.6141
 202  465.6124
 203  528.1213
 204  589.8215
 205  542.5927
 206  549.0525
 207  425.9438
 208  496.342
 209  403.0513
 210  334.5208
 211  469.0894
 212  451.3685
 213  520.2582
 214  476.8759
 215  472.5594
 216  510.6664
 217  501.3437
 218  420.5218
 219  485.7097
 220  535.8263
 221  555.4434
 222  439.3999
 223  470.015
 224  513.3177
 225  399.6923
 226  369.6504
 227  410.5108
 228  423.6615
 229  503.4304
 230  562.455
 231  419.6749
 232  405.2816
 233  434.161
 234  494.1711
 235  468.5708
 236  484.6203
 237  481.9808
 238  510.6103
 239  416.8525
 240  319.7648
 241  354.4179
 242  440.9117
 243  429.2831
 244  369.7605
 245  390.9687
 246  382.3802
 247  360.5406
 248  423.7616
 249  360.4836
 250  403.9115
 251  490.8076
 252  484.5068
 253  520.9616
 254  456.2568
 255  461.1567
 256  380.455
 257  429.6926
 258  435.591
 259  350.5366
 260  459.0721
 261  404.5986
 262  315.2529
 263  471.0594
 264  476.6224
 265  331.0314
 266  332.5253
 267  369.3166
 268  413.3753
 269  558.4035
 270  475.312
 271  520.03
 272  505.2845
 273  425.8668
 274  397.1439
 275  431.315
 276  459.2079
 277  459.8936
 278  490.8245
 279  480.2141
 280  484.508
 281  375.8369
 282  433.3217
 283  486.2469
 284  536.6382
 285  511.2627
 286  496.4468
 287  501.5303
 288  578.4776
 289  610.6492
 290  527.9438
 291  464.201
 292  439.5385
 293  503.9055
 294  553.9034
 295  489.7704
 296  442.9265
 297  444.8228
 298  360.0492
 299  354.2981
 300  454.9789
 301  531.7072
 302  464.3511
 303  468.3989
 304  501.4755
 305  420.9758
 306  443.4892
 307  430.621
 308  402.2133
 309  353.5748
 310  344.9247
 311  509.1764
 312  536.6075
 313  670.8414
 314  500.8951
 315  430.1928
 316  384.2004
 317  374.1796
 318  357.3914
 319  389.789
 320  467.7851
 321  478.9926
 322  476.9808
 323  406.5379
 324  417.5135
 325  434.9615
 326  427.6077
 327  329.3852
 328  458.413
 329  442.7529
 330  445.8923
 331  438.9521
 332  323.4494
 333  444.504
 334  478.2697
 335  399.5353
 336  321.1136
 337  453.6895
 338  466.2985
 339  527.4078
 340  495.1806
 341  508.9179
 342  537.1516
 343  559.3746
 344  600.7268
 345  532.5537
 346  555.5518
 347  494.4527
 348  483.7288
 349  541.5795
 350  639.4507
 351  563.5197
 352  416.8083
 353  518.0827
 354  493.7859
 355  542.4273
 356  468.9441
 357  343.3057
 358  487.9775
 359  600.214
 360  545.2167
 361  462.0303
 362  530.2684
 363  527.6162
 364  481.959
 365  443.4292
 366  421.94
 367  512.0264
 368  486.1929
 369  511.6936
 370  507.1717
 371  472.5302
 372  395.6729
 373  377.907
 374  312.8698
 375  463.4536
 376  520.3776
 377  514.6927
 378  460.8488
 379  524.074
 380  500.3737
 381  463.1523
 382  585.5978
 383  647.4604
 384  563.2952
 385  584.0629
 386  695.3395
 387  657.5085
 388  578.0078
 389  551.64
 390  583.7109
 391  544.1065
 392  578.0403
 393  680.4593
 394  604.6638
 395  610.7661
 396  618.6658
 397  611.0541
 398  567.8334
 399  546.7031
 400  506.9178
 401  577.3247
 402  564.0651
 403  594.2538
 404  521.7197
 405  452.3213
 406  398.6253
 407  457.0784
 408  541.589
 409  489.7487
 410  469.4172
 411  449.0617
 412  389.482
 413  449.0729
 414  379.3726
 415  450.1682
 416  451.8637
 417  391.334
 418  296.3459
 419  340.5084
 420  573.3416
 421  544.3404
 422  480.2921
 423  475.9537
 424  439.8336
 425  401.5316
 426  276.3114
 427  278.8433
 428  383.6474
 429  375.3461
 430  437.9279
 431  417.2801
 432  391.9387
 433  391.0951
 434  391.6385
 435  377.8238
 436  364.0511
 437  517.8588
 438  513.3972
 439  524.1451
 440  397.9094
 441  327.0456
 442  334.8215
 443  380.5107
 444  579.7339
 445  553.4274
 446  472.0212
 447  341.0666
 448  345.6172
 449  349.4952
 450  309.6418
 451  407.6228
 452  588.3812
 453  496.7192
 454  554.086
 455  439.2958
 456  437.9104
 457  404.2247
 458  469.7464
 459  452.2572
 460  370.3065
 461  332.893
 462  458.2439
 463  387.6417
 464  443.0622
 465  464.951
 466  405.9923
 467  331.7496
 468  363.8581
 469  468.6139
 470  499.4027
 471  520.7735
 472  503.5399
 473  466.7303
 474  461.6463
 475  338.3421
 476  399.8537
 477  412.8795
 478  327.6317
 479  295.8977
 480  413.1884
 481  457.3845
 482  450.3195
 483  490.7829
 484  596.9021
 485  522.9052
 486  404.4056
 487  449.2935
 488  446.4656
 489  512.6426
 490  450.9048
 491  441.5106
 492  363.594
 493  430.4732
 494  549.4163
 495  432.4267
 496  354.1338
 497  449.2475
 498  416.6811
 499  343.7209
 500  317.2023
 501  357.5578
 502  419.791
 503  421.5298
 504  504.1569
 505  481.1841
 506  509.9034
 507  487.1205
 508  577.0242
 509  755.3954
 510  817.2843
 511  947.4297
