# Input file       =  1179561381.09626_cleaned.dat
# Candidate        =  PSR_0332+5434
# Telescope        =  AR
# Epoch_topo       =  57896.330591391896
# Epoch_bary       =  N/A
# T_sample         =  0.002
# Data Folded      =  7340032
# Data Avg         =  0.0283310710027847
# Data StdDev      =  1.00002850291826 
# Profile Bins     =  512
# Profile Avg      =  406.118774731257 
# Profile StdDev   =  119.736449117715 
# Reduced chi-sqr  =  0.940
# Prob(Noise)      <  0.832   (~0.0 sigma)
# P_topo (ms)      =  714.525129580594  +/- 0.000457
# P'_topo (s/s)    =  -0                +/- 2.41e-10
# P''_topo (s/s^2) =  0                 +/- 1.06e-13
# P_bary (ms)      =  N/A
# P'_bary (s/s)    =  N/A
# P''_bary (s/s^2) =  N/A
# P_orb (s)        =  N/A
# asin(i)/c (s)    =  N/A
# eccentricity     =  N/A
# w (rad)          =  N/A
# T_peri           =  N/A
######################################################
   0  930.0668
   1  824.7609
   2  663.4647
   3  575.4644
   4  420.6487
   5  435.587
   6  490.957
   7  382.5488
   8  323.9307
   9  427.1988
  10  417.0378
  11  454.8288
  12  416.2238
  13  425.288
  14  384.857
  15  477.9047
  16  510.0845
  17  463.6804
  18  509.6595
  19  525.1894
  20  427.6342
  21  424.301
  22  484.7327
  23  417.2884
  24  396.1
  25  400.6468
  26  354.5599
  27  390.9665
  28  348.4767
  29  266.1795
  30  283.7238
  31  397.1318
  32  425.5743
  33  447.1767
  34  501.9411
  35  380.2808
  36  411.1304
  37  348.2785
  38  357.8529
  39  394.8695
  40  458.7603
  41  524.8463
  42  464.6506
  43  319.9937
  44  432.9826
  45  453.4125
  46  466.1283
  47  543.2767
  48  447.0451
  49  440.6536
  50  373.3089
  51  413.3711
  52  508.9864
  53  516.6777
  54  403.5405
  55  402.8045
  56  359.8983
  57  350.5125
  58  372.814
  59  416.0402
  60  346.7067
  61  416.7533
  62  318.9514
  63  288.4517
  64  318.1896
  65  409.1105
  66  447.3648
  67  494.9227
  68  457.1261
  69  440.6731
  70  422.3126
  71  451.2657
  72  398.0778
  73  349.2427
  74  495.1642
  75  406.649
  76  462.9988
  77  485.0216
  78  471.9258
  79  507.8733
  80  406.365
  81  362.6445
  82  408.4256
  83  497.0151
  84  459.646
  85  465.0082
  86  549.232
  87  416.648
  88  384.5787
  89  387.0869
  90  411.5857
  91  380.6063
  92  350.0974
  93  352.7923
  94  442.9389
  95  455.4619
  96  419.8065
  97  545.8278
  98  532.1479
  99  465.1685
 100  389.4454
 101  396.0312
 102  423.2845
 103  335.34
 104  430.9688
 105  354.1347
 106  348.8347
 107  456.9083
 108  528.7137
 109  505.3165
 110  475.0803
 111  476.506
 112  472.0209
 113  390.1419
 114  395.2816
 115  372.3521
 116  333.3963
 117  317.2254
 118  231.661
 119  283.533
 120  299.0971
 121  350.0429
 122  343.8016
 123  421.2935
 124  431.8915
 125  272.3878
 126  336.6101
 127  330.0041
 128  381.9415
 129  384.4546
 130  437.5295
 131  574.2767
 132  471.147
 133  385.9444
 134  405.852
 135  450.5254
 136  302.4779
 137  267.1324
 138  387.4377
 139  455.8856
 140  343.3755
 141  342.3113
 142  415.3908
 143  401.3336
 144  298.0714
 145  304.5182
 146  353.4123
 147  379.379
 148  391.9678
 149  429.8272
 150  367.6988
 151  289.451
 152  294.3829
 153  442.6109
 154  477.4351
 155  439.112
 156  367.7674
 157  398.6322
 158  391.1664
 159  335.3386
 160  440.1659
 161  364.9675
 162  385.2269
 163  403.5136
 164  447.0947
 165  381.0034
 166  361.731
 167  409.5298
 168  374.0234
 169  422.9194
 170  477.2618
 171  407.2187
 172  353.7632
 173  447.4609
 174  508.7714
 175  521.9185
 176  488.6886
 177  418.7564
 178  282.1924
 179  386.3533
 180  440.3858
 181  440.0869
 182  424.0096
 183  422.1135
 184  449.2998
 185  418.5299
 186  377.3464
 187  362.3744
 188  339.3697
 189  394.3746
 190  461.5428
 191  358.0792
 192  403.6793
 193  540.4331
 194  476.7519
 195  409.9807
 196  409.7852
 197  431.5108
 198  343.4662
 199  349.5498
 200  324.6472
 201  199.4113
 202  381.6176
 203  510.6969
 204  338.6494
 205  222.7152
 206  302.0327
 207  371.5217
 208  380.836
 209  427.2361
 210  393.2178
 211  387.7872
 212  394.8463
 213  380.0013
 214  437.7079
 215  346.2091
 216  337.2404
 217  378.5275
 218  258.7
 219  248.5318
 220  346.3905
 221  431.1706
 222  460.2531
 223  379.4424
 224  417.0816
 225  464.874
 226  478.129
 227  653.0288
 228  506.0161
 229  398.6059
 230  411.0362
 231  394.2959
 232  353.1255
 233  394.8501
 234  378.0208
 235  432.7205
 236  486.691
 237  445.393
 238  468.4011
 239  427.9756
 240  461.7498
 241  355.2857
 242  320.6773
 243  489.1109
 244  485.9645
 245  440.0156
 246  378.5133
 247  441.4185
 248  473.7113
 249  504.7129
 250  464.5773
 251  390.6251
 252  450.208
 253  427.0596
 254  488.02
 255  558.8174
 256  499.3905
 257  515.2026
 258  451.5294
 259  515.7684
 260  385.869
 261  486.5164
 262  632.5265
 263  350.4295
 264  393.771
 265  535.6887
 266  528.1572
 267  449.8903
 268  388.6713
 269  349.8082
 270  469.7969
 271  399.7235
 272  417.0113
 273  506.4581
 274  458.4437
 275  374.1838
 276  498.6466
 277  442.2315
 278  490.2985
 279  465.4237
 280  351.8585
 281  318.0636
 282  326.4727
 283  401.0166
 284  331.6226
 285  339.7908
 286  384.9031
 287  483.9475
 288  474.5558
 289  513.282
 290  476.2554
 291  386.6315
 292  338.7984
 293  427.7348
 294  536.8818
 295  478.5347
 296  520.7141
 297  415.4499
 298  429.0843
 299  430.1839
 300  468.3425
 301  460.5269
 302  408.6679
 303  375.3372
 304  465.2295
 305  473.8946
 306  472.7301
 307  380.198
 308  371.1346
 309  372.7799
 310  417.6941
 311  500.2791
 312  440.6892
 313  345.7353
 314  373.0662
 315  508.1432
 316  415.0739
 317  422.5407
 318  496.8993
 319  544.8729
 320  562.8535
 321  356.2459
 322  284.8027
 323  343.3533
 324  361.1641
 325  368.7545
 326  391.6744
 327  358.8551
 328  350.9306
 329  336.719
 330  404.078
 331  421.493
 332  274.2798
 333  380.1203
 334  419.0677
 335  423.0738
 336  437.7948
 337  395.0721
 338  298.5157
 339  401.4648
 340  319.6698
 341  316.3382
 342  419.3677
 343  444.271
 344  432.0214
 345  502.4336
 346  516.025
 347  469.4754
 348  281.4181
 349  349.054
 350  424.1594
 351  469.8662
 352  379.6304
 353  336.1335
 354  217.6617
 355  238.7763
 356  356.4204
 357  309.2826
 358  343.6533
 359  367.7066
 360  363.4518
 361  251.8715
 362  203.8862
 363  196.4797
 364  377.8046
 365  326.2532
 366  349.9886
 367  325.1261
 368  323.2622
 369  457.7437
 370  354.9862
 371  353.5017
 372  371.4301
 373  376.2241
 374  441.4533
 375  479.7295
 376  353.1409
 377  291.8547
 378  308.0984
 379  333.9435
 380  398.5327
 381  355.6772
 382  367.417
 383  314.5358
 384  389.0204
 385  495.3546
 386  500.4446
 387  436.7275
 388  473.7151
 389  466.5061
 390  576.4996
 391  541.9153
 392  515.1363
 393  514.1219
 394  438.8609
 395  409.7084
 396  425.1146
 397  468.232
 398  434.2022
 399  371.8598
 400  368.0636
 401  312.533
 402  299.8328
 403  353.5324
 404  357.7895
 405  223.7755
 406  263.9917
 407  404.6712
 408  376.277
 409  417.9333
 410  351.2241
 411  269.6486
 412  344.9386
 413  408.2084
 414  353.9945
 415  348.6498
 416  290.2819
 417  280.7476
 418  290.2051
 419  458.2771
 420  428.7899
 421  262.2529
 422  291.2936
 423  392.4498
 424  378.8328
 425  336.5908
 426  300.3777
 427  222.7766
 428  369.0294
 429  430.4622
 430  401.7152
 431  373.9794
 432  429.0711
 433  376.7521
 434  363.4977
 435  369.4436
 436  435.6373
 437  364.8669
 438  335.6634
 439  416.3821
 440  442.2954
 441  354.0831
 442  379.4004
 443  439.3157
 444  353.0514
 445  398.5702
 446  351.552
 447  306.0625
 448  381.7682
 449  437.989
 450  422.123
 451  431.5485
 452  375.8478
 453  361.7039
 454  314.8861
 455  423.8975
 456  513.343
 457  462.2229
 458  454.5735
 459  456.9975
 460  433.2523
 461  434.0145
 462  436.8285
 463  326.6951
 464  322.941
 465  379.9035
 466  335.2144
 467  407.4099
 468  423.6488
 469  411.7313
 470  379.5422
 471  317.9113
 472  306.0094
 473  313.0823
 474  380.1471
 475  321.927
 476  305.658
 477  402.2288
 478  410.3551
 479  262.7837
 480  170.9233
 481  299.2225
 482  333.1804
 483  369.9666
 484  275.7574
 485  323.5912
 486  330.2606
 487  434.8184
 488  422.5052
 489  465.6273
 490  447.4629
 491  293.8979
 492  310.7947
 493  444.542
 494  319.7749
 495  316.7875
 496  367.4933
 497  476.7197
 498  418.6862
 499  230.6319
 500  339.5114
 501  421.8144
 502  452.2618
 503  418.3362
 504  521.5107
 505  443.7267
 506  453.7723
 507  440.5235
 508  629.5561
 509  698.1033
 510  746.0007
 511  851.3319
