# Input file       =  1179719062.10811_cleaned.dat
# Candidate        =  PSR_0332+5434
# Telescope        =  AR
# Epoch_topo       =  57898.155603103121
# Epoch_bary       =  N/A
# T_sample         =  0.002
# Data Folded      =  7143424
# Data Avg         =  0.031839300509067
# Data StdDev      =  1.00003910879365 
# Profile Bins     =  512
# Profile Avg      =  444.061860616464 
# Profile StdDev   =  118.123203957214 
# Reduced chi-sqr  =  1.002
# Prob(Noise)      <  0.481   (~0.0 sigma)
# P_topo (ms)      =  714.523314662399  +/- 0.000264
# P'_topo (s/s)    =  -0                +/- 1.43e-10
# P''_topo (s/s^2) =  0                 +/- 6.5e-14
# P_bary (ms)      =  N/A
# P'_bary (s/s)    =  N/A
# P''_bary (s/s^2) =  N/A
# P_orb (s)        =  N/A
# asin(i)/c (s)    =  N/A
# eccentricity     =  N/A
# w (rad)          =  N/A
# T_peri           =  N/A
######################################################
   0  824.9963
   1  802.8222
   2  742.0928
   3  621.2705
   4  599.1335
   5  528.9955
   6  629.292
   7  590.3618
   8  447.6266
   9  386.9387
  10  414.0911
  11  506.7332
  12  397.4795
  13  512.2647
  14  528.5535
  15  383.3177
  16  286.5464
  17  265.6034
  18  336.4049
  19  340.8101
  20  349.6371
  21  361.6525
  22  383.6271
  23  439.1913
  24  596.5066
  25  460.9031
  26  421.2249
  27  477.3707
  28  534.1959
  29  517.2703
  30  370.7413
  31  349.585
  32  457.7927
  33  472.6272
  34  441.3403
  35  471.7501
  36  433.2132
  37  358.8868
  38  458.7379
  39  489.8151
  40  470.735
  41  370.5452
  42  377.6534
  43  407.4677
  44  266.9816
  45  313.8956
  46  344.8156
  47  402.0566
  48  313.6136
  49  326.771
  50  439.7102
  51  386.6444
  52  440.0804
  53  377.1154
  54  430.2084
  55  400.105
  56  371.5034
  57  382.1725
  58  392.1763
  59  469.4576
  60  488.2701
  61  479.0828
  62  442.9585
  63  304.5857
  64  454.3987
  65  470.8817
  66  320.1183
  67  307.9397
  68  436.9382
  69  472.7831
  70  475.4564
  71  389.0994
  72  430.0819
  73  343.0375
  74  457.851
  75  391.6825
  76  361.6896
  77  437.325
  78  474.4178
  79  446.0996
  80  343.1519
  81  359.2011
  82  372.6222
  83  318.441
  84  484.4536
  85  520.2847
  86  540.8902
  87  368.4358
  88  371.1042
  89  486.5753
  90  430.8098
  91  375.7442
  92  399.2872
  93  396.5296
  94  363.2867
  95  385.9595
  96  453.4684
  97  443.7775
  98  335.3018
  99  297.5372
 100  388.6601
 101  315.1795
 102  299.0955
 103  240.9663
 104  335.4492
 105  268.4291
 106  392.7448
 107  399.933
 108  365.9837
 109  535.6127
 110  456.8847
 111  319.5444
 112  362.4088
 113  426.0621
 114  446.5019
 115  416.6936
 116  454.9228
 117  363.1154
 118  387.7517
 119  463.6623
 120  473.3331
 121  600.2729
 122  601.9259
 123  536.4824
 124  581.014
 125  543.5054
 126  536.6566
 127  448.8797
 128  409.0938
 129  337.1676
 130  468.2866
 131  491.0068
 132  381.7387
 133  445.2541
 134  439.8737
 135  434.1732
 136  405.0585
 137  435.3323
 138  404.3318
 139  436.4553
 140  446.1973
 141  340.4385
 142  395.8624
 143  314.7428
 144  303.9868
 145  443.7285
 146  426.6306
 147  410.9204
 148  319.2429
 149  324.3748
 150  349.9321
 151  465.9812
 152  436.238
 153  403.7469
 154  393.3096
 155  491.3368
 156  558.8812
 157  494.5847
 158  530.0834
 159  509.386
 160  460.2625
 161  474.9102
 162  629.6391
 163  537.9605
 164  481.4055
 165  441.2333
 166  453.6411
 167  464.7317
 168  487.2701
 169  598.1028
 170  559.6008
 171  595.8168
 172  473.8445
 173  445.2811
 174  619.5905
 175  530.2222
 176  413.0994
 177  437.1511
 178  506.9833
 179  387.1191
 180  350.1476
 181  473.8352
 182  391.6247
 183  397.0361
 184  328.0159
 185  369.3543
 186  430.5646
 187  364.5479
 188  425.1951
 189  495.704
 190  402.1854
 191  391.004
 192  316.932
 193  406.5487
 194  484.4055
 195  506.8991
 196  545.652
 197  492.958
 198  529.5224
 199  412.0699
 200  462.916
 201  540.877
 202  556.4308
 203  530.2381
 204  616.6508
 205  606.9592
 206  571.2187
 207  700.3452
 208  624.7402
 209  551.0191
 210  522.1811
 211  476.5761
 212  479.9644
 213  549.3988
 214  510.9128
 215  491.6117
 216  544.5703
 217  534.2794
 218  424.2126
 219  421.2444
 220  572.2216
 221  469.7776
 222  424.4703
 223  429.489
 224  411.3188
 225  410.5883
 226  467.242
 227  473.8507
 228  349.0651
 229  396.8188
 230  418.785
 231  339.2859
 232  334.7762
 233  427.0119
 234  542.7609
 235  589.3881
 236  544.8143
 237  537.6973
 238  514.5025
 239  489.2717
 240  442.349
 241  497.2986
 242  578.8853
 243  503.9323
 244  512.0659
 245  560.666
 246  620.7265
 247  500.8344
 248  427.6638
 249  465.641
 250  550.7049
 251  577.5614
 252  578.1968
 253  499.0336
 254  500.9196
 255  529.1107
 256  499.3164
 257  493.687
 258  431.787
 259  373.9193
 260  425.4258
 261  434.2209
 262  445.5439
 263  410.0706
 264  478.9903
 265  439.8491
 266  394.7131
 267  436.0314
 268  441.6893
 269  375.7426
 270  431.7047
 271  412.705
 272  458.0633
 273  417.1368
 274  443.0499
 275  538.7078
 276  472.8687
 277  347.289
 278  433.4466
 279  535.6035
 280  488.9946
 281  384.5336
 282  289.3784
 283  362.7074
 284  426.3748
 285  488.5045
 286  446.7401
 287  431.139
 288  456.0102
 289  397.498
 290  484.5333
 291  454.7921
 292  448.1713
 293  439.4987
 294  450.4475
 295  401.6201
 296  474.8389
 297  440.3199
 298  469.6449
 299  495.5062
 300  508.4594
 301  514.2094
 302  561.4459
 303  445.8922
 304  352.5265
 305  492.5451
 306  498.0627
 307  464.4542
 308  457.0456
 309  360.4944
 310  406.6601
 311  376.8174
 312  330.0167
 313  337.5295
 314  309.0621
 315  452.0009
 316  424.5683
 317  384.9979
 318  511.4722
 319  485.7608
 320  420.5201
 321  388.6026
 322  372.2042
 323  388.1721
 324  357.1358
 325  496.8683
 326  490.2746
 327  559.2999
 328  426.7098
 329  369.5001
 330  399.2411
 331  397.3838
 332  542.5728
 333  469.3212
 334  461.5826
 335  464.1621
 336  567.6721
 337  509.2218
 338  423.3254
 339  446.841
 340  431.9485
 341  450.0988
 342  418.9055
 343  382.6125
 344  451.4333
 345  533.5997
 346  401.901
 347  393.9772
 348  440.4894
 349  383.7945
 350  461.5638
 351  454.7545
 352  395.9128
 353  459.2263
 354  444.1194
 355  494.2992
 356  440.4062
 357  362.7214
 358  407.5527
 359  310.4951
 360  345.2465
 361  412.5447
 362  470.5304
 363  416.6487
 364  350.5054
 365  447.9272
 366  385.821
 367  453.8158
 368  411.382
 369  539.7117
 370  447.932
 371  412.8945
 372  508.3452
 373  556.6025
 374  575.3717
 375  481.6953
 376  380.1138
 377  402.5455
 378  418.521
 379  386.8021
 380  421.2565
 381  495.4521
 382  488.5234
 383  416.0605
 384  470.5852
 385  519.3995
 386  549.7842
 387  554.1393
 388  522.4905
 389  429.986
 390  430.0151
 391  424.4276
 392  377.9625
 393  374.61
 394  512.464
 395  452.4345
 396  343.308
 397  407.1171
 398  540.5563
 399  423.3101
 400  317.9142
 401  490.3571
 402  495.1443
 403  455.7729
 404  459.013
 405  479.0146
 406  356.4787
 407  421.7364
 408  360.6689
 409  384.8137
 410  414.2698
 411  412.9909
 412  359.1451
 413  466.4196
 414  333.3056
 415  302.9419
 416  348.5467
 417  481.265
 418  585.2165
 419  507.1351
 420  525.2482
 421  531.2561
 422  533.813
 423  623.3367
 424  457.3339
 425  476.0821
 426  463.2977
 427  529.2744
 428  455.2068
 429  501.2164
 430  439.1823
 431  391.9231
 432  350.7127
 433  314.2248
 434  423.7048
 435  380.6969
 436  404.4955
 437  290.2319
 438  373.2144
 439  391.3949
 440  246.2513
 441  224.5677
 442  353.1104
 443  303.0586
 444  299.5064
 445  324.1284
 446  333.3044
 447  213.3363
 448  300.1024
 449  389.7337
 450  403.709
 451  435.2839
 452  411.9989
 453  479.2999
 454  418.7096
 455  368.0983
 456  357.8572
 457  453.8175
 458  439.2644
 459  437.5828
 460  410.0814
 461  392.9827
 462  412.7892
 463  513.3789
 464  464.3744
 465  385.9006
 466  312.9272
 467  227.6864
 468  382.8157
 469  497.7452
 470  487.2524
 471  511.8759
 472  457.4122
 473  381.118
 474  410.3421
 475  389.9174
 476  416.135
 477  473.0218
 478  462.0274
 479  336.572
 480  342.1617
 481  417.5527
 482  433.6243
 483  451.562
 484  373.4815
 485  341.6259
 486  456.2754
 487  491.2916
 488  435.4333
 489  363.605
 490  484.3446
 491  439.5463
 492  416.1187
 493  404.5171
 494  318.6495
 495  375.6129
 496  429.7047
 497  550.2339
 498  488.5727
 499  588.778
 500  553.4177
 501  486.7997
 502  538.613
 503  585.0681
 504  584.3636
 505  546.9852
 506  676.772
 507  757.8192
 508  669.1305
 509  554.7451
 510  597.6861
 511  759.5472
