# Input file       =  1179145456.098846_cleaned.dat
# Candidate        =  PSR_0332+5434
# Telescope        =  AR
# Epoch_topo       =  57891.516644662566
# Epoch_bary       =  N/A
# T_sample         =  0.002
# Data Folded      =  7340032
# Data Avg         =  0.0229088728380705
# Data StdDev      =  1.00003408962522 
# Profile Bins     =  512
# Profile Avg      =  328.445321915679 
# Profile StdDev   =  119.737118031102 
# Reduced chi-sqr  =  1.219
# Prob(Noise)      <  0.000488   (~3.3 sigma)
# P_topo (ms)      =  714.530190733601  +/- 0.000252
# P'_topo (s/s)    =  -0                +/- 1.33e-10
# P''_topo (s/s^2) =  0                 +/- 5.86e-14
# P_bary (ms)      =  N/A
# P'_bary (s/s)    =  N/A
# P''_bary (s/s^2) =  N/A
# P_orb (s)        =  N/A
# asin(i)/c (s)    =  N/A
# eccentricity     =  N/A
# w (rad)          =  N/A
# T_peri           =  N/A
######################################################
   0  776.622
   1  785.8794
   2  684.2179
   3  532.1485
   4  342.6986
   5  194.6044
   6  372.821
   7  378.5522
   8  348.2343
   9  329.9178
  10  363.8569
  11  334.4751
  12  265.6009
  13  294.7686
  14  341.5485
  15  354.4756
  16  375.6632
  17  358.8114
  18  460.0239
  19  514.78
  20  490.91
  21  352.9123
  22  184.9307
  23  246.972
  24  384.5778
  25  412.3623
  26  409.6621
  27  305.3726
  28  246.0566
  29  394.9456
  30  355.8705
  31  222.986
  32  273.0065
  33  272.8046
  34  286.1426
  35  235.7521
  36  277.1404
  37  343.2151
  38  431.7253
  39  355.914
  40  321.8826
  41  298.0148
  42  347.3731
  43  344.8582
  44  396.3118
  45  318.3986
  46  387.8637
  47  302.0508
  48  348.1823
  49  393.601
  50  367.3224
  51  358.0457
  52  267.6043
  53  421.3859
  54  452.8903
  55  253.3268
  56  171.6589
  57  151.8433
  58  213.9718
  59  267.4808
  60  274.3241
  61  297.0411
  62  311.1097
  63  355.2654
  64  389.6217
  65  361.9696
  66  305.2415
  67  231.0752
  68  200.741
  69  321.6202
  70  352.9376
  71  267.3799
  72  272.1519
  73  261.96
  74  279.8604
  75  366.4842
  76  372.9258
  77  254.4423
  78  388.8315
  79  230.3607
  80  259.717
  81  337.8054
  82  487.6634
  83  304.0586
  84  109.2494
  85  245.0424
  86  468.2584
  87  389.3628
  88  401.611
  89  324.7161
  90  334.9367
  91  335.1743
  92  146.5814
  93  268.773
  94  277.5022
  95  236.9639
  96  354.9728
  97  260.2805
  98  318.7195
  99  404.0717
 100  313.8253
 101  276.4261
 102  334.4333
 103  435.9397
 104  370.1694
 105  336.9552
 106  332.3455
 107  279.751
 108  323.1821
 109  333.3025
 110  358.3984
 111  358.5814
 112  273.5883
 113  238.0558
 114  237.4142
 115  337.0716
 116  385.0036
 117  347.2853
 118  377.5439
 119  348.8411
 120  438.6782
 121  340.8535
 122  337.1594
 123  256.7075
 124  187.8209
 125  127.5942
 126  48.22426
 127  278.1255
 128  340.4459
 129  344.2916
 130  313.7145
 131  223.7195
 132  227.9586
 133  269.2937
 134  231.9142
 135  268.0997
 136  186.4609
 137  276.9953
 138  323.8153
 139  428.0606
 140  483.1041
 141  412.0077
 142  359.8686
 143  319.5773
 144  396.76
 145  375.9439
 146  270.6848
 147  371.1935
 148  386.1392
 149  445.1573
 150  484.0599
 151  313.7018
 152  153.1135
 153  191.4745
 154  296.4637
 155  340.1451
 156  327.8518
 157  328.7324
 158  208.5569
 159  252.5414
 160  229.1757
 161  183.4608
 162  243.354
 163  308.8332
 164  346.2705
 165  258.2968
 166  260.1445
 167  208.8716
 168  251.1122
 169  367.485
 170  326.0473
 171  379.1981
 172  367.0997
 173  303.8446
 174  252.0887
 175  186.3221
 176  335.2997
 177  329.1984
 178  270.1873
 179  308.7483
 180  240.3681
 181  288.2344
 182  361.6254
 183  363.9941
 184  401.2563
 185  442.5107
 186  335.4191
 187  155.4538
 188  58.52203
 189  241.4451
 190  349.8703
 191  141.5849
 192  213.0474
 193  249.9582
 194  257.4621
 195  307.1505
 196  224.9291
 197  226.3007
 198  135.6756
 199  127.1194
 200  292.3405
 201  308.8323
 202  316.3301
 203  233.2584
 204  247.7891
 205  326.5332
 206  303.7939
 207  258.2828
 208  226.886
 209  174.8591
 210  271.2236
 211  265.2204
 212  150.3464
 213  191.8666
 214  171.8635
 215  207.9931
 216  314.0264
 217  232.8748
 218  199.3268
 219  302.7408
 220  279.3497
 221  305.5675
 222  318.9176
 223  297.241
 224  350.5146
 225  346.3034
 226  327.7679
 227  296.9035
 228  414.2748
 229  394.5728
 230  300.877
 231  401.7565
 232  355.9818
 233  291.9586
 234  373.614
 235  369.4799
 236  210.4412
 237  228.5982
 238  186.571
 239  230.4071
 240  245.1548
 241  153.992
 242  247.0797
 243  291.3012
 244  251.2076
 245  200.2114
 246  137.0672
 247  297.1481
 248  238.7831
 249  384.1802
 250  307.6593
 251  270.5441
 252  315.3711
 253  367.9253
 254  273.5145
 255  308.2861
 256  333.7551
 257  180.0014
 258  225.5911
 259  345.6965
 260  348.0296
 261  209.8225
 262  268.0179
 263  561.6882
 264  437.0039
 265  306.5761
 266  355.5439
 267  204.8057
 268  212.3766
 269  202.9281
 270  243.0385
 271  334.3462
 272  252.7789
 273  268.2866
 274  369.6337
 275  477.2112
 276  445.3055
 277  409.0859
 278  433.3031
 279  443.4667
 280  341.0738
 281  328.9534
 282  249.1835
 283  302.8358
 284  347.0974
 285  277.408
 286  284.9156
 287  433.0603
 288  426.7072
 289  348.5691
 290  232.7363
 291  334.5525
 292  413.4379
 293  383.7946
 294  265.0035
 295  322.8162
 296  307.8761
 297  285.2879
 298  326.4628
 299  339.7306
 300  333.2329
 301  259.4842
 302  326.9906
 303  340.2415
 304  293.8762
 305  455.2852
 306  412.4866
 307  333.4289
 308  272.4094
 309  339.2378
 310  395.3918
 311  364.2151
 312  247.8768
 313  331.7211
 314  378.3919
 315  300.3735
 316  345.0988
 317  374.2154
 318  428.7778
 319  409.6015
 320  408.8916
 321  305.6465
 322  302.4084
 323  326.7289
 324  287.0164
 325  412.0044
 326  365.1225
 327  333.9374
 328  158.8908
 329  210.759
 330  378.521
 331  281.9437
 332  193.112
 333  354.27
 334  347.094
 335  317.2342
 336  257.321
 337  290.7495
 338  263.864
 339  345.4998
 340  375.286
 341  350.2597
 342  394.5435
 343  217.5698
 344  293.0453
 345  405.9922
 346  329.424
 347  225.5148
 348  297.925
 349  375.813
 350  383.7313
 351  401.4032
 352  332.2796
 353  318.575
 354  437.7758
 355  447.8783
 356  375.4817
 357  364.7877
 358  416.2669
 359  270.3949
 360  222.0173
 361  252.2265
 362  175.1471
 363  166.6227
 364  245.6373
 365  336.3726
 366  323.2023
 367  370.6101
 368  367.9648
 369  438.7109
 370  302.8584
 371  150.1367
 372  239.0289
 373  268.6263
 374  317.4131
 375  338.5135
 376  443.9103
 377  376.7751
 378  240.6568
 379  336.4337
 380  415.468
 381  283.9503
 382  299.2274
 383  424.6829
 384  344.6371
 385  234.4044
 386  266.5045
 387  226.9632
 388  208.5205
 389  241.5605
 390  328.9311
 391  345.5552
 392  421.5431
 393  391.2302
 394  367.5397
 395  290.7885
 396  288.882
 397  346.1114
 398  326.5154
 399  385.0948
 400  405.4595
 401  267.3875
 402  282.6663
 403  444.9626
 404  410.911
 405  342.9335
 406  246.3542
 407  388.5674
 408  337.8047
 409  252.6636
 410  266.6886
 411  371.0586
 412  321.8936
 413  374.285
 414  385.9649
 415  445.9228
 416  499.6487
 417  492.1952
 418  391.948
 419  298.8313
 420  254.5553
 421  407.5884
 422  476.7022
 423  457.8563
 424  357.923
 425  302.9208
 426  340.2307
 427  337.615
 428  341.3689
 429  485.8061
 430  424.5995
 431  301.0053
 432  341.938
 433  370.696
 434  338.0376
 435  269.033
 436  259.4088
 437  265.028
 438  139.7842
 439  135.6305
 440  234.5457
 441  124.7032
 442  360.2756
 443  420.9728
 444  621.3091
 445  614.8648
 446  518.3608
 447  438.3976
 448  575.1548
 449  556.7722
 450  549.7641
 451  484.2263
 452  475.1744
 453  375.1055
 454  361.5456
 455  461.0889
 456  410.8847
 457  274.635
 458  391.4464
 459  391.7672
 460  291.7834
 461  388.7897
 462  347.8194
 463  356.2679
 464  416.9113
 465  505.4901
 466  439.8639
 467  378.8091
 468  253.1208
 469  254.6052
 470  261.2156
 471  326.219
 472  320.7982
 473  352.8831
 474  461.7903
 475  413.7126
 476  341.942
 477  358.4581
 478  317.3468
 479  309.9193
 480  417.6559
 481  507.2328
 482  401.0432
 483  446.0432
 484  376.7637
 485  451.8017
 486  360.2019
 487  480.5147
 488  403.3272
 489  291.6953
 490  306.9415
 491  249.198
 492  271.9521
 493  389.9716
 494  422.9829
 495  429.4028
 496  227.3182
 497  247.0634
 498  429.416
 499  308.0624
 500  264.8485
 501  308.8165
 502  333.3536
 503  330.1034
 504  410.2328
 505  375.2576
 506  426.227
 507  557.8112
 508  547.1276
 509  530.5965
 510  654.913
 511  756.6122
