# Input file       =  1179805725.112519_cleaned.dat
# Candidate        =  PSR_0332+5434
# Telescope        =  AR
# Epoch_topo       =  57899.158647135635
# Epoch_bary       =  N/A
# T_sample         =  0.002
# Data Folded      =  7208960
# Data Avg         =  0.0315997909330361
# Data StdDev      =  1.0000627979776  
# Profile Bins     =  512
# Profile Avg      =  445.08490439127  
# Profile StdDev   =  118.666627349794 
# Reduced chi-sqr  =  0.864
# Prob(Noise)      <  0.988   (~0.0 sigma)
# P_topo (ms)      =  714.522317444207  +/- 0.000427
# P'_topo (s/s)    =  -0                +/- 2.3e-10
# P''_topo (s/s^2) =  0                 +/- 1.03e-13
# P_bary (ms)      =  N/A
# P'_bary (s/s)    =  N/A
# P''_bary (s/s^2) =  N/A
# P_orb (s)        =  N/A
# asin(i)/c (s)    =  N/A
# eccentricity     =  N/A
# w (rad)          =  N/A
# T_peri           =  N/A
######################################################
   0  517.379
   1  556.1393
   2  456.3593
   3  434.9265
   4  478.1252
   5  482.1369
   6  407.1665
   7  369.6711
   8  417.2227
   9  453.7108
  10  510.4826
  11  553.7331
  12  518.1295
  13  514.675
  14  469.4248
  15  486.1911
  16  389.6766
  17  373.9444
  18  467.4591
  19  383.5935
  20  404.518
  21  259.8733
  22  270.3326
  23  324.4106
  24  327.9619
  25  356.5095
  26  464.4459
  27  468.3318
  28  356.72
  29  314.263
  30  341.0924
  31  458.2986
  32  507.8456
  33  460.3364
  34  433.1349
  35  476.5659
  36  439.7141
  37  349.8342
  38  421.2504
  39  521.4041
  40  446.9966
  41  519.923
  42  632.7103
  43  550.332
  44  535.2896
  45  495.4856
  46  521.7532
  47  683.1005
  48  552.6154
  49  390.7504
  50  372.2665
  51  427.8097
  52  423.8604
  53  439.2323
  54  392.0565
  55  408.1165
  56  423.6092
  57  448.8652
  58  498.1308
  59  600.6973
  60  476.9581
  61  351.1385
  62  401.185
  63  430.4583
  64  367.6102
  65  360.5343
  66  383.0296
  67  380.5967
  68  372.1475
  69  372.3936
  70  335.0112
  71  308.7245
  72  283.3737
  73  327.6976
  74  335.3933
  75  362.9279
  76  411.4448
  77  391.5527
  78  453.8924
  79  501.432
  80  452.5212
  81  385.9904
  82  359.81
  83  446.7469
  84  464.3069
  85  427.2465
  86  345.6557
  87  440.6166
  88  393.5472
  89  439.6168
  90  551.5275
  91  471.0909
  92  486.1371
  93  381.8289
  94  417.2151
  95  552.7773
  96  551.0096
  97  467.9836
  98  526.8958
  99  575.831
 100  507.701
 101  398.2933
 102  377.1535
 103  350.7777
 104  386.288
 105  397.2395
 106  450.0788
 107  601.2676
 108  470.3268
 109  341.5822
 110  392.3933
 111  397.1712
 112  468.5303
 113  538.8852
 114  539.8643
 115  478.5742
 116  393.9226
 117  406.909
 118  511.7122
 119  583.9813
 120  534.0866
 121  487.4938
 122  489.0486
 123  610.3741
 124  493.3211
 125  421.3642
 126  458.8881
 127  507.0244
 128  474.2316
 129  432.0984
 130  483.1994
 131  503.149
 132  454.4172
 133  531.072
 134  499.3495
 135  424.2136
 136  479.1517
 137  605.4482
 138  583.7825
 139  457.3271
 140  380.1445
 141  410.681
 142  526.5233
 143  503.6269
 144  573.5786
 145  471.5118
 146  467.3943
 147  459.904
 148  506.3654
 149  478.4693
 150  467.3834
 151  446.604
 152  453.465
 153  488.2888
 154  441.1673
 155  536.1033
 156  500.8038
 157  542.2109
 158  622.4892
 159  433.5687
 160  391.5661
 161  285.3216
 162  358.0721
 163  498.2722
 164  408.165
 165  568.5342
 166  530.4084
 167  475.8099
 168  444.9544
 169  448.1971
 170  454.5229
 171  355.6967
 172  426.28
 173  441.0627
 174  594.4619
 175  518.7997
 176  416.0222
 177  447.8641
 178  418.6139
 179  367.3339
 180  506.9128
 181  522.0131
 182  370.9395
 183  340.1935
 184  317.7044
 185  422.5945
 186  397.3883
 187  368.0094
 188  474.8369
 189  447.2698
 190  442.6648
 191  408.4102
 192  414.4548
 193  416.2733
 194  345.8288
 195  417.3979
 196  430.9194
 197  328.155
 198  426.3376
 199  457.7569
 200  403.1114
 201  428.3082
 202  475.2961
 203  478.239
 204  379.9112
 205  424.4624
 206  507.0546
 207  439.8254
 208  461.4653
 209  526.6781
 210  523.2936
 211  510.6336
 212  479.9567
 213  574.791
 214  506.5176
 215  451.8639
 216  441.5458
 217  568.943
 218  487.3925
 219  372.0657
 220  396.1677
 221  405.0351
 222  450.988
 223  431.2412
 224  427.6822
 225  431.5352
 226  565.9096
 227  597.0422
 228  557.0123
 229  532.1013
 230  578.7192
 231  582.6624
 232  641.2631
 233  764.2293
 234  856.5527
 235  699.8774
 236  594.1057
 237  490.7444
 238  503.2076
 239  547.8646
 240  451.0087
 241  401.623
 242  399.1124
 243  445.1762
 244  465.9596
 245  491.6798
 246  430.1543
 247  439.3703
 248  511.2529
 249  390.6291
 250  466.462
 251  569.0979
 252  445.2884
 253  517.3993
 254  421.588
 255  294.6685
 256  481.8836
 257  573.0873
 258  463.3745
 259  492.0404
 260  393.7534
 261  464.3416
 262  335.7008
 263  420.0321
 264  479.6633
 265  558.8172
 266  464.9122
 267  363.347
 268  421.7777
 269  473.6628
 270  426.6653
 271  411.9023
 272  426.3054
 273  507.9968
 274  495.7834
 275  383.3763
 276  328.1942
 277  389.1122
 278  341.1474
 279  303.4302
 280  363.1287
 281  383.6163
 282  339.5285
 283  387.2735
 284  404.3104
 285  400.9181
 286  429.4986
 287  518.8099
 288  458.3409
 289  511.0055
 290  606.7025
 291  556.3497
 292  504.3733
 293  465.7787
 294  517.1468
 295  498.4961
 296  448.6622
 297  427.5264
 298  511.5253
 299  455.8694
 300  398.1777
 301  464.9786
 302  392.0046
 303  440.1055
 304  408.3217
 305  511.3668
 306  510.7146
 307  463.4167
 308  497.2261
 309  346.8546
 310  375.9142
 311  520.4059
 312  406.4222
 313  415.1582
 314  437.4423
 315  400.983
 316  400.5321
 317  378.3706
 318  377.6879
 319  348.4549
 320  400.0625
 321  447.211
 322  430.7696
 323  471.2268
 324  496.086
 325  446.5962
 326  385.5065
 327  373.1508
 328  439.4649
 329  459.3898
 330  466.9033
 331  458.1737
 332  409.9983
 333  465.0323
 334  381.6629
 335  307.8109
 336  343.6769
 337  450.4089
 338  506.3993
 339  480.4619
 340  455.7704
 341  438.9109
 342  506.4598
 343  491.9352
 344  523.2556
 345  500.4125
 346  597.2208
 347  560.1307
 348  465.9192
 349  376.1108
 350  444.4314
 351  516.2433
 352  487.7921
 353  571.7573
 354  532.2433
 355  468.8981
 356  457.7137
 357  447.3594
 358  536.3376
 359  568.8829
 360  602.8799
 361  549.8038
 362  413.0775
 363  423.1518
 364  458.1775
 365  449.7585
 366  476.1832
 367  376.6664
 368  322.3996
 369  342.3961
 370  402.6993
 371  379.6782
 372  477.7495
 373  508.7993
 374  455.9151
 375  456.8252
 376  326.8809
 377  530.5826
 378  598.0262
 379  498.9112
 380  499.4322
 381  476.6675
 382  496.8847
 383  595.3719
 384  511.3246
 385  481.2658
 386  537.4609
 387  516.2281
 388  441.1254
 389  329.7707
 390  379.1513
 391  368.5202
 392  341.1241
 393  350.4825
 394  357.5658
 395  466.5888
 396  348.6642
 397  374.5775
 398  389.0243
 399  372.1417
 400  313.9604
 401  380.882
 402  393.044
 403  316.2974
 404  281.9599
 405  378.9232
 406  378.1039
 407  441.7433
 408  415.8734
 409  416.2361
 410  435.0358
 411  359.5749
 412  355.4994
 413  433.0424
 414  433.0741
 415  378.3235
 416  312.4037
 417  376.8319
 418  500.6602
 419  490.8595
 420  593.4253
 421  553.9351
 422  323.274
 423  272.0586
 424  297.1331
 425  466.6124
 426  488.6695
 427  510.0169
 428  494.8157
 429  447.181
 430  419.0163
 431  410.0765
 432  419.2701
 433  509.2189
 434  460.9942
 435  409.4975
 436  361.5779
 437  423.2882
 438  453.8579
 439  504.8308
 440  451.211
 441  466.3471
 442  554.8351
 443  532.9753
 444  401.0587
 445  363.7833
 446  388.5387
 447  391.6532
 448  451.6985
 449  405.4223
 450  321.2541
 451  358.2454
 452  456.958
 453  407.3483
 454  336.2845
 455  377.8634
 456  358.5766
 457  355.8944
 458  354.1641
 459  441.5836
 460  537.0586
 461  508.3508
 462  420.0165
 463  452.7851
 464  468.4124
 465  320.7648
 466  413.7688
 467  409.1157
 468  422.7251
 469  498.4536
 470  509.5854
 471  431.7618
 472  390.5732
 473  375.8578
 474  384.1673
 475  436.3246
 476  465.0586
 477  446.6984
 478  387.294
 479  263.0692
 480  296.017
 481  300.6509
 482  284.0815
 483  293.4818
 484  353.3212
 485  467.7749
 486  311.8341
 487  296.1311
 488  295.7686
 489  319.1103
 490  242.2121
 491  337.2327
 492  310.7269
 493  402.2275
 494  433.1944
 495  473.8816
 496  405.0125
 497  437.313
 498  468.1126
 499  393.0676
 500  473.1817
 501  619.6422
 502  462.4238
 503  469.7962
 504  444.5792
 505  528.2856
 506  427.2088
 507  348.6172
 508  489.3359
 509  617.0482
 510  641.8676
 511  496.0873
