# Input file       =  1179403935.110874_cleaned.dat
# Candidate        =  PSR_0332+5434
# Telescope        =  AR
# Epoch_topo       =  57894.508299894376
# Epoch_bary       =  N/A
# T_sample         =  0.002
# Data Folded      =  7340032
# Data Avg         =  0.0201220400870177
# Data StdDev      =  1.00008273384745 
# Profile Bins     =  512
# Profile Avg      =  288.5050430817   
# Profile StdDev   =  119.742942351532 
# Reduced chi-sqr  =  1.308
# Prob(Noise)      <  3.12e-06   (~4.5 sigma)
# P_topo (ms)      =  714.527258563636  +/- 0.000251
# P'_topo (s/s)    =  -0                +/- 1.32e-10
# P''_topo (s/s^2) =  0                 +/- 5.84e-14
# P_bary (ms)      =  N/A
# P'_bary (s/s)    =  N/A
# P''_bary (s/s^2) =  N/A
# P_orb (s)        =  N/A
# asin(i)/c (s)    =  N/A
# eccentricity     =  N/A
# w (rad)          =  N/A
# T_peri           =  N/A
######################################################
   0  881.3012
   1  795.7247
   2  542.4263
   3  384.6542
   4  482.4661
   5  474.6825
   6  318.9924
   7  273.6498
   8  201.8313
   9  351.4814
  10  469.8022
  11  337.9667
  12  414.7726
  13  423.8029
  14  391.5937
  15  316.7611
  16  327.8993
  17  258.4033
  18  426.9488
  19  419.0919
  20  422.2994
  21  376.7771
  22  483.6775
  23  358.7439
  24  312.0915
  25  371.9977
  26  394.9582
  27  219.2314
  28  218.0168
  29  248.8741
  30  251.9368
  31  363.6338
  32  356.6273
  33  439.5378
  34  387.8465
  35  368.2625
  36  432.7516
  37  399.589
  38  340.7444
  39  317.5265
  40  271.0244
  41  158.1238
  42  213.6442
  43  139.9234
  44  160.3034
  45  296.5926
  46  259.1089
  47  187.1268
  48  181.4664
  49  225.9296
  50  373.905
  51  393.134
  52  313.2754
  53  338.0514
  54  330.9863
  55  321.1738
  56  383.5394
  57  405.9
  58  435.9307
  59  374.6674
  60  338.9317
  61  246.167
  62  295.5388
  63  306.1666
  64  338.8468
  65  240.8409
  66  197.6168
  67  271.2963
  68  290.851
  69  298.6036
  70  243.8689
  71  328.699
  72  338.7882
  73  342.121
  74  313.8365
  75  356.2657
  76  295.967
  77  309.744
  78  394.6463
  79  375.3651
  80  305.5258
  81  144.1793
  82  266.4641
  83  264.8609
  84  365.1479
  85  378.315
  86  321.218
  87  232.2479
  88  286.577
  89  294.3657
  90  244.3872
  91  328.5929
  92  212.8787
  93  246.5523
  94  221.0419
  95  258.2099
  96  292.245
  97  301.646
  98  327.0374
  99  416.3618
 100  305.8383
 101  266.6362
 102  284.1614
 103  285.478
 104  291.002
 105  331.6154
 106  245.7292
 107  273.0414
 108  234.3984
 109  312.4256
 110  305.2718
 111  347.3121
 112  392.572
 113  242.7
 114  133.9546
 115  154.6364
 116  215.3232
 117  256.5396
 118  126.3649
 119  170.7053
 120  187.0846
 121  125.778
 122  162.7161
 123  235.2341
 124  98.6944
 125  143.6345
 126  107.7366
 127  144.2522
 128  111.8838
 129  154.9526
 130  102.8561
 131  276.474
 132  208.6497
 133  38.52986
 134  27.70513
 135  76.44942
 136  290.778
 137  425.7832
 138  241.9713
 139  148.7078
 140  159.5523
 141  394.2776
 142  248.2513
 143  163.8375
 144  171.3194
 145  214.4403
 146  221.9184
 147  189.1806
 148  274.5382
 149  331.9263
 150  293.3073
 151  126.0088
 152  260.9902
 153  255.1632
 154  274.5423
 155  213.0204
 156  257.4066
 157  337.4106
 158  271.3526
 159  234.5279
 160  365.2168
 161  214.0775
 162  279.4652
 163  210.9114
 164  242.4008
 165  204.7222
 166  268.3989
 167  420.9952
 168  267.1199
 169  232.7375
 170  259.1292
 171  273.5463
 172  306.2051
 173  310.364
 174  276.8909
 175  185.7801
 176  180.4309
 177  299.7238
 178  350.0065
 179  241.9247
 180  290.2165
 181  445.2759
 182  405.1057
 183  205.4942
 184  159.5206
 185  216.0098
 186  325.5081
 187  341.6325
 188  339.1889
 189  287.4211
 190  357.4023
 191  490.4163
 192  410.7506
 193  417.2975
 194  413.7958
 195  318.1799
 196  342.1222
 197  342.277
 198  230.0687
 199  219.6319
 200  331.8884
 201  287.4148
 202  197.6204
 203  221.4207
 204  229.4432
 205  313.1131
 206  338.8824
 207  290.5963
 208  297.2484
 209  357.7621
 210  420.051
 211  335.066
 212  302.2669
 213  166.6232
 214  199.6811
 215  310.0612
 216  312.5024
 217  297.8036
 218  310.6173
 219  304.3839
 220  172.7194
 221  153.49
 222  242.9891
 223  337.1474
 224  219.3904
 225  307.4796
 226  433.6241
 227  415.3459
 228  311.8513
 229  240.4307
 230  240.8833
 231  201.701
 232  203.0433
 233  327.3516
 234  330.9408
 235  235.6659
 236  276.069
 237  223.5275
 238  323.362
 239  406.0388
 240  382.9408
 241  300.8463
 242  351.391
 243  332.4428
 244  233.4548
 245  236.6481
 246  282.2888
 247  289.7614
 248  330.2458
 249  308.5366
 250  227.1788
 251  135.1082
 252  174.4686
 253  276.7989
 254  286.8822
 255  372.5421
 256  190.206
 257  280.9985
 258  359.1105
 259  368.4871
 260  352.7561
 261  375.9542
 262  406.1242
 263  346.9176
 264  356.6123
 265  295.6156
 266  294.8434
 267  316.6904
 268  239.0746
 269  220.5074
 270  277.1812
 271  436.9983
 272  416.883
 273  312.8634
 274  248.9654
 275  279.9895
 276  315.4156
 277  382.5476
 278  258.8112
 279  289.4103
 280  294.8909
 281  371.927
 282  382.9551
 283  385.0353
 284  395.4691
 285  426.3557
 286  337.9557
 287  286.0954
 288  315.0596
 289  119.5248
 290  222.1559
 291  314.388
 292  347.8297
 293  305.7386
 294  354.5392
 295  222.6354
 296  158.8563
 297  195.4864
 298  193.4623
 299  235.1863
 300  298.614
 301  293.103
 302  341.1708
 303  390.6896
 304  261.5207
 305  279.1363
 306  358.5709
 307  336.1249
 308  233.2881
 309  159.5262
 310  158.5243
 311  244.8926
 312  383.9604
 313  380.4885
 314  168.9519
 315  124.2121
 316  264.4258
 317  282.1964
 318  286.8223
 319  422.1664
 320  352.1121
 321  266.0231
 322  352.0255
 323  219.9813
 324  215.131
 325  190.825
 326  199.4281
 327  223.2401
 328  341.3829
 329  271.7059
 330  218.6327
 331  269.6151
 332  230.701
 333  178.8222
 334  255.0695
 335  233.9457
 336  185.0804
 337  246.8074
 338  246.3408
 339  235.2634
 340  260.6073
 341  253.6487
 342  189.7169
 343  205.5073
 344  292.6404
 345  274.2234
 346  329.5633
 347  251.7395
 348  94.11967
 349  89.99213
 350  153.2376
 351  209.905
 352  199.8497
 353  241.2838
 354  292.9455
 355  160.5031
 356  236.1483
 357  344.4725
 358  281.1736
 359  318.119
 360  283.3275
 361  304.6167
 362  288.0078
 363  216.5751
 364  165.8314
 365  195.4313
 366  232.8923
 367  153.8524
 368  94.40008
 369  123.8658
 370  182.1376
 371  157.233
 372  230.6148
 373  157.9376
 374  246.9057
 375  196.9431
 376  268.4563
 377  264.8588
 378  321.9174
 379  414.8627
 380  143.2874
 381  216.973
 382  374.066
 383  352.58
 384  315.702
 385  282.7884
 386  358.6542
 387  280.4315
 388  43.26489
 389  159.6118
 390  229.2239
 391  81.66187
 392  237.6276
 393  244.9811
 394  191.9803
 395  248.8175
 396  216.8706
 397  164.4174
 398  224.6462
 399  312.8583
 400  367.2044
 401  230.6639
 402  155.3433
 403  308.7322
 404  342.5927
 405  312.5365
 406  274.5793
 407  226.132
 408  227.8696
 409  330.8608
 410  280.0974
 411  274.4872
 412  255.3462
 413  333.7009
 414  332.0119
 415  353.2805
 416  348.3033
 417  315.9919
 418  390.1345
 419  353.4407
 420  375.0386
 421  348.9955
 422  154.8113
 423  220.0212
 424  424.0212
 425  284.8221
 426  288.2982
 427  381.968
 428  511.9611
 429  356.2572
 430  368.4801
 431  453.3131
 432  344.5929
 433  350.4458
 434  330.095
 435  118.5588
 436  127.0668
 437  208.8233
 438  208.5003
 439  68.87122
 440  169.6724
 441  216.2989
 442  350.9681
 443  331.6474
 444  258.2751
 445  341.8481
 446  262.0436
 447  289.3871
 448  358.2828
 449  272.76
 450  337.3177
 451  236.9651
 452  252.8173
 453  329.0833
 454  337.4162
 455  360.0219
 456  369.1635
 457  444.0696
 458  426.9589
 459  342.2942
 460  387.8325
 461  270.0286
 462  252.6225
 463  249.7244
 464  248.2608
 465  182.5743
 466  239.684
 467  281.1705
 468  318.9231
 469  238.3951
 470  340.6189
 471  398.1116
 472  305.8419
 473  174.5215
 474  201.6152
 475  407.8995
 476  317.053
 477  168.5294
 478  266.705
 479  239.6643
 480  402.4962
 481  491.4384
 482  357.2843
 483  279.79
 484  305.8326
 485  266.5391
 486  163.9407
 487  141.7258
 488  162.0649
 489  228.3809
 490  317.6314
 491  284.745
 492  279.9575
 493  410.1505
 494  405.3264
 495  373.6122
 496  374.1246
 497  357.5371
 498  390.6747
 499  402.682
 500  312.0872
 501  313.8602
 502  250.4115
 503  300.3285
 504  277.1174
 505  416.1977
 506  391.5077
 507  292.9202
 508  392.9471
 509  650.838
 510  771.197
 511  854.2367
