# Input file       =  1179891925.097309_cleaned.dat
# Candidate        =  PSR_0332+5434
# Telescope        =  AR
# Epoch_topo       =  57900.156332144783
# Epoch_bary       =  N/A
# T_sample         =  0.002
# Data Folded      =  7208960
# Data Avg         =  0.0300507529057617
# Data StdDev      =  1.00007058878771 
# Profile Bins     =  512
# Profile Avg      =  422.858461335403 
# Profile StdDev   =  118.667551800901 
# Reduced chi-sqr  =  1.097
# Prob(Noise)      <  0.0643   (~1.5 sigma)
# P_topo (ms)      =  714.521329026316  +/- 0.000362
# P'_topo (s/s)    =  -0                +/- 1.95e-10
# P''_topo (s/s^2) =  0                 +/- 8.75e-14
# P_bary (ms)      =  N/A
# P'_bary (s/s)    =  N/A
# P''_bary (s/s^2) =  N/A
# P_orb (s)        =  N/A
# asin(i)/c (s)    =  N/A
# eccentricity     =  N/A
# w (rad)          =  N/A
# T_peri           =  N/A
######################################################
   0  887.1487
   1  834.6286
   2  742.6094
   3  633.3919
   4  530.951
   5  458.9007
   6  382.0867
   7  398.0376
   8  365.1372
   9  424.4101
  10  359.1035
  11  281.1672
  12  337.9226
  13  341.2064
  14  323.3111
  15  412.643
  16  380.6703
  17  380.06
  18  336.1042
  19  386.1273
  20  430.895
  21  377.3774
  22  363.539
  23  380.4663
  24  449.7612
  25  457.0493
  26  581.063
  27  522.5143
  28  399.6248
  29  342.6718
  30  381.4438
  31  441.1019
  32  479.0407
  33  538.1647
  34  502.7844
  35  517.4874
  36  477.1753
  37  490.4771
  38  506.5023
  39  406.0427
  40  359.9876
  41  370.8795
  42  318.8033
  43  374.5563
  44  346.0121
  45  366.0974
  46  292.9253
  47  272.3748
  48  336.6189
  49  378.5068
  50  299.6162
  51  270.8189
  52  389.5812
  53  494.1995
  54  532.0438
  55  471.934
  56  470.3039
  57  280.613
  58  385.0483
  59  439.8289
  60  370.8491
  61  272.5673
  62  414.8506
  63  436.5165
  64  344.4975
  65  302.9596
  66  269.215
  67  304.8254
  68  437.3894
  69  391.4867
  70  381.7195
  71  294.6035
  72  331.7031
  73  414.2317
  74  456.3023
  75  390.5002
  76  440.1711
  77  421.4586
  78  457.2437
  79  336.3533
  80  409.222
  81  510.2345
  82  425.3007
  83  418.3409
  84  500.1709
  85  456.1657
  86  510.2384
  87  348.0597
  88  356.6175
  89  356.5923
  90  532.5957
  91  604.8116
  92  564.7338
  93  451.814
  94  449.4938
  95  434.2174
  96  458.9937
  97  511.5026
  98  471.8353
  99  490.018
 100  501.7843
 101  437.0621
 102  513.3552
 103  412.5368
 104  420.922
 105  473.2398
 106  462.894
 107  437.1378
 108  484.8599
 109  477.3007
 110  528.0176
 111  549.7608
 112  410.3671
 113  341.8129
 114  397.2701
 115  494.5735
 116  566.8216
 117  579.1521
 118  391.026
 119  404.937
 120  449.6079
 121  543.7663
 122  525.8044
 123  471.8151
 124  446.6777
 125  363.7965
 126  398.4516
 127  485.5301
 128  388.3554
 129  482.9788
 130  437.2298
 131  448.7042
 132  374.5939
 133  379.9967
 134  401.6606
 135  494.3458
 136  513.694
 137  431.466
 138  455.5029
 139  378.6169
 140  419.1528
 141  444.7256
 142  471.2267
 143  427.4391
 144  398.32
 145  309.8882
 146  257.1279
 147  374.2809
 148  399.1602
 149  369.2788
 150  344.2442
 151  485.2404
 152  506.8822
 153  491.8427
 154  376.4115
 155  349.3194
 156  453.6125
 157  531.5223
 158  480.2798
 159  465.0088
 160  570.9158
 161  498.2032
 162  482.5139
 163  426.9621
 164  480.5138
 165  486.0659
 166  473.6826
 167  522.0979
 168  394.8242
 169  483.8587
 170  463.537
 171  398.4003
 172  339.8352
 173  428.1463
 174  474.4845
 175  349.8261
 176  348.1621
 177  481.2487
 178  415.7129
 179  410.1635
 180  441.1193
 181  451.424
 182  368.2138
 183  328.8011
 184  282.0645
 185  381.7712
 186  463.2838
 187  506.8783
 188  376.1294
 189  321.2068
 190  321.9386
 191  405.0232
 192  396.8447
 193  418.4407
 194  297.6804
 195  355.2884
 196  386.23
 197  416.9459
 198  494.1645
 199  490.9629
 200  427.6831
 201  409.5316
 202  429.2547
 203  421.3315
 204  318.9616
 205  299.4641
 206  306.7632
 207  171.1336
 208  236.4495
 209  257.2338
 210  226.2338
 211  278.0393
 212  311.1349
 213  359.7558
 214  295.0525
 215  238.2631
 216  255.4905
 217  311.3041
 218  386.5591
 219  306.179
 220  240.4659
 221  335.2181
 222  396.2365
 223  395.5065
 224  241.1732
 225  358.0374
 226  383.5847
 227  306.5721
 228  247.6864
 229  267.0906
 230  369.5364
 231  316.4744
 232  259.1487
 233  215.7237
 234  412.3162
 235  362.9628
 236  330.6554
 237  359.9951
 238  278.0476
 239  287.4758
 240  345.7413
 241  390.216
 242  440.0375
 243  396.7343
 244  417.594
 245  376.297
 246  505.8151
 247  389.4327
 248  360.6882
 249  352.3499
 250  406.0057
 251  530.5733
 252  449.9736
 253  356.1631
 254  282.9343
 255  291.302
 256  442.0496
 257  351.9924
 258  410.0995
 259  408.013
 260  392.817
 261  356.6721
 262  448.5847
 263  503.4909
 264  454.8355
 265  324.6864
 266  348.2133
 267  362.9612
 268  401.578
 269  448.6345
 270  453.5986
 271  420.6953
 272  371.2656
 273  368.2599
 274  346.7025
 275  229.8185
 276  221.3976
 277  209.7952
 278  270.1901
 279  352.4269
 280  343.3833
 281  420.4718
 282  324.5119
 283  289.7832
 284  402.8921
 285  437.6186
 286  423.7548
 287  403.1677
 288  361.2543
 289  309.5864
 290  348.9782
 291  375.1813
 292  378.157
 293  374.4141
 294  270.713
 295  339.8782
 296  350.9552
 297  319.4124
 298  410.7864
 299  454.6793
 300  349.9593
 301  460.719
 302  445.9911
 303  443.2462
 304  431.0142
 305  492.265
 306  509.4181
 307  571.924
 308  535.6635
 309  502.1988
 310  363.2438
 311  403.4363
 312  439.4947
 313  302.5934
 314  278.7216
 315  297.346
 316  424.3585
 317  438.5916
 318  383.7468
 319  428.5691
 320  401.6662
 321  500.0093
 322  418.7862
 323  369.1115
 324  313.1456
 325  440.936
 326  383.8387
 327  378.3162
 328  364.7611
 329  434.5923
 330  367.171
 331  398.6227
 332  467.0644
 333  481.9364
 334  538.5946
 335  483.9006
 336  444.2211
 337  393.4515
 338  486.8654
 339  451.3233
 340  393.4958
 341  401.3486
 342  395.8417
 343  476.8897
 344  489.4167
 345  535.1428
 346  553.2059
 347  457.2827
 348  427.3683
 349  385.9892
 350  390.854
 351  425.7264
 352  426.8374
 353  439.9293
 354  404.4367
 355  414.8266
 356  365.4136
 357  411.146
 358  439.3062
 359  468.2952
 360  405.038
 361  382.423
 362  385.3115
 363  464.7401
 364  383.1241
 365  416.9579
 366  502.7233
 367  487.5891
 368  543.9433
 369  447.4901
 370  367.1777
 371  286.2551
 372  311.6476
 373  310.4769
 374  291.7074
 375  366.2271
 376  434.4741
 377  390.8042
 378  368.5303
 379  341.6967
 380  304.7599
 381  370.0013
 382  466.9113
 383  484.1653
 384  423.1535
 385  465.5018
 386  393.3204
 387  309.8188
 388  297.9752
 389  430.7098
 390  457.5402
 391  454.1448
 392  502.0502
 393  393.254
 394  372.6783
 395  372.5155
 396  465.2285
 397  470.1717
 398  604.3589
 399  501.3625
 400  418.502
 401  474.4322
 402  486.3046
 403  471.9677
 404  488.1872
 405  544.3223
 406  582.3195
 407  510.3896
 408  502.0146
 409  577.9349
 410  518.4202
 411  530.3304
 412  567.5543
 413  500.9264
 414  604.0583
 415  629.5669
 416  592.4139
 417  599.6852
 418  503.2306
 419  441.6892
 420  479.5334
 421  575.6656
 422  594.4819
 423  554.2526
 424  557.8804
 425  526.3005
 426  459.969
 427  567.4073
 428  511.8208
 429  470.6051
 430  525.7349
 431  495.3739
 432  446.6712
 433  496.1024
 434  464.1849
 435  344.4637
 436  343.4885
 437  317.1961
 438  383.7076
 439  525.6237
 440  449.1416
 441  351.2211
 442  321.883
 443  293.8003
 444  283.2986
 445  333.0406
 446  361.1611
 447  401.4212
 448  304.6615
 449  348.7289
 450  489.5597
 451  523.6147
 452  519.1465
 453  498.4352
 454  506.9278
 455  429.7221
 456  441.3373
 457  490.8143
 458  491.1532
 459  431.7783
 460  479.9181
 461  465.761
 462  435.474
 463  527.153
 464  495.5671
 465  511.3416
 466  488.4921
 467  458.9923
 468  433.614
 469  508.7527
 470  394.3304
 471  399.0321
 472  529.2814
 473  602.5195
 474  546.0015
 475  442.2959
 476  325.9866
 477  355.4059
 478  495.1336
 479  450.0879
 480  421.7896
 481  506.0194
 482  485.0351
 483  428.1653
 484  508.3551
 485  387.842
 486  414.4402
 487  482.9526
 488  597.6188
 489  520.4717
 490  502.6806
 491  493.6523
 492  375.7753
 493  323.3775
 494  433.5744
 495  434.5437
 496  473.524
 497  523.903
 498  428.276
 499  349.5756
 500  447.2699
 501  431.3059
 502  534.9967
 503  594.6575
 504  502.5108
 505  453.3799
 506  495.2203
 507  509.3773
 508  505.7988
 509  583.3297
 510  709.5938
 511  784.4408
