# Input file       =  1179059303.106471_cleaned.dat
# Candidate        =  PSR_0332+5434
# Telescope        =  AR
# Epoch_topo       =  57890.519503547119
# Epoch_bary       =  N/A
# T_sample         =  0.002
# Data Folded      =  7340032
# Data Avg         =  0.023884462590349
# Data StdDev      =  1.00003066236128 
# Profile Bins     =  512
# Profile Avg      =  342.41245572961  
# Profile StdDev   =  119.736707674384 
# Reduced chi-sqr  =  1.141
# Prob(Noise)      <  0.0148   (~2.2 sigma)
# P_topo (ms)      =  714.531163105489  +/- 0.000713
# P'_topo (s/s)    =  -0                +/- 3.76e-10
# P''_topo (s/s^2) =  0                 +/- 1.66e-13
# P_bary (ms)      =  N/A
# P'_bary (s/s)    =  N/A
# P''_bary (s/s^2) =  N/A
# P_orb (s)        =  N/A
# asin(i)/c (s)    =  N/A
# eccentricity     =  N/A
# w (rad)          =  N/A
# T_peri           =  N/A
######################################################
   0  756.5484
   1  831.8384
   2  632.576
   3  567.3231
   4  328.4492
   5  344.8933
   6  310.9847
   7  325.9793
   8  431.8524
   9  382.9586
  10  270.1277
  11  421.1154
  12  366.8567
  13  498.7729
  14  459.616
  15  376.1879
  16  328.4139
  17  292.8094
  18  324.3719
  19  432.8081
  20  432.649
  21  267.6804
  22  307.658
  23  444.0511
  24  430.9812
  25  429.6711
  26  533.5884
  27  557.4766
  28  380.9322
  29  398.8724
  30  466.7386
  31  361.281
  32  270.7257
  33  364.162
  34  373.8923
  35  368.1707
  36  333.7175
  37  310.4235
  38  404.5091
  39  474.0116
  40  398.7409
  41  421.3184
  42  475.7146
  43  376.6997
  44  372.1084
  45  451.2743
  46  380.0405
  47  295.6128
  48  328.4559
  49  461.7495
  50  517.4177
  51  419.9977
  52  363.2577
  53  422.0638
  54  409.4951
  55  301.0128
  56  322.007
  57  461.7348
  58  515.6001
  59  414.8866
  60  278.4483
  61  222.6584
  62  316.387
  63  447.7954
  64  415.2812
  65  391.1722
  66  416.7888
  67  436.2819
  68  357.3334
  69  285.99
  70  396.1809
  71  439.1389
  72  457.7637
  73  431.6041
  74  262.2548
  75  139.5674
  76  296.3068
  77  271.2155
  78  293.5385
  79  334.343
  80  353.2936
  81  414.0835
  82  286.8023
  83  304.7153
  84  312.5343
  85  226.0212
  86  259.1074
  87  326.8674
  88  360.0361
  89  446.2616
  90  412.6898
  91  295.8976
  92  327.6859
  93  293.5347
  94  385.5434
  95  375.1325
  96  313.6567
  97  297.4645
  98  370.0621
  99  297.3753
 100  257.9582
 101  334.6317
 102  352.1696
 103  457.4558
 104  396.4994
 105  329.7374
 106  355.834
 107  353.2301
 108  343.3812
 109  372.1897
 110  415.6686
 111  490.2924
 112  465.9042
 113  365.7348
 114  325.4821
 115  296.9628
 116  356.7191
 117  384.1268
 118  360.5709
 119  270.7594
 120  299.6873
 121  440.8163
 122  425.3898
 123  355.6432
 124  358.4438
 125  355.6533
 126  416.9164
 127  317.7
 128  388.0338
 129  386.5316
 130  395.8434
 131  390.2257
 132  406.7356
 133  367.3872
 134  320.2711
 135  475.0286
 136  552.3302
 137  444.1764
 138  320.8562
 139  373.2441
 140  338.4639
 141  376.9502
 142  349.0905
 143  395.6869
 144  403.9595
 145  327.4512
 146  362.2972
 147  480.928
 148  472.2919
 149  463.0615
 150  263.1572
 151  231.6502
 152  228.0712
 153  241.6211
 154  292.0039
 155  220.3932
 156  249.8086
 157  328.7947
 158  301.0682
 159  226.9025
 160  156.716
 161  226.056
 162  282.1942
 163  235.9925
 164  235.0858
 165  331.267
 166  268.656
 167  265.3811
 168  176.7761
 169  207.6935
 170  243.4768
 171  188.2685
 172  369.1949
 173  398.4802
 174  317.2679
 175  304.8463
 176  281.533
 177  203.8232
 178  225.9739
 179  318.9849
 180  263.1336
 181  296.7471
 182  259.4345
 183  367.9423
 184  332.3162
 185  433.7728
 186  327.3425
 187  305.4986
 188  371.4175
 189  322.5502
 190  342.2241
 191  340.5268
 192  333.9318
 193  280.3797
 194  332.0563
 195  357.7084
 196  397.7526
 197  480.0087
 198  405.3017
 199  246.8118
 200  259.5489
 201  347.4162
 202  307.3356
 203  383.1071
 204  397.8373
 205  222.5376
 206  421.0868
 207  532.0136
 208  422.7641
 209  350.4606
 210  311.0904
 211  194.5943
 212  194.0002
 213  274.8984
 214  326.9461
 215  301.7196
 216  348.9809
 217  417.784
 218  328.8235
 219  315.9857
 220  297.0959
 221  271.0547
 222  300.0406
 223  298.0822
 224  312.9489
 225  269.6038
 226  206.4634
 227  108.6323
 228  209.1816
 229  251.398
 230  276.6959
 231  270.4103
 232  269.4448
 233  221.5639
 234  266.1219
 235  283.7183
 236  353.2673
 237  378.7912
 238  427.5159
 239  376.7872
 240  286.3994
 241  324.6997
 242  345.0526
 243  364.7415
 244  347.7113
 245  315.4911
 246  380.7893
 247  381.7655
 248  379.8535
 249  365.4539
 250  262.1343
 251  351.3629
 252  369.0797
 253  386.0734
 254  453.0496
 255  361.6148
 256  332.9871
 257  505.7813
 258  564.0409
 259  432.0857
 260  342.1711
 261  440.5034
 262  335.8337
 263  383.4261
 264  442.6247
 265  294.1971
 266  303.2144
 267  439.9378
 268  370.5121
 269  417.2227
 270  402.777
 271  394.8095
 272  423.8164
 273  482.267
 274  369.3853
 275  281.3492
 276  363.787
 277  448.0833
 278  301.1404
 279  374.7181
 280  454.6094
 281  353.8683
 282  417.7954
 283  436.733
 284  409.6974
 285  290.6725
 286  318.1269
 287  442.7407
 288  345.8729
 289  340.2105
 290  346.793
 291  279.1262
 292  282.9592
 293  334.2774
 294  264.2936
 295  314.7819
 296  358.1374
 297  322.793
 298  237.2059
 299  241.4181
 300  444.5563
 301  330.1702
 302  324.1779
 303  241.0988
 304  226.7706
 305  272.9253
 306  339.6729
 307  362.7835
 308  146.2661
 309  144.2942
 310  204.0108
 311  200.3608
 312  86.06449
 313  215.38
 314  397.7841
 315  361.7169
 316  237.126
 317  270.8107
 318  307.671
 319  246.3648
 320  241.3259
 321  266.1999
 322  322.1288
 323  193.8472
 324  273.7859
 325  291.9039
 326  351.6822
 327  254.9111
 328  315.7827
 329  249.652
 330  268.5507
 331  356.7316
 332  409.4757
 333  300.9253
 334  305.7807
 335  334.2464
 336  228.5221
 337  286.3801
 338  380.3965
 339  351.5074
 340  356.9182
 341  356.3737
 342  411.3112
 343  464.9826
 344  427.6921
 345  349.0221
 346  205.9711
 347  207.8046
 348  271.5371
 349  262.5199
 350  277.8271
 351  324.1037
 352  321.525
 353  326.6861
 354  137.501
 355  95.08044
 356  248.7505
 357  336.8064
 358  216.7722
 359  201.67
 360  245.4279
 361  235.2628
 362  246.7559
 363  253.5717
 364  320.9128
 365  398.6061
 366  459.8843
 367  408.2183
 368  424.6959
 369  389.6816
 370  292.2333
 371  189.2349
 372  315.6025
 373  430.7239
 374  391.8137
 375  408.9058
 376  453.1205
 377  360.7614
 378  276.1959
 379  372.8076
 380  465.7377
 381  458.6684
 382  305.1931
 383  302.8347
 384  244.7882
 385  304.3841
 386  364.4442
 387  293.1228
 388  285.4732
 389  280.3118
 390  301.4194
 391  255.5178
 392  302.1541
 393  330.8278
 394  224.2241
 395  275.9599
 396  227.3546
 397  243.0055
 398  351.4177
 399  217.8923
 400  230.1273
 401  266.6265
 402  390.9036
 403  235.9004
 404  144.0264
 405  305.1249
 406  398.1776
 407  263.6895
 408  144.9142
 409  268.2962
 410  352.2119
 411  305.8619
 412  252.6058
 413  278.026
 414  329.9031
 415  249.883
 416  326.4304
 417  453.5185
 418  346.6176
 419  262.0542
 420  276.1092
 421  347.8267
 422  287.2108
 423  256.816
 424  263.7306
 425  204.1818
 426  264.0085
 427  353.9001
 428  303.9346
 429  277.9557
 430  258.3211
 431  240.1223
 432  250.5035
 433  264.4609
 434  292.1474
 435  399.9299
 436  196.285
 437  176.198
 438  426.0933
 439  467.4214
 440  282.2894
 441  274.6707
 442  351.1068
 443  377.3318
 444  295.9335
 445  323.5337
 446  422.5604
 447  455.0829
 448  371.3664
 449  261.5299
 450  312.4252
 451  389.3306
 452  287.254
 453  238.5266
 454  341.2765
 455  397.9236
 456  396.1507
 457  449.7222
 458  449.6021
 459  409.2525
 460  364.7005
 461  328.5291
 462  346.7017
 463  388.0222
 464  317.0861
 465  379.7733
 466  293.7371
 467  354.6783
 468  317.2013
 469  381.2443
 470  225.7644
 471  177.041
 472  207.4193
 473  244.389
 474  425.6367
 475  420.3102
 476  320.2827
 477  268.9793
 478  190.6895
 479  323.3607
 480  395.0186
 481  379.9883
 482  370.5905
 483  439.7481
 484  437.636
 485  377.4534
 486  401.4565
 487  425.3928
 488  360.8537
 489  417.5609
 490  480.2604
 491  462.4559
 492  330.6177
 493  510.8611
 494  493.9456
 495  424.9478
 496  301.979
 497  391.0085
 498  494.9801
 499  294.6141
 500  187.6326
 501  306.7316
 502  444.4621
 503  491.2452
 504  432.7487
 505  444.1765
 506  573.6342
 507  643.2064
 508  462.8839
 509  579.8466
 510  654.9792
 511  734.1612
