# Input file       =  1179647529.112151_cleaned.dat
# Candidate        =  PSR_0332+5434
# Telescope        =  AR
# Epoch_topo       =  57897.327674909153
# Epoch_bary       =  N/A
# T_sample         =  0.002
# Data Folded      =  7340032
# Data Avg         =  0.0235579006929673
# Data StdDev      =  1.00001340883798 
# Profile Bins     =  512
# Profile Avg      =  337.727116954883 
# Profile StdDev   =  119.734641857651 
# Reduced chi-sqr  =  1.004
# Prob(Noise)      <  0.466   (~0.1 sigma)
# P_topo (ms)      =  714.524143954631  +/- 0.000208
# P'_topo (s/s)    =  -0                +/- 1.1e-10
# P''_topo (s/s^2) =  0                 +/- 4.85e-14
# P_bary (ms)      =  N/A
# P'_bary (s/s)    =  N/A
# P''_bary (s/s^2) =  N/A
# P_orb (s)        =  N/A
# asin(i)/c (s)    =  N/A
# eccentricity     =  N/A
# w (rad)          =  N/A
# T_peri           =  N/A
######################################################
   0  724.6551
   1  721.7515
   2  706.0328
   3  541.3796
   4  424.5712
   5  433.3307
   6  432.8508
   7  363.5946
   8  332.7171
   9  519.9665
  10  550.997
  11  527.499
  12  431.0036
  13  512.2568
  14  438.5097
  15  320.0806
  16  382.2967
  17  325.8
  18  420.8855
  19  511.9942
  20  504.6004
  21  478.6502
  22  411.5916
  23  266.205
  24  294.9158
  25  394.4742
  26  471.2525
  27  387.4881
  28  378.4492
  29  301.888
  30  245.3488
  31  226.7917
  32  291.1794
  33  380.4243
  34  430.01
  35  299.4758
  36  290.4026
  37  313.4027
  38  368.2452
  39  353.9024
  40  313.3588
  41  368.5505
  42  470.8863
  43  506.0464
  44  334.8362
  45  319.935
  46  441.8852
  47  397.921
  48  305.4625
  49  383.7089
  50  456.369
  51  376.3814
  52  429.7165
  53  387.5693
  54  337.1433
  55  351.5691
  56  243.9483
  57  348.2637
  58  402.3328
  59  264.574
  60  165.8674
  61  362.2631
  62  440.7552
  63  383.5194
  64  338.2622
  65  299.6998
  66  290.6877
  67  297.5276
  68  279.7942
  69  287.5157
  70  269.8863
  71  353.7172
  72  245.527
  73  371.9876
  74  550.5161
  75  496.5449
  76  453.5634
  77  341.814
  78  343.156
  79  354.0675
  80  412.8314
  81  340.8048
  82  339.418
  83  340.8201
  84  378.4771
  85  456.1832
  86  395.3795
  87  471.4874
  88  430.7512
  89  377.9313
  90  337.7101
  91  309.2995
  92  229.2828
  93  284.3435
  94  437.4362
  95  436.4088
  96  382.9596
  97  412.2343
  98  359.3098
  99  295.533
 100  272.803
 101  303.5577
 102  336.4622
 103  441.7027
 104  387.0314
 105  357.9225
 106  353.3504
 107  363.6386
 108  370.8545
 109  371.5826
 110  450.4059
 111  398.4236
 112  412.1784
 113  457.4533
 114  395.2042
 115  347.1124
 116  326.912
 117  374.2776
 118  320.1104
 119  246.3049
 120  321.0199
 121  240.4319
 122  310.5692
 123  236.0614
 124  198.1146
 125  304.4943
 126  366.2268
 127  330.1136
 128  219.7217
 129  214.7818
 130  258.0794
 131  370.6623
 132  363.8426
 133  269.5099
 134  283.3541
 135  340.7042
 136  390.2824
 137  379.9571
 138  367.6257
 139  396.4626
 140  439.3337
 141  439.3357
 142  352.697
 143  339.3475
 144  385.1903
 145  433.894
 146  402.9675
 147  437.3083
 148  475.9471
 149  475.0696
 150  304.363
 151  382.3585
 152  438.6084
 153  394.976
 154  236.6925
 155  389.0082
 156  399.6753
 157  288.9398
 158  345.9246
 159  375.123
 160  210.9808
 161  133.44
 162  204.9127
 163  387.1576
 164  331.323
 165  194.8338
 166  135.4114
 167  211.1236
 168  235.3113
 169  366.3001
 170  329.1902
 171  340.8354
 172  444.4948
 173  363.7031
 174  217.4545
 175  244.4848
 176  413.7761
 177  315.588
 178  177.4535
 179  221.4458
 180  289.772
 181  361.8902
 182  303.2701
 183  254.279
 184  184.3642
 185  224.7008
 186  293.7472
 187  305.5924
 188  312.4024
 189  369.3072
 190  235.6691
 191  268.725
 192  391.5091
 193  333.5389
 194  324.6833
 195  342.8975
 196  336.1692
 197  297.1562
 198  298.6242
 199  226.9537
 200  254.9749
 201  269.9356
 202  473.6095
 203  466.4136
 204  253.6664
 205  264.7315
 206  277.6052
 207  378.8004
 208  301.7041
 209  205.5411
 210  236.9607
 211  246.2049
 212  282.7002
 213  289.3817
 214  247.9319
 215  287.3613
 216  317.3658
 217  260.3029
 218  275.8493
 219  385.5105
 220  380.4052
 221  412.7555
 222  476.452
 223  286.9001
 224  228.5031
 225  234.5177
 226  259.8699
 227  331.449
 228  374.898
 229  321.5411
 230  242.8958
 231  241.3159
 232  310.8195
 233  251.927
 234  284.5753
 235  347.4895
 236  278.1386
 237  291.8156
 238  292.3962
 239  346.3115
 240  319.4372
 241  353.555
 242  450.8437
 243  331.6269
 244  451.3707
 245  419.4717
 246  393.4081
 247  353.4738
 248  425.9542
 249  540.8423
 250  406.7297
 251  326.26
 252  405.8695
 253  415.7433
 254  447.345
 255  247.7683
 256  283.7502
 257  318.6725
 258  365.8537
 259  362.1243
 260  476.0009
 261  478.7382
 262  293.3629
 263  322.1075
 264  264.7804
 265  255.6776
 266  353.5755
 267  400.6211
 268  458.6295
 269  488.9806
 270  420.6002
 271  295.4184
 272  233.5177
 273  240.5817
 274  293.9806
 275  318.4414
 276  309.1717
 277  197.4649
 278  298.0071
 279  406.1382
 280  206.9597
 281  219.9533
 282  287.0309
 283  346.6842
 284  298.5205
 285  325.0966
 286  377.7808
 287  426.5981
 288  401.6414
 289  261.3374
 290  341.9024
 291  351.4591
 292  331.8148
 293  296.147
 294  370.3013
 295  363.4884
 296  346.2322
 297  379.4344
 298  340.881
 299  240.3126
 300  270.9716
 301  301.1971
 302  225.1958
 303  275.8475
 304  279.0798
 305  275.1956
 306  295.7414
 307  306.2739
 308  401.2507
 309  434.5675
 310  375.82
 311  270.2682
 312  401.432
 313  374.7299
 314  292.8367
 315  226.34
 316  389.9406
 317  436.5222
 318  327.8288
 319  350.4939
 320  306.4744
 321  204.2012
 322  289.1491
 323  500.7767
 324  478.7596
 325  383.6577
 326  291.5657
 327  221.7958
 328  188.8673
 329  153.927
 330  350.6586
 331  371.107
 332  290.1174
 333  388.5041
 334  355.9469
 335  351.5261
 336  281.9607
 337  311.2043
 338  277.5884
 339  276.2915
 340  348.394
 341  427.6874
 342  263.7036
 343  345.1109
 344  304.1548
 345  399.0481
 346  399.4586
 347  471.9313
 348  453.5962
 349  383.3665
 350  333.4752
 351  392.1002
 352  385.5539
 353  325.0206
 354  351.0982
 355  433.6714
 356  408.1526
 357  388.4681
 358  287.1924
 359  325.2606
 360  390.2675
 361  400.5306
 362  407.8192
 363  355.6972
 364  356.9283
 365  355.9994
 366  321.9507
 367  356.5726
 368  331.2743
 369  441.9551
 370  451.6654
 371  351.8864
 372  351.8853
 373  415.8192
 374  375.4821
 375  373.9033
 376  281.5938
 377  336.4416
 378  363.2181
 379  347.3429
 380  323.6638
 381  346.536
 382  276.8536
 383  174.9178
 384  183.5485
 385  186.6583
 386  205.3913
 387  288.0538
 388  354.1455
 389  307.2367
 390  374.6035
 391  375.8079
 392  330.3097
 393  263.9156
 394  246.5431
 395  332.9742
 396  203.6286
 397  309.8566
 398  422.004
 399  513.8985
 400  336.3573
 401  239.5428
 402  208.8687
 403  321.9918
 404  385.3992
 405  295.4003
 406  267.0437
 407  284.3415
 408  283.0281
 409  262.5956
 410  355.987
 411  392.1049
 412  421.9646
 413  275.2372
 414  287.5971
 415  344.2994
 416  297.853
 417  212.955
 418  152.1237
 419  229.9648
 420  290.9702
 421  321.7897
 422  343.7874
 423  293.4352
 424  213.1246
 425  205.9651
 426  347.8903
 427  282.3523
 428  279.3258
 429  331.0491
 430  308.3736
 431  306.3779
 432  236.0258
 433  172.057
 434  268.8158
 435  327.1812
 436  300.8001
 437  435.2402
 438  453.7948
 439  340.6401
 440  282.0153
 441  249.176
 442  282.2802
 443  259.925
 444  244.6607
 445  317.8612
 446  353.2472
 447  407.0374
 448  342.1926
 449  257.4165
 450  223.9643
 451  156.1031
 452  251.7712
 453  249.9227
 454  184
 455  284.551
 456  249.4406
 457  208.8905
 458  239.5353
 459  390.595
 460  459.4525
 461  389.9794
 462  244.6325
 463  135.946
 464  372.0295
 465  401.2652
 466  303.6171
 467  252.0455
 468  332.364
 469  482.2525
 470  406.5128
 471  311.52
 472  339.3286
 473  300.9105
 474  355.0418
 475  365.1939
 476  295.1074
 477  235.9154
 478  294.2
 479  310.5934
 480  340.8572
 481  411.293
 482  414.3515
 483  334.2591
 484  297.896
 485  282.3647
 486  321.5171
 487  193.6757
 488  146.5185
 489  218.0751
 490  297.5908
 491  269.0479
 492  306.2161
 493  396.4018
 494  348.8367
 495  235.926
 496  215.9862
 497  261.7515
 498  414.6047
 499  411.6546
 500  324.228
 501  329.4231
 502  285.4574
 503  317.4236
 504  300.2774
 505  325.3676
 506  332.6239
 507  446.424
 508  472.8369
 509  553.5823
 510  675.3373
 511  659.3562
