# Input file       =  1179992187.103937_cleaned.dat
# Candidate        =  PSR_0332+5434
# Telescope        =  AR
# Epoch_topo       =  57901.316772036305
# Epoch_bary       =  N/A
# T_sample         =  0.002
# Data Folded      =  7340032
# Data Avg         =  0.0285519780756388
# Data StdDev      =  0.999972165362486
# Profile Bins     =  512
# Profile Avg      =  409.339663362426 
# Profile StdDev   =  119.7297036511   
# Reduced chi-sqr  =  1.296
# Prob(Noise)      <  6.63e-06   (~4.4 sigma)
# P_topo (ms)      =  714.520201027231  +/- 0.000305
# P'_topo (s/s)    =  -0                +/- 1.61e-10
# P''_topo (s/s^2) =  0                 +/- 7.11e-14
# P_bary (ms)      =  N/A
# P'_bary (s/s)    =  N/A
# P''_bary (s/s^2) =  N/A
# P_orb (s)        =  N/A
# asin(i)/c (s)    =  N/A
# eccentricity     =  N/A
# w (rad)          =  N/A
# T_peri           =  N/A
######################################################
   0  292.44
   1  253.8171
   2  331.664
   3  276.5906
   4  301.5023
   5  275.1546
   6  186.0339
   7  272.15
   8  340.5153
   9  265.7002
  10  362.9685
  11  323.6958
  12  314.267
  13  418.5922
  14  404.8936
  15  494.1833
  16  404.0007
  17  419.6198
  18  390.2101
  19  389.579
  20  254.1686
  21  335.0238
  22  429.1036
  23  446.0374
  24  412.6076
  25  435.9742
  26  290.3344
  27  278.9555
  28  312.2857
  29  324.6221
  30  358.3224
  31  279.2983
  32  198.0504
  33  238.8197
  34  249.7113
  35  378.0364
  36  287.0644
  37  316.6537
  38  305.1036
  39  243.9462
  40  321.6156
  41  294.2102
  42  456.3588
  43  367.4309
  44  348.2432
  45  332.1751
  46  310.7274
  47  348.2528
  48  318.4134
  49  331.3294
  50  340.3445
  51  355.1068
  52  393.6483
  53  347.7751
  54  348.0139
  55  329.2789
  56  370.8418
  57  317.1475
  58  249.4015
  59  267.682
  60  329.2226
  61  332.3139
  62  409.8141
  63  463.5877
  64  376.5865
  65  406.1128
  66  371.4597
  67  400.3971
  68  399.1591
  69  529.8683
  70  496.5755
  71  522.782
  72  419.5858
  73  353.3405
  74  431.7572
  75  397.317
  76  435.7161
  77  390.6932
  78  343.3856
  79  372.7763
  80  369.6505
  81  438.7736
  82  394.0413
  83  457.2717
  84  397.0701
  85  374.3923
  86  408.9672
  87  408.4468
  88  524.4413
  89  509.8801
  90  495.2515
  91  563.0954
  92  430.8919
  93  331.6711
  94  419.6239
  95  472.8896
  96  539.8071
  97  605.3633
  98  524.2483
  99  516.9524
 100  472.2939
 101  454.3368
 102  310.2906
 103  433.7292
 104  494.4122
 105  343.3141
 106  449.9765
 107  533.5004
 108  533.3334
 109  386.0558
 110  368.7092
 111  510.9782
 112  465.5117
 113  556.6182
 114  524.6086
 115  498.8622
 116  464.0937
 117  324.1573
 118  427.7216
 119  557.9024
 120  547.718
 121  528.5336
 122  370.7448
 123  315.8652
 124  291.4525
 125  317.6225
 126  233.3499
 127  357.4454
 128  362.1548
 129  352.3608
 130  444.2216
 131  347.7565
 132  425.811
 133  357.1127
 134  520.6386
 135  472.3207
 136  349.2942
 137  336.3571
 138  398.0955
 139  322.9976
 140  356.6429
 141  474.6108
 142  365.5919
 143  319.9559
 144  386.3818
 145  430.1719
 146  415.2063
 147  415.4799
 148  461.7371
 149  414.6363
 150  504.09
 151  483.4332
 152  365.2269
 153  463.9472
 154  361.8289
 155  296.9854
 156  351.3813
 157  382.9225
 158  343.1728
 159  248.5231
 160  307.9817
 161  267.3766
 162  332.9834
 163  439.1735
 164  290.6461
 165  307.48
 166  357.3606
 167  364.7644
 168  281.052
 169  307.4106
 170  401.7275
 171  335.0752
 172  391.5617
 173  439.1183
 174  377.0841
 175  315.7176
 176  343.6441
 177  343.1295
 178  350.0954
 179  258.3579
 180  231.4483
 181  406.0123
 182  399.415
 183  362.6439
 184  192.2415
 185  326.0741
 186  424.6695
 187  379.4945
 188  372.7292
 189  392.8528
 190  351.1183
 191  384.9273
 192  520.0352
 193  244.0492
 194  315.7354
 195  351.9991
 196  371.5269
 197  378.2756
 198  383.4557
 199  482.177
 200  417.4531
 201  428.644
 202  502.7566
 203  404.0123
 204  472.5475
 205  544.1201
 206  400.3375
 207  487.6321
 208  422.9547
 209  466.5199
 210  264.6329
 211  433.8141
 212  479.4779
 213  431.1345
 214  457.6373
 215  466.0814
 216  403.2784
 217  383.423
 218  475.3594
 219  480.9608
 220  394.0172
 221  382.392
 222  410.6012
 223  402.8044
 224  453.8862
 225  421.6047
 226  422.9856
 227  472.2228
 228  415.4376
 229  310.3209
 230  363.5606
 231  445.0668
 232  447.2958
 233  388.959
 234  376.5261
 235  450.6418
 236  455.2567
 237  471.1645
 238  463.0533
 239  505.5614
 240  549.426
 241  497.2473
 242  449.0749
 243  419.0455
 244  403.0036
 245  425.2875
 246  405.5582
 247  414.5847
 248  337.9137
 249  335.6457
 250  319.176
 251  372.5124
 252  433.7006
 253  423.3098
 254  357.9163
 255  314.2606
 256  485.3989
 257  441.9594
 258  287.3336
 259  297.0277
 260  338.61
 261  431.6915
 262  413.1614
 263  412.745
 264  550.7709
 265  470.6561
 266  380.287
 267  401.0723
 268  363.3781
 269  395.3111
 270  430.1396
 271  488.3737
 272  438.9373
 273  429.1231
 274  458.7722
 275  460.3349
 276  408.644
 277  437.7619
 278  431.6245
 279  383.6814
 280  404.9449
 281  382.5196
 282  409.0008
 283  528.0687
 284  470.4408
 285  513.6207
 286  417.9052
 287  345.5509
 288  530.1561
 289  527.081
 290  522.7083
 291  545.2997
 292  450.5486
 293  403.9643
 294  360.8409
 295  573.0738
 296  544.0909
 297  499.6084
 298  489.7032
 299  526.3335
 300  473.8298
 301  562.8152
 302  550.0041
 303  564.4545
 304  488.497
 305  416.7163
 306  489.7191
 307  458.9376
 308  332.9211
 309  303.3265
 310  397.9255
 311  268.2498
 312  411.5456
 313  463.4504
 314  404.936
 315  570.4288
 316  431.8902
 317  336.5457
 318  391.0977
 319  560.7081
 320  524.538
 321  475.7483
 322  530.317
 323  563.4207
 324  389.0047
 325  370.6113
 326  435.9312
 327  472.8374
 328  401.372
 329  431.5025
 330  491.9044
 331  591.2247
 332  409.9659
 333  454.5617
 334  578.6732
 335  476.912
 336  410.2482
 337  421.0098
 338  404.5682
 339  406.324
 340  479.5694
 341  379.6079
 342  214.8608
 343  331.2287
 344  267.0424
 345  182.3565
 346  323.9203
 347  489.269
 348  378.5073
 349  310.7444
 350  448.8206
 351  382.6992
 352  366.8203
 353  301.433
 354  354.4072
 355  372.121
 356  440.836
 357  523.5044
 358  477.6903
 359  315.1364
 360  371.1555
 361  432.7935
 362  328.3338
 363  482.1082
 364  560.5124
 365  440.6296
 366  327.0854
 367  404.9437
 368  419.5226
 369  451.674
 370  477.8273
 371  469.519
 372  365.1909
 373  538.3608
 374  527.6373
 375  493.3252
 376  504.3961
 377  330.9174
 378  440.3988
 379  412.4892
 380  411.8502
 381  467.9048
 382  531.6644
 383  496.6971
 384  335.8691
 385  392.0453
 386  552.8812
 387  564.1577
 388  417.4398
 389  349.5135
 390  409.3935
 391  408.8202
 392  427.6021
 393  348.0732
 394  383.3754
 395  389.2834
 396  426.878
 397  368.509
 398  426.485
 399  359.9687
 400  470.3
 401  491.6727
 402  404.1073
 403  369.3743
 404  399.8069
 405  484.131
 406  443.8193
 407  401.9208
 408  401.5231
 409  463.0186
 410  446.8149
 411  350.9688
 412  381.8446
 413  497.8183
 414  398.3135
 415  388.718
 416  610.7966
 417  554.3782
 418  560.4364
 419  563.5343
 420  642.656
 421  663.8523
 422  888.5674
 423  1065.802
 424  1034.119
 425  997.6501
 426  833.2162
 427  454.3836
 428  403.953
 429  429.1625
 430  331.4907
 431  272.7102
 432  336.9514
 433  325.9477
 434  268.2495
 435  338.9964
 436  328.5801
 437  281.7129
 438  362.5398
 439  398.7133
 440  492.0241
 441  423.7629
 442  386.9693
 443  346.5859
 444  346.1322
 445  311.969
 446  399.7692
 447  376.1688
 448  374.1733
 449  419.2857
 450  384.6225
 451  428.4717
 452  450.7351
 453  398.1312
 454  304.1327
 455  312.1027
 456  422.9481
 457  427.0049
 458  411.7166
 459  505.3028
 460  465.2873
 461  432.7727
 462  503.9839
 463  526.702
 464  379.8131
 465  388.0551
 466  498.7543
 467  539.5037
 468  456.9117
 469  480.2773
 470  462.5188
 471  591.8889
 472  532.7693
 473  407.8188
 474  357.7154
 475  447.6251
 476  412.8069
 477  414.1409
 478  306.2077
 479  344.7067
 480  266.264
 481  291.915
 482  380.9631
 483  329.5822
 484  344.0658
 485  453.0737
 486  405.2471
 487  408.6044
 488  403.4088
 489  312.6519
 490  265.3757
 491  384.0697
 492  451.2885
 493  328.7748
 494  359.1341
 495  359.8312
 496  436.3295
 497  380.4312
 498  356.3198
 499  288.0386
 500  309.1543
 501  258.3557
 502  283.054
 503  408.5499
 504  343.0123
 505  423.9113
 506  432.154
 507  393.0354
 508  336.1883
 509  223.9059
 510  216.25
 511  319.9297
