# Input file       =  1179561381.09626_cleaned.dat
# Candidate        =  PSR_0332+5434
# Telescope        =  AR
# Epoch_topo       =  57896.330591391896
# Epoch_bary       =  N/A
# T_sample         =  0.002
# Data Folded      =  7340032
# Data Avg         =  0.0283310710027847
# Data StdDev      =  1.00002850291826 
# Profile Bins     =  512
# Profile Avg      =  406.118767401217 
# Profile StdDev   =  119.736449117715 
# Reduced chi-sqr  =  0.939
# Prob(Noise)      <  0.835   (~0.0 sigma)
# P_topo (ms)      =  714.525130567947  +/- 0.000457
# P'_topo (s/s)    =  -0                +/- 2.41e-10
# P''_topo (s/s^2) =  0                 +/- 1.06e-13
# P_bary (ms)      =  N/A
# P'_bary (s/s)    =  N/A
# P''_bary (s/s^2) =  N/A
# P_orb (s)        =  N/A
# asin(i)/c (s)    =  N/A
# eccentricity     =  N/A
# w (rad)          =  N/A
# T_peri           =  N/A
######################################################
   0  384.4726
   1  476.4074
   2  510.2946
   3  463.9402
   4  508.9286
   5  525.9402
   6  430.3249
   7  422.9051
   8  483.6052
   9  418.5052
  10  394.9993
  11  402.668
  12  354.4484
  13  390.8592
  14  349.5911
  15  267.4642
  16  282.511
  17  393.9507
  18  426.4318
  19  444.2137
  20  504.7658
  21  382.184
  22  409.1702
  23  349.7225
  24  357.8278
  25  393.4299
  26  457.4061
  27  524.5244
  28  468.5528
  29  319.7518
  30  430.4263
  31  454.4637
  32  463.849
  33  544.8649
  34  448.292
  35  440.9543
  36  374.2438
  37  410.4234
  38  506.3144
  39  521.1533
  40  404.3015
  41  402.4939
  42  361.2587
  43  350.7239
  44  371.7263
  45  415.563
  46  346.3658
  47  416.9628
  48  320.0031
  49  289.9843
  50  316.3444
  51  407.663
  52  446.3985
  53  495.0541
  54  457.4991
  55  441.1275
  56  422.6271
  57  450.1914
  58  400.5868
  59  346.782
  60  493.6733
  61  408.9365
  62  460.5113
  63  486.4239
  64  470.9765
  65  509.6467
  66  408.3589
  67  362.035
  68  406.4135
  69  495.9626
  70  461.6327
  71  462.1884
  72  550.0692
  73  419.2139
  74  384.889
  75  387.8299
  76  410.0869
  77  380.9983
  78  351.5323
  79  351.2173
  80  440.7573
  81  456.8813
  82  418.5715
  83  545.0587
  84  532.5864
  85  467.7447
  86  389.3948
  87  396.6446
  88  421.6838
  89  338.5543
  90  427.2739
  91  357.9367
  92  345.4529
  93  455.1053
  94  528.8878
  95  506.6403
  96  473.9898
  97  477.267
  98  471.8956
  99  392.0074
 100  392.9392
 101  375.0883
 102  333.6378
 103  318.0682
 104  233.5603
 105  280.8993
 106  299.2875
 107  348.9487
 108  345.1226
 109  419.1756
 110  435.4372
 111  271.826
 112  335.977
 113  329.7455
 114  381.6956
 115  384.0675
 116  434.5176
 117  574.7866
 118  472.6525
 119  387.5175
 120  402.929
 121  453.1055
 122  306.1607
 123  266.2218
 124  382.9545
 125  456.2568
 126  346.1979
 127  339.9081
 128  415.071
 129  402.6578
 130  299.8557
 131  304.5026
 132  351.7276
 133  378.07
 134  391.4964
 135  429.6853
 136  370.0234
 137  290.2819
 138  294.0695
 139  439.4547
 140  477.5287
 141  439.4035
 142  368.9567
 143  397.9043
 144  394.3815
 145  331.8501
 146  440.9466
 147  366.145
 148  384.6544
 149  400.5132
 150  447.6992
 151  382.9518
 152  360.6174
 153  411.042
 154  374.8204
 155  420.9091
 156  477.553
 157  408.4556
 158  352.7027
 159  444.9834
 160  508.8634
 161  522.4376
 162  488.4375
 163  421.576
 164  283.1886
 165  382.594
 166  440.8482
 167  441.6966
 168  424.5084
 169  420.5944
 170  449.4677
 171  419.1469
 172  376.6664
 173  363.8255
 174  339.927
 175  394.6857
 176  460.0763
 177  359.2032
 178  400.7513
 179  539.816
 180  478.9197
 181  409.4118
 182  409.3202
 183  433.5196
 184  344.0577
 185  348.1042
 186  327.0542
 187  200.034
 188  375.5076
 189  512.9772
 190  340.4333
 191  224.4379
 192  298.8359
 193  373.145
 194  378.9472
 195  428.1993
 196  393.9859
 197  387.7928
 198  394.035
 199  379.2425
 200  436.8585
 201  349.2744
 202  335.0629
 203  380.4179
 204  260.9474
 205  247.1622
 206  344.1058
 207  429.3552
 208  462.3076
 209  378.0301
 210  416.8964
 211  465.2927
 212  475.3687
 213  653.241
 214  508.5858
 215  398.8465
 216  411.0197
 217  394.5877
 218  353.0414
 219  394.1357
 220  379.5951
 221  431.205
 222  485.2346
 223  446.6116
 224  468.9538
 225  428.778
 226  460.7144
 227  359.2998
 228  317.0744
 229  487.1986
 230  487.6027
 231  439.8102
 232  380.3116
 233  438.1587
 234  473.5436
 235  505.1398
 236  465.3158
 237  391.716
 238  449.8285
 239  426.94
 240  487.1931
 241  556.1548
 242  503.3118
 243  513.8727
 244  452.3901
 245  514.8154
 246  387.7211
 247  482.0719
 248  634.0645
 249  356.5456
 250  388.3348
 251  535.7697
 252  527.7186
 253  452.3034
 254  388.7992
 255  349.8923
 256  470.0755
 257  400.79
 258  415.1078
 259  504.183
 260  461.3589
 261  374.2853
 262  497.5854
 263  441.1475
 264  489.0223
 265  467.4257
 266  355.2732
 267  317.8053
 268  325.5539
 269  399.2175
 270  332.59
 271  340.599
 272  381.8099
 273  483.9253
 274  474.9627
 275  512.6866
 276  478.1822
 277  387.7798
 278  339.3454
 279  424.2256
 280  537.3603
 281  476.7127
 282  524.1735
 283  414.3362
 284  430.2814
 285  427.5894
 286  469.1717
 287  460.2739
 288  410.5688
 289  375.6728
 290  463.1673
 291  473.4388
 292  474.0213
 293  381.8596
 294  371.8879
 295  370.9251
 296  415.6026
 297  499.5644
 298  443.6184
 299  347.4097
 300  370.6895
 301  507.2857
 302  417.4275
 303  421.814
 304  496.2393
 305  540.5373
 306  566.1644
 307  360.708
 308  284.0316
 309  344.3286
 310  360.0144
 311  367.4474
 312  391.0667
 313  359.859
 314  351.368
 315  336.7204
 316  401.3607
 317  423.9483
 318  275.3996
 319  378.1117
 320  419.7807
 321  422.5871
 322  435.9601
 323  398.2264
 324  298.4299
 325  400.3586
 326  321.6944
 327  313.5778
 328  420.0754
 329  444.49
 330  429.5456
 331  502.9684
 332  514.7357
 333  471.9085
 334  283.9872
 335  345.9293
 336  424.707
 337  469.431
 338  382.0505
 339  336.4037
 340  219.2497
 341  236.8135
 342  356.6886
 343  310.6648
 344  340.65
 345  368.3284
 346  364.4462
 347  252.7811
 348  205.4494
 349  195.3519
 350  374.7609
 351  328.6531
 352  349.2796
 353  324.9842
 354  322.3026
 355  455.8657
 356  357.5045
 357  352.1732
 358  373.3555
 359  374.9528
 360  438.7674
 361  481.4317
 362  354.8632
 363  291.7628
 364  308.3575
 365  332.9478
 366  397.6722
 367  356.5986
 368  366.9084
 369  315.7752
 370  386.9439
 371  493.0885
 372  501.5363
 373  436.9449
 374  474.1469
 375  465.7447
 376  575.8089
 377  543.0209
 378  513.6627
 379  515.3695
 380  440.0981
 381  410.8137
 382  423.4264
 383  468.6042
 384  434.5258
 385  372.8689
 386  368.7684
 387  312.7917
 388  299.7007
 389  352.8157
 390  359.2915
 391  224.723
 392  262.4979
 393  402.7438
 394  376.0584
 395  418.1169
 396  353.7998
 397  270.2503
 398  341.3115
 399  409.8739
 400  354.5749
 401  349.186
 402  291.1328
 403  280.4995
 404  288.3874
 405  455.9503
 406  432.0776
 407  263.3121
 408  289.5178
 409  391.7258
 410  380.7437
 411  336.7981
 412  301.8014
 413  222.1583
 414  364.1625
 415  431.3354
 416  402.9174
 417  373.4558
 418  429.5143
 419  377.2138
 420  363.484
 421  368.4338
 422  435.8092
 423  366.805
 424  334.3407
 425  416.0352
 426  443.3503
 427  354.6765
 428  378.1374
 429  438.944
 430  352.8828
 431  399.113
 432  352.4977
 433  306.6168
 434  378.3495
 435  440.3
 436  420.4306
 437  432.7789
 438  376.5961
 439  362.9173
 440  314.1308
 441  420.3694
 442  513.4405
 443  462.7227
 444  454.2307
 445  457.0212
 446  434.8269
 447  433.8194
 448  437.8749
 449  328.8017
 450  321.0435
 451  380.75
 452  335.2845
 453  403.4661
 454  426.8104
 455  411.7838
 456  381.2793
 457  316.123
 458  307.4728
 459  311.0268
 460  380.1922
 461  324.0982
 462  305.2011
 463  399.7375
 464  413.0701
 465  264.0585
 466  170.2256
 467  296.6595
 468  333.6889
 469  370.8967
 470  276.4312
 471  322.7357
 472  328.3554
 473  433.9671
 474  422.3073
 475  464.1823
 476  449.127
 477  296.542
 478  309.1081
 479  443.4857
 480  323.2363
 481  314.4459
 482  367.4116
 483  474.9539
 484  423.7096
 485  231.1985
 486  335.8373
 487  420.8813
 488  452.8177
 489  416.9094
 490  520.2203
 491  447.1053
 492  452.9907
 493  439.7006
 494  624.1443
 495  699.0568
 496  745.1306
 497  848.2026
 498  929.2224
 499  828.5043
 500  665.3102
 501  578.3861
 502  422.6676
 503  434.6235
 504  490.3725
 505  385.814
 506  321.0842
 507  427.5558
 508  415.8911
 509  455.8934
 510  417.3831
 511  424.435
