# Input file       =  1179992187.103937_cleaned.dat
# Candidate        =  PSR_0332+5434
# Telescope        =  AR
# Epoch_topo       =  57901.316772036305
# Epoch_bary       =  N/A
# T_sample         =  0.002
# Data Folded      =  7340032
# Data Avg         =  0.0285519780756388
# Data StdDev      =  0.999972165362486
# Profile Bins     =  512
# Profile Avg      =  409.339667650898 
# Profile StdDev   =  119.7297036511   
# Reduced chi-sqr  =  1.291
# Prob(Noise)      <  9.34e-06   (~4.3 sigma)
# P_topo (ms)      =  714.520199942401  +/- 0.000308
# P'_topo (s/s)    =  -0                +/- 1.62e-10
# P''_topo (s/s^2) =  0                 +/- 7.17e-14
# P_bary (ms)      =  N/A
# P'_bary (s/s)    =  N/A
# P''_bary (s/s^2) =  N/A
# P_orb (s)        =  N/A
# asin(i)/c (s)    =  N/A
# eccentricity     =  N/A
# w (rad)          =  N/A
# T_peri           =  N/A
######################################################
   0  1052.768
   1  1000.664
   2  898.1672
   3  510.0537
   4  386.1573
   5  441.2319
   6  350.7467
   7  270.5066
   8  319.0212
   9  345.1954
  10  263.7477
  11  331.1891
  12  333.9286
  13  287.9713
  14  344.4351
  15  394.8596
  16  469.69
  17  447.7111
  18  386.3718
  19  360.0809
  20  349.4663
  21  321.5655
  22  365.5741
  23  392.9657
  24  370.3519
  25  412.1297
  26  396.6078
  27  404.494
  28  459.5345
  29  412.8032
  30  321.4324
  31  296.4085
  32  405.1181
  33  427.4524
  34  412.2372
  35  483.407
  36  488.2311
  37  423.5607
  38  502.6208
  39  530.2746
  40  410.482
  41  358.9769
  42  483.5001
  43  545.407
  44  472.2147
  45  474.5794
  46  458.7496
  47  566.1362
  48  557.0863
  49  423.9996
  50  362.3625
  51  438.5598
  52  416.4448
  53  421.5007
  54  318.2584
  55  336.3341
  56  287.5849
  57  266.9295
  58  367.0063
  59  362.4524
  60  317.1876
  61  452.8123
  62  412.1483
  63  401.3717
  64  409.9677
  65  325.6389
  66  276.2517
  67  340.1083
  68  473.2689
  69  339.1278
  70  345.92
  71  356.3993
  72  422.3463
  73  395.4597
  74  369.9307
  75  281.5433
  76  318.2649
  77  262.5058
  78  268.0339
  79  395.6671
  80  361.5789
  81  396.7862
  82  455.8622
  83  379.3948
  84  359.9774
  85  238.1149
  86  204.5482
  87  309.8286
  88  317.194
  89  237.6966
  90  319.0984
  91  288.8367
  92  297.5351
  93  284.0591
  94  209.181
  95  232.841
  96  350.4919
  97  266.4812
  98  350.3942
  99  337.8735
 100  299.8941
 101  405.7438
 102  397.8512
 103  497.4424
 104  415.5806
 105  416.1797
 106  383.7078
 107  414.6508
 108  266.7098
 109  313.6335
 110  398.2773
 111  458.7442
 112  412.817
 113  444.7702
 114  316.6044
 115  271.089
 116  309.0077
 117  324.6055
 118  348.7752
 119  311.7889
 120  189.9181
 121  238.2003
 122  239.2645
 123  359.6098
 124  312.3867
 125  298.0298
 126  317.2637
 127  245.3494
 128  311.4233
 129  293.3457
 130  432.5815
 131  399.7411
 132  338.3473
 133  345.9393
 134  300.9164
 135  341.9311
 136  330.0393
 137  313.0806
 138  350.765
 139  350.1516
 140  395.3403
 141  349.0859
 142  346.9304
 143  329.5458
 144  364.2582
 145  347.0912
 146  250.6321
 147  259.3602
 148  318.0258
 149  329.003
 150  385.6953
 151  465.8472
 152  387.0716
 153  410.4277
 154  369.1147
 155  404.287
 156  382.5156
 157  519.2018
 158  503.5222
 159  515.5056
 160  461.378
 161  338.6613
 162  428.1574
 163  397.0915
 164  432.6554
 165  410.6645
 166  339.758
 167  368.9563
 168  360.4762
 169  433.1459
 170  394.575
 171  451.6302
 172  417.5901
 173  376.31
 174  401.4191
 175  404.5533
 176  490.552
 177  521.1837
 178  498.614
 179  546.8235
 180  484.3627
 181  327.5533
 182  398.9773
 183  473.7623
 184  511.6338
 185  617.087
 186  521.7949
 187  524.0861
 188  465.9663
 189  477.5004
 190  323.1575
 191  396.1149
 192  514.3558
 193  361.403
 194  420.4655
 195  527.3348
 196  537.0609
 197  425.0303
 198  347.9821
 199  501.6935
 200  477.4101
 201  525.7662
 202  541.7081
 203  485.9013
 204  488.304
 205  338.0551
 206  394.7566
 207  551.8004
 208  546.7745
 209  545.9406
 210  394.6502
 211  316.9409
 212  298.1033
 213  322.1871
 214  245.1441
 215  311.4485
 216  377.0968
 217  339.2516
 218  448.7055
 219  353.062
 220  416.6077
 221  362.341
 222  492.9435
 223  498.1137
 224  361.8437
 225  332.2514
 226  391.2901
 227  345.3192
 228  327.7012
 229  471.693
 230  396.1383
 231  310.6732
 232  371.8555
 233  429.8058
 234  421.324
 235  403.1166
 236  462.8206
 237  417.6922
 238  484.2719
 239  508.7433
 240  365.171
 241  444.3958
 242  403.4116
 243  290.2667
 244  347.1033
 245  384.8969
 246  349.0786
 247  259.0022
 248  301.2975
 249  274.5892
 250  299.6789
 251  443.284
 252  306.9512
 253  297.647
 254  358.0418
 255  371.7136
 256  299.8665
 257  278.1968
 258  400.8893
 259  348.6936
 260  374.7316
 261  441.8847
 262  390.0772
 263  322.6419
 264  330.8082
 265  343.3641
 266  346.0736
 267  298.1732
 268  197.4691
 269  392.9579
 270  388.193
 271  392.3085
 272  208.6178
 273  293.5786
 274  416.1765
 275  397.379
 276  366.3726
 277  391.163
 278  363.31
 279  343.1307
 280  541.9755
 281  286.4461
 282  285.8485
 283  355.1368
 284  365.0264
 285  381.6238
 286  376.2647
 287  466.6246
 288  435.2103
 289  405.3576
 290  513.2822
 291  420.4732
 292  442.9232
 293  547.1628
 294  420.5569
 295  468.2192
 296  441.1684
 297  465.9979
 298  296.2415
 299  385.1321
 300  485.7279
 301  441.0723
 302  442.6683
 303  484.51
 304  417.4785
 305  374.8444
 306  449.6852
 307  483.1635
 308  412.4879
 309  378.9948
 310  415.3833
 311  391.0318
 312  457.3522
 313  426.2645
 314  423.2845
 315  458.65
 316  446.078
 317  311.7071
 318  345.351
 319  428.1634
 320  459.012
 321  404.4625
 322  366.7299
 323  445.6047
 324  445.9466
 325  472.0964
 326  473.0089
 327  485.5884
 328  552.8216
 329  490.2012
 330  478.4683
 331  410.9253
 332  417.4583
 333  413.5367
 334  410.9871
 335  411.6759
 336  359.4867
 337  316.6219
 338  342.721
 339  340.0517
 340  438.2921
 341  414.808
 342  386.7903
 343  298.2168
 344  453.8105
 345  482.4954
 346  307.6994
 347  296.1768
 348  320.042
 349  411.5402
 350  429.0421
 351  392.1218
 352  534.1712
 353  491.394
 354  387.3063
 355  404.8923
 356  369.5382
 357  389.6099
 358  417.1349
 359  485.959
 360  450.2259
 361  424.3395
 362  448.4744
 363  475.9066
 364  400.909
 365  441.2116
 366  433.0534
 367  390.8402
 368  396.4012
 369  400.6262
 370  385.9486
 371  511.3992
 372  477.1668
 373  499.0313
 374  467.5625
 375  321.9669
 376  501.9026
 377  539.0056
 378  511.8128
 379  565.1182
 380  447.6755
 381  439.7695
 382  334.9871
 383  543.9543
 384  552.9268
 385  509.4382
 386  481.0995
 387  549.3842
 388  456.8469
 389  550.275
 390  557.3419
 391  564.8025
 392  502.9785
 393  416.4109
 394  477.2068
 395  481.2094
 396  357.9113
 397  295.6923
 398  392.7271
 399  287.3522
 400  371.8379
 401  468.8037
 402  401.8254
 403  543.7969
 404  482.8003
 405  330.4088
 406  366.1398
 407  536.3383
 408  549.0076
 409  478.1988
 410  512.0739
 411  572.7209
 412  414.8287
 413  377.8382
 414  416.1099
 415  481.665
 416  402.5186
 417  418.7666
 418  471.0052
 419  592.1874
 420  448.7902
 421  425.0886
 422  566.4759
 423  507.6587
 424  403.1796
 425  429.9035
 426  406.6671
 427  399.2407
 428  471.6658
 429  413.332
 430  231.117
 431  308.5599
 432  296.6947
 433  180.4503
 434  280.897
 435  475.738
 436  419.1283
 437  290.4141
 438  437.3014
 439  393.622
 440  372.9197
 441  310.1205
 442  342.2545
 443  371.1729
 444  417.9669
 445  517.363
 446  494.2034
 447  348.7085
 448  337.3522
 449  446.0855
 450  328.4417
 451  448.2475
 452  571.7894
 453  463.0303
 454  336.9215
 455  382.5453
 456  424.4817
 457  437.4885
 458  465.7858
 459  491.4736
 460  370.5365
 461  503.4544
 462  550.1724
 463  478.4261
 464  528.2938
 465  343.2224
 466  415.8771
 467  434.9097
 468  402.8099
 469  462.1098
 470  518.5464
 471  512.4432
 472  359.4701
 473  355.5453
 474  532.4153
 475  572.3531
 476  453.1475
 477  350.5874
 478  402.8079
 479  404.3827
 480  427.1986
 481  376.0159
 482  361.2757
 483  398.0921
 484  410.5556
 485  386.5762
 486  411.4335
 487  379.2576
 488  426.7819
 489  520.0628
 490  411.6832
 491  380.865
 492  375.8241
 493  471.4136
 494  455.7714
 495  404.6438
 496  401.5131
 497  449.2899
 498  464.2188
 499  361.6793
 500  363.0778
 501  488.612
 502  422.8162
 503  364.6898
 504  573.1097
 505  584.9357
 506  552.6165
 507  556.5765
 508  641.7513
 509  642.1608
 510  836.5308
 511  1047.009
