# Input file       =  1179374391.100717_cleaned.dat
# Candidate        =  PSR_0332+5434
# Telescope        =  AR
# Epoch_topo       =  57894.166355332374
# Epoch_bary       =  N/A
# T_sample         =  0.002
# Data Folded      =  7208960
# Data Avg         =  0.0317663324626009
# Data StdDev      =  1.00004073206093 
# Profile Bins     =  512
# Profile Avg      =  447.271967750906 
# Profile StdDev   =  118.664009026309 
# Reduced chi-sqr  =  1.076
# Prob(Noise)      <  0.113   (~1.2 sigma)
# P_topo (ms)      =  714.527252713515  +/- 0.000225
# P'_topo (s/s)    =  -0                +/- 1.21e-10
# P''_topo (s/s^2) =  0                 +/- 5.43e-14
# P_bary (ms)      =  N/A
# P'_bary (s/s)    =  N/A
# P''_bary (s/s^2) =  N/A
# P_orb (s)        =  N/A
# asin(i)/c (s)    =  N/A
# eccentricity     =  N/A
# w (rad)          =  N/A
# T_peri           =  N/A
######################################################
   0  588.1816
   1  746.3779
   2  626.1359
   3  453.0435
   4  502.6288
   5  467.1681
   6  422.8363
   7  483.5893
   8  477.6089
   9  386.5395
  10  414.9844
  11  464.0255
  12  519.5073
  13  473.4397
  14  502.3415
  15  538.8655
  16  507.5137
  17  362.6772
  18  444.0542
  19  474.9363
  20  492.9721
  21  507.5409
  22  574.5625
  23  369.9535
  24  375.6591
  25  422.1385
  26  500.7301
  27  461.6042
  28  508.1482
  29  577.2434
  30  573.8584
  31  567.1409
  32  458.7667
  33  525.9611
  34  481.5299
  35  405.0595
  36  475.2453
  37  548.7704
  38  567.6788
  39  527.7914
  40  537.4273
  41  474.7292
  42  472.1568
  43  500.1065
  44  480.2785
  45  444.1604
  46  421.783
  47  470.1279
  48  574.2629
  49  553.7507
  50  457.7904
  51  490.4218
  52  370.0125
  53  277.9359
  54  391.0883
  55  462.636
  56  526.5608
  57  577.6804
  58  474.7869
  59  368.8683
  60  352.5963
  61  487.4476
  62  507.3913
  63  572.9703
  64  531.5764
  65  459.1072
  66  386.1255
  67  469.6007
  68  467.7085
  69  450.1793
  70  504.8091
  71  427.7389
  72  412.3218
  73  391.6652
  74  516.9544
  75  509.844
  76  522.6989
  77  575.6845
  78  507.2919
  79  518.9978
  80  527.51
  81  540.3795
  82  597.3071
  83  526.4851
  84  491.1275
  85  493.3426
  86  616.8322
  87  605.4376
  88  570.5448
  89  471.1244
  90  448.0485
  91  450.0791
  92  497.3147
  93  523.3063
  94  355.0826
  95  319.3326
  96  452.9986
  97  328.0451
  98  293.4277
  99  426.1593
 100  517.759
 101  620.5483
 102  519.8271
 103  490.4839
 104  584.8708
 105  479.9465
 106  342.246
 107  433.6148
 108  496.9239
 109  587.367
 110  539.7261
 111  463.0636
 112  572.8555
 113  533.7581
 114  585.7435
 115  603.8405
 116  517.504
 117  509.9811
 118  480.2715
 119  488.533
 120  464.5807
 121  481.9238
 122  510.8647
 123  446.4003
 124  331.6969
 125  333.4091
 126  410.9666
 127  408.5252
 128  553.2797
 129  637.698
 130  550.7198
 131  442.4074
 132  487.5427
 133  410.1952
 134  367.9119
 135  427.2088
 136  458.6221
 137  404.7943
 138  386.6384
 139  407.7381
 140  424.4203
 141  509.3542
 142  454.4673
 143  427.2797
 144  341.5428
 145  393.084
 146  448.875
 147  564.7698
 148  468.6306
 149  391.0874
 150  368.1438
 151  476.1325
 152  470.7821
 153  437.2981
 154  495.804
 155  378.3165
 156  347.1875
 157  396.282
 158  433.5319
 159  380.6422
 160  369.6368
 161  461.5742
 162  384.9615
 163  423.9918
 164  259.2271
 165  417.6186
 166  544.6595
 167  424.6044
 168  348.9576
 169  265.8746
 170  379.5687
 171  389.4099
 172  396.5217
 173  409.7812
 174  401.8301
 175  394.3253
 176  381.7515
 177  424.8186
 178  416.5391
 179  484.1985
 180  527.5688
 181  429.4247
 182  442.0497
 183  418.9174
 184  463.914
 185  414.3453
 186  405.1933
 187  512.8054
 188  413.2934
 189  316.4783
 190  377.6939
 191  364.8411
 192  504.5429
 193  504.5935
 194  396.948
 195  333.5297
 196  335.829
 197  391.5344
 198  376.5114
 199  415.2544
 200  558.1067
 201  416.5988
 202  321.7445
 203  360.423
 204  318.4187
 205  342.2406
 206  470.7188
 207  472.3032
 208  383.4372
 209  465.6985
 210  442.2943
 211  487.7569
 212  371.1889
 213  398.9198
 214  377.8661
 215  430.5147
 216  357.2878
 217  457.3654
 218  476.0951
 219  442.2733
 220  444.3803
 221  463.3033
 222  493.375
 223  381.1155
 224  343.6446
 225  527.4366
 226  482.5507
 227  389.1448
 228  332.1118
 229  438.553
 230  515.3208
 231  597.337
 232  457.9193
 233  474.2988
 234  528.3982
 235  502.817
 236  618.1793
 237  539.4588
 238  439.3529
 239  422.1414
 240  325.2462
 241  323.5392
 242  369.9979
 243  381.4127
 244  350.5172
 245  389.5145
 246  273.7822
 247  291.9428
 248  318.1941
 249  246.4901
 250  382.3551
 251  336.4318
 252  349.8144
 253  405.0681
 254  455.1566
 255  454.1122
 256  371.1973
 257  515.0313
 258  419.8662
 259  383.6929
 260  369.8334
 261  418.7013
 262  429.236
 263  448.5721
 264  441.0977
 265  414.7008
 266  360.035
 267  296.7076
 268  275.6152
 269  446.4727
 270  421.3683
 271  383.9127
 272  415.4522
 273  415.3133
 274  274.1805
 275  331.9202
 276  344.1258
 277  485.453
 278  425.0137
 279  265.7191
 280  230.4206
 281  353.5019
 282  497.8355
 283  447.4586
 284  406.8456
 285  379.4705
 286  415.8066
 287  437.9157
 288  413.1781
 289  418.2857
 290  400.3523
 291  377.3302
 292  385.6037
 293  317.4406
 294  416.2242
 295  442.8243
 296  489.8019
 297  539.7537
 298  454.1018
 299  453.0026
 300  442.178
 301  632.9568
 302  631.9122
 303  584.574
 304  409.1443
 305  430.9783
 306  474.2981
 307  356.5739
 308  497.7989
 309  570.519
 310  492.1822
 311  404.6504
 312  439.7536
 313  346.2093
 314  314.4353
 315  454.071
 316  535.4616
 317  532.0555
 318  516.6413
 319  510.3057
 320  479.1465
 321  448.8134
 322  410.5995
 323  361.9719
 324  468.0647
 325  252.7044
 326  304.2675
 327  520.4208
 328  541.9232
 329  483.6326
 330  442.5149
 331  412.7312
 332  444.4143
 333  390.8949
 334  403.7593
 335  357.417
 336  432.0664
 337  369.513
 338  367.7734
 339  426.4776
 340  368.1703
 341  354.7072
 342  427.1942
 343  522.7526
 344  415.4966
 345  438.0692
 346  453.8475
 347  506.6516
 348  469.662
 349  489.2336
 350  494.3637
 351  539.4442
 352  472.6904
 353  505.0736
 354  495.2738
 355  450.4676
 356  478.965
 357  500.5019
 358  527.2893
 359  389.7135
 360  348.6248
 361  385.8866
 362  446.1543
 363  413.0063
 364  341.3193
 365  428.4428
 366  325.6111
 367  360.3802
 368  446.7318
 369  430.4136
 370  332.2325
 371  309.7053
 372  313.7234
 373  312.3502
 374  288.6393
 375  319.6917
 376  278.7689
 377  366.3574
 378  446.7509
 379  468.4827
 380  429.0178
 381  489.1606
 382  517.9185
 383  509.8053
 384  593.3343
 385  744.7285
 386  814.1998
 387  755.0231
 388  840.2546
 389  862.5659
 390  712.5004
 391  603.2508
 392  473.7853
 393  525.0991
 394  498.3339
 395  471.1219
 396  422.983
 397  426.7036
 398  542.223
 399  424.4869
 400  341.3419
 401  405.8337
 402  451.3593
 403  559.9135
 404  479.1641
 405  427.4449
 406  421.0902
 407  362.241
 408  365.7615
 409  517.8346
 410  454.8441
 411  393.09
 412  450.0279
 413  496.8545
 414  444.7031
 415  567.2137
 416  648.2946
 417  605.9236
 418  565.8849
 419  465.684
 420  530.1524
 421  583.0648
 422  576.6244
 423  573.6973
 424  521.96
 425  585.8155
 426  576.5247
 427  585.8193
 428  589.5322
 429  581.7192
 430  561.9645
 431  507.1453
 432  530.6138
 433  516.4278
 434  455.8015
 435  429.8207
 436  514.7999
 437  534.5195
 438  456.1394
 439  584.3936
 440  529.9818
 441  461.3493
 442  478.6642
 443  403.9482
 444  405.0876
 445  338.054
 446  405.1126
 447  393.082
 448  451.4417
 449  435.0728
 450  492.5712
 451  428.2151
 452  380.917
 453  365.6112
 454  377.8057
 455  422.8776
 456  361.7426
 457  354.814
 458  442.655
 459  413.6432
 460  371.4026
 461  264.0362
 462  361.6594
 463  309.0697
 464  321.5611
 465  349.3945
 466  360.4247
 467  367.4324
 468  300.916
 469  266.411
 470  337.2292
 471  413.9527
 472  412.3625
 473  286.0979
 474  349.3782
 475  348.8038
 476  381.9203
 477  519.0903
 478  515.0128
 479  380.3905
 480  380.0967
 481  464.78
 482  416.1182
 483  432.3899
 484  402.3543
 485  318.7805
 486  285.4236
 487  307.9169
 488  402.8785
 489  538.1262
 490  389.9354
 491  317.5823
 492  373.3017
 493  405.9618
 494  407.2039
 495  492.5178
 496  503.501
 497  380.3573
 498  369.0037
 499  508.6378
 500  472.7971
 501  393.2168
 502  456.6827
 503  498.0002
 504  464.844
 505  381.6153
 506  451.7875
 507  414.1983
 508  415.0717
 509  454.2491
 510  495.2143
 511  550.5787
