# Input file       =  1179891925.097309_cleaned.dat
# Candidate        =  PSR_0332+5434
# Telescope        =  AR
# Epoch_topo       =  57900.156332144783
# Epoch_bary       =  N/A
# T_sample         =  0.002
# Data Folded      =  7208960
# Data Avg         =  0.0300507529057617
# Data StdDev      =  1.00007058878771 
# Profile Bins     =  512
# Profile Avg      =  422.858461272066 
# Profile StdDev   =  118.667551800901 
# Reduced chi-sqr  =  1.098
# Prob(Noise)      <  0.0619   (~1.5 sigma)
# P_topo (ms)      =  714.521329066589  +/- 0.00036
# P'_topo (s/s)    =  -0                +/- 1.93e-10
# P''_topo (s/s^2) =  0                 +/- 8.68e-14
# P_bary (ms)      =  N/A
# P'_bary (s/s)    =  N/A
# P''_bary (s/s^2) =  N/A
# P_orb (s)        =  N/A
# asin(i)/c (s)    =  N/A
# eccentricity     =  N/A
# w (rad)          =  N/A
# T_peri           =  N/A
######################################################
   0  881.0838
   1  776.1003
   2  697.923
   3  565.4141
   4  485.5995
   5  411.6799
   6  389.0034
   7  401.1975
   8  383.5787
   9  409.2919
  10  288.2191
  11  310.2828
  12  361.6045
  13  300.3071
  14  374.9351
  15  410.5036
  16  395.1288
  17  340.0061
  18  361.8218
  19  419.8805
  20  411.2065
  21  356.1033
  22  355.7245
  23  443.0309
  24  430.3651
  25  538.7837
  26  557.6891
  27  458.5753
  28  361.6947
  29  350.9653
  30  410.9501
  31  451.194
  32  525.8151
  33  532.734
  34  495.5464
  35  511.3146
  36  465.8665
  37  513.1337
  38  467.3098
  39  356.8112
  40  382.1476
  41  340.9182
  42  324.7385
  43  387.0537
  44  335.5392
  45  362.0352
  46  248.32
  47  305.1423
  48  365.8259
  49  340.927
  50  273.221
  51  325.6066
  52  455.8714
  53  522.2362
  54  501.1835
  55  477.2861
  56  371.1446
  57  297.8929
  58  461.4109
  59  405.3235
  60  296.4873
  61  336.2669
  62  456.7341
  63  384.944
  64  299.6316
  65  299.2422
  66  254.1633
  67  410.6245
  68  410.7911
  69  375.2166
  70  349.2722
  71  292.0002
  72  395.4468
  73  431.9429
  74  418.2826
  75  415.8876
  76  431.7788
  77  439.4275
  78  411.2632
  79  329.7759
  80  502.252
  81  455.1527
  82  411.8041
  83  473.3345
  84  479.0228
  85  493.0944
  86  419.1007
  87  333.9023
  88  359.347
  89  436.4997
  90  596.8549
  91  586.4367
  92  506.9829
  93  444.0472
  94  441.4447
  95  440.9179
  96  487.6284
  97  509.3148
  98  467.1824
  99  505.0047
 100  465.6967
 101  463.7259
 102  496.0558
 103  370.0575
 104  460.5491
 105  478.6342
 106  439.6784
 107  470.7689
 108  472.4654
 109  503.8177
 110  560.7892
 111  468.3735
 112  370.1514
 113  346.1871
 114  470.1735
 115  519.4622
 116  607.9827
 117  476.1308
 118  380.6248
 119  420.4754
 120  513.1793
 121  534.6536
 122  495.7308
 123  462.4445
 124  403.3497
 125  353.0819
 126  465.5116
 127  424.2685
 128  448.3332
 129  458.0133
 130  447.7521
 131  397.1864
 132  388.1702
 133  372.5287
 134  456.851
 135  516.0084
 136  479.9286
 137  440.326
 138  400.1416
 139  397.0064
 140  439.9753
 141  472.0251
 142  426.6306
 143  419.439
 144  367.4261
 145  264.4962
 146  303.6352
 147  400.5646
 148  394.9301
 149  337.5486
 150  423.2398
 151  497.3455
 152  515.2836
 153  422.3888
 154  355.0021
 155  377.8939
 156  529.5104
 157  511.7338
 158  459.5881
 159  526.1245
 160  532.9865
 161  502.4136
 162  447.2311
 163  443.5858
 164  489.0115
 165  467.7072
 166  537.5675
 167  429.1754
 168  445.0485
 169  462.9238
 170  461.7012
 171  330.3457
 172  387.2563
 173  456.0427
 174  427.3763
 175  297.258
 176  455.5873
 177  441.7791
 178  419.556
 179  421.6878
 180  460.1333
 181  392.5055
 182  351.1433
 183  293.0298
 184  341.5135
 185  411.0799
 186  518.6398
 187  432.4313
 188  346.925
 189  292.1958
 190  391.6405
 191  381.3531
 192  452.5216
 193  319.4407
 194  318.7284
 195  383.6121
 196  392.4324
 197  466.4314
 198  493.8016
 199  476.608
 200  405.0466
 201  417.9378
 202  424.8321
 203  353.2285
 204  317.1086
 205  305.8447
 206  256.4556
 207  145.2739
 208  289.9781
 209  214.5927
 210  272.435
 211  291.9691
 212  343.2494
 213  340.9049
 214  244.1315
 215  250.0282
 216  267.8987
 217  374.3051
 218  366.8344
 219  242.2202
 220  287.3494
 221  361.1798
 222  438.7364
 223  290.3149
 224  293.52
 225  396.4538
 226  341.1764
 227  267.5462
 228  226.0305
 229  336.0992
 230  359.8315
 231  294.3577
 232  199.5822
 233  328.0029
 234  409.211
 235  325.8122
 236  355.1694
 237  315.3629
 238  269.7285
 239  322.6051
 240  357.914
 241  430.6232
 242  415.9815
 243  425.1392
 244  372.8096
 245  467.8973
 246  440.5746
 247  364.817
 248  354.9687
 249  362.3226
 250  489.9218
 251  503.1179
 252  393.3367
 253  332.821
 254  247.5859
 255  394.3211
 256  395.7659
 257  373.8619
 258  426.5564
 259  394.2134
 260  361.0975
 261  405.3555
 262  487.7281
 263  479.4714
 264  390.6576
 265  313.6678
 266  371.2208
 267  364.3064
 268  437.4343
 269  457.5326
 270  453.9036
 271  369.0649
 272  377.1969
 273  352.3574
 274  296.9258
 275  197.5807
 276  237.7267
 277  222.1774
 278  344.1397
 279  317.1602
 280  397.6927
 281  374.9062
 282  301.7547
 283  343.1257
 284  445.5678
 285  421.0816
 286  428.4746
 287  364.8081
 288  326.6044
 289  311.8441
 290  375.4323
 291  378.6717
 292  389.7213
 293  314.1695
 294  289.6371
 295  374.045
 296  320.282
 297  357.4786
 298  451.132
 299  403.5006
 300  383.4352
 301  492.3421
 302  415.7529
 303  457.5448
 304  440.7953
 305  514.5975
 306  537.8434
 307  567.0953
 308  524.8892
 309  417.5385
 310  348.8308
 311  456.4028
 312  370.6788
 313  276.438
 314  275.7164
 315  357.7975
 316  464.3883
 317  398.267
 318  393.5317
 319  415.1993
 320  469.795
 321  474.337
 322  377.758
 323  316.1383
 324  372.2259
 325  448.7445
 326  356.0067
 327  370.5238
 328  401.1984
 329  418.8643
 330  358.0958
 331  453.7899
 332  454.703
 333  536.5789
 334  506.6967
 335  469.6144
 336  402.3015
 337  439.7956
 338  499.8319
 339  393.2668
 340  405.9426
 341  387.0985
 342  446.1008
 343  484.0544
 344  505.5602
 345  556.3023
 346  508.4536
 347  424.9432
 348  421.9141
 349  359.3877
 350  435.41
 351  426.8847
 352  429.1259
 353  414.383
 354  394.7728
 355  408.5564
 356  375.9217
 357  439.5472
 358  451.9651
 359  444.9468
 360  392.9738
 361  362.5352
 362  435.4802
 363  444.6229
 364  368.5207
 365  476.1212
 366  488.5713
 367  526.5853
 368  522.2332
 369  383.0492
 370  324.1561
 371  280.3221
 372  331.9463
 373  264.6331
 374  331.0012
 375  413.0249
 376  425.1071
 377  366.391
 378  374.8171
 379  305.9337
 380  338.4081
 381  423.0508
 382  488.2425
 383  446.2479
 384  441.7275
 385  443.5145
 386  351.0573
 387  264.15
 388  388.3144
 389  447.6574
 390  460.3323
 391  483.9001
 392  450.7951
 393  370.6204
 394  361.049
 395  441.4529
 396  432.6574
 397  574.7207
 398  560.3133
 399  452.8385
 400  426.4307
 401  497.7148
 402  473.2329
 403  483.1326
 404  506.1996
 405  571.6339
 406  558.9076
 407  486.4944
 408  548.9516
 409  566.0798
 410  488.6114
 411  595.1147
 412  497.621
 413  556.7263
 414  624.7424
 415  620.4076
 416  583.8593
 417  551.9112
 418  456.7474
 419  457.9416
 420  538.6545
 421  598.8511
 422  582.8615
 423  546.0474
 424  555.2424
 425  462.4142
 426  512.3997
 427  566.7953
 428  466.6815
 429  514.5804
 430  522.141
 431  462.2992
 432  444.2562
 433  513.1119
 434  375.8321
 435  348.7106
 436  329.4419
 437  344.9062
 438  465.6219
 439  507.4773
 440  382.8853
 441  327.3214
 442  321.4814
 443  253.8149
 444  328.3931
 445  345.0372
 446  391.2206
 447  341.8145
 448  299.1744
 449  448.901
 450  524.8342
 451  517.6044
 452  493.0735
 453  530.0666
 454  461.864
 455  430.0799
 456  456.7675
 457  496.1813
 458  479.3966
 459  417.8518
 460  520.0488
 461  392.6733
 462  527.7645
 463  490.3446
 464  513.033
 465  499.8682
 466  465.2596
 467  448.8751
 468  459.667
 469  478.2591
 470  342.2211
 471  499.9214
 472  580.2506
 473  578.4595
 474  487.943
 475  360.5282
 476  342.6888
 477  422.4387
 478  499.2715
 479  406.6999
 480  481.2769
 481  513.4254
 482  423.4236
 483  474.6031
 484  466.9423
 485  379.218
 486  453.5677
 487  555.2701
 488  578.2151
 489  494.3332
 490  500.8882
 491  418.0484
 492  340.8945
 493  374.45
 494  457.3384
 495  431.0323
 496  523.3771
 497  503.878
 498  325.7209
 499  428.3308
 500  409.3748
 501  514.9445
 502  561.4194
 503  570.3235
 504  442.9825
 505  486.5
 506  505.3535
 507  501.4837
 508  534.8342
 509  652.4321
 510  766.6913
 511  830.8048
