# Input file       =  1179977562.10106_cleaned.dat
# Candidate        =  PSR_0332+5434
# Telescope        =  AR
# Epoch_topo       =  57901.147501169675
# Epoch_bary       =  N/A
# T_sample         =  0.002
# Data Folded      =  7208960
# Data Avg         =  0.0327536806756122
# Data StdDev      =  1.0009281716772  
# Profile Bins     =  512
# Profile Avg      =  461.140850484242 
# Profile StdDev   =  118.769311879743 
# Reduced chi-sqr  =  1.306
# Prob(Noise)      <  3.62e-06   (~4.5 sigma)
# P_topo (ms)      =  714.520356458458  +/- 6.5e-05
# P'_topo (s/s)    =  -0                +/- 3.49e-11
# P''_topo (s/s^2) =  0                 +/- 1.57e-14
# P_bary (ms)      =  N/A
# P'_bary (s/s)    =  N/A
# P''_bary (s/s^2) =  N/A
# P_orb (s)        =  N/A
# asin(i)/c (s)    =  N/A
# eccentricity     =  N/A
# w (rad)          =  N/A
# T_peri           =  N/A
######################################################
   0  990.6164
   1  950.4033
   2  847.3261
   3  678.1509
   4  504.948
   5  540.8672
   6  499.294
   7  447.9707
   8  489.5157
   9  405.3174
  10  465.489
  11  562.0807
  12  527.3679
  13  399.081
  14  603.2807
  15  689.9353
  16  598.3237
  17  518.0003
  18  488.3769
  19  478.4528
  20  389.5003
  21  371.779
  22  457.5795
  23  489.8215
  24  536.6147
  25  451.0702
  26  394.071
  27  351.0297
  28  440.0513
  29  427.0606
  30  508.4039
  31  493.4067
  32  474.066
  33  485.8573
  34  378.3878
  35  361.8995
  36  296.8196
  37  199.6541
  38  266.6315
  39  449.4762
  40  476.005
  41  380.4851
  42  244.3102
  43  278.3317
  44  384.6978
  45  403.8391
  46  417.4497
  47  367.177
  48  405.3616
  49  412.7569
  50  261.1015
  51  319.3868
  52  309.0537
  53  258.3328
  54  343.8198
  55  502.2599
  56  521.0276
  57  490.516
  58  359.3552
  59  341.6759
  60  345.2651
  61  455.6789
  62  604.2114
  63  590.8437
  64  499.5406
  65  486.3283
  66  492.0888
  67  436.5146
  68  396.721
  69  425.5204
  70  387.5597
  71  460.2643
  72  547.2076
  73  514.4749
  74  499.8184
  75  521.2305
  76  476.5769
  77  487.5738
  78  436.7169
  79  478.4794
  80  423.398
  81  524.8584
  82  576.5261
  83  535.7272
  84  437.0207
  85  406.554
  86  444.5305
  87  527.0004
  88  658.5088
  89  678.7457
  90  594.0074
  91  436.9626
  92  286.6024
  93  272.8227
  94  559.3334
  95  635.161
  96  606.0228
  97  575.2033
  98  580.3743
  99  424.251
 100  504.3766
 101  525.0111
 102  489.5279
 103  529.1894
 104  564.6993
 105  661.9984
 106  561.7774
 107  355.3434
 108  308.2782
 109  348.4743
 110  504.209
 111  593.5508
 112  550.4957
 113  508.9073
 114  509.234
 115  459.5717
 116  381.8851
 117  376.4424
 118  362.6787
 119  246.4931
 120  195.7903
 121  379.1228
 122  409.4031
 123  252.9055
 124  227.1238
 125  340.3095
 126  345.4716
 127  325.6731
 128  352.5403
 129  398.4914
 130  441.2049
 131  313.3048
 132  241.7541
 133  358.1294
 134  418.4292
 135  415.1645
 136  429.3045
 137  406.3137
 138  458.9671
 139  442.5101
 140  404.5567
 141  396.3138
 142  383.0163
 143  384.3386
 144  432.4963
 145  499.231
 146  549.6575
 147  636.0923
 148  540.3392
 149  405.7643
 150  357.0645
 151  318.0089
 152  468.8388
 153  503.6918
 154  475.6619
 155  530.8659
 156  482.3346
 157  548.7242
 158  492.2536
 159  335.2336
 160  406.5207
 161  535.372
 162  552.7529
 163  602.9695
 164  529.0753
 165  464.8972
 166  332.8649
 167  377.9571
 168  383.3052
 169  454.0541
 170  530.3971
 171  401.0593
 172  422.1859
 173  559.4542
 174  484.2741
 175  421.5063
 176  485.4977
 177  557.2386
 178  556.6484
 179  561.7158
 180  485.6868
 181  483.2032
 182  474.1725
 183  459.5102
 184  518.9965
 185  438.6335
 186  349.1824
 187  362.8007
 188  489.6401
 189  578.3604
 190  484.3382
 191  502.3874
 192  510.8453
 193  476.5882
 194  494.7551
 195  589.5103
 196  579.8513
 197  573.4639
 198  452.2426
 199  470.7301
 200  569.5413
 201  495.7476
 202  458.7204
 203  534.6793
 204  498.3979
 205  474.8176
 206  579.8374
 207  564.2147
 208  512.4384
 209  429.3145
 210  476.3609
 211  520.2028
 212  436.5306
 213  521.3325
 214  615.717
 215  478.6055
 216  496.6861
 217  479.5678
 218  509.6179
 219  516.449
 220  528.6248
 221  524.4252
 222  566.671
 223  617.9526
 224  510.0024
 225  498.4709
 226  521.3929
 227  638.8577
 228  701.8624
 229  712.1995
 230  639.651
 231  468.2037
 232  476.2542
 233  430.9802
 234  498.1988
 235  489.8652
 236  519.9519
 237  510.2626
 238  577.402
 239  486.0196
 240  485.8061
 241  595.8116
 242  578.9191
 243  521.6987
 244  521.0583
 245  555.8225
 246  534.0853
 247  512.0363
 248  455.8083
 249  388.8152
 250  374.2648
 251  417.0481
 252  383.235
 253  494.9202
 254  523.6188
 255  481.0009
 256  520.822
 257  518.842
 258  453.8058
 259  346.3756
 260  298.0157
 261  455.7145
 262  495.0454
 263  492.572
 264  402.3247
 265  419.1976
 266  503.8906
 267  497.2067
 268  249.242
 269  227.1227
 270  598.3624
 271  580.5993
 272  509.2083
 273  442.1873
 274  352.1105
 275  509.3598
 276  438.9714
 277  512.517
 278  575.2983
 279  542.7464
 280  557.8514
 281  535.6106
 282  439.7166
 283  449.6245
 284  392.0643
 285  346.9595
 286  403.4914
 287  420.0816
 288  420.9039
 289  437.3335
 290  437.3589
 291  318.9869
 292  343.1882
 293  416.2124
 294  479.4437
 295  453.8501
 296  361.558
 297  413.6088
 298  383.174
 299  367.6654
 300  433.414
 301  344.503
 302  431.2504
 303  469.7119
 304  410.4917
 305  446.9162
 306  521.2749
 307  398.3668
 308  365.773
 309  534.326
 310  586.1127
 311  498.4785
 312  422.8922
 313  330.9203
 314  348.2447
 315  341.1906
 316  413.0284
 317  429.8596
 318  431.7288
 319  485.5947
 320  536.407
 321  481.155
 322  561.772
 323  474.6126
 324  416.96
 325  469.8243
 326  473.7637
 327  436.9768
 328  461.4444
 329  496.9805
 330  456.4145
 331  367.6879
 332  417.9346
 333  268.5316
 334  156.7889
 335  294.0759
 336  434.3667
 337  520.4782
 338  477.3979
 339  571.7261
 340  486.9832
 341  355.9564
 342  493.075
 343  418.2073
 344  391.7272
 345  609.5468
 346  586.505
 347  427.0796
 348  296.1963
 349  444.3712
 350  466.2165
 351  506.3047
 352  458.5963
 353  461.5659
 354  522.4171
 355  472.5536
 356  505.9299
 357  480.7733
 358  526.6983
 359  516.8571
 360  480.5846
 361  596.3675
 362  538.565
 363  454.8869
 364  519.0923
 365  476.4639
 366  493.8927
 367  390.461
 368  464.6308
 369  538.2322
 370  498.0301
 371  404.0229
 372  392.4875
 373  446.1934
 374  527.7587
 375  438.2826
 376  512.4885
 377  551.1995
 378  440.7082
 379  434.9785
 380  526.0839
 381  404.435
 382  332.4131
 383  374.9546
 384  354.8951
 385  406.3287
 386  395.4852
 387  483.6116
 388  416.8497
 389  327.9291
 390  320.1961
 391  407.7373
 392  508.0196
 393  492.1521
 394  396.7099
 395  421.9303
 396  557.2236
 397  455.9254
 398  446.891
 399  405.1604
 400  363.0023
 401  480.4498
 402  689.5146
 403  628.3479
 404  532.2631
 405  492.2451
 406  476.0053
 407  366.1749
 408  348.5665
 409  502.302
 410  416.1386
 411  420.6876
 412  423.3438
 413  483.5643
 414  491.4373
 415  468.5881
 416  289.4951
 417  307.0066
 418  493.9175
 419  410.2472
 420  375.8823
 421  418.0196
 422  367.8371
 423  354.8436
 424  375.7427
 425  376.7858
 426  401.3438
 427  518.1288
 428  464.5904
 429  400.2469
 430  461.1282
 431  413.5898
 432  359.7928
 433  456.9914
 434  387.0529
 435  465.2749
 436  519.126
 437  468.2638
 438  380.0634
 439  359.822
 440  315.7946
 441  412.46
 442  391.1352
 443  577.5045
 444  668.694
 445  467.9341
 446  448.7807
 447  579.1804
 448  608.5954
 449  575.3853
 450  432.7677
 451  367.4858
 452  537.1164
 453  537.8784
 454  468.2278
 455  364.1724
 456  388.4759
 457  375.724
 458  422.2623
 459  493.9123
 460  533.5784
 461  424.1289
 462  444.3749
 463  314.1503
 464  322.4504
 465  509.807
 466  401.3985
 467  432.2851
 468  485.9388
 469  477.9886
 470  448.7335
 471  456.5297
 472  420.5426
 473  390.6941
 474  467.8767
 475  484.7398
 476  501.337
 477  622.2906
 478  488.3364
 479  423.7893
 480  344.2968
 481  395.2724
 482  409.3856
 483  478.1635
 484  500.0517
 485  471.0158
 486  462.9151
 487  479.5398
 488  451.2591
 489  520.8214
 490  406.2219
 491  373.943
 492  423.3997
 493  462.8061
 494  491.3991
 495  522.4922
 496  485.117
 497  409.8356
 498  378.6932
 499  464.6027
 500  357.327
 501  432.3114
 502  339.5575
 503  382.7287
 504  406.196
 505  369.7459
 506  387.7951
 507  410.1355
 508  505.6725
 509  725.9584
 510  765.2133
 511  942.2325
