# Input file       =  1179145456.098846_cleaned.dat
# Candidate        =  PSR_0332+5434
# Telescope        =  AR
# Epoch_topo       =  57891.516644662566
# Epoch_bary       =  N/A
# T_sample         =  0.002
# Data Folded      =  7340032
# Data Avg         =  0.0229088728380705
# Data StdDev      =  1.00003408962522 
# Profile Bins     =  512
# Profile Avg      =  328.445279820688 
# Profile StdDev   =  119.737118031102 
# Reduced chi-sqr  =  1.218
# Prob(Noise)      <  0.000523   (~3.3 sigma)
# P_topo (ms)      =  714.530192016143  +/- 0.000251
# P'_topo (s/s)    =  -0                +/- 1.32e-10
# P''_topo (s/s^2) =  0                 +/- 5.85e-14
# P_bary (ms)      =  N/A
# P'_bary (s/s)    =  N/A
# P''_bary (s/s^2) =  N/A
# P_orb (s)        =  N/A
# asin(i)/c (s)    =  N/A
# eccentricity     =  N/A
# w (rad)          =  N/A
# T_peri           =  N/A
######################################################
   0  238.4744
   1  235.0168
   2  219.741
   3  337.455
   4  348.5134
   5  348.2031
   6  398.5666
   7  315.9712
   8  272.2707
   9  194.0373
  10  270.6148
  11  362.7602
  12  281.1333
  13  281.6459
  14  287.7819
  15  230.9915
  16  380.8199
  17  342.1265
  18  398.0578
  19  435.3137
  20  393.1019
  21  193.2002
  22  74.63742
  23  141.5537
  24  378.9934
  25  202.0782
  26  168.4932
  27  242.0524
  28  251.1292
  29  291.2102
  30  271.8167
  31  216.0604
  32  179.0143
  33  90.61788
  34  246.3829
  35  313.58
  36  320.8596
  37  256.8891
  38  230.659
  39  303.5627
  40  336.2969
  41  259.1373
  42  253.4823
  43  165.8133
  44  247.3469
  45  293.4775
  46  175.7202
  47  171.0746
  48  183.7943
  49  177.3512
  50  287.2436
  51  270.3589
  52  196.3331
  53  266.3283
  54  299.1794
  55  284.5691
  56  335.2416
  57  286.2836
  58  340.5513
  59  344.9276
  60  344.5207
  61  295.0617
  62  364.1701
  63  439.9774
  64  291.7322
  65  379.4691
  66  375.5362
  67  306.7263
  68  342.2852
  69  400.4239
  70  255.4343
  71  205.7848
  72  202.0946
  73  203.6688
  74  262.0091
  75  172.5727
  76  215.2478
  77  279.1521
  78  276.7956
  79  226.9517
  80  133.921
  81  261.9907
  82  229.0741
  83  342.5595
  84  339.6938
  85  287.4853
  86  295.5938
  87  367.4508
  88  306.1113
  89  278.022
  90  332.2953
  91  237.1407
  92  177.4285
  93  323.744
  94  360.2643
  95  272.8911
  96  194.1367
  97  491.102
  98  519.5151
  99  301.0949
 100  365.476
 101  248.1842
 102  200.7723
 103  211.8487
 104  194.84
 105  332.7966
 106  279.4696
 107  253.5192
 108  331.2903
 109  453.0595
 110  473.4256
 111  412.4671
 112  406.9483
 113  471.7918
 114  358.7537
 115  342.7552
 116  265.834
 117  279.5505
 118  340.9075
 119  310.4392
 120  245.0497
 121  397.7542
 122  429.2797
 123  404.6805
 124  235.211
 125  309.1073
 126  386.8325
 127  425.2355
 128  277.2813
 129  309.425
 130  318.0875
 131  283.8683
 132  328.0992
 133  316.0988
 134  353.7111
 135  276.4828
 136  289.6067
 137  366.2834
 138  267.3611
 139  422.927
 140  437.6538
 141  363.2202
 142  276.7278
 143  305.9229
 144  393.293
 145  374.9681
 146  271.2308
 147  302.4778
 148  374.9988
 149  347.3594
 150  294.7236
 151  384.0609
 152  391.6409
 153  436.0019
 154  411.122
 155  351.323
 156  281.4956
 157  338.9567
 158  259.8748
 159  386.6976
 160  391.458
 161  352.2333
 162  220.9089
 163  146.9547
 164  355.0789
 165  342.5193
 166  169.6975
 167  304.0812
 168  366.0261
 169  337.0768
 170  260.1962
 171  283.3668
 172  274.6668
 173  301.4044
 174  390.4473
 175  337.5671
 176  401.3504
 177  280.1824
 178  231.7338
 179  391.0042
 180  373.5671
 181  241.2087
 182  262.4637
 183  363.8576
 184  371.0449
 185  395.6028
 186  365.3824
 187  320.0569
 188  384.0572
 189  463.9622
 190  394.943
 191  363.9279
 192  407.9988
 193  339.2501
 194  209.604
 195  267.8455
 196  187.2543
 197  167.9627
 198  201.6314
 199  325.2208
 200  317.6278
 201  354.5039
 202  370.2825
 203  434.2922
 204  358.5331
 205  183.0757
 206  187.2455
 207  287.3571
 208  291.393
 209  328.5296
 210  402.5735
 211  426.9405
 212  257.5144
 213  285.7415
 214  415.1938
 215  341.0306
 216  257.4439
 217  390.099
 218  407.3498
 219  244.6717
 220  268.6541
 221  232.9306
 222  204.3654
 223  241.4836
 224  297.7509
 225  338.4935
 226  397.3598
 227  409.1202
 228  380.9114
 229  316.0219
 230  267.3819
 231  338.0614
 232  326.0166
 233  372.4981
 234  402.4277
 235  326.8387
 236  236.7375
 237  405.323
 238  425.5733
 239  376.8972
 240  260.986
 241  339.0972
 242  373.675
 243  270.0225
 244  251.0004
 245  348.2491
 246  334.9658
 247  348.8739
 248  399.3108
 249  417.1708
 250  487.0845
 251  513.8849
 252  416.3231
 253  345.0753
 254  232.7667
 255  354.8641
 256  463.2965
 257  478.9856
 258  392.9897
 259  315.2139
 260  330.466
 261  344.9688
 262  311.4644
 263  441.8849
 264  476.4478
 265  329.5244
 266  306.9438
 267  382.3327
 268  342.1418
 269  300.5075
 270  243.7013
 271  280.5633
 272  198.5648
 273  95.36113
 274  241.4369
 275  125.7216
 276  284.6896
 277  389.3814
 278  560.9478
 279  636.5024
 280  567.2354
 281  429.9548
 282  541.3369
 283  568.4302
 284  546.2795
 285  507.665
 286  482.0916
 287  414.6164
 288  345.4267
 289  426.0011
 290  452.3271
 291  308.6035
 292  337.3197
 293  436.4125
 294  297.2765
 295  351.7964
 296  362.5912
 297  354.2812
 298  384.1087
 299  484.3902
 300  466.7282
 301  404.6479
 302  280.9783
 303  263.6945
 304  248.129
 305  304.6854
 306  333.9578
 307  320.7274
 308  439.6325
 309  433.593
 310  358.3959
 311  349.3476
 312  354.5901
 313  289.2064
 314  385.4883
 315  487.3039
 316  442.265
 317  424.2743
 318  398.5001
 319  421.6545
 320  395.5424
 321  427.7744
 322  478.2349
 323  292.9322
 324  305.2371
 325  278.6606
 326  240.1023
 327  358.5954
 328  408.5109
 329  452.3416
 330  296.2475
 331  200.6451
 332  383.7655
 333  370.58
 334  267.8124
 335  278.4739
 336  350.0501
 337  312.5108
 338  391.8605
 339  394.0414
 340  382.8327
 341  524.0151
 342  572.5778
 343  520.6212
 344  598.6336
 345  738.899
 346  772.3824
 347  779.177
 348  732.2353
 349  577.4088
 350  424.4852
 351  201.1958
 352  317.0992
 353  395.8326
 354  356.6657
 355  332.4512
 356  341.7831
 357  359.3782
 358  277.2133
 359  284.8223
 360  317.8995
 361  361.9669
 362  358.5813
 363  368.0525
 364  418.5273
 365  512.097
 366  513.5126
 367  406.752
 368  220.5745
 369  208.6382
 370  349.9557
 371  401.1516
 372  413.7716
 373  361.8141
 374  235.8879
 375  343.8332
 376  395.4014
 377  259.2545
 378  226.9751
 379  300.2843
 380  254.1501
 381  283.6047
 382  240.3456
 383  327.7487
 384  402.8461
 385  392.4358
 386  324.0692
 387  304.4462
 388  329.4954
 389  341.2571
 390  388.4596
 391  341.4902
 392  354.2134
 393  360.5088
 394  296.2838
 395  410.3817
 396  361.032
 397  383.4222
 398  282.7189
 399  349.1224
 400  483.0481
 401  321.2808
 402  176.0205
 403  167.6443
 404  164.5161
 405  270.7122
 406  267.176
 407  290.3383
 408  305.7812
 409  341.525
 410  378.463
 411  370.9105
 412  332.945
 413  265.302
 414  194.1828
 415  263.2715
 416  366.5473
 417  284.1086
 418  271.9493
 419  271.681
 420  276.5272
 421  336.1935
 422  391.9989
 423  272.507
 424  333.8197
 425  312.3332
 426  210.9463
 427  311.3159
 428  458.3755
 429  392.2995
 430  134.4895
 431  163.9647
 432  426.9967
 433  434.2931
 434  383.4021
 435  375.8519
 436  304.6514
 437  373.6885
 438  195.1045
 439  194.7317
 440  308.273
 441  212.7026
 442  330.7918
 443  304.109
 444  266.3877
 445  402.3507
 446  352.5213
 447  279.6994
 448  306.1743
 449  400.8528
 450  415.316
 451  322.9909
 452  363.0638
 453  280.3423
 454  315.6223
 455  321.7349
 456  349.9731
 457  371.8845
 458  291.6035
 459  262.3562
 460  222.354
 461  295.8105
 462  374.1484
 463  348.7183
 464  388.3371
 465  347.8974
 466  412.9721
 467  386.3797
 468  326.3599
 469  309.2699
 470  184.864
 471  171.8344
 472  27.16086
 473  202.6828
 474  338.1411
 475  345.94
 476  341.051
 477  236.6394
 478  220.2161
 479  279.0504
 480  230.1121
 481  272.548
 482  194.7302
 483  241.7336
 484  301.8514
 485  394.735
 486  485.2245
 487  439.0766
 488  362.067
 489  331.1867
 490  356.412
 491  417.941
 492  285.4704
 493  338.2897
 494  392.1014
 495  409.6081
 496  490.8664
 497  388.6558
 498  184.1167
 499  154.0324
 500  281.459
 501  321.0631
 502  327.1955
 503  351.4556
 504  236.375
 505  224.9311
 506  258.9159
 507  174.3647
 508  233.4706
 509  281.6316
 510  349.39
 511  291.2455
