# Input file       =  1179475185.131431_cleaned.dat
# Candidate        =  PSR_0332+5434
# Telescope        =  AR
# Epoch_topo       =  57895.332952910081
# Epoch_bary       =  N/A
# T_sample         =  0.002
# Data Folded      =  7340032
# Data Avg         =  0.0220212769726982
# Data StdDev      =  1.00002363630284 
# Profile Bins     =  512
# Profile Avg      =  315.725764198971 
# Profile StdDev   =  119.735866423074 
# Reduced chi-sqr  =  1.020
# Prob(Noise)      <  0.367   (~0.3 sigma)
# P_topo (ms)      =  714.52611306923   +/- 0.000168
# P'_topo (s/s)    =  -0                +/- 8.89e-11
# P''_topo (s/s^2) =  0                 +/- 3.92e-14
# P_bary (ms)      =  N/A
# P'_bary (s/s)    =  N/A
# P''_bary (s/s^2) =  N/A
# P_orb (s)        =  N/A
# asin(i)/c (s)    =  N/A
# eccentricity     =  N/A
# w (rad)          =  N/A
# T_peri           =  N/A
######################################################
   0  804.9764
   1  750.8253
   2  592.3694
   3  401.0229
   4  411.2762
   5  390.774
   6  375.9987
   7  392.4874
   8  381.8742
   9  353.2313
  10  403.5422
  11  381.4315
  12  389.0784
  13  409.7753
  14  410.2178
  15  406.613
  16  334.1838
  17  286.3321
  18  325.7081
  19  340.3039
  20  396.6104
  21  489.5658
  22  384.0621
  23  371.0793
  24  376.3459
  25  353.8042
  26  245.6074
  27  219.7351
  28  296.805
  29  337.6613
  30  277.7942
  31  309.4871
  32  330.4384
  33  429.7792
  34  410.8745
  35  323.2308
  36  109.7248
  37  184.5317
  38  226.1299
  39  234.7708
  40  394.2499
  41  346.8678
  42  321.0244
  43  286.1583
  44  287.449
  45  259.159
  46  294.679
  47  377.4871
  48  398.1468
  49  359.9193
  50  265.17
  51  269.7113
  52  116.5288
  53  195.7426
  54  250.1883
  55  215.4826
  56  236.9171
  57  250.1373
  58  339.3192
  59  281.7594
  60  330.3188
  61  323.0571
  62  355.1435
  63  300.7031
  64  227.6891
  65  218.461
  66  217.1268
  67  358.9042
  68  367.1617
  69  392.0273
  70  349.6378
  71  353.7909
  72  343.19
  73  401.4008
  74  324.9165
  75  325.746
  76  389.3568
  77  490.9097
  78  438.8552
  79  422.9265
  80  403.7388
  81  351.6317
  82  341.1277
  83  390.7358
  84  369.2144
  85  358.5786
  86  423.5894
  87  462.384
  88  430.2528
  89  291.9814
  90  359.2898
  91  352.1946
  92  262.3838
  93  329.4381
  94  385.2498
  95  266.4362
  96  250.5061
  97  302.4428
  98  444.5244
  99  239.8261
 100  256.9161
 101  369.1107
 102  299.9625
 103  333.628
 104  272.2878
 105  202.931
 106  356.9899
 107  361.5687
 108  372.0337
 109  268.3996
 110  298.9376
 111  347.0266
 112  316.4888
 113  289.043
 114  288.7227
 115  339.5244
 116  391.5938
 117  416.8437
 118  427.886
 119  471.0024
 120  373.9997
 121  245.1481
 122  195.6645
 123  220.0702
 124  307.3624
 125  215.6806
 126  206.3452
 127  318.4061
 128  394.389
 129  360.8481
 130  323.3124
 131  364.9416
 132  447.4518
 133  334.0095
 134  334.4463
 135  331.7295
 136  346.8669
 137  305.76
 138  348.9276
 139  370.5379
 140  288.1274
 141  390.2781
 142  475.4313
 143  285.2977
 144  281.8999
 145  271.743
 146  253.9829
 147  256.7294
 148  287.3461
 149  345.0211
 150  377.0076
 151  287.462
 152  260.9258
 153  281.7365
 154  150.2912
 155  199.6358
 156  337.0216
 157  469.284
 158  396.2132
 159  273.2686
 160  233.0771
 161  242.9322
 162  295.7383
 163  356.9705
 164  448.5936
 165  228.3363
 166  262.6263
 167  342.0543
 168  386.377
 169  355.3801
 170  392.4048
 171  344.2786
 172  266.0269
 173  387.3602
 174  338.287
 175  290.9778
 176  323.6043
 177  348.7363
 178  460.7107
 179  407.3531
 180  455.0895
 181  329.0229
 182  369.9563
 183  320.9628
 184  186.0043
 185  261.415
 186  433.1779
 187  444.2123
 188  488.1499
 189  494.1524
 190  454.5164
 191  397.1534
 192  299.8394
 193  316.8656
 194  245.4585
 195  228.3925
 196  308.5457
 197  281.3384
 198  278.3007
 199  295.0857
 200  358.6249
 201  364.3926
 202  219.0345
 203  194.6496
 204  266.2648
 205  279.719
 206  300.3149
 207  184.1027
 208  222.6449
 209  232.3393
 210  157.7166
 211  172.335
 212  160.0458
 213  184.2246
 214  308.0681
 215  282.1818
 216  244.0982
 217  277.9093
 218  403.4862
 219  336.1946
 220  222.6552
 221  276.1621
 222  333.4603
 223  290.0177
 224  216.5076
 225  316.7907
 226  396.9022
 227  358.5632
 228  288.8879
 229  227.2295
 230  337.0505
 231  398.9975
 232  334.7209
 233  224.9773
 234  280.8164
 235  291.7038
 236  393.0452
 237  367.0852
 238  242.9884
 239  334.7445
 240  318.0074
 241  307.9286
 242  241.1782
 243  235.5295
 244  332.106
 245  317.4286
 246  240.4076
 247  334.0904
 248  281.4055
 249  247.6517
 250  353.3447
 251  411.007
 252  280.3413
 253  197.5792
 254  239.2252
 255  273.9105
 256  323.7071
 257  196.4544
 258  140.5904
 259  227.4431
 260  355.1594
 261  344.4796
 262  242.0087
 263  341.3475
 264  308.4329
 265  278.4839
 266  339.1126
 267  247.7754
 268  164.2489
 269  111.7735
 270  210.0031
 271  236.3157
 272  171.4669
 273  390.8917
 274  423.0388
 275  387.1313
 276  318.8752
 277  337.5536
 278  345.402
 279  328.63
 280  363.8296
 281  347.9931
 282  372.1036
 283  309.1196
 284  319.3254
 285  321.0109
 286  246.9835
 287  165.9614
 288  273.0046
 289  334.3729
 290  285.8873
 291  226.7045
 292  152.7078
 293  144.2017
 294  222.3466
 295  249.9901
 296  319.0039
 297  295.6227
 298  307.3153
 299  287.7107
 300  303.4569
 301  383.6414
 302  275.6223
 303  284.5868
 304  301.7838
 305  318.5483
 306  386.8466
 307  429.3255
 308  332.9969
 309  280.2643
 310  314.9921
 311  334.6924
 312  383.1387
 313  271.4077
 314  212.8028
 315  208.128
 316  244.5603
 317  300.7886
 318  313.6309
 319  202.3055
 320  73.64147
 321  145.3465
 322  240.5065
 323  322.6955
 324  298.6117
 325  265.7416
 326  253.0916
 327  308.1457
 328  399.4549
 329  334.9644
 330  336.2785
 331  309.7623
 332  295.8291
 333  242.3702
 334  220.8254
 335  289.3874
 336  211.9595
 337  146.4751
 338  260.4485
 339  237.1285
 340  256.3927
 341  340.9673
 342  260.6559
 343  236.7676
 344  314.4958
 345  301.4225
 346  279.6518
 347  339.8203
 348  349.2526
 349  235.6355
 350  221.1804
 351  264.8172
 352  211.3545
 353  266.2591
 354  401.6538
 355  280.3627
 356  286.4504
 357  352.0114
 358  406.9957
 359  316.0226
 360  363.3648
 361  288.8216
 362  448.0992
 363  398.9647
 364  285.6429
 365  215.4862
 366  182.4142
 367  226.1815
 368  318.8845
 369  273.5918
 370  253.9917
 371  203.8166
 372  260.147
 373  258.8302
 374  354.7889
 375  430.7226
 376  313.9732
 377  285.857
 378  332.6793
 379  184.9068
 380  166.1984
 381  116.2173
 382  113.4348
 383  290.9503
 384  314.7454
 385  347.9317
 386  429.4297
 387  401.1932
 388  372.976
 389  220.6417
 390  234.5801
 391  216.072
 392  292.9674
 393  399.6133
 394  346.7876
 395  309.5771
 396  361.9436
 397  317.4353
 398  365.1809
 399  324.4126
 400  329.9626
 401  327.135
 402  272.1829
 403  274.4564
 404  201.4895
 405  257.2367
 406  403.0793
 407  371.8179
 408  258.8983
 409  140.7712
 410  274.2397
 411  371.3168
 412  375.1694
 413  260.192
 414  223.3348
 415  306.6226
 416  379.6449
 417  317.7705
 418  245.8912
 419  269.6275
 420  257.832
 421  230.3296
 422  300.8068
 423  270.7582
 424  448.4326
 425  472.3407
 426  420.0545
 427  327.0305
 428  303.5758
 429  392.5063
 430  419.3739
 431  458.9751
 432  418.1066
 433  375.7943
 434  357.4767
 435  430.303
 436  316.1294
 437  263.8923
 438  241.8783
 439  315.1536
 440  358.6441
 441  400.1484
 442  320.3963
 443  477.5557
 444  475.9477
 445  278.904
 446  412.2032
 447  413.1095
 448  371.9993
 449  239.9771
 450  197.9352
 451  314.7198
 452  296.8668
 453  297.2942
 454  385.3942
 455  395.7117
 456  366.8735
 457  319.5845
 458  347.3518
 459  256.2966
 460  218.5445
 461  284.6649
 462  423.4352
 463  259.0637
 464  317.5229
 465  300.3158
 466  301.0768
 467  232.4315
 468  292.1383
 469  361.6977
 470  381.4744
 471  318.09
 472  246.1374
 473  319.7107
 474  334.549
 475  345.265
 476  293.4435
 477  414.9316
 478  403.9674
 479  238.1555
 480  140.1003
 481  257.3013
 482  413.7896
 483  506.3546
 484  397.5854
 485  281.8806
 486  193.271
 487  269.6886
 488  415.3368
 489  436.6986
 490  271.8381
 491  159.3689
 492  175.0803
 493  253.297
 494  233.1624
 495  141.5864
 496  210.7621
 497  382.1939
 498  420.9597
 499  317.4835
 500  324.6826
 501  295.5335
 502  366.7367
 503  364.6835
 504  343.0228
 505  282.356
 506  303.0439
 507  344.2385
 508  440.5383
 509  629.9069
 510  669.5052
 511  746.3939
