# Input file       =  1179059303.106471_cleaned.dat
# Candidate        =  PSR_0332+5434
# Telescope        =  AR
# Epoch_topo       =  57890.519503547119
# Epoch_bary       =  N/A
# T_sample         =  0.002
# Data Folded      =  7340032
# Data Avg         =  0.023884462590349
# Data StdDev      =  1.00003066236128 
# Profile Bins     =  512
# Profile Avg      =  342.412455666905 
# Profile StdDev   =  119.736707674384 
# Reduced chi-sqr  =  1.151
# Prob(Noise)      <  0.0102   (~2.3 sigma)
# P_topo (ms)      =  714.531162988069  +/- 0.000713
# P'_topo (s/s)    =  -0                +/- 3.76e-10
# P''_topo (s/s^2) =  0                 +/- 1.66e-13
# P_bary (ms)      =  N/A
# P'_bary (s/s)    =  N/A
# P''_bary (s/s^2) =  N/A
# P_orb (s)        =  N/A
# asin(i)/c (s)    =  N/A
# eccentricity     =  N/A
# w (rad)          =  N/A
# T_peri           =  N/A
######################################################
   0  806.8907
   1  746.2861
   2  577.3775
   3  454.2036
   4  265.7227
   5  377.9492
   6  280.1057
   7  421.551
   8  415.1082
   9  283.3155
  10  365.0743
  11  380.4851
  12  448.2162
  13  496.9719
  14  406.6849
  15  356.7267
  16  300.6015
  17  298.4749
  18  377.3895
  19  454.179
  20  343.4007
  21  245.4791
  22  424.0234
  23  439.1237
  24  434.6311
  25  450.8265
  26  597.6652
  27  441.6865
  28  367.5994
  29  453.8119
  30  410.2791
  31  303.7749
  32  314.2454
  33  397.4469
  34  368.9225
  35  333.6308
  36  331.9968
  37  317.8881
  38  502.5752
  39  399.9864
  40  425.2946
  41  442.4666
  42  444.1564
  43  340.7733
  44  428.4547
  45  424.9491
  46  322.3734
  47  306.1426
  48  393.285
  49  519.7446
  50  470.2189
  51  370.2396
  52  405.1786
  53  415.0748
  54  356.301
  55  277.7402
  56  399.7408
  57  521.5601
  58  456.5752
  59  348.62
  60  219.1805
  61  262.6712
  62  409.4909
  63  433.7607
  64  398.8258
  65  390.3313
  66  435.4261
  67  423.6664
  68  290.1354
  69  340.7386
  70  415.6866
  71  469.4795
  72  441.2018
  73  387.6795
  74  122.4433
  75  241.3094
  76  274.2096
  77  284.2597
  78  311.6243
  79  341.6141
  80  405.7301
  81  358.4471
  82  275.2771
  83  338.6482
  84  243.3838
  85  238.3706
  86  285.0429
  87  351.9974
  88  396.7359
  89  468.1446
  90  326.8309
  91  309.3563
  92  301.8099
  93  335.2
  94  399.9179
  95  346.0071
  96  291.0948
  97  344.7607
  98  358.718
  99  224.5169
 100  325.6456
 101  308.0239
 102  439.9519
 103  436.1479
 104  354.9618
 105  337.8466
 106  351.7889
 107  349.6994
 108  354.1014
 109  405.8467
 110  452.2312
 111  505.8865
 112  403.1076
 113  355.106
 114  292.9886
 115  319.9119
 116  375.3408
 117  376.8571
 118  309.1309
 119  249.7059
 120  396.0903
 121  457.6159
 122  376.7023
 123  352.4948
 124  356.6341
 125  390.7262
 126  366
 127  355.9706
 128  392.7748
 129  397.4487
 130  365.7411
 131  406.3995
 132  397.3917
 133  322.9685
 134  397.3091
 135  530.4854
 136  511.4566
 137  346.3019
 138  362.0098
 139  357.3139
 140  359.4915
 141  364.2884
 142  381.2189
 143  401.1601
 144  371.7836
 145  293.8434
 146  456.8116
 147  477.0142
 148  490.2068
 149  359.5856
 150  206.8459
 151  259.2095
 152  216.2645
 153  276.4304
 154  242.6644
 155  228.9809
 156  291.0317
 157  344.2079
 158  238.7842
 159  194.0451
 160  164.4003
 161  289.0729
 162  259.8725
 163  222.8269
 164  303.3203
 165  300.8443
 166  276.2829
 167  207.2598
 168  176.5464
 169  246.4248
 170  195.9428
 171  265.4576
 172  419.9507
 173  348.844
 174  298.3534
 175  301.729
 176  229.4222
 177  207.5938
 178  291.0033
 179  297.0513
 180  283.051
 181  269.2276
 182  339.7588
 183  334.6741
 184  391.4194
 185  405.1188
 186  250.2005
 187  378.9695
 188  317.2408
 189  357.0506
 190  329.2109
 191  361.8689
 192  282.6836
 193  302.6204
 194  343.986
 195  382.8722
 196  462.823
 197  454.9931
 198  326.0175
 199  200.4303
 200  340.4344
 201  314.9477
 202  338.5984
 203  414.2039
 204  278.89
 205  296.2716
 206  528.3544
 207  471.1338
 208  369.3394
 209  345.9059
 210  228.8722
 211  203.7572
 212  219.4113
 213  335.5582
 214  315.184
 215  301.1711
 216  406.6309
 217  359.5213
 218  320.9451
 219  302.631
 220  289.2203
 221  268.1703
 222  311.5699
 223  306.3811
 224  297.8412
 225  258.6877
 226  117.3628
 227  166.7504
 228  216.253
 229  279.7025
 230  257.8025
 231  294.9435
 232  219.5355
 233  256.9984
 234  280.5445
 235  323.158
 236  375.2687
 237  389.7384
 238  442.4898
 239  285.4058
 240  332.6268
 241  305.0587
 242  376.9293
 243  336.159
 244  338.3243
 245  342.0527
 246  396.3772
 247  389.6875
 248  373.5997
 249  311.8475
 250  267.8535
 251  404.422
 252  334.0677
 253  467.8723
 254  395.3154
 255  327.8147
 256  418.9717
 257  566.5602
 258  519.4507
 259  332.6152
 260  416.2429
 261  378.063
 262  335.707
 263  438.911
 264  385.0853
 265  263.4589
 266  402.391
 267  391.0411
 268  390.1472
 269  412.5888
 270  400.6111
 271  386.5402
 272  464.0067
 273  453.4028
 274  290.1503
 275  323.772
 276  433.4659
 277  377.9416
 278  297.6507
 279  457.9286
 280  396.6601
 281  378.9629
 282  427.3527
 283  434.9308
 284  338.9005
 285  286.9215
 286  379.5745
 287  422.1012
 288  312.0292
 289  384.5484
 290  297.2029
 291  272.1385
 292  303.3327
 293  310.4055
 294  257.3931
 295  380.7279
 296  309.9001
 297  309.5835
 298  171.6398
 299  403.4937
 300  388.5016
 301  314.7328
 302  278.764
 303  222.5381
 304  252.569
 305  318.5903
 306  364.8992
 307  243.9546
 308  127.9186
 309  168.6087
 310  238.1622
 311  122.2538
 312  125.777
 313  333.373
 314  394.2646
 315  298.7014
 316  228.2898
 317  326.7807
 318  253.8719
 319  252.3434
 320  225.0353
 321  324.0646
 322  240.985
 323  231.577
 324  289.124
 325  331.5287
 326  296.6879
 327  281.828
 328  297.1974
 329  235.4238
 330  309.6997
 331  404.0844
 332  354.2144
 333  301.2857
 334  317.0613
 335  293.1953
 336  206.374
 337  385.4261
 338  346.8939
 339  374.0789
 340  354.9326
 341  378.9391
 342  454.5039
 343  436.8318
 344  402.4305
 345  255.9671
 346  184.4056
 347  257.9723
 348  267.5864
 349  265.324
 350  307.732
 351  318.0299
 352  340.6234
 353  232.22
 354  83.27634
 355  174.4673
 356  338.6772
 357  261.3345
 358  188.1448
 359  216.3273
 360  257.5562
 361  237.4337
 362  244.3051
 363  287.4338
 364  345.1503
 365  457.0088
 366  424.9349
 367  424.9462
 368  405.5553
 369  341.1438
 370  233.6439
 371  224.5678
 372  420.7835
 373  387.4538
 374  413.1385
 375  433.2409
 376  433.049
 377  272.1471
 378  323.4866
 379  427.413
 380  488.897
 381  373.3521
 382  280.6938
 383  298.2106
 384  243.6884
 385  369.7549
 386  308.2276
 387  288.059
 388  268.1454
 389  315.2239
 390  265.1629
 391  280.5764
 392  323.355
 393  272.6153
 394  250.5976
 395  267.2428
 396  203.5378
 397  326.2038
 398  281.9188
 399  213.307
 400  222.7347
 401  357.6922
 402  326.475
 403  167.7925
 404  203.6196
 405  385.9114
 406  342.4726
 407  165.365
 408  210.0963
 409  329.4095
 410  347.842
 411  255.4075
 412  257.9981
 413  320.1487
 414  291.1264
 415  252.7174
 416  423.8033
 417  403.4324
 418  296.355
 419  244.4606
 420  338.9738
 421  315.9259
 422  263.0642
 423  259.8162
 424  239.7876
 425  213.7598
 426  338.0109
 427  323.0758
 428  294.6688
 429  257.745
 430  262.0496
 431  218.7035
 432  279.6995
 433  252.7752
 434  380.6774
 435  312.498
 436  130.3318
 437  315.3812
 438  474.4366
 439  367.3217
 440  256.6225
 441  319.1123
 442  381.7255
 443  323.7743
 444  294.5997
 445  388.4569
 446  454.3292
 447  417.3716
 448  309.5594
 449  244.7614
 450  407.1897
 451  316.9584
 452  271.526
 453  263.8818
 454  415.0411
 455  381.4728
 456  424.3804
 457  465.9201
 458  414.1241
 459  385.7302
 460  347.6569
 461  306.4673
 462  409.7933
 463  308.9961
 464  386.1945
 465  302.8621
 466  337.6823
 467  314.7756
 468  374.0707
 469  311.7668
 470  173.1511
 471  201.3875
 472  210.4392
 473  346.7915
 474  457.2819
 475  348.2654
 476  309.084
 477  197.2714
 478  266.816
 479  363.2708
 480  415.5309
 481  334.8257
 482  431.3317
 483  437.2624
 484  412.5229
 485  369.4019
 486  430.6036
 487  386.5777
 488  386.4247
 489  448.5004
 490  513.3353
 491  342.0052
 492  428.5832
 493  516.1835
 494  470.2199
 495  348.8957
 496  325.7503
 497  471.2404
 498  412.1066
 499  191.2961
 500  244.9884
 501  396.7416
 502  476.627
 503  467.1657
 504  422.8341
 505  503.5806
 506  657.8792
 507  521.0187
 508  498.3005
 509  635.3073
 510  703.9236
 511  753.1203
