# Input file       =  1179302869.09633_cleaned.dat
# Candidate        =  PSR_0332+5434
# Telescope        =  AR
# Epoch_topo       =  57893.338554355672
# Epoch_bary       =  N/A
# T_sample         =  0.002
# Data Folded      =  7340032
# Data Avg         =  0.0152509983209247
# Data StdDev      =  1.00009383364438 
# Profile Bins     =  512
# Profile Avg      =  218.639031446199 
# Profile StdDev   =  119.744271363922 
# Reduced chi-sqr  =  1.278
# Prob(Noise)      <  1.95e-05   (~4.1 sigma)
# P_topo (ms)      =  714.528074595456  +/- 0.000186
# P'_topo (s/s)    =  -0                +/- 9.81e-11
# P''_topo (s/s^2) =  0                 +/- 4.33e-14
# P_bary (ms)      =  N/A
# P'_bary (s/s)    =  N/A
# P''_bary (s/s^2) =  N/A
# P_orb (s)        =  N/A
# asin(i)/c (s)    =  N/A
# eccentricity     =  N/A
# w (rad)          =  N/A
# T_peri           =  N/A
######################################################
   0  883.9615
   1  748.9759
   2  747.6918
   3  504.7039
   4  285.8754
   5  150.4492
   6  152.0003
   7  264.4519
   8  307.7777
   9  322.9333
  10  162.5255
  11  77.1738
  12  223.7767
  13  292.4871
  14  299.6272
  15  299.9801
  16  338.6663
  17  84.61945
  18  168.0359
  19  179.1013
  20  111.2932
  21  63.71215
  22  83.76665
  23  156.4287
  24  178.7411
  25  262.2185
  26  87.67725
  27  88.03789
  28  292.8574
  29  238.0973
  30  163.9677
  31  169.7647
  32  160.0001
  33  146.516
  34  222.1152
  35  327.1996
  36  301.5214
  37  324.3313
  38  265.5374
  39  287.1631
  40  250.8019
  41  187.3443
  42  103.3008
  43  184.435
  44  161.0286
  45  185.1728
  46  147.6516
  47  198.1203
  48  116.2313
  49  14.45472
  50  58.13103
  51  121.3539
  52  135.5479
  53  276.2658
  54  294.171
  55  346.2349
  56  319.7986
  57  170.6172
  58  147.9292
  59  27.79041
  60  187.4435
  61  244.8327
  62  180.2663
  63  221.5494
  64  249.1907
  65  357.9102
  66  264.7519
  67  217.9064
  68  98.22442
  69  200.1585
  70  288.1747
  71  119.7489
  72  168.3668
  73  222.1211
  74  242.471
  75  202.5684
  76  334.9937
  77  363.5121
  78  313.7614
  79  195.7256
  80  95.75341
  81  253.4826
  82  414.0613
  83  390.2515
  84  299.5031
  85  334.4772
  86  372.5132
  87  250.7401
  88  246.3146
  89  261.6616
  90  195.2792
  91  335.3314
  92  202.1507
  93  96.01463
  94  112.5307
  95  126.2581
  96  172.6805
  97  224.0097
  98  151.6227
  99  160.5546
 100  196.793
 101  222.1044
 102  358.5233
 103  260.5055
 104  263.7362
 105  174.0709
 106  200.4934
 107  180.8126
 108  151.5075
 109  159.5356
 110  233.8483
 111  224.8479
 112  329.2631
 113  267.5652
 114  238.6489
 115  194.6579
 116  92.84705
 117  244.5586
 118  271.5503
 119  225.8577
 120  128.8922
 121  147.1578
 122  80.18199
 123  116.2928
 124  130.6976
 125  234.8638
 126  339.5282
 127  398.6651
 128  269.5702
 129  113.3908
 130  176.7682
 131  351.1392
 132  388.6274
 133  354.0258
 134  304.6712
 135  270.6552
 136  205.4436
 137  120.1899
 138  72.69178
 139  179.9328
 140  203.501
 141  290.3478
 142  328.1115
 143  368.827
 144  255.8952
 145  170.9591
 146  309.3444
 147  346.6219
 148  288.3891
 149  146.5927
 150  175.8193
 151  277.4875
 152  261.8092
 153  251.6493
 154  195.3686
 155  140.3792
 156  285.3858
 157  265.1947
 158  160.3729
 159  157.9467
 160  245.1022
 161  324.4008
 162  239.0674
 163  216.2047
 164  238.8714
 165  235.2532
 166  207.7524
 167  207.4218
 168  264.0273
 169  223.546
 170  181.3559
 171  202.3262
 172  219.2688
 173  225.6969
 174  224.8862
 175  298.9022
 176  176.0124
 177  121.4525
 178  221.0676
 179  143.9718
 180  65.34244
 181  125.798
 182  183.5962
 183  227.506
 184  213.2643
 185  125.6906
 186  82.29979
 187  120.4839
 188  67.9291
 189  143.344
 190  133.7327
 191  167.4918
 192  226.1703
 193  198.2496
 194  234.8347
 195  178.2065
 196  110.6722
 197  258.1101
 198  239.3497
 199  310.6064
 200  204.5054
 201  206.7905
 202  194.0603
 203  212.8079
 204  162.8748
 205  267.174
 206  247.5158
 207  113.4207
 208  99.36909
 209  195.9093
 210  321.0553
 211  177.9622
 212  209.827
 213  251.9607
 214  193.3945
 215  257.0754
 216  307.0317
 217  242.3021
 218  296.7583
 219  199.6309
 220  17.05366
 221  100.2781
 222  169.3153
 223  93.39641
 224  170.1604
 225  254.637
 226  143.978
 227  86.43398
 228  210.6344
 229  334.4984
 230  222.4473
 231  342.6881
 232  330.337
 233  300.1403
 234  253.1221
 235  110.1318
 236  277.7399
 237  322.5293
 238  209.4006
 239  157.4668
 240  261.7085
 241  321.361
 242  287.7986
 243  179.5237
 244  74.65679
 245  212.1842
 246  145.1471
 247  198.0523
 248  228.7772
 249  318.2686
 250  200.9126
 251  221.8208
 252  238.0174
 253  236.0315
 254  172.1088
 255  203.9268
 256  111.3329
 257  162.9841
 258  253.9273
 259  258.7034
 260  263.1401
 261  269.1714
 262  312.1802
 263  301.0538
 264  238.8185
 265  336.2628
 266  355.0023
 267  206.8221
 268  100.9222
 269  173.2645
 270  262.5015
 271  255.3023
 272  238.9935
 273  202.1943
 274  295.2917
 275  352.3506
 276  98.35937
 277  71.39086
 278  195.6623
 279  260.4549
 280  266.9044
 281  79.66988
 282  148.4409
 283  143.0333
 284  4.393448
 285  136.7261
 286  145.3642
 287  148.7085
 288  321.6293
 289  222.9224
 290  116.4709
 291  148.032
 292  69.5564
 293  154.8223
 294  247.2184
 295  140.5901
 296  234.6405
 297  260.6436
 298  355.6634
 299  238.8597
 300  72.52084
 301  225.1352
 302  274.9963
 303  162.6136
 304  207.5359
 305  191.2749
 306  224.0429
 307  227.9803
 308  231.0192
 309  154.5771
 310  163.4578
 311  256.8239
 312  327.3792
 313  329.6432
 314  211.566
 315  156.3211
 316  224.5305
 317  246.0883
 318  198.4881
 319  189.1616
 320  323.5228
 321  116.1725
 322  209.0824
 323  296.2796
 324  271.2553
 325  108.3286
 326  67.31369
 327  21.18831
 328  121.839
 329  184.9072
 330  210.1374
 331  246.7429
 332  207.4934
 333  254.9681
 334  157.6143
 335  295.6946
 336  156.6645
 337  193.1046
 338  254.6667
 339  245.6704
 340  181.166
 341  269.7748
 342  343.2448
 343  173.0046
 344  105.4818
 345  211.2433
 346  203.5788
 347  223.6686
 348  374.4171
 349  333.2234
 350  297.6054
 351  417.1111
 352  391.4041
 353  183.5971
 354  146.6817
 355  234.7876
 356  158.126
 357  165.3747
 358  263.5619
 359  304.9895
 360  162.7191
 361  281.3907
 362  149.7976
 363  111.3976
 364  202.9217
 365  231.4869
 366  311.7108
 367  306.3156
 368  297.4657
 369  156.6541
 370  185.8624
 371  330.0672
 372  287.9486
 373  206.0743
 374  277.9275
 375  421.2897
 376  251.1145
 377  102.0478
 378  163.83
 379  219.5325
 380  224.2788
 381  247.5716
 382  391.402
 383  301.3301
 384  218.5173
 385  187.2879
 386  260.8274
 387  239.2304
 388  249.2993
 389  197.6398
 390  167.6967
 391  145.1111
 392  66.48442
 393  136.9789
 394  93.77354
 395  256.0822
 396  148.0336
 397  135.4096
 398  141.2531
 399  256.8309
 400  280.308
 401  264.2061
 402  174.0484
 403  122.9691
 404  160.8089
 405  96.27589
 406  167.8921
 407  365.0529
 408  312.5115
 409  189.9433
 410  219.7682
 411  144.6717
 412  172.6602
 413  269.6367
 414  286.1395
 415  199.2894
 416  212.8928
 417  249.0449
 418  144.7776
 419  200.4442
 420  226.1212
 421  221.4458
 422  215.3405
 423  217.8033
 424  46.08232
 425  130.6863
 426  193.7791
 427  36.03084
 428  154.8373
 429  180.3863
 430  102.928
 431  55.33476
 432  59.33974
 433  172.2429
 434  77.44791
 435  58.52407
 436  151.4092
 437  159.9327
 438  159.762
 439  171.8548
 440  105.8203
 441  186.0423
 442  184.6649
 443  178.4927
 444  43.58389
 445  245.1705
 446  220.0277
 447  102.106
 448  62.5993
 449  88.37061
 450  197.408
 451  164.8945
 452  108.3289
 453  28.08696
 454  100.4945
 455  146.6302
 456  212.7725
 457  108.5471
 458  202.1603
 459  173.8486
 460  222.7306
 461  248.6866
 462  274.7122
 463  210.9656
 464  284.9158
 465  286.5293
 466  328.6239
 467  381.9092
 468  204.2604
 469  243.2999
 470  391.3187
 471  178.5365
 472  169.8814
 473  248.5888
 474  205.9342
 475  64.04599
 476  172.9007
 477  214.1331
 478  226.0289
 479  284.7335
 480  374.0382
 481  318.8147
 482  240.1919
 483  228.6775
 484  150.0389
 485  211.5404
 486  239.6441
 487  294.7927
 488  220.9037
 489  175.9753
 490  64.58725
 491  209.7309
 492  233.3428
 493  138.3878
 494  154.8759
 495  227.4024
 496  299.7231
 497  319.3473
 498  350.8252
 499  302.3414
 500  203.807
 501  184.3506
 502  365.0932
 503  291.42
 504  316.7104
 505  426.6718
 506  364.4311
 507  294.4155
 508  467.4179
 509  439.2724
 510  453.9429
 511  776.7382
