# Input file       =  1179546704.108974_cleaned.dat
# Candidate        =  PSR_0332+5434
# Telescope        =  AR
# Epoch_topo       =  57896.160718853862
# Epoch_bary       =  N/A
# T_sample         =  0.002
# Data Folded      =  7208960
# Data Avg         =  0.0352519464352191
# Data StdDev      =  1.00011349861462 
# Profile Bins     =  512
# Profile Avg      =  496.43195466801  
# Profile StdDev   =  118.672643445595 
# Reduced chi-sqr  =  1.139
# Prob(Noise)      <  0.016   (~2.1 sigma)
# P_topo (ms)      =  714.525287986897  +/- 0.000154
# P'_topo (s/s)    =  -0                +/- 8.27e-11
# P''_topo (s/s^2) =  0                 +/- 3.72e-14
# P_bary (ms)      =  N/A
# P'_bary (s/s)    =  N/A
# P''_bary (s/s^2) =  N/A
# P_orb (s)        =  N/A
# asin(i)/c (s)    =  N/A
# eccentricity     =  N/A
# w (rad)          =  N/A
# T_peri           =  N/A
######################################################
   0  413.0481
   1  634.3953
   2  534.1085
   3  487.6578
   4  494.2375
   5  400.5749
   6  447.4487
   7  464.6116
   8  466.6008
   9  526.7958
  10  565.0203
  11  474.4278
  12  435.2002
  13  375.2684
  14  421.1346
  15  462.4471
  16  478.0359
  17  482.6753
  18  509.3241
  19  525.6132
  20  480.6328
  21  403.9893
  22  436.8302
  23  415.0998
  24  382.6716
  25  364.436
  26  489.2436
  27  476.8464
  28  392.1319
  29  328.8914
  30  440.3513
  31  425.8703
  32  456.6728
  33  466.8329
  34  539.3239
  35  543.3771
  36  407.9442
  37  380.0183
  38  438.1791
  39  394.4752
  40  373.428
  41  279.7978
  42  350.0583
  43  446.0417
  44  365.9927
  45  424.3158
  46  488.5503
  47  409.7674
  48  297.0022
  49  347.9147
  50  407.4035
  51  381.8722
  52  321.7597
  53  381.2655
  54  386.611
  55  484.825
  56  485.3373
  57  519.4731
  58  568.7164
  59  572.8259
  60  468.8433
  61  477.8333
  62  543.723
  63  495.0392
  64  533.7185
  65  573.6199
  66  544.4002
  67  470.3765
  68  379.4402
  69  417.4601
  70  498.9934
  71  410.6616
  72  402.4243
  73  446.554
  74  556.9033
  75  536.888
  76  502.3501
  77  505.5149
  78  560.6252
  79  496.3241
  80  499.4521
  81  515.0363
  82  550.9694
  83  397.9982
  84  406.7312
  85  429.4586
  86  403.1544
  87  316.3151
  88  384.2413
  89  405.0781
  90  521.213
  91  455.9196
  92  497.9622
  93  485.0671
  94  398.6187
  95  270.8363
  96  383.1772
  97  396.5218
  98  482.6457
  99  443.9474
 100  517.7686
 101  481.3878
 102  517.6464
 103  455.0618
 104  491.5452
 105  455.466
 106  463.9166
 107  416.9799
 108  397.6232
 109  377.9352
 110  454.4421
 111  438.3135
 112  440.6805
 113  405.5428
 114  355.5836
 115  315.6266
 116  470.3658
 117  649.4723
 118  542.1575
 119  382.9011
 120  391.5467
 121  359.3606
 122  408.1533
 123  425.319
 124  462.9524
 125  505.587
 126  557.7438
 127  452.8145
 128  386.4261
 129  403.2265
 130  508.141
 131  544.0381
 132  507.8193
 133  533.6088
 134  596.4619
 135  525.8323
 136  394.4379
 137  343.4847
 138  491.1577
 139  595.0953
 140  498.4178
 141  362.7941
 142  495.7028
 143  486.3452
 144  592.0253
 145  529.7877
 146  495.2499
 147  544.2723
 148  535.577
 149  639.0255
 150  513.1713
 151  454.7852
 152  578.3058
 153  604.9544
 154  485.3508
 155  425.0871
 156  445.3202
 157  474.7651
 158  582.2433
 159  438.1597
 160  410.1602
 161  411.6011
 162  407.1709
 163  517.2072
 164  530.7225
 165  574.2874
 166  670.5875
 167  642.5483
 168  370.8096
 169  324.4526
 170  414.0896
 171  410.8679
 172  380.7747
 173  502.17
 174  569.0837
 175  598.3528
 176  527.1884
 177  469.4256
 178  510.4378
 179  470.3578
 180  493.289
 181  547.3795
 182  621.2884
 183  655.5499
 184  627.7948
 185  488.7788
 186  390.523
 187  456.5809
 188  529.5348
 189  399.5475
 190  501.7387
 191  554.6323
 192  447.5554
 193  451.7563
 194  405.9867
 195  506.0739
 196  611.9453
 197  545.17
 198  595.8921
 199  617.4557
 200  647.6003
 201  558.1586
 202  406.6093
 203  324.0806
 204  311.7487
 205  376.194
 206  460.8347
 207  455.9766
 208  369.9554
 209  376.4425
 210  374.7919
 211  405.4102
 212  476.938
 213  347.578
 214  478.3782
 215  468.151
 216  455.9777
 217  521.1882
 218  494.6042
 219  383.4072
 220  422.7842
 221  424.877
 222  403.3595
 223  519.1801
 224  601.2784
 225  555.5189
 226  432.1416
 227  447.6249
 228  417.5747
 229  429.8032
 230  455.3962
 231  481.9103
 232  517.1919
 233  588.387
 234  486.1118
 235  512.1814
 236  571.5887
 237  528.9836
 238  421.1494
 239  506.1917
 240  581.2271
 241  517.6741
 242  458.3282
 243  486.6346
 244  517.1041
 245  441.375
 246  501.9883
 247  541.5759
 248  568.9079
 249  673.3896
 250  542.0901
 251  538.9541
 252  382.5953
 253  510.4872
 254  463.4846
 255  322.9666
 256  362.8857
 257  467.884
 258  496.998
 259  493.4973
 260  417.609
 261  440.0319
 262  554.2745
 263  492.125
 264  528.2816
 265  580.0978
 266  674.2021
 267  601.3212
 268  598.3365
 269  517.0389
 270  463.7668
 271  491.8001
 272  445.0424
 273  461.7109
 274  525.7772
 275  566.6782
 276  593.6619
 277  602.2264
 278  593.7129
 279  527.505
 280  504.2589
 281  540.6646
 282  683.2139
 283  639.4567
 284  554.9152
 285  517.5892
 286  541.4427
 287  448.1783
 288  456.4724
 289  467.5903
 290  504.6782
 291  603.7963
 292  625.153
 293  528.1527
 294  441.7556
 295  440.865
 296  438.6622
 297  428.4013
 298  431.4531
 299  511.7018
 300  511.9999
 301  407.7425
 302  387.0984
 303  480.4891
 304  446.0111
 305  488.4984
 306  536.4517
 307  564.2938
 308  571.4076
 309  534.2994
 310  541.1964
 311  613.6721
 312  675.9728
 313  669.1014
 314  631.4929
 315  693.9
 316  512.8649
 317  533.8984
 318  573.7116
 319  563.5555
 320  460.9491
 321  483.1207
 322  513.0858
 323  522.787
 324  573.1394
 325  591.7897
 326  480.9792
 327  526.9033
 328  598.3589
 329  505.9076
 330  546.9893
 331  591.8392
 332  479.1006
 333  409.0876
 334  388.5988
 335  498.4664
 336  559.6191
 337  488.902
 338  574.5477
 339  555.213
 340  523.6422
 341  545.2612
 342  602.5061
 343  557.977
 344  502.5619
 345  620.7823
 346  610.1448
 347  534.5081
 348  530.4559
 349  520.2444
 350  549.4706
 351  525.7182
 352  639.6516
 353  662.7356
 354  576.6946
 355  612.3306
 356  664.7912
 357  691.8077
 358  652.2917
 359  641.6486
 360  653.8162
 361  568.0554
 362  539.2471
 363  645.95
 364  597.1356
 365  498.8296
 366  575.1634
 367  579.4773
 368  607.9079
 369  506.1377
 370  522.2894
 371  487.5396
 372  548.2278
 373  632.5242
 374  544.1553
 375  562.2917
 376  510.1149
 377  491.0983
 378  555.2371
 379  548.5676
 380  426.0671
 381  399.7256
 382  500.9978
 383  407.1203
 384  467.9315
 385  464.6091
 386  438.7942
 387  567.1143
 388  457.0903
 389  492.4366
 390  534.2185
 391  571.8733
 392  634.676
 393  604.5292
 394  523.2247
 395  562.5718
 396  523.8467
 397  566.4834
 398  726.6815
 399  558.8195
 400  536.6537
 401  573.824
 402  661.0962
 403  596.527
 404  441.3396
 405  560.0925
 406  547.9839
 407  430.7106
 408  534.4123
 409  640.8405
 410  593.381
 411  596.8947
 412  688.6755
 413  546.7695
 414  599.4993
 415  519.4628
 416  497.9796
 417  465.1668
 418  338.6735
 419  446.4788
 420  528.3302
 421  486.1634
 422  580.6374
 423  444.0327
 424  436.28
 425  452.7894
 426  391.5275
 427  531.4619
 428  497.1389
 429  552.9673
 430  538.3201
 431  593.3778
 432  543.8986
 433  537.0825
 434  606.9216
 435  548.2637
 436  466.7076
 437  418.1396
 438  504.7077
 439  688.4433
 440  609.2998
 441  578.6674
 442  652.577
 443  911.6772
 444  977.3363
 445  871.3104
 446  902.7512
 447  783.73
 448  558.1773
 449  479.0354
 450  492.8386
 451  492.199
 452  530.8445
 453  538.139
 454  478.3004
 455  470.2947
 456  431.0253
 457  451.2246
 458  424.6642
 459  562.68
 460  580.3402
 461  550.4901
 462  488.2682
 463  380.9721
 464  420.1576
 465  464.1837
 466  524.293
 467  392.8479
 468  393.3601
 469  326.1949
 470  335.1113
 471  464.1181
 472  449.844
 473  420.7156
 474  449.2115
 475  342.9129
 476  478.4549
 477  444.7395
 478  469.173
 479  554.9824
 480  461.6349
 481  463.2725
 482  387.1505
 483  321.5481
 484  430.4187
 485  334.3625
 486  348.68
 487  414.0797
 488  360.5872
 489  356.6014
 490  383.5531
 491  486.0894
 492  496.9616
 493  441.0358
 494  465.2401
 495  542.1501
 496  457.9307
 497  572.3331
 498  493.738
 499  483.7946
 500  502.4347
 501  456.4633
 502  438.8318
 503  511.6158
 504  567.0263
 505  610.1168
 506  490.1566
 507  333.0277
 508  367.4864
 509  443.4182
 510  320.0413
 511  427.6592
