# Input file       =  1179202078.094115_cleaned.dat
# Candidate        =  PSR_0332+5434
# Telescope        =  AR
# Epoch_topo       =  57892.171991830037
# Epoch_bary       =  N/A
# T_sample         =  0.002
# Data Folded      =  7208960
# Data Avg         =  0.0337080062573132
# Data StdDev      =  1.00003556689963 
# Profile Bins     =  512
# Profile Avg      =  474.55306970683  
# Profile StdDev   =  118.663396132526 
# Reduced chi-sqr  =  1.069
# Prob(Noise)      <  0.137   (~1.1 sigma)
# P_topo (ms)      =  714.529206734012  +/- 6.4e-05
# P'_topo (s/s)    =  -0                +/- 3.44e-11
# P''_topo (s/s^2) =  0                 +/- 1.55e-14
# P_bary (ms)      =  N/A
# P'_bary (s/s)    =  N/A
# P''_bary (s/s^2) =  N/A
# P_orb (s)        =  N/A
# asin(i)/c (s)    =  N/A
# eccentricity     =  N/A
# w (rad)          =  N/A
# T_peri           =  N/A
######################################################
   0  957.5163
   1  943.2185
   2  845.3351
   3  731.777
   4  571.1998
   5  489.4609
   6  556.7724
   7  452.4749
   8  416.6865
   9  554.8593
  10  487.6893
  11  567.4949
  12  483.9005
  13  513.3762
  14  514.6183
  15  521.6188
  16  512.6395
  17  438.596
  18  531.7584
  19  497.1524
  20  421.3184
  21  447.8046
  22  453.0189
  23  433.9734
  24  402.5001
  25  403.1541
  26  395.305
  27  393.1414
  28  434.5834
  29  376.0064
  30  263.8931
  31  516.5798
  32  492.6696
  33  400.1787
  34  293.0829
  35  294.2305
  36  367.3806
  37  318.489
  38  322.5368
  39  341.2024
  40  404.1124
  41  511.5235
  42  422.2598
  43  453.7659
  44  461.2878
  45  345.8022
  46  310.6524
  47  339.561
  48  401.9384
  49  469.2703
  50  577.0226
  51  466.542
  52  349.9922
  53  331.9449
  54  422.6617
  55  396.1766
  56  350.4782
  57  481.0797
  58  517.359
  59  428.4593
  60  502.7166
  61  559.7075
  62  510.3308
  63  432.4544
  64  399.3893
  65  510.2718
  66  495.609
  67  426.7157
  68  436.5948
  69  541.7445
  70  456.3278
  71  419.5445
  72  435.4013
  73  593.4399
  74  561.1042
  75  624.3027
  76  587.056
  77  444.4976
  78  491.6557
  79  533.2161
  80  472.7249
  81  414.3358
  82  523.5652
  83  496.8004
  84  462.6523
  85  490.1746
  86  423.4418
  87  380.2467
  88  473.9233
  89  421.5493
  90  543.9742
  91  515.2374
  92  510.7744
  93  517.3184
  94  523.5443
  95  583.6132
  96  580.5632
  97  527.3847
  98  474.0732
  99  514.5172
 100  595.9589
 101  603.0693
 102  504.8704
 103  514.2228
 104  550.0264
 105  483.1012
 106  552.1547
 107  614.5513
 108  614.2733
 109  594.1988
 110  536.6405
 111  486.6954
 112  506.0325
 113  485.8058
 114  435.9267
 115  470.9535
 116  546.1976
 117  500.673
 118  501.6711
 119  381.3949
 120  363.3765
 121  421.8904
 122  488.2244
 123  462.8376
 124  520.6105
 125  463.8533
 126  487.3098
 127  331.2587
 128  356.9846
 129  455.5375
 130  534.8149
 131  488.8656
 132  375.2626
 133  448.6016
 134  423.1744
 135  378.7417
 136  437.0248
 137  432.5269
 138  434.4334
 139  472.9069
 140  560.6604
 141  540.4363
 142  498.5019
 143  431.624
 144  393.3475
 145  445.7636
 146  499.5919
 147  466.6116
 148  476.4349
 149  409.1819
 150  472.4163
 151  514.522
 152  437.9857
 153  391.9105
 154  322.6539
 155  423.1198
 156  436.5364
 157  594.2574
 158  626.1541
 159  476.9136
 160  552.2198
 161  528.8796
 162  469.2566
 163  488.3616
 164  569.5222
 165  496.175
 166  441.0741
 167  443.6919
 168  504.5635
 169  461.4683
 170  334.2253
 171  369.6468
 172  550.8796
 173  594.835
 174  642.8652
 175  600.1974
 176  525.0073
 177  414.4798
 178  393.096
 179  287.5276
 180  408.0201
 181  537.7089
 182  522.2446
 183  424.1052
 184  421.9145
 185  455.8732
 186  458.454
 187  344.3806
 188  385.9468
 189  550.8851
 190  530.5804
 191  467.2831
 192  416.5157
 193  523.8597
 194  388.8651
 195  350.5756
 196  375.2782
 197  440.4582
 198  510.0351
 199  479.5507
 200  413.5862
 201  447.3583
 202  378.9481
 203  308.7119
 204  429.657
 205  535.1926
 206  550.5319
 207  607.0306
 208  550.0824
 209  351.4656
 210  338.547
 211  377.5286
 212  445.436
 213  327.7333
 214  443.9355
 215  462.1094
 216  482.9752
 217  489.7187
 218  417.6178
 219  369.9293
 220  332.3973
 221  423.941
 222  491.297
 223  470.3501
 224  488.1084
 225  495.458
 226  493.3913
 227  500.7602
 228  546.973
 229  500.3106
 230  494.6226
 231  462.8159
 232  451.3364
 233  559.3155
 234  494.7516
 235  431.346
 236  454.4823
 237  388.1993
 238  466.303
 239  547.826
 240  582.1682
 241  569.9041
 242  559.1912
 243  521.2429
 244  578.5533
 245  567.8662
 246  551.3405
 247  497.9314
 248  389.3958
 249  479.1817
 250  431.3468
 251  355.1362
 252  289.2967
 253  305.8499
 254  419.0868
 255  494.3874
 256  410.771
 257  309.939
 258  383.5809
 259  437.5265
 260  435.3752
 261  408.661
 262  412.2129
 263  448.7015
 264  511.3044
 265  434.4765
 266  361.5294
 267  332.4575
 268  418.3846
 269  379.5836
 270  416.9874
 271  352.8251
 272  399.4606
 273  402.276
 274  462.3863
 275  332.9787
 276  295.1166
 277  414.3545
 278  482.9521
 279  364.3614
 280  351.011
 281  413.4375
 282  408.8601
 283  323.0966
 284  458.6717
 285  488.6729
 286  484.8032
 287  439.9769
 288  512.0814
 289  510.0078
 290  411.1418
 291  450.5074
 292  447.582
 293  382.6284
 294  320.4925
 295  255.0511
 296  367.7917
 297  413.1226
 298  472.3721
 299  534.941
 300  524.2211
 301  463.6877
 302  380.2223
 303  279.4739
 304  299.7145
 305  441.1682
 306  423.4846
 307  442.1559
 308  462.4042
 309  397.2952
 310  326.8092
 311  394.2216
 312  401.7566
 313  459.3409
 314  542.9982
 315  518.7999
 316  494.9902
 317  376.1336
 318  424.2856
 319  508.4489
 320  424.5845
 321  538.7218
 322  548.2394
 323  515.6809
 324  529.1439
 325  609.3312
 326  490.0675
 327  514.5919
 328  466.1624
 329  425.9962
 330  481.2706
 331  483.9283
 332  529.0848
 333  477.1146
 334  400.5086
 335  340.0232
 336  388.755
 337  525.575
 338  587.3268
 339  617.1547
 340  610.7606
 341  580.0394
 342  493.0948
 343  399.7799
 344  391.6648
 345  416.5226
 346  478.4525
 347  475.694
 348  429.4764
 349  470.14
 350  441.0943
 351  419.8633
 352  507.9028
 353  536.1025
 354  521.02
 355  613.3842
 356  517.9004
 357  469.2778
 358  530.7555
 359  520.9118
 360  445.1471
 361  508.4718
 362  564.5834
 363  565.8824
 364  476.3936
 365  532.4166
 366  468.7168
 367  479.7674
 368  626.1137
 369  552.744
 370  449.4853
 371  525.8121
 372  604.5596
 373  468.3045
 374  560.3224
 375  551.2311
 376  482.7592
 377  369.6184
 378  514.236
 379  559.4909
 380  558.5012
 381  576.3634
 382  531.361
 383  481.0266
 384  435.6212
 385  436.517
 386  421.712
 387  479.3575
 388  479.0238
 389  594.2458
 390  580.7124
 391  499.4218
 392  368.8786
 393  394.9076
 394  513.965
 395  496.2673
 396  568.256
 397  574.5709
 398  560.7058
 399  466.4102
 400  483.1926
 401  416.8287
 402  425.9435
 403  445.4461
 404  481.734
 405  539.7126
 406  584.1396
 407  537.2186
 408  456.0344
 409  478.5466
 410  445.5465
 411  491.588
 412  481.9867
 413  523.2455
 414  437.4278
 415  520.2562
 416  427.4113
 417  393.6531
 418  425.297
 419  378.2803
 420  477.2596
 421  506.9184
 422  462.8434
 423  410.5192
 424  390.5179
 425  350.7493
 426  343.0285
 427  490.0378
 428  598.2633
 429  553.8837
 430  495.9707
 431  573.7199
 432  486.4167
 433  385.0506
 434  477.4315
 435  529.8614
 436  579.7599
 437  564.5186
 438  622.738
 439  618.6149
 440  600.1884
 441  494.5697
 442  519.5515
 443  572.8767
 444  530.1396
 445  523.025
 446  460.7661
 447  489.5855
 448  460.9774
 449  456.5263
 450  470.8285
 451  463.7721
 452  462.8415
 453  445.2577
 454  575.031
 455  595.5686
 456  594.7748
 457  508.7205
 458  449.1513
 459  425.9338
 460  475.2107
 461  500.5116
 462  474.0123
 463  446.6768
 464  485.42
 465  417.0584
 466  457.8582
 467  464.7271
 468  394.8121
 469  586.118
 470  569.8115
 471  557.4877
 472  615.6827
 473  653.9892
 474  462.5894
 475  452.1939
 476  468.3048
 477  478.6252
 478  538.0101
 479  535.1101
 480  590.9854
 481  505.7301
 482  483.1466
 483  427.743
 484  388.8738
 485  308.9312
 486  404.1002
 487  492.7038
 488  584.4037
 489  497.5
 490  560.3589
 491  420.986
 492  382.4152
 493  360.5561
 494  463.1612
 495  484.886
 496  487.7609
 497  370.4952
 498  297.5434
 499  381.3631
 500  390.9071
 501  524.288
 502  484.8132
 503  546.7475
 504  485.7991
 505  562.7064
 506  581.1193
 507  665.6325
 508  585.6938
 509  574.972
 510  844.0529
 511  984.5391
