# Input file       =  1179921519.105297_cleaned.dat
# Candidate        =  PSR_0332+5434
# Telescope        =  AR
# Epoch_topo       =  57900.498855385384
# Epoch_bary       =  N/A
# T_sample         =  0.002
# Data Folded      =  7340032
# Data Avg         =  0.030448996399907
# Data StdDev      =  1.00008637176746 
# Profile Bins     =  512
# Profile Avg      =  436.602487792289 
# Profile StdDev   =  119.743377930741 
# Reduced chi-sqr  =  1.023
# Prob(Noise)      <  0.352   (~0.4 sigma)
# P_topo (ms)      =  714.521356170689  +/- 0.000184
# P'_topo (s/s)    =  -0                +/- 9.7e-11
# P''_topo (s/s^2) =  0                 +/- 4.28e-14
# P_bary (ms)      =  N/A
# P'_bary (s/s)    =  N/A
# P''_bary (s/s^2) =  N/A
# P_orb (s)        =  N/A
# asin(i)/c (s)    =  N/A
# eccentricity     =  N/A
# w (rad)          =  N/A
# T_peri           =  N/A
######################################################
   0  880.8308
   1  759.8453
   2  662.3212
   3  550.5092
   4  586.0875
   5  477.0628
   6  439.4683
   7  427.8588
   8  351.8499
   9  349.3453
  10  492.6214
  11  536.0747
  12  531.8566
  13  522.9337
  14  461.2032
  15  363.0977
  16  521.4898
  17  589.8474
  18  590.2745
  19  624.6888
  20  535.483
  21  454.1544
  22  502.7867
  23  449.7181
  24  435.0343
  25  489.1403
  26  540.7014
  27  410.9917
  28  440.4062
  29  620.9163
  30  523.1734
  31  599.9577
  32  442.6043
  33  415.1795
  34  339.9362
  35  406.0789
  36  463.4838
  37  496.2486
  38  431.8414
  39  317.6523
  40  481.0866
  41  501.1744
  42  405.0635
  43  381.5201
  44  380.4796
  45  396.2906
  46  501.2301
  47  489.6626
  48  525.165
  49  618.6812
  50  586.1591
  51  518.2595
  52  430.4711
  53  602.2862
  54  523.803
  55  358.3291
  56  364.4673
  57  505.6866
  58  482.5871
  59  510.9541
  60  476.1692
  61  424.5965
  62  397.8085
  63  391.456
  64  461.4731
  65  395.8538
  66  434.9255
  67  435.9214
  68  506.9918
  69  474.141
  70  502.4256
  71  507.3396
  72  443.1871
  73  433.0436
  74  305.3117
  75  371.4994
  76  432.4935
  77  461.4503
  78  464.2039
  79  359.5829
  80  360.9984
  81  257.0172
  82  286.5817
  83  331.3707
  84  322.4713
  85  397.3395
  86  383.0938
  87  357.7898
  88  252.5
  89  277.0745
  90  355.2628
  91  441.7359
  92  369.0292
  93  261.3262
  94  262.7346
  95  322.8228
  96  272.8573
  97  344.1432
  98  341.2136
  99  280.2992
 100  315.9221
 101  381.8405
 102  321.1413
 103  341.0529
 104  380.3633
 105  329.4103
 106  445.3641
 107  476.1138
 108  460.5506
 109  421.8152
 110  479.714
 111  523.4053
 112  441.3449
 113  596.7927
 114  563.6588
 115  542.7227
 116  412.8257
 117  373.3497
 118  430.5917
 119  421.6043
 120  495.5628
 121  356.3136
 122  366.2615
 123  429.7734
 124  404.1559
 125  386.3306
 126  482.9494
 127  415.7671
 128  412.3883
 129  362.6413
 130  278.2068
 131  306.1487
 132  351.7563
 133  405.0709
 134  365.5032
 135  375.1092
 136  513.586
 137  466.024
 138  309.2357
 139  314.6663
 140  459.0586
 141  424.8456
 142  527.1887
 143  586.2951
 144  443.3637
 145  462.5328
 146  369.4597
 147  466.8535
 148  529.6554
 149  405.1847
 150  503.3846
 151  431.2741
 152  341.1725
 153  405.0393
 154  424.2498
 155  446.6171
 156  553.4275
 157  529.887
 158  567.4388
 159  446.8914
 160  424.5359
 161  358.3195
 162  417.9775
 163  612.1111
 164  431.3989
 165  394.4544
 166  408.8399
 167  457.5033
 168  455.9412
 169  475.6222
 170  438.6005
 171  347.1496
 172  379.8522
 173  561.8658
 174  538.7213
 175  472.2816
 176  497.488
 177  535.2841
 178  492.8512
 179  428.7744
 180  546.6511
 181  520.9509
 182  426.1914
 183  501.5096
 184  474.7768
 185  441.4712
 186  474.0893
 187  469.9666
 188  513.7308
 189  562.3068
 190  636.7845
 191  563.3776
 192  507.1478
 193  420.1074
 194  498.6534
 195  540.8909
 196  540.2923
 197  596.3741
 198  533.1539
 199  505.1331
 200  486.0081
 201  410.5307
 202  346.7073
 203  451.3687
 204  386.4691
 205  342.9528
 206  303.2226
 207  318.0742
 208  418.9807
 209  469.7319
 210  462.9017
 211  474.7119
 212  369.9219
 213  269.1066
 214  246.8753
 215  368.3741
 216  459.6786
 217  360.3626
 218  357.5842
 219  387.924
 220  368.285
 221  406.661
 222  363.8572
 223  461.0335
 224  454.2413
 225  388.5498
 226  365.5491
 227  379.4517
 228  428.2283
 229  428.5981
 230  383.6458
 231  451.7431
 232  475.2438
 233  400.1302
 234  356.304
 235  448.7467
 236  503.3583
 237  482.0611
 238  434.61
 239  314.5106
 240  295.9022
 241  361.7677
 242  295.0022
 243  396.4756
 244  498.31
 245  460.4014
 246  510.0442
 247  540.8101
 248  584.549
 249  513.3898
 250  441.239
 251  360.0364
 252  399.5368
 253  376.2129
 254  301.7211
 255  311.3135
 256  350.0449
 257  399.5088
 258  519.8502
 259  434.5742
 260  425.2177
 261  504.2868
 262  405.6358
 263  400.8912
 264  350.9861
 265  447.3233
 266  447.8257
 267  379.7713
 268  383.7551
 269  271.0195
 270  324.2711
 271  297.8045
 272  356.373
 273  326.4657
 274  317.0865
 275  378.7797
 276  390.755
 277  380.8528
 278  336.8696
 279  310.1436
 280  411.8846
 281  456.7667
 282  521.5483
 283  535.7863
 284  418.4566
 285  496.2578
 286  423.842
 287  326.1971
 288  367.9491
 289  404.9329
 290  355.4915
 291  261.7717
 292  328.7413
 293  336.3131
 294  371.3712
 295  331.5562
 296  299.0774
 297  240.6393
 298  287.1323
 299  299.2604
 300  267.2054
 301  377.1109
 302  349.7295
 303  301.0035
 304  333.8937
 305  370.2548
 306  462.3487
 307  438.9259
 308  534.511
 309  427.9772
 310  375.9321
 311  390.6703
 312  505.9891
 313  540.2468
 314  425.5342
 315  490.0935
 316  421.9695
 317  510.8588
 318  494.0337
 319  453.8041
 320  521.5341
 321  590.2335
 322  454.3352
 323  518.9444
 324  428.0254
 325  430.9002
 326  465.1569
 327  405.8439
 328  337.5276
 329  309.0408
 330  421.9168
 331  385.1622
 332  351.4325
 333  486.9959
 334  392.1129
 335  322.9249
 336  282.7324
 337  296.2857
 338  374.3374
 339  335.1838
 340  398.4565
 341  294.1731
 342  298.9728
 343  453.2204
 344  376.7245
 345  335.2682
 346  357.9554
 347  434.5214
 348  486.9725
 349  386.9249
 350  399.5576
 351  467.3758
 352  416.4966
 353  484.8611
 354  436.2591
 355  375.6302
 356  259.4956
 357  393.5592
 358  558.5997
 359  569.2859
 360  501.6483
 361  441.8639
 362  588.9705
 363  440.9469
 364  446.6658
 365  507.247
 366  478.1664
 367  578.3035
 368  557.0314
 369  493.9957
 370  426.9751
 371  379.3823
 372  364.5986
 373  347.4827
 374  389.2411
 375  509.7789
 376  460.8281
 377  390.9272
 378  344.2395
 379  422.7281
 380  380.283
 381  452.4929
 382  405.4561
 383  431.7584
 384  409.1141
 385  319.5096
 386  397.1477
 387  414.6759
 388  350.9964
 389  283.3468
 390  314.0099
 391  410.2444
 392  497.1899
 393  453.9904
 394  469.0746
 395  438.3789
 396  503.0792
 397  464.1846
 398  451.9686
 399  381.9503
 400  425.3386
 401  494.5038
 402  538.3066
 403  609.532
 404  589.4933
 405  424.5498
 406  338.786
 407  486.9934
 408  488.1519
 409  572.7117
 410  569.3279
 411  531.3997
 412  419.507
 413  447.5635
 414  531.8444
 415  480.7988
 416  546.0768
 417  390.7534
 418  340.9923
 419  520.6907
 420  475.2744
 421  480.9302
 422  463.7459
 423  546.2806
 424  434.459
 425  441.7704
 426  397.279
 427  487.6858
 428  462.2578
 429  329.8327
 430  426.159
 431  367.9596
 432  370.0154
 433  389.0325
 434  472.2993
 435  409.8628
 436  306.5514
 437  362.3168
 438  470.2875
 439  491.501
 440  455.5027
 441  430.5337
 442  359.2968
 443  335.5404
 444  354.8303
 445  529.5079
 446  537.6832
 447  510.6941
 448  492.9131
 449  367.2701
 450  474.2854
 451  628.5349
 452  671.4704
 453  625.3003
 454  563.1856
 455  476.6876
 456  464.5096
 457  502.7443
 458  524.7916
 459  487.2869
 460  495.9943
 461  475.9384
 462  492.0151
 463  540.9193
 464  589.5124
 465  511.7457
 466  580.6055
 467  488.1362
 468  506.0175
 469  567.9354
 470  474.1999
 471  472.7951
 472  515.3909
 473  540.8508
 474  541.0928
 475  402.7557
 476  382.8099
 477  389.6377
 478  424.1765
 479  456.9521
 480  405.9836
 481  318.7469
 482  420.0459
 483  383.3827
 484  481.8279
 485  434.3222
 486  389.232
 487  392.3182
 488  342.5506
 489  469.3287
 490  467.8537
 491  398.2105
 492  476.5418
 493  425.4863
 494  440.7106
 495  519.2424
 496  527.0459
 497  508.8806
 498  462.25
 499  489.7529
 500  448.2454
 501  320.1385
 502  344.1476
 503  365.3056
 504  407.8839
 505  360.6738
 506  403.7798
 507  425.7764
 508  473.6011
 509  595.2313
 510  630.6086
 511  781.8817
