# Input file       =  1179302869.09633_cleaned.dat
# Candidate        =  PSR_0332+5434
# Telescope        =  AR
# Epoch_topo       =  57893.338554355672
# Epoch_bary       =  N/A
# T_sample         =  0.002
# Data Folded      =  7340032
# Data Avg         =  0.0152509983209247
# Data StdDev      =  1.00009383364438 
# Profile Bins     =  512
# Profile Avg      =  218.639031346657 
# Profile StdDev   =  119.744271363922 
# Reduced chi-sqr  =  1.269
# Prob(Noise)      <  3.42e-05   (~4.0 sigma)
# P_topo (ms)      =  714.52807475847   +/- 0.000183
# P'_topo (s/s)    =  -0                +/- 9.66e-11
# P''_topo (s/s^2) =  0                 +/- 4.26e-14
# P_bary (ms)      =  N/A
# P'_bary (s/s)    =  N/A
# P''_bary (s/s^2) =  N/A
# P_orb (s)        =  N/A
# asin(i)/c (s)    =  N/A
# eccentricity     =  N/A
# w (rad)          =  N/A
# T_peri           =  N/A
######################################################
   0  823.3549
   1  723.4467
   2  669.6942
   3  332.5562
   4  229.8852
   5  117.479
   6  220.0946
   7  288.6701
   8  327.0349
   9  252.8916
  10  75.85567
  11  161.5325
  12  254.7162
  13  326.5422
  14  273.1783
  15  365.5745
  16  194.0277
  17  96.02109
  18  198.7091
  19  140.3381
  20  76.20126
  21  63.86366
  22  147.315
  23  137.9162
  24  252.5439
  25  163.478
  26  53.32102
  27  217.0559
  28  291.5762
  29  170.2919
  30  152.1646
  31  178.401
  32  158.2872
  33  180.6028
  34  293.4029
  35  305.2335
  36  314.7958
  37  297.6326
  38  274.3233
  39  269.7905
  40  225.1084
  41  120.7188
  42  151.0222
  43  176.2757
  44  180.6392
  45  151.9837
  46  164.2703
  47  184.576
  48  31.94468
  49  52.05733
  50  81.37471
  51  147.2778
  52  189.7506
  53  310.3371
  54  310.7
  55  348.2193
  56  239.4522
  57  147.238
  58  89.34087
  59  67.68465
  60  275.2058
  61  193.1089
  62  193.7188
  63  245.6042
  64  297.3686
  65  331.8495
  66  215.0822
  67  161.9209
  68  115.9895
  69  295.7511
  70  187.5402
  71  131.354
  72  209.6046
  73  247.0871
  74  212.4134
  75  249.9295
  76  382.0072
  77  320.056
  78  276.3601
  79  124.0709
  80  157.1989
  81  366.2299
  82  403.6138
  83  348.16
  84  284.166
  85  378.2495
  86  312.0481
  87  219.9797
  88  300.6176
  89  176.4468
  90  299.0543
  91  275.3285
  92  126.2096
  93  98.88683
  94  119.087
  95  152.7629
  96  212.9145
  97  191.0291
  98  134.1567
  99  196.4821
 100  188.5833
 101  307.2786
 102  325.5176
 103  227.4236
 104  250.5094
 105  143.7819
 106  225.9937
 107  165.7944
 108  148.4005
 109  210.3365
 110  214.1574
 111  281.5968
 112  315.2339
 113  231.1326
 114  248.2281
 115  103.9054
 116  167.9616
 117  272.9375
 118  242.5986
 119  170.8119
 120  149.0901
 121  103.6474
 122  109.7037
 123  100.2874
 124  196.7674
 125  275.0915
 126  409.1507
 127  346.4377
 128  173.8434
 129  112.3675
 130  281.837
 131  386.0132
 132  379.8152
 133  317.2203
 134  295.3468
 135  210.2918
 136  173.4379
 137  80.7004
 138  126.4967
 139  217.3468
 140  212.68
 141  343.6936
 142  329.6846
 143  358.2536
 144  158.9161
 145  254.839
 146  315.7728
 147  342.2735
 148  192.6265
 149  154.4377
 150  233.195
 151  291.7617
 152  235.8866
 153  252.4358
 154  122.9624
 155  240.7531
 156  287.161
 157  195.625
 158  141.1487
 159  199.6505
 160  304.3871
 161  298.5848
 162  197.6681
 163  233.9812
 164  251.2485
 165  209.5382
 166  224.9743
 167  220.7487
 168  268.0148
 169  190.2923
 170  172.7375
 171  226.9471
 172  213.4881
 173  225.4196
 174  258.2388
 175  266.3629
 176  98.28161
 177  215.3494
 178  168.3315
 179  94.78244
 180  80.44497
 181  175.3118
 182  221.0155
 183  223.9874
 184  171.9744
 185  70.23415
 186  117.7716
 187  72.56084
 188  110.9164
 189  150.1496
 190  142.1983
 191  206.4767
 192  212.5587
 193  203.8621
 194  239.5718
 195  102.6762
 196  211.144
 197  243.4632
 198  279.6077
 199  264.7874
 200  192.3338
 201  202.0439
 202  203.2455
 203  185.6274
 204  200.5995
 205  298.1406
 206  149.7689
 207  117.4223
 208  122.9111
 209  309.7812
 210  221.7111
 211  188.1994
 212  229.5825
 213  232.8322
 214  190.8545
 215  336.5359
 216  250.4218
 217  283.4542
 218  254.6681
 219  97.78766
 220  18.99316
 221  181.0184
 222  109.6005
 223  113.0911
 224  259.6446
 225  184.4956
 226  110.3976
 227  113.1586
 228  329.781
 229  254.361
 230  276.3435
 231  353.821
 232  308.4178
 233  296.4992
 234  143.219
 235  199.2641
 236  322.6099
 237  274.46
 238  155.2063
 239  212.6812
 240  312.8783
 241  291.7731
 242  258.3337
 243  64.30698
 244  176.087
 245  175.0163
 246  163.6537
 247  227.9987
 248  267.1058
 249  280.7069
 250  176.7581
 251  247.7993
 252  244.226
 253  192.3478
 254  196.0197
 255  164.1984
 256  105.0885
 257  242.229
 258  261.1579
 259  248.9925
 260  275.0422
 261  273.6663
 262  322.6226
 263  259.5327
 264  281.2443
 265  371.1689
 266  295.2809
 267  108.6645
 268  135.9631
 269  229.2283
 270  257.4153
 271  254.3653
 272  203.0403
 273  247.1018
 274  367.7087
 275  212.5082
 276  53.47703
 277  135.1279
 278  232.0133
 279  280.5635
 280  166.5755
 281  92.29335
 282  185.9664
 283  37.94016
 284  58.73381
 285  167.0069
 286  124.2975
 287  237.7862
 288  316.3084
 289  123.0111
 290  155.1175
 291  111.0152
 292  89.53291
 293  229.5725
 294  189.6972
 295  148.6797
 296  296.9982
 297  266.8566
 298  382.278
 299  71.66478
 300  166.9179
 301  271.6216
 302  218.3227
 303  150.2314
 304  232.2866
 305  178.8089
 306  248.5857
 307  216.3334
 308  214.2047
 309  136.4364
 310  220.0062
 311  288.0989
 312  341.0802
 313  271.1943
 314  166.095
 315  198.5393
 316  243.1973
 317  245.1691
 318  145.6771
 319  292.8105
 320  221.1772
 321  119.5221
 322  275.8446
 323  301.3803
 324  163.2718
 325  103.8996
 326  14.37208
 327  67.15199
 328  163.885
 329  209.8677
 330  235.1952
 331  218.0868
 332  246.365
 333  185.4975
 334  234.7811
 335  255.8377
 336  117.9219
 337  266.9046
 338  248.9438
 339  209.2484
 340  193.7391
 341  347.1506
 342  254.6959
 343  123.0398
 344  153.1784
 345  217.9918
 346  191.1212
 347  298.8755
 348  393.5623
 349  287.1776
 350  370.4337
 351  421.2536
 352  292.1902
 353  107.1388
 354  234.3103
 355  183.5159
 356  153.1196
 357  198.2255
 358  327.091
 359  211.5899
 360  220.4616
 361  231.2162
 362  87.88071
 363  183.2446
 364  211.455
 365  279.3058
 366  307.3221
 367  326.6481
 368  231.7415
 369  132.9265
 370  269.9882
 371  318.6015
 372  243.2793
 373  216.4524
 374  380.5764
 375  355.162
 376  142.8902
 377  121.9985
 378  221.2992
 379  207.6608
 380  241.6347
 381  310.5576
 382  373.4835
 383  229.5467
 384  195.971
 385  239.7338
 386  242.6791
 387  270.4599
 388  208.3637
 389  199.7805
 390  146.5091
 391  94.9312
 392  101.4278
 393  102.7608
 394  175.0543
 395  233.2072
 396  110.0226
 397  156.1988
 398  187.4657
 399  298.3029
 400  264.3881
 401  227.8879
 402  110.905
 403  159.5216
 404  114.0857
 405  108.0303
 406  290.2995
 407  376.055
 408  227.9067
 409  202.1927
 410  196.6244
 411  136.686
 412  236.0626
 413  290.7516
 414  218.3764
 415  191.4218
 416  255.7253
 417  193.3275
 418  166.3665
 419  207.9297
 420  255.6049
 421  176.732
 422  263.2841
 423  87.90403
 424  87.38868
 425  188.9263
 426  113.9707
 427  62.20674
 428  196.9892
 429  124.1533
 430  86.37662
 431  32.30636
 432  145.0593
 433  132.1778
 434  40.92759
 435  102.3721
 436  175.8694
 437  160.7045
 438  176.1002
 439  124.5991
 440  143.7368
 441  185.6674
 442  220.7675
 443  54.52164
 444  158.8674
 445  254.8438
 446  151.3504
 447  64.12864
 448  69.09479
 449  152.5393
 450  201.5921
 451  138.4144
 452  58.50064
 453  56.27527
 454  119.4235
 455  204.2076
 456  146.9183
 457  146.2862
 458  201.7047
 459  199.3089
 460  224.9823
 461  282.6506
 462  233.3812
 463  250.1517
 464  283.0545
 465  294.3645
 466  379.0855
 467  296.0712
 468  165.3016
 469  367.0936
 470  292.5971
 471  153.4418
 472  205.5564
 473  267.8374
 474  80.22652
 475  132.2419
 476  218.598
 477  207.5269
 478  252.1829
 479  316.9632
 480  381.8987
 481  259.2983
 482  239.9573
 483  184.8803
 484  177.8755
 485  226.1725
 486  284.8571
 487  250.1333
 488  206.756
 489  96.32433
 490  118.5529
 491  259.1484
 492  164.3504
 493  142.5143
 494  202.0515
 495  256.8895
 496  325.7236
 497  326.7972
 498  343.6941
 499  247.5971
 500  152.2205
 501  313.6197
 502  337.8391
 503  283.3272
 504  393.7936
 505  403.5399
 506  296.2762
 507  379.6748
 508  481.6515
 509  400.1272
 510  630.2581
 511  885.2871
