# Input file       =  1179231636.095346_cleaned.dat
# Candidate        =  PSR_0332+5434
# Telescope        =  AR
# Epoch_topo       =  57892.514098325766
# Epoch_bary       =  N/A
# T_sample         =  0.002
# Data Folded      =  7340032
# Data Avg         =  0.0191140253537897
# Data StdDev      =  1.00012064697345 
# Profile Bins     =  512
# Profile Avg      =  274.024447193807 
# Profile StdDev   =  119.747481805227 
# Reduced chi-sqr  =  1.258
# Prob(Noise)      <  6.38e-05   (~3.8 sigma)
# P_topo (ms)      =  714.529216420805  +/- 0.000314
# P'_topo (s/s)    =  -0                +/- 1.66e-10
# P''_topo (s/s^2) =  0                 +/- 7.32e-14
# P_bary (ms)      =  N/A
# P'_bary (s/s)    =  N/A
# P''_bary (s/s^2) =  N/A
# P_orb (s)        =  N/A
# asin(i)/c (s)    =  N/A
# eccentricity     =  N/A
# w (rad)          =  N/A
# T_peri           =  N/A
######################################################
   0  934.8297
   1  826.2932
   2  701.9684
   3  514.5725
   4  347.7123
   5  338.5511
   6  326.9498
   7  306.2124
   8  226.706
   9  321.4193
  10  312.6298
  11  268.4625
  12  355.9615
  13  328.8897
  14  293.8918
  15  278.3188
  16  288.7552
  17  222.8914
  18  272.8223
  19  282.4588
  20  275.8422
  21  202.3178
  22  318.2331
  23  355.1047
  24  255.4125
  25  231.3463
  26  285.9617
  27  227.0962
  28  277.979
  29  204.0386
  30  293.2627
  31  313.9013
  32  164.6181
  33  286.8922
  34  285.9662
  35  361.2812
  36  272.1084
  37  237.3698
  38  222.7179
  39  234.4144
  40  291.8166
  41  342.5347
  42  228.1488
  43  270.8434
  44  166.9132
  45  213.8491
  46  283.41
  47  379.0048
  48  441.5693
  49  340.9875
  50  300.7189
  51  223.1798
  52  298.5433
  53  327.4626
  54  379.1572
  55  204.1453
  56  261.3333
  57  343.838
  58  306.5668
  59  139.8625
  60  177.9704
  61  221.4461
  62  196.7189
  63  170.5205
  64  307.0288
  65  335.8569
  66  284.2946
  67  208.9799
  68  256.6044
  69  167.8293
  70  156.8832
  71  116.7533
  72  156.5684
  73  248.6807
  74  371.6115
  75  247.0106
  76  160.1463
  77  224.0305
  78  215.3318
  79  234.0872
  80  153.8415
  81  103.8554
  82  143.4421
  83  169.5401
  84  248.3546
  85  287.8258
  86  387.5498
  87  221.3844
  88  155.9703
  89  169.4411
  90  191.8079
  91  232.1704
  92  233.2686
  93  238.7437
  94  218.341
  95  202.5632
  96  312.0055
  97  425.2286
  98  396.2259
  99  419.3522
 100  329.3147
 101  185.3753
 102  154.1202
 103  226.8061
 104  355.0429
 105  348.7768
 106  290.1644
 107  152.4552
 108  240.4204
 109  280.6445
 110  365.8688
 111  261.3544
 112  325.4334
 113  403.3931
 114  233.7639
 115  151.4706
 116  259.9623
 117  254.3858
 118  345.5654
 119  343.9258
 120  196.6869
 121  211.7231
 122  234.3478
 123  244.9052
 124  241.0492
 125  273.359
 126  317.8955
 127  258.9465
 128  280.2238
 129  326.2568
 130  241.8638
 131  154.2445
 132  343.7505
 133  204.8861
 134  225.4423
 135  232.0952
 136  211.8006
 137  324.7573
 138  344.9462
 139  223.1122
 140  400.7367
 141  313.9657
 142  244.3141
 143  265.3687
 144  327.438
 145  324.3813
 146  315.6171
 147  241.6994
 148  131.5292
 149  281.1288
 150  302.7753
 151  345.562
 152  335.0786
 153  311.4142
 154  206.6664
 155  301.3175
 156  359.9074
 157  347.0822
 158  359.1295
 159  325.2846
 160  203.5563
 161  247.8909
 162  337.4684
 163  308.8127
 164  329.7005
 165  424.9449
 166  319.3437
 167  225.0187
 168  250.162
 169  296.5326
 170  391.348
 171  223.7326
 172  280.0918
 173  271.9739
 174  271.6942
 175  316.5808
 176  164.506
 177  253.3571
 178  244.787
 179  355.3298
 180  317.464
 181  307.749
 182  282.6049
 183  293.3542
 184  343.9728
 185  404.333
 186  335.6912
 187  256.9449
 188  331.1353
 189  463.3111
 190  551.0872
 191  400.1271
 192  214.3548
 193  287.5522
 194  269.3836
 195  296.2244
 196  259.7889
 197  228.884
 198  202.8568
 199  319.4185
 200  263.7993
 201  266.2422
 202  283.9699
 203  255.9677
 204  324.7278
 205  213.4931
 206  340.827
 207  264.2794
 208  268.5765
 209  280.978
 210  367.8275
 211  279.1021
 212  235.1254
 213  227.1702
 214  227.2083
 215  265.6846
 216  235.6492
 217  194.4095
 218  225.6768
 219  278.0084
 220  295.644
 221  187.1825
 222  147.2675
 223  137.431
 224  236.7194
 225  293.08
 226  344.8748
 227  294.1824
 228  174.4925
 229  243.7768
 230  252.3489
 231  319.661
 232  371.0985
 233  154.1425
 234  211.2464
 235  239.813
 236  287.8649
 237  312.6588
 238  265.8225
 239  339.5782
 240  344.9032
 241  337.4241
 242  316.0123
 243  376.8554
 244  387.8864
 245  332.6237
 246  298.0656
 247  341.1162
 248  273.661
 249  360.1772
 250  404.6593
 251  353.2484
 252  238.895
 253  184.6172
 254  216.6129
 255  228.0009
 256  191.7338
 257  180.7374
 258  286.7628
 259  281.2744
 260  301.7406
 261  337.363
 262  247.4115
 263  249.5222
 264  190.6228
 265  303.3095
 266  384.1889
 267  271.4896
 268  366.7211
 269  375.4517
 270  394.4737
 271  483.0051
 272  372.1432
 273  227.677
 274  130.4441
 275  196.1988
 276  319.4599
 277  236.7242
 278  323.6133
 279  312.1284
 280  277.4888
 281  245.7958
 282  208.0875
 283  203.4961
 284  167.1658
 285  211.218
 286  153.5621
 287  148.8716
 288  261.7256
 289  224.4855
 290  231.8935
 291  140.9391
 292  179.0761
 293  171.2387
 294  158.604
 295  177.5467
 296  219.9532
 297  290.4182
 298  330.8151
 299  293.4285
 300  299.0654
 301  138.9699
 302  89.97228
 303  230.0881
 304  322.7668
 305  337.0139
 306  224.7677
 307  297.7668
 308  284.2029
 309  146.5612
 310  156.2538
 311  194.7035
 312  137.3486
 313  230.7356
 314  226.5484
 315  281.1867
 316  332.596
 317  363.3354
 318  344.8625
 319  362.546
 320  320.448
 321  238.6155
 322  250.6543
 323  253.3175
 324  185.5725
 325  356.569
 326  398.7559
 327  223.5258
 328  337.9064
 329  400.3598
 330  375.0556
 331  297.4379
 332  301.8429
 333  295.0585
 334  324.957
 335  242.7147
 336  144.1918
 337  215.9109
 338  246.9372
 339  161.7928
 340  132.4026
 341  148.7728
 342  186.1365
 343  225.6243
 344  297.4684
 345  362.3235
 346  235.5262
 347  98.21553
 348  295.1783
 349  476.7965
 350  378.5217
 351  309.0146
 352  329.3528
 353  258.8048
 354  268.5118
 355  280.0522
 356  268.4399
 357  252.7824
 358  178.3163
 359  132.9011
 360  170.5535
 361  211.892
 362  279.515
 363  192.8809
 364  248.6575
 365  214.485
 366  255.1626
 367  279.169
 368  453.5254
 369  619.9033
 370  368.7143
 371  230.4947
 372  184.9731
 373  375.3728
 374  305.1944
 375  278.6086
 376  279.1708
 377  158.7136
 378  77.2836
 379  98.00307
 380  246.3785
 381  190.789
 382  254.1091
 383  283.1262
 384  286.8127
 385  160.1191
 386  263.5562
 387  238.4524
 388  188.0559
 389  154.4427
 390  266.9828
 391  155.7089
 392  53.74212
 393  106.5156
 394  174.7063
 395  256.5602
 396  155.2453
 397  240.5079
 398  255.913
 399  248.8405
 400  187.2834
 401  218.8054
 402  277.6864
 403  247.3595
 404  236.2867
 405  197.9065
 406  231.9809
 407  163.1567
 408  230.5314
 409  226.4382
 410  212.7338
 411  340.0023
 412  433.0459
 413  259.0836
 414  110.0724
 415  173.0424
 416  223.4331
 417  246.5109
 418  180.8887
 419  145.4551
 420  252.9957
 421  227.2342
 422  262.2433
 423  217.2145
 424  231.9265
 425  288.4247
 426  300.4424
 427  294.5466
 428  210.855
 429  356.7484
 430  446.4538
 431  255.2566
 432  301.7177
 433  291.0344
 434  329.7015
 435  235.0126
 436  257.3262
 437  336.6861
 438  418.6793
 439  432.6465
 440  297.5296
 441  233.73
 442  242.8778
 443  217.1534
 444  293.3536
 445  348.8867
 446  386.7562
 447  365.3643
 448  160.4696
 449  271.0093
 450  153.2136
 451  282.7326
 452  418.6839
 453  318.5771
 454  334.2873
 455  398.51
 456  382.4316
 457  307.0727
 458  345.1983
 459  375.12
 460  338.7388
 461  285.1181
 462  279.3784
 463  283.5943
 464  268.5837
 465  340.7067
 466  335.7375
 467  295.5859
 468  206.8253
 469  304.4964
 470  261.4459
 471  141.7236
 472  74.077
 473  74.10505
 474  188.8529
 475  188.6487
 476  73.34362
 477  122.0944
 478  134.5866
 479  265.6911
 480  289.7752
 481  296.3517
 482  231.8257
 483  170.549
 484  157.1537
 485  225.5193
 486  222.1721
 487  295.6385
 488  194.6969
 489  205.603
 490  279.5221
 491  285.2424
 492  384.0238
 493  378.5429
 494  350.9729
 495  361.451
 496  277.8278
 497  184.5379
 498  348.787
 499  242.4536
 500  206.5485
 501  187.6164
 502  344.2048
 503  337.2656
 504  374.255
 505  439.2186
 506  246.4563
 507  303.7318
 508  469.513
 509  584.2745
 510  726.3444
 511  906.7163
