# Input file       =  1179288241.096729_cleaned.dat
# Candidate        =  PSR_0332+5434
# Telescope        =  AR
# Epoch_topo       =  57893.169248804734
# Epoch_bary       =  N/A
# T_sample         =  0.002
# Data Folded      =  7208960
# Data Avg         =  0.0398895564652345
# Data StdDev      =  1.00003583073064 
# Profile Bins     =  512
# Profile Avg      =  561.663875544957 
# Profile StdDev   =  118.663427438496 
# Reduced chi-sqr  =  1.448
# Prob(Noise)      <  1.22e-10   (~6.3 sigma)
# P_topo (ms)      =  714.528230258204  +/- 6.5e-05
# P'_topo (s/s)    =  -0                +/- 3.49e-11
# P''_topo (s/s^2) =  0                 +/- 1.57e-14
# P_bary (ms)      =  N/A
# P'_bary (s/s)    =  N/A
# P''_bary (s/s^2) =  N/A
# P_orb (s)        =  N/A
# asin(i)/c (s)    =  N/A
# eccentricity     =  N/A
# w (rad)          =  N/A
# T_peri           =  N/A
######################################################
   0  1131.257
   1  1161.636
   2  1045.693
   3  846.9308
   4  599.3548
   5  493.4669
   6  495.0701
   7  458.5305
   8  477.5866
   9  526.0226
  10  632.6304
  11  563.6028
  12  675.5654
  13  664.4148
  14  619.7341
  15  543.6166
  16  442.3992
  17  409.248
  18  397.56
  19  569.6155
  20  531.6186
  21  558.1591
  22  663.8514
  23  725.5009
  24  633.6583
  25  443.0865
  26  432.4823
  27  625.5782
  28  623.6144
  29  676.7834
  30  628.7348
  31  475.2938
  32  487.9672
  33  512.7073
  34  496.7089
  35  455.2686
  36  534.1739
  37  577.1053
  38  538.9207
  39  452.0702
  40  521.0931
  41  517.5521
  42  543.7086
  43  516.2351
  44  496.562
  45  528.3771
  46  523.3887
  47  427.5011
  48  443.8523
  49  481.6132
  50  412.0633
  51  518.5409
  52  545.154
  53  540.6675
  54  538.8074
  55  572.4881
  56  554.6359
  57  492.5211
  58  421.5186
  59  498.4881
  60  602.3185
  61  571.7961
  62  571.6075
  63  564.752
  64  456.0018
  65  455.9454
  66  500.8767
  67  529.7568
  68  608.6021
  69  526.4763
  70  551.0625
  71  549.8221
  72  527.0724
  73  649.0533
  74  645.0695
  75  656.9091
  76  658.8953
  77  620.9158
  78  740.2155
  79  632.2097
  80  545.0706
  81  528.962
  82  543.8453
  83  507.4716
  84  538.8275
  85  619.9988
  86  607.2689
  87  627.3668
  88  583.905
  89  537.1431
  90  531.9308
  91  500.6786
  92  561.2681
  93  604.6035
  94  712.9174
  95  695.588
  96  535.1602
  97  444.4152
  98  468.1111
  99  435.5097
 100  421.1365
 101  455.7889
 102  484.9795
 103  594.2258
 104  583.4178
 105  449.1936
 106  477.0555
 107  430.4597
 108  517.3452
 109  560.7619
 110  557.0617
 111  563.5764
 112  593.3246
 113  619.354
 114  603.9207
 115  501.3593
 116  441.8939
 117  448.0295
 118  531.1237
 119  591.8495
 120  521.7303
 121  547.3516
 122  554.2133
 123  412.5715
 124  491.073
 125  630.6307
 126  568.3311
 127  561.2604
 128  587.6232
 129  527.5477
 130  444.0356
 131  587.05
 132  537.4368
 133  483.1498
 134  491.6577
 135  536.5375
 136  500.683
 137  335.4123
 138  332.2733
 139  473.9931
 140  539.988
 141  540.0504
 142  614.0959
 143  542.0629
 144  502.3381
 145  566.5972
 146  597.0635
 147  570.0081
 148  526.1379
 149  565.9753
 150  565.6561
 151  637.544
 152  687.6445
 153  673.9235
 154  568.3667
 155  610.5203
 156  635.2159
 157  525.4413
 158  623.5765
 159  738.546
 160  681.9796
 161  664.899
 162  615.6044
 163  464.9512
 164  553.7551
 165  569.4539
 166  492.93
 167  529.2952
 168  737.6315
 169  674.216
 170  543.116
 171  456.5203
 172  497.1525
 173  546.1176
 174  578.6449
 175  702.1478
 176  685.9944
 177  600.8794
 178  544.48
 179  589.2131
 180  549.8353
 181  555.7374
 182  621.3027
 183  612.4945
 184  655.8455
 185  651.5461
 186  688.3701
 187  664.0446
 188  712.2063
 189  659.0887
 190  548.3967
 191  585.3615
 192  658.8695
 193  646.8391
 194  564.697
 195  587.0616
 196  521.6127
 197  593.7966
 198  672.2336
 199  691.4679
 200  658.9024
 201  590.8912
 202  576.7973
 203  537.1691
 204  574.14
 205  504.0928
 206  607.5683
 207  664.272
 208  666.9128
 209  765.6205
 210  787.9302
 211  646.2345
 212  484.6595
 213  550.3325
 214  524.5804
 215  484.6913
 216  521.6879
 217  548.1927
 218  492.9536
 219  557.766
 220  556.3135
 221  640.1829
 222  645.3592
 223  576.1859
 224  581.4363
 225  727.1208
 226  765.009
 227  649.2283
 228  537.7268
 229  453.7494
 230  543.5629
 231  632.6752
 232  641.7338
 233  576.7639
 234  684.5477
 235  809.706
 236  590.4844
 237  516.636
 238  595.6789
 239  533.6707
 240  614.7607
 241  656.0046
 242  716.7515
 243  658.2492
 244  591.0349
 245  566.5125
 246  551.3643
 247  551.7689
 248  543.9537
 249  523.0499
 250  469.6355
 251  436.1175
 252  432.9331
 253  412.0287
 254  451.7627
 255  413.1799
 256  567.7381
 257  575.6039
 258  577.564
 259  686.0353
 260  658.7908
 261  505.9409
 262  551.2729
 263  609.3119
 264  625.3239
 265  616.6711
 266  609.6145
 267  625.9265
 268  673.707
 269  568.1426
 270  412.5923
 271  452.4743
 272  476.3698
 273  447.2592
 274  454.4851
 275  592.9697
 276  560.6934
 277  432.2647
 278  432.6455
 279  445.1038
 280  411.3686
 281  470.3043
 282  577.2188
 283  517.827
 284  570.4332
 285  711.3406
 286  532.2338
 287  473.9842
 288  494.7095
 289  598.1876
 290  621.1344
 291  587.052
 292  595.694
 293  584.1299
 294  538.1583
 295  495.4999
 296  481.7645
 297  468.5911
 298  575.0317
 299  590.121
 300  591.0299
 301  540.0497
 302  575.5862
 303  443.2797
 304  404.1059
 305  396.8742
 306  629.6591
 307  738.0524
 308  758.828
 309  608.6476
 310  503.7431
 311  485.965
 312  436.1845
 313  431.1665
 314  493.8418
 315  513.3469
 316  547.808
 317  513.1389
 318  405.7206
 319  428.6162
 320  417.5069
 321  481.5977
 322  516.4796
 323  586.1498
 324  722.2578
 325  664.2616
 326  645.0115
 327  656.1758
 328  480.4597
 329  519.8909
 330  554.8704
 331  548.5269
 332  666.5524
 333  621.5481
 334  600.6941
 335  612.7004
 336  536.8534
 337  518.6389
 338  490.2222
 339  541.2852
 340  587.3153
 341  712.2831
 342  659.1855
 343  580.7129
 344  576.1647
 345  562.646
 346  489.2126
 347  468.8191
 348  522.8445
 349  513.8774
 350  641.821
 351  686.8939
 352  592.1821
 353  459.5427
 354  468.2286
 355  472.1214
 356  416.6682
 357  599.0235
 358  735.2523
 359  634.5097
 360  459.6951
 361  439.8901
 362  484.2522
 363  468.2161
 364  526.0983
 365  608.4997
 366  624.4779
 367  507.9214
 368  482.2018
 369  495.3239
 370  485.9804
 371  520.5256
 372  476.1457
 373  604.8201
 374  600.7241
 375  541.0532
 376  551.7747
 377  543.3618
 378  662.4583
 379  626.829
 380  573.1995
 381  568.8638
 382  672.2574
 383  739.5573
 384  590.4868
 385  445.7065
 386  406.1961
 387  547.3767
 388  489.0581
 389  612.1358
 390  553.3759
 391  561.3736
 392  607.5044
 393  536.8941
 394  403.4622
 395  456.211
 396  550.7097
 397  537.1927
 398  550.2167
 399  584.4197
 400  529.4156
 401  448.684
 402  402.3462
 403  402.0932
 404  545.4377
 405  516.9382
 406  342.6638
 407  572.4084
 408  682.4305
 409  657.402
 410  509.8098
 411  462.6139
 412  514.0374
 413  482.7279
 414  598.8704
 415  617.3388
 416  639.981
 417  595.3643
 418  531.0881
 419  485.8083
 420  390.9124
 421  533.8741
 422  593.6168
 423  625.0251
 424  625.3078
 425  731.2857
 426  734.3718
 427  642.2937
 428  512.9271
 429  518.8387
 430  591.0422
 431  479.2712
 432  543.2498
 433  575.9735
 434  477.438
 435  436.8726
 436  481.8999
 437  475.2603
 438  459.7355
 439  433.318
 440  458.5216
 441  519.7542
 442  567.3596
 443  485.0679
 444  447.1458
 445  415.283
 446  465.4798
 447  431.7541
 448  410.8258
 449  491.814
 450  417.3393
 451  375.1596
 452  396.4391
 453  463.8776
 454  473.0048
 455  465.963
 456  497.108
 457  435.1965
 458  484.9974
 459  595.2325
 460  510.3297
 461  447.897
 462  445.1479
 463  505.0869
 464  581.7557
 465  495.5499
 466  418.6267
 467  516.6675
 468  570.2533
 469  559.093
 470  526.3398
 471  539.017
 472  510.8726
 473  532.8344
 474  599.4766
 475  624.949
 476  583.9221
 477  463.1189
 478  540.7732
 479  580.307
 480  589.2599
 481  661.7333
 482  695.3071
 483  502.5754
 484  441.4844
 485  485.6036
 486  686.2343
 487  629.6777
 488  623.4124
 489  694.5098
 490  732.1756
 491  701.4348
 492  714.2972
 493  654.1042
 494  565.8079
 495  593.6848
 496  504.8975
 497  539.2023
 498  592.6637
 499  669.979
 500  731.6852
 501  672.5317
 502  638.6984
 503  545.4086
 504  538.9442
 505  587.2854
 506  752.4157
 507  863.505
 508  973.7918
 509  908.8755
 510  978.6839
 511  1081.73
