# Input file       =  1179576297.103387_cleaned.dat
# Candidate        =  PSR_0332+5434
# Telescope        =  AR
# Epoch_topo       =  57896.503230363276
# Epoch_bary       =  N/A
# T_sample         =  0.002
# Data Folded      =  7340032
# Data Avg         =  0.0222328890542503
# Data StdDev      =  1.00007400067253 
# Profile Bins     =  512
# Profile Avg      =  318.710891079751 
# Profile StdDev   =  119.741896701983 
# Reduced chi-sqr  =  1.057
# Prob(Noise)      <  0.179   (~0.9 sigma)
# P_topo (ms)      =  714.525292697122  +/- 0.000283
# P'_topo (s/s)    =  -0                +/- 1.5e-10
# P''_topo (s/s^2) =  0                 +/- 6.6e-14
# P_bary (ms)      =  N/A
# P'_bary (s/s)    =  N/A
# P''_bary (s/s^2) =  N/A
# P_orb (s)        =  N/A
# asin(i)/c (s)    =  N/A
# eccentricity     =  N/A
# w (rad)          =  N/A
# T_peri           =  N/A
######################################################
   0  796.0607
   1  792.3926
   2  636.6937
   3  434.5237
   4  283.2755
   5  234.6922
   6  315.1277
   7  401.7282
   8  398.0122
   9  428.4838
  10  283.3645
  11  344.3028
  12  344.1183
  13  356.5929
  14  292.8181
  15  256.0472
  16  251.3463
  17  305.6967
  18  386.0993
  19  311.1715
  20  301.8358
  21  216.3125
  22  269.5803
  23  224.1141
  24  233.9843
  25  276.2213
  26  307.9119
  27  300.8083
  28  307.6184
  29  340.5781
  30  268.7472
  31  232.7389
  32  153.9026
  33  158.161
  34  171.7151
  35  134.697
  36  200.8428
  37  245.28
  38  142.4109
  39  269.983
  40  369.7996
  41  271.7632
  42  78.32022
  43  101.9649
  44  239.8091
  45  224.5006
  46  319.6698
  47  357.4024
  48  304.0427
  49  329.5437
  50  224.9757
  51  232.8062
  52  179.2149
  53  156.2728
  54  179.3837
  55  291.9492
  56  226.2695
  57  180.8148
  58  320.6965
  59  402.0389
  60  296.9667
  61  254.4783
  62  253.2721
  63  311.3732
  64  361.8669
  65  360.0441
  66  386.5909
  67  399.2071
  68  304.6351
  69  341.5226
  70  364.1873
  71  300.9591
  72  249.9966
  73  252.0744
  74  235.8737
  75  247.4504
  76  326.3024
  77  296.4831
  78  305.4291
  79  281.5919
  80  304.8527
  81  426.2075
  82  430.5568
  83  393.7928
  84  410.3702
  85  464.0758
  86  442.2
  87  353.3307
  88  330.4356
  89  269.9252
  90  109.4742
  91  273.772
  92  267.0011
  93  262.1177
  94  241.7679
  95  343.5981
  96  407.5032
  97  317.6122
  98  402.0206
  99  319.2313
 100  460.0532
 101  430.6963
 102  451.7667
 103  331.8468
 104  308.904
 105  316.8969
 106  207.6412
 107  279.1818
 108  345.8435
 109  429.7518
 110  534.0087
 111  430.0229
 112  334.808
 113  370.0401
 114  341.1499
 115  391.3602
 116  341.483
 117  289.0345
 118  302.0217
 119  333.465
 120  328.6808
 121  307.2682
 122  356.7664
 123  355.6673
 124  232.0361
 125  217.2498
 126  191.8655
 127  205.7285
 128  263.458
 129  193.7321
 130  334.3366
 131  382.9803
 132  195.0834
 133  224.9409
 134  325.7654
 135  213.9522
 136  167.0872
 137  153.577
 138  222.7809
 139  309.7664
 140  291.6328
 141  185.9083
 142  245.3914
 143  226.7394
 144  237.0198
 145  214.1441
 146  235.1756
 147  217.0299
 148  194.2495
 149  263.3298
 150  321.981
 151  221.0226
 152  292.1371
 153  165.4548
 154  171.7503
 155  276.0734
 156  324.3657
 157  338.0682
 158  256.5535
 159  230.309
 160  270.1613
 161  330.6725
 162  302.6253
 163  326.2462
 164  315.0461
 165  405.05
 166  331.5431
 167  204.469
 168  234.0885
 169  319.1901
 170  393.2092
 171  457.6842
 172  319.6905
 173  359.2805
 174  338.2874
 175  320.0712
 176  340.6219
 177  385.9166
 178  377.1478
 179  395.3353
 180  304.6519
 181  337.673
 182  335.9842
 183  227.474
 184  338.4172
 185  242.2142
 186  221.0376
 187  342.5259
 188  369.3898
 189  363.485
 190  364.9477
 191  336.6048
 192  382.7071
 193  393.5431
 194  292.0725
 195  371.862
 196  326.718
 197  234.1476
 198  218.6556
 199  336.5961
 200  477.8336
 201  445.1707
 202  400.2261
 203  366.6377
 204  289.2256
 205  308.199
 206  324.6731
 207  245.3486
 208  310.7779
 209  308.6066
 210  261.5397
 211  402.0279
 212  398.66
 213  395.2982
 214  333.19
 215  356.9961
 216  384.2418
 217  346.4291
 218  188.5279
 219  241.2172
 220  391.7336
 221  275.6228
 222  246.6472
 223  319.278
 224  311.6757
 225  213.0875
 226  266.199
 227  285.4966
 228  229.4761
 229  340.71
 230  371.1237
 231  329.3951
 232  247.7827
 233  302.1555
 234  271.1105
 235  315.7946
 236  247.503
 237  337.0378
 238  315.7433
 239  304.7832
 240  310.435
 241  267.1521
 242  321.8319
 243  409.9226
 244  463.7286
 245  406.5221
 246  499.6223
 247  584.3906
 248  461.9056
 249  461.8979
 250  434.6011
 251  375.1934
 252  314.4453
 253  427.4615
 254  403.2129
 255  315.0129
 256  371.5876
 257  423.0874
 258  177.2048
 259  176.8598
 260  367.3553
 261  369.0564
 262  229.7572
 263  216.1791
 264  231.0778
 265  338.9729
 266  465.2917
 267  450.4788
 268  418.4917
 269  566.3254
 270  428.2652
 271  402.4415
 272  398.3006
 273  399.1408
 274  273.7939
 275  382.1802
 276  407.229
 277  413.9448
 278  403.0142
 279  338.9437
 280  308.8118
 281  344.2518
 282  434.6764
 283  363.0526
 284  356.81
 285  357.0208
 286  366.9196
 287  299.7238
 288  260.9653
 289  324.5299
 290  379.8895
 291  277.6099
 292  363.18
 293  409.4027
 294  323.1359
 295  275.8216
 296  342.9584
 297  244.268
 298  283.7657
 299  338.4051
 300  278.4642
 301  376.0803
 302  391.3281
 303  336.2224
 304  305.9257
 305  409.2596
 306  272.3714
 307  237.2756
 308  281.741
 309  254.6085
 310  292.5519
 311  304.5088
 312  309.5552
 313  324.5935
 314  392.0271
 315  421.5692
 316  346.6515
 317  347.7182
 318  290.6267
 319  274.4106
 320  379.5823
 321  345.2641
 322  359.9813
 323  483.907
 324  441.8419
 325  440.0142
 326  303.1032
 327  339.3851
 328  323.0863
 329  395.5371
 330  433.6936
 331  368.1672
 332  355.0733
 333  154.6569
 334  300.162
 335  450.9366
 336  417.2027
 337  264.8831
 338  210.2522
 339  272.9034
 340  285.538
 341  202.2781
 342  143.8821
 343  240.0906
 344  290.8543
 345  246.2121
 346  343.4072
 347  309.2585
 348  399.12
 349  411.6647
 350  327.6356
 351  322.2455
 352  347.0685
 353  279.7067
 354  289.0329
 355  277.2259
 356  279.3968
 357  386.5502
 358  383.8433
 359  330.1455
 360  310.1641
 361  288.878
 362  183.554
 363  287.8127
 364  300.5832
 365  363.4713
 366  322.4078
 367  229.6946
 368  174.6309
 369  384.8053
 370  374.756
 371  258.4371
 372  271.4423
 373  213.4735
 374  270.644
 375  323.132
 376  423.7427
 377  375.847
 378  223.3719
 379  277.2933
 380  297.8574
 381  205.5903
 382  286.1336
 383  306.0779
 384  370.8289
 385  238.9332
 386  187.481
 387  353.5022
 388  285.1793
 389  191.1802
 390  275.7247
 391  249.5689
 392  355.7449
 393  386.0487
 394  203.5081
 395  252.4821
 396  255.2937
 397  317.3495
 398  465.1705
 399  441.1826
 400  370.1768
 401  403.7885
 402  341.237
 403  310.9456
 404  317.2965
 405  258.5786
 406  398.5453
 407  330.6406
 408  370.9701
 409  371.0515
 410  282.5031
 411  343.1664
 412  393.2984
 413  318.1986
 414  455.3412
 415  423.2905
 416  340.9811
 417  190.0927
 418  222.964
 419  394.7238
 420  404.6044
 421  323.1083
 422  363.0625
 423  410.8754
 424  379.3685
 425  316.2953
 426  354.5358
 427  337.2168
 428  362.6365
 429  332.003
 430  329.8599
 431  469.2698
 432  485.3142
 433  391.4897
 434  275.4365
 435  297.8167
 436  400.6024
 437  248.9019
 438  222.7641
 439  390.3556
 440  332.3011
 441  350.4038
 442  214.8914
 443  308.5331
 444  299.7207
 445  353.2437
 446  351.7666
 447  333.1671
 448  214.3032
 449  307.9692
 450  225.4237
 451  217.3225
 452  323.5975
 453  274.6139
 454  176.0168
 455  309.6274
 456  303.7277
 457  369.6324
 458  436.3209
 459  348.8824
 460  377.4414
 461  359.9731
 462  287.3875
 463  253.6237
 464  283.7345
 465  397.3333
 466  196.4265
 467  132.0604
 468  239.2066
 469  203.2059
 470  200.6214
 471  262.109
 472  204.4958
 473  218.4297
 474  168.0564
 475  305.3237
 476  173.0208
 477  123.1394
 478  297.6044
 479  319.9085
 480  249.8788
 481  312.1679
 482  382.5287
 483  477.5281
 484  386.7307
 485  316.8194
 486  179.3366
 487  246.8163
 488  206.3418
 489  280.7538
 490  256.0039
 491  349.7112
 492  262.2678
 493  181.3812
 494  315.8754
 495  368.3498
 496  320.438
 497  339.2089
 498  353.8398
 499  327.8
 500  299.8943
 501  297.2387
 502  440.6598
 503  373.5941
 504  376.9924
 505  307.8843
 506  438.6621
 507  400.4814
 508  478.7506
 509  553.6636
 510  639.4337
 511  747.6525
