# Input file       =  1180681523.102148_cleaned.dat
# Candidate        =  PSR_0332+5434
# Telescope        =  AR
# Epoch_topo       =  57909.295197941530
# Epoch_bary       =  N/A
# T_sample         =  0.002
# Data Folded      =  7340032
# Data Avg         =  0.0327436329725281
# Data StdDev      =  1.000107628895   
# Profile Bins     =  512
# Profile Avg      =  469.498824220926 
# Profile StdDev   =  119.745923111167 
# Reduced chi-sqr  =  1.216
# Prob(Noise)      <  0.000581   (~3.2 sigma)
# P_topo (ms)      =  714.512413713888  +/- 0.000332
# P'_topo (s/s)    =  -0                +/- 1.75e-10
# P''_topo (s/s^2) =  0                 +/- 7.73e-14
# P_bary (ms)      =  N/A
# P'_bary (s/s)    =  N/A
# P''_bary (s/s^2) =  N/A
# P_orb (s)        =  N/A
# asin(i)/c (s)    =  N/A
# eccentricity     =  N/A
# w (rad)          =  N/A
# T_peri           =  N/A
######################################################
   0  995.2488
   1  1033.013
   2  928.9626
   3  795.8391
   4  504.3981
   5  462.5172
   6  470.0752
   7  585.0436
   8  561.7749
   9  609.6845
  10  730.5693
  11  554.0525
  12  431.4774
  13  619.4791
  14  617.3002
  15  624.3451
  16  711.9733
  17  621.2596
  18  609.4667
  19  558.5774
  20  589.8482
  21  464.7106
  22  391.1678
  23  444.8048
  24  404.9102
  25  401.9038
  26  477.9227
  27  508.2863
  28  505.3661
  29  482.712
  30  451.2251
  31  380.4404
  32  419.8478
  33  376.778
  34  336.6137
  35  409.0142
  36  391.3264
  37  473.2955
  38  460.6422
  39  396.6163
  40  332.1011
  41  302.8403
  42  478.1435
  43  439.0412
  44  553.4714
  45  506.2981
  46  507.1742
  47  552.9065
  48  514.512
  49  571.3309
  50  548.3258
  51  561.4984
  52  548.8588
  53  581.694
  54  563.7942
  55  489.7363
  56  567.7703
  57  559.876
  58  475.8221
  59  603.7202
  60  585.5427
  61  533.6804
  62  557.1464
  63  577.2634
  64  489.5622
  65  469.5082
  66  464.0558
  67  420.7865
  68  462.2424
  69  498.8451
  70  394.6616
  71  425.6591
  72  567.5203
  73  400.27
  74  482.0514
  75  513.8817
  76  473.3664
  77  402.4064
  78  438.9471
  79  535.0385
  80  447.12
  81  356.1348
  82  446.5428
  83  530.158
  84  540.2032
  85  469.8805
  86  513.0767
  87  443.1923
  88  472.6378
  89  456.631
  90  367.4827
  91  376.3885
  92  464.0861
  93  452.9877
  94  407.7717
  95  435.5027
  96  502.1433
  97  453.5659
  98  497.5619
  99  553.3965
 100  530.1601
 101  580.6805
 102  434.0219
 103  471.5357
 104  453.0877
 105  411.2259
 106  506.3358
 107  694.1638
 108  645.6945
 109  625.5613
 110  593.8393
 111  505.7747
 112  511.7506
 113  488.4707
 114  498.2175
 115  472.5917
 116  472.0863
 117  472.1925
 118  567.2889
 119  594.9274
 120  533.5948
 121  413.1037
 122  484.9419
 123  494.4994
 124  427.7622
 125  429.0992
 126  562.2466
 127  458.9661
 128  386.758
 129  468.1801
 130  501.2802
 131  499.7479
 132  492.9455
 133  480.2365
 134  456.6609
 135  561.8095
 136  518.7196
 137  530.0494
 138  446.3379
 139  480.245
 140  525.0113
 141  512.4259
 142  488.433
 143  506.7021
 144  496.6759
 145  507.7311
 146  528.1339
 147  445.1527
 148  530.4966
 149  522.6535
 150  401.2434
 151  448.1772
 152  448.5438
 153  448.1464
 154  424.6869
 155  347.8889
 156  398.1279
 157  444.3859
 158  461.0738
 159  612.1213
 160  691.1183
 161  574.2636
 162  484.7577
 163  435.2312
 164  355.4171
 165  424.3176
 166  513.7867
 167  490.0705
 168  536.3552
 169  451.5752
 170  478.8006
 171  394.646
 172  500.564
 173  394.7155
 174  395.4854
 175  472.5883
 176  401.9901
 177  358.5226
 178  412.9559
 179  338.1075
 180  425.7479
 181  502.2778
 182  412.977
 183  557.8901
 184  646.2076
 185  539.6472
 186  486.7475
 187  538.5413
 188  517.2031
 189  526.4444
 190  477.6174
 191  513.3604
 192  481.1691
 193  563.4022
 194  587.1236
 195  579.0242
 196  705.5211
 197  541.7664
 198  543.2316
 199  507.2281
 200  539.3571
 201  494.8272
 202  533.9395
 203  480.0921
 204  443.4534
 205  415.1073
 206  432.4073
 207  382.5576
 208  390.9323
 209  439.879
 210  448.0113
 211  394.0447
 212  570.9319
 213  468.5826
 214  343.1615
 215  368.7365
 216  397.2267
 217  441.1296
 218  474.1612
 219  536.8941
 220  519.2029
 221  502.1085
 222  502.9813
 223  527.1685
 224  534.2657
 225  528.3543
 226  434.4126
 227  450.0109
 228  502.3877
 229  460.6107
 230  429.484
 231  499.897
 232  509.0876
 233  510.9417
 234  517.9646
 235  540.8983
 236  597.726
 237  555.6904
 238  536.1491
 239  594.2252
 240  607.0601
 241  407.6263
 242  450.642
 243  519.9686
 244  452.4723
 245  435.4927
 246  401.8733
 247  404.8463
 248  490.4995
 249  570.283
 250  536.5001
 251  536.6336
 252  525.1602
 253  483.9418
 254  571.1219
 255  528.4585
 256  467.616
 257  428.3591
 258  486.4707
 259  422.5462
 260  540.9856
 261  653.0502
 262  542.1274
 263  460.3368
 264  551.8727
 265  563.4037
 266  462.5261
 267  510.9654
 268  516.0193
 269  497.9165
 270  527.0717
 271  483.9356
 272  467.8103
 273  478.4358
 274  465.6165
 275  519.4109
 276  556.4786
 277  530.7034
 278  434.9843
 279  407.6705
 280  371.7671
 281  469.7523
 282  416.0323
 283  408.0107
 284  469.5309
 285  457.0009
 286  567.576
 287  538.9421
 288  467.8831
 289  272.9597
 290  321.7331
 291  441.3525
 292  478.0864
 293  548.0316
 294  363.9187
 295  499.3868
 296  473.3483
 297  370.8001
 298  358.8937
 299  422.0229
 300  446.0743
 301  318.0731
 302  407.4993
 303  517.8751
 304  540.9472
 305  480.9585
 306  491.4916
 307  506.5218
 308  480.1839
 309  447.4009
 310  601.8423
 311  533.561
 312  449.0748
 313  381.5394
 314  421.9871
 315  513.2766
 316  640.7553
 317  457.6666
 318  427.9228
 319  468.328
 320  548.0688
 321  503.3409
 322  379.2033
 323  382.0429
 324  375.1908
 325  515.3132
 326  404.0111
 327  441.193
 328  467.9314
 329  420.3515
 330  485.8175
 331  346.6162
 332  337.6438
 333  301.7791
 334  316.7307
 335  298.6377
 336  293.8762
 337  417.7432
 338  401.1786
 339  378.4618
 340  562.2839
 341  445.6902
 342  398.7979
 343  468.2026
 344  505.0691
 345  413.2943
 346  474.7258
 347  414.7924
 348  345.4313
 349  343.0644
 350  337.9016
 351  396.0889
 352  470.8392
 353  501.8029
 354  488.9298
 355  409.3536
 356  437.1651
 357  473.504
 358  461.409
 359  596.2634
 360  487.1339
 361  462.0654
 362  513.7459
 363  450.0888
 364  405.2249
 365  498.109
 366  540.2567
 367  543.6492
 368  495.0522
 369  312.0991
 370  335.8883
 371  454.2751
 372  454.1981
 373  490.64
 374  426.492
 375  410.7244
 376  351.4339
 377  351.6193
 378  356.5851
 379  402.4451
 380  371.2358
 381  368.9437
 382  377.3947
 383  341.6359
 384  315.8167
 385  228.5002
 386  225.1142
 387  238.0422
 388  214.9256
 389  327.8571
 390  336.6452
 391  402.3185
 392  436.9211
 393  455.656
 394  463.6384
 395  303.4113
 396  213.6384
 397  371.2485
 398  297.7894
 399  347.3797
 400  397.2433
 401  408.4158
 402  469.1203
 403  452.1761
 404  314.517
 405  405.1548
 406  493.6078
 407  495.629
 408  388.5785
 409  264.5956
 410  236.2796
 411  324.4708
 412  380.002
 413  318.3519
 414  431.2884
 415  512.1027
 416  374.7108
 417  440.2401
 418  470.4527
 419  461.8157
 420  371.1614
 421  516.1614
 422  568.3552
 423  556.4843
 424  443.892
 425  394.3832
 426  412.584
 427  470.5536
 428  380.2413
 429  419.0033
 430  420.5536
 431  437.8018
 432  338.3623
 433  310.3774
 434  401.2827
 435  435.8334
 436  504.0826
 437  631.6656
 438  572.5406
 439  502.6993
 440  458.373
 441  510.4488
 442  539.2923
 443  474.8341
 444  379.3509
 445  489.8803
 446  422.3295
 447  384.7623
 448  549.9237
 449  595.5524
 450  522.2325
 451  436.4462
 452  452.9711
 453  502.459
 454  415.8336
 455  459.8638
 456  507.1978
 457  549.4907
 458  469.3866
 459  432.0558
 460  326.4609
 461  389.7772
 462  479.7359
 463  467.7408
 464  407.0172
 465  445.6806
 466  454.5678
 467  566.2196
 468  529.1091
 469  456.0069
 470  399.9117
 471  392.3785
 472  495.2688
 473  462.1581
 474  340.868
 475  402.1211
 476  461.371
 477  388.1475
 478  349.3224
 479  344.8448
 480  300.279
 481  521.3238
 482  491.7724
 483  498.3967
 484  381.5704
 485  408.5879
 486  386.3223
 487  281.6712
 488  292.7195
 489  294.5862
 490  410.1675
 491  422.7004
 492  406.0721
 493  426.2589
 494  454.3438
 495  395.779
 496  476.6421
 497  512.326
 498  545.5412
 499  445.6434
 500  398.2078
 501  416.5693
 502  511.3644
 503  458.7039
 504  460.7744
 505  423.5023
 506  538.7182
 507  560.2147
 508  540.7513
 509  676.2405
 510  803.4721
 511  923.2252
