# Input file       =  1180696444.113249_cleaned.dat
# Candidate        =  PSR_0332+5434
# Telescope        =  AR
# Epoch_topo       =  57909.467894829271
# Epoch_bary       =  N/A
# T_sample         =  0.002
# Data Folded      =  7340032
# Data Avg         =  0.026757418012566
# Data StdDev      =  1.00004512763663 
# Profile Bins     =  512
# Profile Avg      =  383.659239306801 
# Profile StdDev   =  119.738439645724 
# Reduced chi-sqr  =  1.166
# Prob(Noise)      <  0.0056   (~2.5 sigma)
# P_topo (ms)      =  714.512581237114  +/- 0.000313
# P'_topo (s/s)    =  -0                +/- 1.65e-10
# P''_topo (s/s^2) =  0                 +/- 7.3e-14
# P_bary (ms)      =  N/A
# P'_bary (s/s)    =  N/A
# P''_bary (s/s^2) =  N/A
# P_orb (s)        =  N/A
# asin(i)/c (s)    =  N/A
# eccentricity     =  N/A
# w (rad)          =  N/A
# T_peri           =  N/A
######################################################
   0  733.3713
   1  693.9168
   2  615.7278
   3  473.3792
   4  380.562
   5  385.8074
   6  433.8021
   7  458.3385
   8  393.5626
   9  269.0547
  10  169.6467
  11  199.3022
  12  286.3633
  13  313.3804
  14  378.4525
  15  441.0408
  16  429.696
  17  339.9114
  18  250.7876
  19  370.7648
  20  464.7855
  21  395.2391
  22  340.0088
  23  336.842
  24  217.5911
  25  271.1213
  26  307.9464
  27  409.3144
  28  342.9911
  29  405.3503
  30  483.893
  31  443.956
  32  445.3978
  33  383.7676
  34  313.2935
  35  489.9926
  36  482.0139
  37  384.97
  38  419.9621
  39  345.1964
  40  433.9857
  41  400.2362
  42  467.9847
  43  388.1658
  44  250.5298
  45  381.4828
  46  361.5201
  47  335.5416
  48  347.4866
  49  437.1567
  50  402.2291
  51  232.7038
  52  249.2776
  53  242.9607
  54  454.4518
  55  377.8704
  56  301.3923
  57  212.3591
  58  256.4586
  59  317.3934
  60  298.6816
  61  321.1226
  62  312.7998
  63  201.4373
  64  246.078
  65  337.2274
  66  223.2908
  67  220.1491
  68  286.1883
  69  334.1744
  70  392.0679
  71  334.6476
  72  412.0888
  73  314.967
  74  310.0222
  75  414.6357
  76  319.1539
  77  395.3199
  78  451.4185
  79  329.5549
  80  357.3256
  81  428.4439
  82  397.6932
  83  307.0563
  84  388.6133
  85  383.4666
  86  231.5253
  87  326.9555
  88  322.4507
  89  246.7622
  90  330.7866
  91  342.308
  92  212.866
  93  200.1511
  94  223.1297
  95  320.4791
  96  347.6014
  97  279.3387
  98  289.8748
  99  374.3435
 100  236.5243
 101  338.1616
 102  271.6651
 103  289.0985
 104  294.1791
 105  257.8016
 106  375.8596
 107  288.7184
 108  373.9817
 109  609.6139
 110  418.0201
 111  332.4157
 112  440.8796
 113  375.2757
 114  329.9199
 115  334.9059
 116  380.9656
 117  486.4396
 118  440.5274
 119  535.892
 120  438.1765
 121  386.5011
 122  316.5853
 123  324.156
 124  343.7718
 125  411.688
 126  433.8863
 127  370.9947
 128  396.8682
 129  318.175
 130  376.701
 131  272.1826
 132  244.156
 133  327.0181
 134  258.6643
 135  221.7835
 136  399.9367
 137  319.3799
 138  264.3732
 139  357.5659
 140  227.6624
 141  124.0898
 142  247.8298
 143  306.1216
 144  451.5141
 145  365.1254
 146  257.8761
 147  380.6859
 148  288.7452
 149  355.1493
 150  329.3463
 151  255.8453
 152  286.579
 153  382.5743
 154  423.9199
 155  352.396
 156  379.7254
 157  539.7301
 158  525.7684
 159  405.7347
 160  441.3589
 161  495.5001
 162  410.1291
 163  377.8416
 164  446.0434
 165  388.5655
 166  304.1171
 167  393.8995
 168  360.4144
 169  457.4673
 170  375.4822
 171  341.5498
 172  364.307
 173  388.0045
 174  428.186
 175  519.3759
 176  399.0531
 177  298.1432
 178  298.0384
 179  436.7898
 180  359.4184
 181  327.2825
 182  333.3218
 183  368.1692
 184  427.5811
 185  385.6812
 186  465.336
 187  413.7013
 188  364.454
 189  345.8819
 190  371.0926
 191  440.7863
 192  462.6963
 193  456.1815
 194  387.119
 195  354.7254
 196  480.7496
 197  523.9172
 198  477.5499
 199  433.7249
 200  432.1171
 201  433.9417
 202  414.6125
 203  485.2582
 204  549.387
 205  458.6974
 206  440.4175
 207  377.24
 208  354.274
 209  361.5507
 210  454.8007
 211  405.5381
 212  490.067
 213  366.5372
 214  371.7874
 215  417.2181
 216  390.7804
 217  364.1062
 218  384.4333
 219  435.7441
 220  216.5091
 221  177.5035
 222  300.6008
 223  328.4138
 224  402.3118
 225  371.2443
 226  343.1088
 227  408.994
 228  396.5895
 229  365.4065
 230  353.4983
 231  441.1923
 232  439.6203
 233  302.7319
 234  334.2533
 235  362.3876
 236  481.4703
 237  630.4642
 238  638.7522
 239  520.065
 240  393.5153
 241  413.2658
 242  338.5625
 243  300.7711
 244  396.0765
 245  462.9451
 246  421.5455
 247  619.0046
 248  657.3032
 249  548.8301
 250  491.2391
 251  326.9535
 252  403.1915
 253  372.6725
 254  315.1024
 255  390.1151
 256  457.5133
 257  541.1065
 258  476.6933
 259  532.9556
 260  419.9527
 261  351.0976
 262  290.3791
 263  328.7406
 264  428.3631
 265  533.6327
 266  484.6787
 267  345.9513
 268  275.682
 269  261.0297
 270  334.1751
 271  356.3536
 272  426.8524
 273  358.2708
 274  302.7193
 275  317.1164
 276  339.3583
 277  412.6255
 278  428.5216
 279  356.4449
 280  470.7499
 281  429.3542
 282  410.2476
 283  457.4971
 284  478.2864
 285  383.0764
 286  419.8416
 287  477.1583
 288  572.3521
 289  553.8263
 290  387.9583
 291  321.9168
 292  322.6608
 293  351.0956
 294  315.8663
 295  396.7568
 296  460.5462
 297  366.639
 298  302.8958
 299  326.5219
 300  382.3294
 301  462.044
 302  362.1457
 303  385.1881
 304  355.5234
 305  351.4166
 306  381.7474
 307  432.7955
 308  461.5515
 309  423.1001
 310  366.1898
 311  426.8297
 312  367.4082
 313  402.9431
 314  447.6716
 315  410.7504
 316  351.0019
 317  484.8839
 318  471.8805
 319  342.914
 320  420.9277
 321  487.1766
 322  417.9575
 323  529.6437
 324  508.0179
 325  401.889
 326  501.6307
 327  672.1252
 328  595.9926
 329  538.0018
 330  405.4164
 331  419.764
 332  455.3141
 333  572.0166
 334  560.2253
 335  445.4701
 336  532.6047
 337  569.1322
 338  386.2826
 339  318.83
 340  378.4344
 341  385.5246
 342  394.8594
 343  440.13
 344  561.3525
 345  421.252
 346  345.9254
 347  349.097
 348  510.9341
 349  497.1256
 350  600.4033
 351  510.6315
 352  488.1246
 353  375.7664
 354  311.6155
 355  314.0717
 356  361.8367
 357  370.7845
 358  324.054
 359  315.0391
 360  329.5489
 361  431.8745
 362  343.4488
 363  348.6348
 364  420.575
 365  373.8729
 366  423.3004
 367  368.4231
 368  384.6887
 369  402.2636
 370  484.8229
 371  500.8508
 372  428.275
 373  477.407
 374  497.7833
 375  532.62
 376  507.7571
 377  510.2598
 378  429.0206
 379  396.1493
 380  397.995
 381  338.2914
 382  309.4369
 383  345.7227
 384  411.3671
 385  396.3473
 386  446.8598
 387  523.4053
 388  496.5154
 389  357.2247
 390  388.7112
 391  393.2432
 392  427.0206
 393  439.3521
 394  496.0685
 395  439.2787
 396  383.4787
 397  408.618
 398  385.4073
 399  475.3471
 400  384.5131
 401  409.1345
 402  573.5274
 403  515.2853
 404  443.3283
 405  473.7474
 406  466.5547
 407  436.1143
 408  482.8237
 409  516.5713
 410  383.7008
 411  335.6678
 412  326.6729
 413  374.7864
 414  409.3887
 415  433.6109
 416  403.104
 417  415.5099
 418  469.8426
 419  478.441
 420  458.8962
 421  338.0171
 422  261.0862
 423  350.9781
 424  400.3605
 425  257.9425
 426  235.1531
 427  397.3672
 428  346.2831
 429  313.9978
 430  318.922
 431  176.611
 432  251.4925
 433  226.2016
 434  185.9161
 435  224.3267
 436  219.9113
 437  385.4075
 438  402.3542
 439  311.4761
 440  326.0792
 441  281.7428
 442  306.1844
 443  344.7138
 444  306.4493
 445  393.7622
 446  451.2826
 447  334.9987
 448  261.4063
 449  209.0261
 450  219.2163
 451  319.2571
 452  273.7717
 453  328.0244
 454  444.4727
 455  309.3126
 456  236.8491
 457  370.4309
 458  441.5383
 459  432.5713
 460  476.8637
 461  436.7265
 462  349.4177
 463  255.9757
 464  170.6021
 465  160.7396
 466  169.6607
 467  260.2405
 468  258.4797
 469  216.0278
 470  290.55
 471  351.4165
 472  374.7508
 473  296.7543
 474  290.4603
 475  294.4445
 476  241.6054
 477  337.0897
 478  395.9194
 479  392.6962
 480  278.1288
 481  248.1399
 482  295.741
 483  338.7735
 484  208.7026
 485  218.823
 486  346.0546
 487  394.305
 488  305.735
 489  333.3732
 490  422.3887
 491  263.7131
 492  392.497
 493  449.6398
 494  421.923
 495  496.7239
 496  471.97
 497  450.5669
 498  545.4189
 499  486.9848
 500  371.3965
 501  298.8628
 502  355.0055
 503  460.8886
 504  493.1941
 505  510.8495
 506  464.1927
 507  352.461
 508  457.6633
 509  489.4851
 510  614.0549
 511  750.8423
