# Input file       =  1180179408.10232_cleaned.dat
# Candidate        =  PSR_0332+5434
# Telescope        =  AR
# Epoch_topo       =  57903.483681739817
# Epoch_bary       =  N/A
# T_sample         =  0.002
# Data Folded      =  7340032
# Data Avg         =  0.0264257160507861
# Data StdDev      =  1.00004798596625 
# Profile Bins     =  512
# Profile Avg      =  378.812526188051 
# Profile StdDev   =  119.738781882208 
# Reduced chi-sqr  =  1.279
# Prob(Noise)      <  1.93e-05   (~4.1 sigma)
# P_topo (ms)      =  714.518400669968  +/- 0.000277
# P'_topo (s/s)    =  -0                +/- 1.46e-10
# P''_topo (s/s^2) =  0                 +/- 6.45e-14
# P_bary (ms)      =  N/A
# P'_bary (s/s)    =  N/A
# P''_bary (s/s^2) =  N/A
# P_orb (s)        =  N/A
# asin(i)/c (s)    =  N/A
# eccentricity     =  N/A
# w (rad)          =  N/A
# T_peri           =  N/A
######################################################
   0  461.9314
   1  377.7191
   2  456.3178
   3  478.2695
   4  398.2773
   5  388.5743
   6  327.2717
   7  278.0081
   8  304.4013
   9  358.6196
  10  326.8692
  11  388.7443
  12  421.4774
  13  444.6137
  14  609.558
  15  469.9901
  16  398.0619
  17  506.5941
  18  516.8835
  19  469.2595
  20  352.6851
  21  283.9049
  22  208.8529
  23  245.0998
  24  452.2762
  25  542.6593
  26  420.4597
  27  437.1268
  28  345.9167
  29  431.1079
  30  447.2231
  31  322.0394
  32  292.2423
  33  344.316
  34  428.0694
  35  356.8674
  36  310.4791
  37  367.1323
  38  386.3987
  39  264.9841
  40  406.2583
  41  381.7348
  42  378.9086
  43  362.6562
  44  317.5814
  45  416.2834
  46  330.2514
  47  357.2467
  48  234.6238
  49  259.4898
  50  387.4999
  51  401.3872
  52  460.6571
  53  587.989
  54  457.8389
  55  415.4786
  56  417.9211
  57  409.9109
  58  328.6452
  59  354.2818
  60  507.5471
  61  480.3583
  62  476.5378
  63  439.7476
  64  505.2566
  65  552.0251
  66  504.4757
  67  436.1842
  68  417.1541
  69  329.788
  70  404.1935
  71  571.2715
  72  612.586
  73  462.8522
  74  453.1813
  75  501.6398
  76  472.1476
  77  487.9837
  78  470.9268
  79  511.7952
  80  463.5359
  81  600.6072
  82  663.8973
  83  721.4744
  84  865.1403
  85  940.4404
  86  751.5778
  87  401.4639
  88  356.8018
  89  485.6258
  90  393.0391
  91  359.7876
  92  473.9957
  93  463.8471
  94  431.0963
  95  461.2195
  96  503.9733
  97  480.1892
  98  461.2542
  99  410.0418
 100  289.5297
 101  409.1277
 102  523.6177
 103  483.7764
 104  406.5169
 105  476.3463
 106  442.5429
 107  448.5099
 108  574.3491
 109  572.7936
 110  391.9075
 111  413.6675
 112  391.8444
 113  451.6221
 114  490.9815
 115  370.0015
 116  480.0472
 117  500.117
 118  449.1588
 119  386.3846
 120  280.8582
 121  322.8264
 122  362.8251
 123  338.1424
 124  293.2301
 125  306.315
 126  327.4951
 127  293.0918
 128  383.6841
 129  375.9086
 130  326.2762
 131  262.4805
 132  345.4551
 133  300.5211
 134  398.4435
 135  397.1657
 136  292.2887
 137  285.6732
 138  406.7295
 139  482.06
 140  265.6771
 141  392.2938
 142  520.0654
 143  398.3109
 144  441.4347
 145  470.459
 146  480.0175
 147  572.6985
 148  516.5083
 149  432.9174
 150  398.363
 151  365.7257
 152  388.3749
 153  376.9299
 154  394.506
 155  303.8061
 156  254.1178
 157  369.1857
 158  557.1407
 159  505.9549
 160  390.8091
 161  307.1036
 162  313.0492
 163  338.1794
 164  364.4236
 165  440.0131
 166  411.2661
 167  355.2266
 168  309.7357
 169  309.7612
 170  333.9647
 171  297.627
 172  340.5408
 173  387.1783
 174  498.9521
 175  530.9824
 176  371.9786
 177  478.9928
 178  419.2961
 179  382.245
 180  463.2269
 181  571.3904
 182  561.7463
 183  486.1748
 184  455.1836
 185  440.864
 186  373.3695
 187  388.8472
 188  434.5621
 189  357.12
 190  373.2861
 191  330.0382
 192  358.4104
 193  387.6154
 194  420.3979
 195  501.918
 196  385.4286
 197  395.6345
 198  286.6178
 199  337.8134
 200  318.6131
 201  212.0363
 202  178.7898
 203  96.53293
 204  155.6422
 205  311.9651
 206  292.6338
 207  327.5102
 208  371.6033
 209  314.6224
 210  343.6937
 211  325.0261
 212  290.8927
 213  319.5995
 214  323.5222
 215  317.1286
 216  319.8178
 217  426.7898
 218  351.7156
 219  243.364
 220  324.7556
 221  452.8455
 222  376.4632
 223  378.2159
 224  442.8328
 225  431.8704
 226  388.3855
 227  461.7386
 228  375.5532
 229  432.4399
 230  414.2754
 231  377.9588
 232  470.5522
 233  396.2563
 234  354.4541
 235  286.5435
 236  384.6368
 237  416.2881
 238  427.0042
 239  483.0791
 240  490.6371
 241  352.149
 242  307.7175
 243  347.6251
 244  262.5809
 245  192.4497
 246  249.9791
 247  346.8803
 248  464.5229
 249  344.0416
 250  347.6967
 251  358.8114
 252  416.205
 253  314.5061
 254  342.2368
 255  324.9827
 256  196.9398
 257  319.8028
 258  350.1114
 259  369.9477
 260  372.3571
 261  312.0933
 262  153.8191
 263  240.1523
 264  386.1095
 265  284.9931
 266  393.6061
 267  316.3044
 268  334.6328
 269  408.9854
 270  376.5372
 271  427.5138
 272  372.1866
 273  414.2165
 274  350.68
 275  332.1716
 276  371.8146
 277  426.5975
 278  412.0762
 279  356.1501
 280  390.0255
 281  344.734
 282  386.7782
 283  407.4024
 284  459.2038
 285  509.6972
 286  470.9237
 287  421.7146
 288  476.8302
 289  376.2505
 290  312.3107
 291  317.2517
 292  333.2341
 293  371.6747
 294  232.1408
 295  256.638
 296  199.3141
 297  195.2086
 298  228.8806
 299  297.2234
 300  310.0907
 301  204.0105
 302  219.6829
 303  422.0722
 304  326.0844
 305  272.3718
 306  428.6202
 307  440.0971
 308  362.2092
 309  263.2037
 310  366.4722
 311  408.4198
 312  463.1475
 313  384.1862
 314  282.5651
 315  344.7953
 316  350.5099
 317  387.0467
 318  404.8556
 319  336.9445
 320  298.9417
 321  242.4178
 322  214.4477
 323  241.7186
 324  395.0923
 325  418.0246
 326  264.1984
 327  374.684
 328  334.3539
 329  295.1735
 330  337.2257
 331  451.8687
 332  281.0978
 333  172.8276
 334  229.2818
 335  226.1486
 336  293.3255
 337  73.86467
 338  175.7882
 339  283.0099
 340  358.9127
 341  318.1404
 342  132.6576
 343  265.8047
 344  257.954
 345  266.3615
 346  156.5559
 347  190.693
 348  263.9229
 349  254.006
 350  267.9426
 351  187.3421
 352  365.5381
 353  333.5741
 354  243.8438
 355  285.1261
 356  202.8899
 357  316.5725
 358  247.192
 359  263.0094
 360  282.023
 361  362.092
 362  320.8311
 363  302.8162
 364  319.183
 365  323.5876
 366  351.9477
 367  383.5025
 368  271.3755
 369  338.6836
 370  300.6514
 371  317.0946
 372  348.5081
 373  314.2756
 374  302.8793
 375  462.5975
 376  395.999
 377  263.7342
 378  313.6731
 379  267.0725
 380  262.5392
 381  374.9425
 382  361.5958
 383  359.9392
 384  417.9651
 385  460.6726
 386  390.7826
 387  332.1306
 388  268.4745
 389  352.236
 390  352.2618
 391  338.8545
 392  270.8237
 393  320.1118
 394  388.7933
 395  412.7572
 396  348.2244
 397  266.7617
 398  253.1641
 399  354.1331
 400  283.517
 401  218.34
 402  265.1992
 403  293.673
 404  295.3175
 405  386.6231
 406  340.5215
 407  370.8346
 408  372.3086
 409  397.7497
 410  354.3654
 411  313.9293
 412  314.5035
 413  323.794
 414  186.3279
 415  210.0384
 416  390.256
 417  493.2136
 418  451.0136
 419  347.2232
 420  361.4006
 421  392.9165
 422  385.4074
 423  341.1591
 424  408.0804
 425  436.5877
 426  327.6558
 427  356.7854
 428  510.3984
 429  484.4593
 430  469.0611
 431  428.899
 432  394.4557
 433  428.4768
 434  482.3258
 435  409.5614
 436  396.7732
 437  313.9848
 438  283.8837
 439  392.9572
 440  523.3858
 441  614.4772
 442  572.157
 443  530.5326
 444  510.8707
 445  552.7625
 446  370.1298
 447  402.509
 448  425.6933
 449  381.5815
 450  467.8771
 451  404.773
 452  458.4171
 453  424.6224
 454  468.4603
 455  510.093
 456  511.0818
 457  407.6308
 458  435.1823
 459  544.688
 460  410.2383
 461  381.8737
 462  416.5359
 463  400.5695
 464  436.7102
 465  485.5878
 466  481.199
 467  430.8241
 468  364.5754
 469  304.0017
 470  248.2382
 471  268.9533
 472  291.0416
 473  218.017
 474  252.7626
 475  272.9304
 476  338.8764
 477  331.1297
 478  354.9563
 479  432.4235
 480  384.5076
 481  374.0176
 482  355.6348
 483  389.4065
 484  362.6655
 485  319.7951
 486  241.83
 487  438.4532
 488  394.2125
 489  382.2025
 490  414.4285
 491  485.1568
 492  426.99
 493  405.1525
 494  493.0137
 495  409.4849
 496  399.1289
 497  386.1155
 498  360.7147
 499  485.1619
 500  481.2122
 501  417.4467
 502  347.1224
 503  333.3616
 504  361.6432
 505  459.2743
 506  465.2714
 507  495.4716
 508  480.6007
 509  557.0854
 510  534.9763
 511  417.2546
