# Input file       =  1180839218.112024_cleaned.dat
# Candidate        =  PSR_0332+5434
# Telescope        =  AR
# Epoch_topo       =  57911.120371666948
# Epoch_bary       =  N/A
# T_sample         =  0.002
# Data Folded      =  7143424
# Data Avg         =  0.0297959735187331
# Data StdDev      =  1.00003722539244 
# Profile Bins     =  512
# Profile Avg      =  415.604886924179 
# Profile StdDev   =  118.122981492529 
# Reduced chi-sqr  =  1.202
# Prob(Noise)      <  0.00111   (~3.1 sigma)
# P_topo (ms)      =  714.510650537649  +/- 0.000366
# P'_topo (s/s)    =  -0                +/- 1.99e-10
# P''_topo (s/s^2) =  0                 +/- 9e-14
# P_bary (ms)      =  N/A
# P'_bary (s/s)    =  N/A
# P''_bary (s/s^2) =  N/A
# P_orb (s)        =  N/A
# asin(i)/c (s)    =  N/A
# eccentricity     =  N/A
# w (rad)          =  N/A
# T_peri           =  N/A
######################################################
   0  875.6844
   1  896.5144
   2  796.8965
   3  538.876
   4  547.1418
   5  448.09
   6  423.2257
   7  417.3889
   8  400.89
   9  378.3478
  10  431.0645
  11  502.1113
  12  466.0592
  13  455.5035
  14  445.4716
  15  458.8388
  16  481.3671
  17  499.8286
  18  488.4635
  19  351.1412
  20  337.7379
  21  355.0571
  22  354.2017
  23  416.0305
  24  442.2826
  25  325.4913
  26  263.3769
  27  355.5862
  28  303.428
  29  303.446
  30  424.7155
  31  456.5703
  32  453.3786
  33  359.3296
  34  342.2277
  35  355.7625
  36  397.0985
  37  338.1364
  38  413.5951
  39  508.3622
  40  426.7082
  41  385.8112
  42  339.0828
  43  409.5662
  44  391.4948
  45  418.7439
  46  451.2602
  47  390.618
  48  302.0381
  49  358.5553
  50  400.6241
  51  377.3538
  52  277.9401
  53  279.3987
  54  259.3416
  55  250.912
  56  345.9746
  57  349.0851
  58  463.9286
  59  412.5786
  60  432.5585
  61  400.2399
  62  299.026
  63  314.0552
  64  396.8381
  65  297.3483
  66  251.2296
  67  284.1589
  68  425.6021
  69  405.2906
  70  362.8872
  71  305.4413
  72  366.5624
  73  417.6202
  74  481.9674
  75  420.3297
  76  391.6439
  77  403.4643
  78  328.688
  79  351.0714
  80  449.2812
  81  493.1369
  82  377.3192
  83  516.0542
  84  507.8031
  85  471.7184
  86  583.2036
  87  488.123
  88  398.0952
  89  386.1894
  90  427.0123
  91  443.3139
  92  587.03
  93  693.6558
  94  674.3093
  95  562.2247
  96  517.4549
  97  497.7347
  98  410.3387
  99  446.7679
 100  581.1973
 101  556.8249
 102  627.8835
 103  555.9771
 104  460.0092
 105  454.8416
 106  370.4599
 107  429.5256
 108  503.6884
 109  549.6091
 110  416.9002
 111  319.506
 112  413.8654
 113  391.5843
 114  358.357
 115  359.2427
 116  407.9436
 117  431.6654
 118  369.1338
 119  332.0799
 120  345.0415
 121  387.7242
 122  393.8558
 123  437.5995
 124  469.9102
 125  498.774
 126  391.6528
 127  357.1449
 128  289.4618
 129  356.1314
 130  391.5675
 131  282.3146
 132  304.9691
 133  396.5075
 134  428.5356
 135  478.484
 136  473.808
 137  541.7245
 138  522.2875
 139  454.4279
 140  499.0606
 141  440.5297
 142  481.351
 143  550.1647
 144  464.719
 145  556.7354
 146  515.8411
 147  483.6851
 148  418.2081
 149  517.2046
 150  407.0651
 151  476.0103
 152  524.5338
 153  474.1494
 154  436.5068
 155  497.422
 156  509.0331
 157  459.8403
 158  489.1397
 159  508.4481
 160  481.2467
 161  537.0053
 162  530.772
 163  533.8765
 164  506.8027
 165  546.7406
 166  559.8345
 167  486.534
 168  460.351
 169  504.8569
 170  546.2141
 171  537.0123
 172  512.3644
 173  552.5789
 174  510.0809
 175  466.1684
 176  429.4964
 177  364.203
 178  306.384
 179  308.8304
 180  420.9991
 181  445.9887
 182  491.5263
 183  439.7798
 184  571.6536
 185  510.9706
 186  413.2022
 187  394.8878
 188  496.9889
 189  528.4402
 190  364.069
 191  393.0564
 192  437.4883
 193  556.4433
 194  510.8301
 195  425.7906
 196  431.5118
 197  436.2688
 198  390.4814
 199  377.3111
 200  470.6108
 201  460.1986
 202  339.7752
 203  313.6107
 204  395.5889
 205  372.5121
 206  438.468
 207  308.7322
 208  325.0153
 209  339.2155
 210  361.7188
 211  302.6845
 212  296.9684
 213  351.6212
 214  303.8479
 215  291.1445
 216  381.7083
 217  437.7031
 218  413.924
 219  425.2701
 220  492.1288
 221  399.1069
 222  275.4917
 223  315.3165
 224  367.5253
 225  443.9511
 226  487.1959
 227  452.8146
 228  503.6121
 229  422.6587
 230  450.5538
 231  462.9583
 232  527.5909
 233  466.3552
 234  537.5982
 235  407.7876
 236  390.8632
 237  370.0489
 238  362.252
 239  414.6314
 240  303.8311
 241  344.8898
 242  504.5941
 243  418.1935
 244  447.5945
 245  424.8632
 246  347.3685
 247  315.913
 248  428.1123
 249  468.9258
 250  383.4604
 251  332.7234
 252  312.2614
 253  392.8915
 254  413.7981
 255  517.2675
 256  520.2477
 257  460.8855
 258  361.929
 259  332.9568
 260  412.774
 261  337.5162
 262  264.126
 263  327.4729
 264  390.8651
 265  453.4411
 266  404.3699
 267  416.7639
 268  343.6577
 269  304.4032
 270  394.0101
 271  449.2917
 272  328.1239
 273  375.7654
 274  346.2982
 275  314.6265
 276  323.7574
 277  310.7564
 278  296.4533
 279  333.3343
 280  300.1798
 281  229.9736
 282  344.0319
 283  410.6311
 284  320.6519
 285  317.0509
 286  438.5253
 287  395.3431
 288  421.7527
 289  392.6865
 290  405.3955
 291  424.8665
 292  432.2481
 293  431.8799
 294  262.5695
 295  360.9101
 296  459.571
 297  410.9551
 298  408.6279
 299  459.5592
 300  404.357
 301  333.5293
 302  358.9614
 303  330.6872
 304  373.0059
 305  240.5017
 306  185.5459
 307  390.2093
 308  547.6063
 309  488.2758
 310  298.01
 311  466.3412
 312  541.6959
 313  420.3283
 314  433.1372
 315  447.494
 316  540.6858
 317  419.9606
 318  382.577
 319  382.8784
 320  375.0554
 321  435.766
 322  425.664
 323  467.3485
 324  566.435
 325  483.815
 326  333.8609
 327  298.5752
 328  403.1006
 329  365.9711
 330  300.0714
 331  321.856
 332  350.877
 333  367.0651
 334  414.0073
 335  446.4551
 336  400.6917
 337  388.7971
 338  446.415
 339  433.8726
 340  400.7462
 341  559.1799
 342  401.2167
 343  345.6613
 344  339.2211
 345  286.6371
 346  319.2635
 347  266.3784
 348  341.754
 349  299.2168
 350  214.0704
 351  240.8776
 352  379.9889
 353  372.9051
 354  331.5388
 355  292.6805
 356  270.631
 357  439.6243
 358  403.0904
 359  303.8595
 360  269.0022
 361  256.6241
 362  278.4889
 363  282.416
 364  399.8803
 365  367.8817
 366  353.7688
 367  355.2387
 368  346.798
 369  293.2053
 370  386.1077
 371  377.8948
 372  436.7527
 373  501.4406
 374  591.3328
 375  531.0342
 376  518.0771
 377  477.9263
 378  448.065
 379  344.8148
 380  406.2114
 381  389.8607
 382  390.0794
 383  427.4966
 384  463.9398
 385  373.0931
 386  329.4246
 387  360.5106
 388  329.1171
 389  267.9171
 390  279.0281
 391  501.1887
 392  535.8209
 393  440.6714
 394  451.4497
 395  335.8203
 396  286.8907
 397  292.6699
 398  342.7155
 399  310.7036
 400  428.2337
 401  433.6104
 402  467.8454
 403  560.2441
 404  373.2526
 405  399.8438
 406  483.7574
 407  462.6495
 408  384.7929
 409  298.8372
 410  396.9912
 411  437.7572
 412  387.9415
 413  368.825
 414  342.5407
 415  290.6393
 416  299.2245
 417  224.3874
 418  382.9445
 419  425.1131
 420  350.4576
 421  420.3594
 422  441.5313
 423  344.4127
 424  299.0677
 425  312.7874
 426  381.7681
 427  395.8088
 428  367.0787
 429  325.2711
 430  282.1351
 431  309.3818
 432  438.4905
 433  416.1876
 434  425.1241
 435  278.23
 436  335.6234
 437  379.3152
 438  429.1931
 439  460.809
 440  462.4935
 441  388.7576
 442  482.4551
 443  372.4393
 444  385.3409
 445  386.7395
 446  441.9807
 447  432.0584
 448  516.3364
 449  493.6619
 450  415.1437
 451  405.1269
 452  373.2947
 453  494.0355
 454  535.0602
 455  464.9322
 456  360.3173
 457  346.9798
 458  416.4015
 459  398.5085
 460  341.2702
 461  462.8202
 462  456.6878
 463  457.1684
 464  450.4273
 465  375.9456
 466  436.5405
 467  409.6406
 468  373.4826
 469  293.131
 470  231.9115
 471  358.9669
 472  402.2572
 473  369.8551
 474  352.0334
 475  446.7514
 476  442.7821
 477  389.2423
 478  476.4604
 479  460.4386
 480  371.9909
 481  407.4322
 482  452.4902
 483  509.4403
 484  535.3149
 485  520.7432
 486  444.3702
 487  464.928
 488  485.7552
 489  471.0226
 490  466.571
 491  514.5596
 492  496.5446
 493  545.0423
 494  543.0358
 495  576.0427
 496  500.3014
 497  514.8253
 498  339.6662
 499  404.764
 500  459.6399
 501  485.7704
 502  383.9775
 503  337.3202
 504  491.2407
 505  503.9156
 506  430.3018
 507  468.3855
 508  585.4341
 509  691.7388
 510  926.1207
 511  951.1735
