# Input file       =  1180610293.114655_cleaned.dat
# Candidate        =  PSR_0332+5434
# Telescope        =  AR
# Epoch_topo       =  57908.470776789989
# Epoch_bary       =  N/A
# T_sample         =  0.002
# Data Folded      =  7340032
# Data Avg         =  0.0194532203524593
# Data StdDev      =  1.00002437232943 
# Profile Bins     =  512
# Profile Avg      =  279.005031597093 
# Profile StdDev   =  119.735954549772 
# Reduced chi-sqr  =  1.252
# Prob(Noise)      <  8.98e-05   (~3.7 sigma)
# P_topo (ms)      =  714.513543186565  +/- 0.000558
# P'_topo (s/s)    =  -0                +/- 2.94e-10
# P''_topo (s/s^2) =  0                 +/- 1.3e-13
# P_bary (ms)      =  N/A
# P'_bary (s/s)    =  N/A
# P''_bary (s/s^2) =  N/A
# P_orb (s)        =  N/A
# asin(i)/c (s)    =  N/A
# eccentricity     =  N/A
# w (rad)          =  N/A
# T_peri           =  N/A
######################################################
   0  876.097
   1  877.1888
   2  661.3015
   3  465.8041
   4  410.4978
   5  226.5312
   6  265.3216
   7  399.0246
   8  341.9082
   9  235.9071
  10  254.7799
  11  310.2011
  12  321.1471
  13  265.0667
  14  318.897
  15  435.1192
  16  396.1041
  17  411.7111
  18  418.2685
  19  250.8855
  20  271.1686
  21  256.7379
  22  292.1593
  23  217.4181
  24  206.5256
  25  274.451
  26  405.7328
  27  333.6783
  28  437.0868
  29  373.538
  30  356.9339
  31  366.3491
  32  372.2564
  33  245.279
  34  203.506
  35  173.9599
  36  305.6824
  37  239.3549
  38  86.74882
  39  157.9655
  40  301.7966
  41  253.2891
  42  145.9921
  43  232.3851
  44  275.278
  45  344.358
  46  386.446
  47  379.6579
  48  195.8271
  49  131.3775
  50  195.7271
  51  150.68
  52  239.706
  53  399.6489
  54  243.6364
  55  333.8223
  56  237.7192
  57  337.8456
  58  288.8692
  59  325.6935
  60  325.6554
  61  400.727
  62  325.116
  63  194.9578
  64  251.7762
  65  266.93
  66  272.2067
  67  186.3033
  68  184.2397
  69  238.1636
  70  300.4714
  71  298.3739
  72  322.3798
  73  181.6602
  74  318.2067
  75  300.6222
  76  234.1265
  77  241.6608
  78  207.1745
  79  182.4637
  80  215.6286
  81  199.6744
  82  233.0852
  83  284.5151
  84  221.6676
  85  89.2195
  86  229.9254
  87  141.3449
  88  160.5795
  89  201.6348
  90  276.171
  91  172.3216
  92  131.4916
  93  241.6075
  94  145.0309
  95  220.095
  96  241.8692
  97  125.9603
  98  103.987
  99  139.5262
 100  101.5868
 101  189.4197
 102  203.5874
 103  283.3698
 104  294.4265
 105  189.9967
 106  90.82785
 107  130.193
 108  263.5282
 109  191.9593
 110  241.8983
 111  184.5503
 112  238.3514
 113  163.2356
 114  114.4164
 115  144.2201
 116  193.5496
 117  207.2267
 118  76.10307
 119  103.8498
 120  261.0094
 121  241.7917
 122  232.2581
 123  249.5551
 124  123.1019
 125  221.5526
 126  293.215
 127  174.3708
 128  80.61115
 129  189.3238
 130  298.3782
 131  217.6031
 132  307.1277
 133  227.8715
 134  135.2429
 135  171.934
 136  150.2918
 137  198.5536
 138  268.7765
 139  178.0814
 140  247.1983
 141  342.8775
 142  266.6779
 143  178.0029
 144  217.8989
 145  196.095
 146  399.2602
 147  308.223
 148  252.529
 149  258.9064
 150  275.2097
 151  245.4491
 152  332.3773
 153  327.5364
 154  167.0695
 155  203.6974
 156  359.4344
 157  316.1181
 158  174.5899
 159  300.3885
 160  252.3901
 161  191.064
 162  201.4868
 163  254.2546
 164  228.1407
 165  304.1337
 166  294.0424
 167  316.5802
 168  284.536
 169  252.3015
 170  316.4003
 171  362.6317
 172  278.5793
 173  187.0933
 174  149.1913
 175  254.6362
 176  307.0414
 177  295.8823
 178  237.4845
 179  336.1357
 180  262.2459
 181  197.738
 182  261.506
 183  314.907
 184  323.7056
 185  261.5708
 186  233.9703
 187  322.2344
 188  280.5092
 189  221.305
 190  178.2038
 191  321.0941
 192  294.8394
 193  265.3418
 194  319.4883
 195  381.6971
 196  329.5066
 197  262.0392
 198  159.3696
 199  228.6924
 200  162.8105
 201  269.4176
 202  409.1957
 203  382.22
 204  239.7205
 205  254.1293
 206  257.6835
 207  299.8203
 208  261.3598
 209  211.3659
 210  282.8638
 211  259.2295
 212  249.8293
 213  222.6626
 214  291.635
 215  312.8019
 216  224.0468
 217  233.8277
 218  294.8188
 219  178.0381
 220  88.03136
 221  286.0135
 222  359.7232
 223  398.3177
 224  303.7134
 225  234.7606
 226  425.8479
 227  336.8618
 228  283.2568
 229  296.3375
 230  290.5082
 231  291.4988
 232  280.2797
 233  350.3137
 234  311.1985
 235  358.2251
 236  326.2964
 237  297.4619
 238  297.8763
 239  382.6383
 240  423.4866
 241  306.4272
 242  254.1279
 243  368.1165
 244  427.1995
 245  369.4887
 246  381.596
 247  427.4842
 248  365.4303
 249  208.4029
 250  200.2923
 251  314.7468
 252  197.8911
 253  189.655
 254  333.8736
 255  328.8607
 256  309.1526
 257  396.8999
 258  388.2866
 259  325.1484
 260  284.4823
 261  355.0424
 262  259.1262
 263  259.1006
 264  241.9928
 265  314.0958
 266  365.3483
 267  363.5594
 268  412.2495
 269  414.5307
 270  429.1159
 271  370.9717
 272  308.7894
 273  310.1748
 274  206.5182
 275  215.8789
 276  312.8089
 277  283.3217
 278  285.3647
 279  365.0379
 280  281.6031
 281  396.7454
 282  237.961
 283  248.4428
 284  170.9178
 285  189.2328
 286  327.8362
 287  262.2987
 288  261.9548
 289  298.179
 290  309.2547
 291  370.8858
 292  294.1787
 293  249.7061
 294  325.3134
 295  446.7146
 296  338.493
 297  273.7933
 298  285.3824
 299  278.1329
 300  317.6619
 301  279.3025
 302  215.7621
 303  331.4621
 304  419.5434
 305  426.6023
 306  264.4536
 307  196.4158
 308  261.8911
 309  161.5988
 310  221.0974
 311  250.0753
 312  276.84
 313  280.4326
 314  203.4031
 315  131.7611
 316  233.9664
 317  239.3736
 318  274.6174
 319  327.2674
 320  346.5729
 321  350.9629
 322  328.6044
 323  372.9338
 324  274.8311
 325  279.5727
 326  241.1037
 327  252.1104
 328  152.1384
 329  246.5302
 330  369.7457
 331  340.9966
 332  106.2307
 333  222.5337
 334  160.4311
 335  160.9854
 336  119.2746
 337  136.9693
 338  255.0641
 339  225.9852
 340  206.9175
 341  240.8451
 342  287.6331
 343  238.188
 344  239.0607
 345  302.3763
 346  236.7916
 347  221.0176
 348  258.8079
 349  378.5532
 350  384.2599
 351  326.742
 352  344.8661
 353  215.5137
 354  214.6486
 355  240.9213
 356  286.9395
 357  183.575
 358  371.1955
 359  408.6123
 360  424.412
 361  325.479
 362  442.1961
 363  469.8123
 364  325.0483
 365  280.6375
 366  125.1034
 367  307.4934
 368  288.0281
 369  273.4158
 370  262.6139
 371  315.5243
 372  386.8622
 373  343.5749
 374  228.0776
 375  36.47194
 376  184.2247
 377  236.8027
 378  300.3587
 379  316.7397
 380  269.6699
 381  270.3811
 382  344.1212
 383  288.0891
 384  192.9717
 385  272.1412
 386  335.9478
 387  185.7521
 388  208.4137
 389  283.2823
 390  368.7514
 391  267.391
 392  161.6283
 393  159.9912
 394  201.2397
 395  246.5504
 396  282.2115
 397  385.6631
 398  464.1585
 399  352.5131
 400  267.6533
 401  360.4165
 402  323.2756
 403  400.7745
 404  284.6225
 405  254.3891
 406  326.5855
 407  306.7791
 408  328.4164
 409  269.9156
 410  311.9806
 411  337.9014
 412  376.5402
 413  200.2862
 414  160.0679
 415  217.0788
 416  287.8619
 417  298.02
 418  217.2502
 419  234.1231
 420  324.1872
 421  337.9664
 422  243.1661
 423  243.3162
 424  209.7631
 425  232.0078
 426  229.5061
 427  260.0538
 428  295.1418
 429  271.757
 430  357.2464
 431  264.5874
 432  222.0625
 433  268.2561
 434  303.8958
 435  279.8319
 436  184.1662
 437  223.5346
 438  144.4486
 439  158.5099
 440  280.5009
 441  384.8993
 442  363.8846
 443  313.7326
 444  215.048
 445  238.7048
 446  276.6758
 447  284.2781
 448  326.8472
 449  213.1103
 450  256.2997
 451  224.0885
 452  234.6823
 453  247.6037
 454  210.1872
 455  133.7962
 456  155.1699
 457  267.8057
 458  262.8205
 459  309.7128
 460  366.2919
 461  423.3004
 462  408.5882
 463  224.5596
 464  184.1748
 465  260.0681
 466  283.4911
 467  239.7315
 468  259.0891
 469  259.7101
 470  295.2465
 471  255.6095
 472  236.0905
 473  113.481
 474  96.89858
 475  283.1553
 476  333.6709
 477  295.6251
 478  269.4911
 479  192.0955
 480  276.2014
 481  343.9815
 482  226.2227
 483  241.2146
 484  240.0105
 485  272.0492
 486  210.7916
 487  329.2134
 488  418.4237
 489  318.2616
 490  347.5556
 491  295.5719
 492  364.0313
 493  305.4943
 494  203.337
 495  266.5411
 496  353.1631
 497  413.9196
 498  286.777
 499  326.9984
 500  394.1872
 501  436.083
 502  391.0757
 503  328.8362
 504  382.5977
 505  449.2918
 506  370.5089
 507  354.6212
 508  545.9532
 509  667.7664
 510  848.0715
 511  821.1514
