# Input file       =  1180007091.099125_cleaned.dat
# Candidate        =  PSR_0332+5434
# Telescope        =  AR
# Epoch_topo       =  57901.489271980616
# Epoch_bary       =  N/A
# T_sample         =  0.002
# Data Folded      =  7340032
# Data Avg         =  0.028038038842485
# Data StdDev      =  1.00005625216176 
# Profile Bins     =  512
# Profile Avg      =  401.933248974442 
# Profile StdDev   =  119.739771618896 
# Reduced chi-sqr  =  1.110
# Prob(Noise)      <  0.043   (~1.7 sigma)
# P_topo (ms)      =  714.520362794727  +/- 0.000401
# P'_topo (s/s)    =  -0                +/- 2.12e-10
# P''_topo (s/s^2) =  0                 +/- 9.34e-14
# P_bary (ms)      =  N/A
# P'_bary (s/s)    =  N/A
# P''_bary (s/s^2) =  N/A
# P_orb (s)        =  N/A
# asin(i)/c (s)    =  N/A
# eccentricity     =  N/A
# w (rad)          =  N/A
# T_peri           =  N/A
######################################################
   0  884.9576
   1  818.7732
   2  759.9475
   3  592.715
   4  535.3696
   5  537.7339
   6  628.7241
   7  563.0697
   8  434.6614
   9  450.4471
  10  549.7135
  11  473.2267
  12  433.5644
  13  352.6003
  14  497.9603
  15  500.9167
  16  507.1983
  17  521.2781
  18  483.4092
  19  447.3338
  20  451.3456
  21  433.5322
  22  326.3051
  23  307.6208
  24  320.8255
  25  417.5995
  26  505.9645
  27  457.373
  28  428.5999
  29  411.4819
  30  408.7467
  31  450.6104
  32  426.1306
  33  340.4584
  34  246.2952
  35  373.7104
  36  420.7602
  37  380.4997
  38  426.6156
  39  475.8908
  40  479.1037
  41  467.1627
  42  503.0367
  43  403.3327
  44  355.3775
  45  465.261
  46  627.2601
  47  446.9589
  48  426.1528
  49  443.2381
  50  400.1078
  51  382.0448
  52  333.5381
  53  283.9474
  54  117.9557
  55  285.9605
  56  420.749
  57  441.8311
  58  494.9888
  59  485.548
  60  286.8493
  61  322.5728
  62  413.5214
  63  387.9876
  64  317.4658
  65  378.6562
  66  438.0954
  67  306.0773
  68  364.2195
  69  440.6015
  70  513.5644
  71  402.0769
  72  353.9029
  73  367.715
  74  257.093
  75  316.8689
  76  369.4606
  77  373.7206
  78  316.8594
  79  311.1003
  80  431.2922
  81  386.8588
  82  378.379
  83  310.146
  84  297.1714
  85  474.7325
  86  467.3318
  87  342.071
  88  287.5273
  89  331.6277
  90  340.4674
  91  382.5371
  92  379.1805
  93  409.033
  94  444.178
  95  487.008
  96  449.692
  97  421.2879
  98  425.3236
  99  420.7284
 100  457.2098
 101  387.0231
 102  299.8717
 103  333.4048
 104  348.4556
 105  340.6596
 106  453.3022
 107  521.3557
 108  316.8391
 109  340.7669
 110  401.5712
 111  454.7109
 112  379.6401
 113  433.2496
 114  397.5992
 115  457.0095
 116  321.2755
 117  389.3385
 118  478.6898
 119  393.0594
 120  461.6354
 121  466.8495
 122  471.222
 123  495.8675
 124  536.206
 125  443.8931
 126  434.1262
 127  490.5209
 128  541.9695
 129  527.5806
 130  420.7393
 131  444.0704
 132  418.3595
 133  448.8534
 134  316.9851
 135  394.7914
 136  379.5435
 137  429.2893
 138  440.1306
 139  438.0605
 140  367.2878
 141  281.2838
 142  436.9613
 143  511.5107
 144  474.2185
 145  460.6789
 146  399.4417
 147  424.6061
 148  439.267
 149  403.3134
 150  386.521
 151  356.378
 152  311.6802
 153  324.7499
 154  188.9578
 155  222.5542
 156  372.4114
 157  281.6506
 158  349.5407
 159  338.4242
 160  233.5903
 161  223.2189
 162  218.0058
 163  276.9585
 164  306.7592
 165  530.5521
 166  449.6676
 167  480.436
 168  417.6623
 169  352.0372
 170  329.7624
 171  465.4534
 172  531.8532
 173  510.3921
 174  485.3591
 175  370.3732
 176  299.7553
 177  400.0763
 178  399.7933
 179  196.103
 180  255.2042
 181  351.5573
 182  386.4433
 183  389.3515
 184  293.3279
 185  312.9996
 186  435.0018
 187  523.6035
 188  386.0731
 189  330.2775
 190  411.0777
 191  475.3792
 192  461.6823
 193  362.4623
 194  423.8745
 195  493.0708
 196  516.2406
 197  432.8808
 198  516.4825
 199  452.6897
 200  329.9859
 201  240.3952
 202  196.0152
 203  268.7174
 204  454.9412
 205  411.5141
 206  381.8527
 207  382.5766
 208  475.5628
 209  434.4266
 210  398.1066
 211  356.2283
 212  332.2176
 213  361.926
 214  438.1108
 215  485.3227
 216  380.4962
 217  311.1398
 218  393.4282
 219  535.8169
 220  430.4759
 221  396.3878
 222  458.9207
 223  501.2692
 224  408.1049
 225  458.3344
 226  450.2203
 227  466.1122
 228  339.1529
 229  397.3631
 230  341.0057
 231  151.4668
 232  292.8913
 233  371.5904
 234  428.8441
 235  315.4396
 236  363.2021
 237  294.9608
 238  281.6726
 239  419.4205
 240  430.3854
 241  551.899
 242  465.5916
 243  279.8292
 244  293.7653
 245  428.0541
 246  463.08
 247  496.6054
 248  489.5278
 249  328.2402
 250  431.116
 251  330.3607
 252  419.8338
 253  443.3418
 254  329.6666
 255  392.7039
 256  390.566
 257  399.2771
 258  310.5358
 259  318.6013
 260  424.584
 261  440.2181
 262  338.7009
 263  344.7831
 264  494.6941
 265  498.5439
 266  372.7544
 267  308.7437
 268  314.579
 269  398.7191
 270  463.5423
 271  423.5643
 272  366.8033
 273  379.332
 274  312.5563
 275  408.4727
 276  416.3306
 277  448.1317
 278  373.3792
 279  338.2083
 280  294.8018
 281  406.06
 282  394.5228
 283  326.9922
 284  273.1245
 285  283.5735
 286  286.0533
 287  388.4893
 288  464.8843
 289  434.2154
 290  368.4857
 291  261.8496
 292  279.0965
 293  233.262
 294  273.2642
 295  450.6726
 296  435.0713
 297  483.696
 298  445.1812
 299  386.1676
 300  458.9715
 301  339.2667
 302  357.8875
 303  386.0484
 304  444.947
 305  427.9116
 306  453.9037
 307  519.0999
 308  476.6561
 309  527.5797
 310  519.587
 311  464.357
 312  499.4933
 313  462.1729
 314  493.3899
 315  512.244
 316  378.2575
 317  389.3733
 318  308.9447
 319  294.0903
 320  346.421
 321  443.2213
 322  442.3464
 323  431.1161
 324  386.4417
 325  376.4535
 326  276.6334
 327  281.0567
 328  519.6099
 329  425.42
 330  341.3474
 331  400.3266
 332  312.2465
 333  336.4481
 334  371.361
 335  403.3083
 336  297.2691
 337  285.5674
 338  384.5059
 339  447.4023
 340  445.7326
 341  452.3982
 342  378.1722
 343  362.67
 344  402.2419
 345  273.8008
 346  297.3598
 347  416.0439
 348  333.8673
 349  419.7839
 350  366.4236
 351  384.5239
 352  435.934
 353  458.1643
 354  467.3515
 355  470.7632
 356  464.523
 357  400.082
 358  362.7083
 359  292.4848
 360  317.444
 361  353.7199
 362  335.1624
 363  344.0199
 364  289.6372
 365  344.2055
 366  332.67
 367  349.7428
 368  358.1285
 369  415.2894
 370  370.2317
 371  312.9555
 372  408.6866
 373  423.7785
 374  451.4342
 375  470.7923
 376  401.7676
 377  419.8042
 378  326.5652
 379  314.0818
 380  471.9292
 381  423.2519
 382  426.8055
 383  374.9769
 384  414.7384
 385  627.9157
 386  450.4208
 387  493.0037
 388  398.7777
 389  228.3893
 390  360.5919
 391  492.519
 392  435.5973
 393  480.3924
 394  394.3946
 395  296.7126
 396  373.7969
 397  350.8197
 398  377.5458
 399  425.8541
 400  423.4641
 401  345.9729
 402  376.8109
 403  279.2551
 404  338.7698
 405  298.661
 406  339.6883
 407  345.4879
 408  239.5356
 409  337.574
 410  312.0432
 411  371.8426
 412  361.2566
 413  401.9334
 414  300.5141
 415  292.0358
 416  361.5802
 417  402.871
 418  457.6331
 419  434.0229
 420  557.2772
 421  478.0186
 422  415.7198
 423  229.0352
 424  321.9886
 425  429.4897
 426  415.1258
 427  474.3558
 428  557.4273
 429  453.6286
 430  460.3113
 431  505.2224
 432  470.3139
 433  407.1844
 434  309.2789
 435  225.3696
 436  284.7698
 437  339.0121
 438  430.2291
 439  281.7196
 440  283.372
 441  385.5337
 442  462.0393
 443  470.3667
 444  494.971
 445  459.9986
 446  505.2287
 447  538.223
 448  456.4026
 449  305.1018
 450  358.8387
 451  423.8717
 452  443.5617
 453  455.1835
 454  428.2269
 455  397.7095
 456  422.6347
 457  475.9485
 458  423.0476
 459  488.3371
 460  495.7963
 461  464.0229
 462  428.5259
 463  481.3762
 464  571.2515
 465  458.9706
 466  329.106
 467  410.5732
 468  468.2833
 469  491.9554
 470  525.2944
 471  472.1565
 472  371.1725
 473  369.0133
 474  410.2632
 475  361.8573
 476  314.304
 477  285.0576
 478  279.8017
 479  311.9841
 480  336.3644
 481  194.2246
 482  319.998
 483  445.8285
 484  424.1411
 485  322.5457
 486  326.8199
 487  379.9081
 488  405.5721
 489  347.0493
 490  337.9146
 491  389.7919
 492  396.9715
 493  385.565
 494  354.3225
 495  399.8308
 496  412.9955
 497  471.4354
 498  409.3005
 499  297.6124
 500  241.4599
 501  391.7296
 502  394.5972
 503  402.3102
 504  411.2048
 505  342.5545
 506  403.3535
 507  547.7605
 508  576.5676
 509  739.3755
 510  828.176
 511  918.626
