# Input file       =  1180078345.096534_cleaned.dat
# Candidate        =  PSR_0332+5434
# Telescope        =  AR
# Epoch_topo       =  57902.313971024698
# Epoch_bary       =  N/A
# T_sample         =  0.002
# Data Folded      =  7340032
# Data Avg         =  0.0297522460290202
# Data StdDev      =  1.00001623502849 
# Profile Bins     =  512
# Profile Avg      =  426.553356294216 
# Profile StdDev   =  119.734980246022 
# Reduced chi-sqr  =  1.165
# Prob(Noise)      <  0.00586   (~2.5 sigma)
# P_topo (ms)      =  714.519217957888  +/- 0.000205
# P'_topo (s/s)    =  -0                +/- 1.08e-10
# P''_topo (s/s^2) =  0                 +/- 4.78e-14
# P_bary (ms)      =  N/A
# P'_bary (s/s)    =  N/A
# P''_bary (s/s^2) =  N/A
# P_orb (s)        =  N/A
# asin(i)/c (s)    =  N/A
# eccentricity     =  N/A
# w (rad)          =  N/A
# T_peri           =  N/A
######################################################
   0  492.5442
   1  508.9113
   2  589.2266
   3  639.537
   4  548.5644
   5  510.0928
   6  504.7456
   7  368.2868
   8  226.1115
   9  409.8084
  10  516.4871
  11  465.1474
  12  237.1926
  13  464.3522
  14  508.1285
  15  391.6366
  16  355.6843
  17  543.3028
  18  491.1219
  19  378.1122
  20  330.4799
  21  450.7815
  22  473.9435
  23  429.1269
  24  541.7683
  25  487.7992
  26  448.072
  27  378.4871
  28  444.8926
  29  464.9569
  30  521.2964
  31  509.755
  32  418.2486
  33  460.3356
  34  447.5558
  35  460.9532
  36  347.3584
  37  345.1627
  38  373.9565
  39  400.3811
  40  470.4253
  41  448.2006
  42  403.5914
  43  379.237
  44  362.9161
  45  384.2068
  46  419.0992
  47  356.6902
  48  572.9205
  49  528.8771
  50  490.3569
  51  465.3938
  52  498.2731
  53  406.8504
  54  430.6475
  55  456.2998
  56  593.6102
  57  583.4956
  58  433.2149
  59  412.9548
  60  472.8214
  61  463.919
  62  507.4755
  63  521.2825
  64  531.7267
  65  492.4741
  66  561.5784
  67  414.333
  68  497.4279
  69  540.1591
  70  460.2656
  71  428.3482
  72  430.6289
  73  362.3837
  74  363.8372
  75  542.4117
  76  524.2896
  77  570.0438
  78  437.2013
  79  550.9412
  80  578.8827
  81  532.373
  82  422.8504
  83  355.4629
  84  388.8065
  85  281.0998
  86  393.2755
  87  365.9142
  88  370.5991
  89  314.5126
  90  396.9494
  91  446.3534
  92  456.1888
  93  528.5739
  94  488.1125
  95  520.1581
  96  783.1005
  97  939.456
  98  1004.956
  99  1001.686
 100  988.8817
 101  674.2703
 102  443.1768
 103  450.8587
 104  520.9264
 105  536.1833
 106  422.5401
 107  432.3047
 108  472.9825
 109  387.4443
 110  320.1476
 111  315.8203
 112  437.7147
 113  511.8394
 114  511.9754
 115  510.6917
 116  447.5683
 117  569.4916
 118  482.6861
 119  360.397
 120  364.5771
 121  229.6172
 122  340.3223
 123  475.4079
 124  402.1408
 125  472.6749
 126  464.6132
 127  289.4247
 128  352.2895
 129  470.6371
 130  415.6478
 131  386.8488
 132  451.2853
 133  483.2913
 134  389.9222
 135  445.0549
 136  515.9423
 137  422.3137
 138  456.4833
 139  453.6267
 140  410.5188
 141  261.6989
 142  325.8849
 143  385.131
 144  413.3284
 145  346.9948
 146  331.9244
 147  331.0749
 148  333.1995
 149  367.4953
 150  407.7074
 151  268.7217
 152  286.9853
 153  314.3273
 154  321.7201
 155  340.5114
 156  377.0999
 157  427.8978
 158  448.1219
 159  418.1697
 160  386.0966
 161  376.4394
 162  341.4087
 163  323.6308
 164  359.4847
 165  354.2943
 166  417.6772
 167  493.3516
 168  400.7762
 169  450.9761
 170  650.0294
 171  497.2236
 172  488.2264
 173  484.3308
 174  443.7462
 175  512.0596
 176  406.8307
 177  485.1385
 178  527.5701
 179  414.0173
 180  329.245
 181  325.2268
 182  465.6015
 183  388.2579
 184  316.321
 185  446.8737
 186  443.3562
 187  324.4087
 188  330.8405
 189  532.639
 190  531.4363
 191  400.6858
 192  491.5479
 193  404.1496
 194  428.9054
 195  477.9081
 196  492.1332
 197  480.3341
 198  405.7159
 199  436.8853
 200  410.5652
 201  430.0375
 202  483.6002
 203  534.4073
 204  516.0435
 205  506.8768
 206  491.729
 207  484.8391
 208  487.1745
 209  505.3793
 210  462.037
 211  336.5883
 212  439.7211
 213  455.1569
 214  416.2449
 215  439.3366
 216  480.6728
 217  426.465
 218  360.992
 219  403.7339
 220  408.0245
 221  430.7029
 222  501.5526
 223  420.0279
 224  266.8363
 225  378.1792
 226  417.4813
 227  436.9623
 228  407.5477
 229  356.62
 230  371.2875
 231  346.9592
 232  317.8697
 233  352.4969
 234  462.11
 235  319.0442
 236  334.9281
 237  393.6894
 238  389.4742
 239  474.6601
 240  464.7367
 241  462.4936
 242  420.9138
 243  422.2279
 244  421.5991
 245  409.5603
 246  398.5455
 247  366.5367
 248  318.8171
 249  429.2892
 250  363.5987
 251  324.1728
 252  276.5765
 253  283.2476
 254  336.6855
 255  371.1311
 256  276.7297
 257  223.3956
 258  389.2424
 259  391.336
 260  412.8656
 261  482.8633
 262  480.4457
 263  378.2052
 264  286.4909
 265  338.6424
 266  538.8927
 267  489.7038
 268  357.8968
 269  291.6236
 270  301.96
 271  370.7838
 272  421.9842
 273  547.3351
 274  506.883
 275  427.6349
 276  492.6174
 277  412.4475
 278  448.5466
 279  388.9347
 280  524.1952
 281  454.3289
 282  305.9025
 283  435.8781
 284  426.8224
 285  364.8556
 286  301.6794
 287  407.8936
 288  416.0088
 289  409.3179
 290  250.5593
 291  337.4537
 292  344.8568
 293  196.0732
 294  251.6651
 295  305.1008
 296  330.6663
 297  283.1714
 298  434.6107
 299  339.9712
 300  220.2695
 301  371.6881
 302  462.4942
 303  435.2472
 304  384.7692
 305  344.4235
 306  461.4904
 307  439.9088
 308  321.3521
 309  395.0164
 310  459.7058
 311  439.5296
 312  446.5092
 313  435.6252
 314  404.8472
 315  453.919
 316  403.8303
 317  333.2729
 318  446.839
 319  523.2115
 320  377.8732
 321  456.0112
 322  482.2246
 323  405.8122
 324  478.7842
 325  463.4817
 326  421.6187
 327  387.4391
 328  319.8952
 329  336.1803
 330  359.965
 331  459.4189
 332  440.19
 333  323.2838
 334  426.0344
 335  414.4117
 336  255.6333
 337  434.3199
 338  434.0814
 339  513.0509
 340  503.5489
 341  414.2621
 342  362.0302
 343  407.4949
 344  325.3594
 345  370.7157
 346  539.6373
 347  416.1492
 348  373.3759
 349  315.0238
 350  380.941
 351  314.1592
 352  479.1438
 353  520.6199
 354  509.3418
 355  415.0579
 356  407.744
 357  433.5578
 358  461.4328
 359  403.4596
 360  351.9994
 361  392.9416
 362  341.3972
 363  334.0749
 364  303.1453
 365  393.5482
 366  418.0771
 367  396.7476
 368  335.7558
 369  337.2039
 370  511.2406
 371  528.2484
 372  331.109
 373  393.6072
 374  434.0904
 375  444.9533
 376  372.0602
 377  290.8854
 378  428.0253
 379  414.72
 380  532.5395
 381  414.3309
 382  361.2028
 383  343.9634
 384  327.3033
 385  387.666
 386  384.9229
 387  434.5092
 388  446.086
 389  309.4314
 390  263.342
 391  301.0297
 392  378.9477
 393  338.1286
 394  311.5143
 395  486.1334
 396  356.2992
 397  277.5887
 398  391.3912
 399  402.5833
 400  270.9943
 401  470.976
 402  352.9246
 403  446.2149
 404  517.2656
 405  498.2933
 406  605.7463
 407  455.981
 408  493.7496
 409  708.7629
 410  571.0754
 411  515.0262
 412  541.8261
 413  529.6969
 414  496.3274
 415  416.4957
 416  383.8766
 417  406.2457
 418  392.4255
 419  445.5855
 420  501.8667
 421  536.6038
 422  434.1928
 423  360.0907
 424  445.199
 425  467.1074
 426  444.9762
 427  421.0286
 428  463.7647
 429  523.3561
 430  454.6355
 431  287.9528
 432  196.2155
 433  294.3699
 434  343.1352
 435  426.8166
 436  380.1439
 437  339.1726
 438  293.4245
 439  382.8015
 440  469.6876
 441  446.287
 442  401.1148
 443  440.654
 444  414.8259
 445  591.0114
 446  577.3893
 447  462.3526
 448  405.2884
 449  407.3015
 450  386.2746
 451  320.5167
 452  341.7051
 453  406.8244
 454  372.9082
 455  376.2812
 456  341.2859
 457  387.5927
 458  440.4042
 459  408.1913
 460  401.7361
 461  439.7667
 462  482.0033
 463  345.5266
 464  382.7875
 465  417.8947
 466  330.3073
 467  413.8026
 468  482.7315
 469  494.6646
 470  370.4749
 471  399.8685
 472  406.5556
 473  438.5507
 474  536.6022
 475  484.0872
 476  504.5937
 477  501.2013
 478  425.1849
 479  379.3327
 480  504.8645
 481  490.816
 482  363.1922
 483  429.7346
 484  421.7932
 485  433.0899
 486  398.9024
 487  444.9787
 488  538.8928
 489  523.4905
 490  505.5232
 491  428.4172
 492  386.8411
 493  444.1553
 494  402.8356
 495  456.4187
 496  443.7458
 497  451.7294
 498  436.4861
 499  412.0155
 500  398.1483
 501  467.1243
 502  465.5048
 503  542.8652
 504  474.5765
 505  419.7679
 506  329.5224
 507  419.3184
 508  658.3908
 509  544.8214
 510  404.8339
 511  475.7502
