# Input file       =  1180782598.102683_cleaned.dat
# Candidate        =  PSR_0332+5434
# Telescope        =  AR
# Epoch_topo       =  57910.465047484759
# Epoch_bary       =  N/A
# T_sample         =  0.002
# Data Folded      =  7340032
# Data Avg         =  0.0315080292165321
# Data StdDev      =  1.00007540917911 
# Profile Bins     =  512
# Profile Avg      =  451.760819836721 
# Profile StdDev   =  119.742065346752 
# Reduced chi-sqr  =  1.394
# Prob(Noise)      <  8.17e-09   (~5.6 sigma)
# P_topo (ms)      =  714.511624121661  +/- 0.000212
# P'_topo (s/s)    =  -0                +/- 1.12e-10
# P''_topo (s/s^2) =  0                 +/- 4.94e-14
# P_bary (ms)      =  N/A
# P'_bary (s/s)    =  N/A
# P''_bary (s/s^2) =  N/A
# P_orb (s)        =  N/A
# asin(i)/c (s)    =  N/A
# eccentricity     =  N/A
# w (rad)          =  N/A
# T_peri           =  N/A
######################################################
   0  428.9197
   1  414.767
   2  536.5244
   3  502.692
   4  502.6824
   5  537.0618
   6  497.2677
   7  444.2275
   8  344.1444
   9  467.8366
  10  476.9585
  11  397.8002
  12  490.3191
  13  581.5914
  14  561.3551
  15  523.4978
  16  554.5286
  17  462.7135
  18  435.5212
  19  460.9339
  20  432.323
  21  389.9126
  22  380.5918
  23  494.1575
  24  657.8427
  25  715.7311
  26  759.2328
  27  733.0894
  28  485.1049
  29  543.8339
  30  544.3239
  31  630.766
  32  605.9111
  33  509.6323
  34  586.7133
  35  385.3678
  36  517.5232
  37  601.3317
  38  599.114
  39  577.4268
  40  573.6117
  41  549.1213
  42  530.5536
  43  537.4072
  44  423.6017
  45  419.8553
  46  529.8306
  47  489.5389
  48  523.9792
  49  454.3047
  50  412.5389
  51  507.3183
  52  542.6235
  53  497.5631
  54  591.6315
  55  776.2797
  56  868.4373
  57  988.5901
  58  1148.989
  59  1047.978
  60  783.8346
  61  807.3382
  62  742.4512
  63  541.9983
  64  399.8844
  65  473.0189
  66  488.812
  67  494.0932
  68  551.4814
  69  522.7966
  70  417.7493
  71  310.435
  72  341.0063
  73  417.8445
  74  549.6166
  75  427.2804
  76  465.8655
  77  368.06
  78  281.1648
  79  332.9621
  80  405.1562
  81  475.0709
  82  454.1022
  83  387.6674
  84  467.8522
  85  367.1872
  86  536.2012
  87  527.166
  88  494.4727
  89  372.4389
  90  400.9369
  91  484.6882
  92  392.6382
  93  526.3033
  94  513.2873
  95  531.7667
  96  319.9036
  97  309.7263
  98  270.0218
  99  329.3466
 100  404.7379
 101  395.339
 102  503.9694
 103  599.1913
 104  383.6263
 105  412.0392
 106  440.6349
 107  425.1266
 108  403.6476
 109  433.4114
 110  533.9805
 111  551.1319
 112  553.8304
 113  565.4819
 114  561.158
 115  500.9831
 116  403.0631
 117  478.9013
 118  525.8679
 119  391.327
 120  269.5439
 121  357.0519
 122  469.8134
 123  353.3451
 124  403.6117
 125  435.8203
 126  455.1512
 127  599.9194
 128  423.8818
 129  422.2668
 130  489.6761
 131  366.8634
 132  434.0163
 133  409.7194
 134  419.1823
 135  392.4538
 136  559.9542
 137  559.8668
 138  554.1129
 139  558.8282
 140  540.5623
 141  441.4651
 142  399.6315
 143  446.5151
 144  423.2744
 145  411.837
 146  513.47
 147  555.8404
 148  572.496
 149  439.562
 150  448.0939
 151  431.2302
 152  455.7232
 153  437.6657
 154  387.1429
 155  454.1219
 156  396.5303
 157  291.3987
 158  359.098
 159  373.4011
 160  383.7052
 161  457.4737
 162  535.4764
 163  457.7563
 164  465.6345
 165  467.2775
 166  432.258
 167  412.5173
 168  235.2732
 169  272.4041
 170  338.2746
 171  470.6168
 172  396.5119
 173  491.7846
 174  416.5277
 175  553.3875
 176  534.0916
 177  435.2133
 178  435.9574
 179  556.1675
 180  593.286
 181  523.8018
 182  442.4715
 183  414.6384
 184  529.1869
 185  469.6136
 186  387.1375
 187  387.6111
 188  435.3441
 189  493.1884
 190  465.5231
 191  457.1481
 192  385.41
 193  505.8374
 194  562.0453
 195  541.6536
 196  460.8164
 197  418.2892
 198  434.9595
 199  505.0004
 200  541.1001
 201  587.1711
 202  641.8446
 203  574.9879
 204  643.4092
 205  714.733
 206  576.2946
 207  526.7969
 208  557.5155
 209  537.2359
 210  536.9543
 211  552.9003
 212  582.7314
 213  540.5663
 214  460.5997
 215  419.0565
 216  498.8119
 217  447.288
 218  470.1399
 219  440.6713
 220  335.1397
 221  471.2086
 222  537.786
 223  498.709
 224  451.4487
 225  490.3803
 226  392.7536
 227  487.985
 228  462.968
 229  503.6642
 230  514.6494
 231  484.4728
 232  432.599
 233  534.898
 234  516.8994
 235  505.1822
 236  340.4498
 237  366.9931
 238  434.7097
 239  408.7898
 240  451.2087
 241  446.1651
 242  583.9948
 243  506.1399
 244  452.7407
 245  585.4495
 246  435.0919
 247  267.4009
 248  257.9217
 249  428.8473
 250  486.961
 251  498.1836
 252  447.486
 253  496.8799
 254  437.8699
 255  526.796
 256  415.3382
 257  438.0576
 258  434.4369
 259  422.3809
 260  518.0862
 261  496.0763
 262  394.0146
 263  416.8862
 264  399.699
 265  423.0583
 266  435.4909
 267  550.5691
 268  555.5717
 269  538.8088
 270  459.9407
 271  463.5294
 272  410.5739
 273  399.0096
 274  485.7257
 275  415.0642
 276  303.876
 277  338.9936
 278  450.4998
 279  381.6875
 280  447.364
 281  459.6964
 282  459.8289
 283  337.4507
 284  457.1143
 285  508.7232
 286  530.0882
 287  463.9139
 288  413.8097
 289  326.7329
 290  461.6411
 291  389.8174
 292  269.6813
 293  357.3207
 294  428.7934
 295  319.739
 296  334.4502
 297  377.0406
 298  455.9729
 299  610.1105
 300  476.8577
 301  376.4339
 302  384.6863
 303  440.1957
 304  452.8938
 305  355.3422
 306  367.828
 307  374.0064
 308  344.1063
 309  411.8593
 310  420.8157
 311  416.0278
 312  398.476
 313  450.3337
 314  440.0029
 315  463.379
 316  478.7345
 317  558.3155
 318  596.5041
 319  420.5938
 320  424.3086
 321  525.1216
 322  446.7122
 323  447.2029
 324  500.6844
 325  516.4133
 326  481.7245
 327  386.4849
 328  333.0288
 329  346.6107
 330  373.3186
 331  383.2146
 332  415.6523
 333  398.2942
 334  419.8698
 335  362.2535
 336  306.3572
 337  368.3582
 338  410.0959
 339  450.8427
 340  358.1689
 341  308.102
 342  235.0703
 343  354.4956
 344  361.4168
 345  341.1619
 346  416.2553
 347  388.7238
 348  373.7149
 349  307.0928
 350  411.8318
 351  420.5605
 352  482.8884
 353  312.5598
 354  289.5274
 355  399.2635
 356  388.1952
 357  416.35
 358  523.8935
 359  594.3649
 360  436.4923
 361  365.7684
 362  513.9492
 363  502.8418
 364  410.3009
 365  510.0999
 366  542.9791
 367  392.2053
 368  530.9478
 369  389.641
 370  428.9182
 371  338.4437
 372  285.1386
 373  491.5035
 374  498.9416
 375  409.7281
 376  323.039
 377  316.6237
 378  264.279
 379  279.9796
 380  411.2541
 381  423.797
 382  370.2339
 383  391.2452
 384  380.7124
 385  464.3604
 386  369.7613
 387  485.8271
 388  470.444
 389  392.6086
 390  371.2455
 391  292.5234
 392  254.6097
 393  337.1476
 394  410.5859
 395  398.6244
 396  427.3611
 397  398.3683
 398  285.3903
 399  272.6129
 400  421.6785
 401  573.7151
 402  437.6353
 403  486.0785
 404  448.6325
 405  375.2785
 406  357.9591
 407  451.359
 408  479.6626
 409  382.0041
 410  359.671
 411  439.702
 412  433.6859
 413  355.4115
 414  348.6175
 415  429.288
 416  426.2281
 417  382.2717
 418  332.146
 419  469.7461
 420  578.6878
 421  409.9168
 422  504.8008
 423  484.2211
 424  341.1631
 425  320.0103
 426  328.9532
 427  455.3608
 428  444.7602
 429  424.6057
 430  381.6396
 431  475.5372
 432  458.524
 433  451.6674
 434  412.6041
 435  418.461
 436  346.3685
 437  318.8441
 438  428.528
 439  380.0366
 440  404.4831
 441  397.3215
 442  453.5073
 443  430.0854
 444  322.1071
 445  399.9498
 446  425.0803
 447  399.3167
 448  365.2101
 449  488.6848
 450  549.5223
 451  527.3657
 452  521.4518
 453  530.0418
 454  455.7496
 455  380.6773
 456  368.0111
 457  398.5166
 458  439.3038
 459  532.4434
 460  633.2048
 461  568.3617
 462  463.8544
 463  502.304
 464  477.4355
 465  515.6016
 466  406.3175
 467  262.8924
 468  378.4994
 469  506.6909
 470  538.8539
 471  521.0702
 472  500.3998
 473  440.0689
 474  432.9482
 475  457.675
 476  533.3358
 477  449.0589
 478  364.0717
 479  344.0941
 480  510.1534
 481  520.5758
 482  490.4805
 483  470.3708
 484  494.8328
 485  516.659
 486  407.3495
 487  287.0215
 488  291.6462
 489  512.1339
 490  572.4389
 491  481.665
 492  343.9883
 493  373.7503
 494  422.0123
 495  413.8752
 496  407.5576
 497  394.9691
 498  402.2657
 499  234.838
 500  245.1103
 501  345.6387
 502  287.291
 503  351.4598
 504  395.5521
 505  538.1797
 506  424.0612
 507  248.5247
 508  327.136
 509  337.3969
 510  431.0435
 511  432.613
