# Input file       =  1180610293.114655_cleaned.dat
# Candidate        =  PSR_0332+5434
# Telescope        =  AR
# Epoch_topo       =  57908.470776789989
# Epoch_bary       =  N/A
# T_sample         =  0.002
# Data Folded      =  7340032
# Data Avg         =  0.0194532203524593
# Data StdDev      =  1.00002437232943 
# Profile Bins     =  512
# Profile Avg      =  279.005031591278 
# Profile StdDev   =  119.735954549772 
# Reduced chi-sqr  =  1.245
# Prob(Noise)      <  0.000131   (~3.7 sigma)
# P_topo (ms)      =  714.513543163591  +/- 0.000551
# P'_topo (s/s)    =  -0                +/- 2.91e-10
# P''_topo (s/s^2) =  0                 +/- 1.28e-13
# P_bary (ms)      =  N/A
# P'_bary (s/s)    =  N/A
# P''_bary (s/s^2) =  N/A
# P_orb (s)        =  N/A
# asin(i)/c (s)    =  N/A
# eccentricity     =  N/A
# w (rad)          =  N/A
# T_peri           =  N/A
######################################################
   0  807.5558
   1  916.3925
   2  794.7549
   3  546.0594
   4  452.6204
   5  330.0538
   6  195.1682
   7  342.6369
   8  388.6484
   9  287.0884
  10  232.8788
  11  283.0153
  12  326.0983
  13  300.9321
  14  264.3428
  15  394.3509
  16  429.7736
  17  376.4057
  18  439.8069
  19  335.0863
  20  252.1731
  21  268.1766
  22  258.9632
  23  287.2828
  24  182.7265
  25  235.8711
  26  352.3417
  27  370.0861
  28  373.7791
  29  417.9282
  30  357.5474
  31  354.1297
  32  389.9435
  33  313.5102
  34  233.4982
  35  168.5084
  36  213.5368
  37  329.8839
  38  135.8092
  39  126.5038
  40  198.4704
  41  345.5438
  42  148.8966
  43  197.9873
  44  237.6747
  45  321.0674
  46  359.2309
  47  409.8741
  48  293.0308
  49  137.9644
  50  155.8823
  51  188.5775
  52  155.446
  53  346.6023
  54  329.8466
  55  276.4405
  56  310.854
  57  277.7829
  58  308.1679
  59  303.8321
  60  316.715
  61  365.0363
  62  380.8693
  63  262.6598
  64  200.0816
  65  300.3536
  66  240.4778
  67  261.4031
  68  155.0195
  69  194.4529
  70  288.5319
  71  278.5798
  72  335.9243
  73  259.4846
  74  217.4967
  75  345.894
  76  237.6556
  77  256.3168
  78  209.073
  79  218.8306
  80  172.9785
  81  222.1068
  82  205.4
  83  250.7538
  84  289.6641
  85  119.9377
  86  159.6389
  87  217.3535
  88  130.7219
  89  179.6853
  90  239.511
  91  258.5399
  92  125.498
  93  184.0949
  94  222.7708
  95  140.2008
  96  257.8107
  97  182.6628
  98  104.7178
  99  133.4652
 100  121.4183
 101  133.5904
 102  194.0401
 103  236.4501
 104  305.6787
 105  253.0975
 106  141.6571
 107  67.7633
 108  230.8112
 109  207.436
 110  233.4584
 111  198.9536
 112  220.1681
 113  211.8253
 114  132.7878
 115  114.2396
 116  183.9949
 117  184.7053
 118  188.7966
 119  20.78001
 120  204.1896
 121  269.6185
 122  219.052
 123  271.3662
 124  181.5706
 125  148.4472
 126  251.2064
 127  270.4034
 128  97.64066
 129  119.4412
 130  263.1169
 131  262.5092
 132  236.0992
 133  301.4977
 134  171.964
 135  154.1452
 136  169.6759
 137  134.7197
 138  256.5897
 139  225.3771
 140  194.6291
 141  307.0185
 142  340.7463
 143  209.3341
 144  202.2881
 145  172.7456
 146  299.082
 147  385.4516
 148  266.1187
 149  242.5337
 150  271.7641
 151  261.1371
 152  271.089
 153  368.2697
 154  253.019
 155  141.8421
 156  280.9886
 157  365.2292
 158  238.2655
 159  214.6361
 160  309.6054
 161  205.2003
 162  192.783
 163  246.4731
 164  229.615
 165  265.5953
 166  308.087
 167  300.5398
 168  315.524
 169  244.3852
 170  277.5374
 171  342.3396
 172  347.9816
 173  220.7217
 174  165.9113
 175  172.7453
 176  290.5094
 177  324.399
 178  265.302
 179  282.8991
 180  320.8803
 181  211.2504
 182  223.8263
 183  287.118
 184  325.5125
 185  299.4408
 186  219.821
 187  293.9431
 188  301.5681
 189  278.1237
 190  171.4782
 191  239.2733
 192  323.9151
 193  276.2628
 194  281.8245
 195  363.1364
 196  363.0533
 197  311.0904
 198  203.3291
 199  167.729
 200  215.7305
 201  173.7137
 202  350.5764
 203  431.8198
 204  289.5369
 205  270.9215
 206  219.8569
 207  300.9237
 208  280.0271
 209  236.6551
 210  238.9227
 211  286.2977
 212  230.9291
 213  255.5903
 214  218.1592
 215  355.6596
 216  257.5559
 217  228.8236
 218  257.6596
 219  275.6386
 220  94.73001
 221  158.1046
 222  347.7476
 223  367.0557
 224  396.5784
 225  216.5007
 226  323.9919
 227  426.3625
 228  282.9286
 229  305.492
 230  278.1321
 231  297.9825
 232  284.0386
 233  316.4431
 234  334.5659
 235  325.3919
 236  351.616
 237  323.0593
 238  277.4121
 239  330.6193
 240  419.5248
 241  379.0128
 242  259.7267
 243  288.3487
 244  420.5484
 245  415.2678
 246  354.9167
 247  414.4981
 248  401.2014
 249  317.2367
 250  147.4061
 251  273.6765
 252  284.6051
 253  152.4116
 254  273.6681
 255  339.9514
 256  307.8234
 257  343.9802
 258  410.3981
 259  368.1047
 260  289.1063
 261  323.1568
 262  319.4931
 263  246.5645
 264  254.3613
 265  252.6223
 266  355.5284
 267  366.6344
 268  387.626
 269  426.2517
 270  408.0577
 271  425.7138
 272  323.6274
 273  315.7097
 274  264.476
 275  187.8231
 276  277.4861
 277  324.7153
 278  243.2229
 279  334.2538
 280  307.0146
 281  347.7457
 282  349.0982
 283  212.5246
 284  231.7165
 285  142.888
 286  258.4025
 287  334.9135
 288  240.0834
 289  282.3227
 290  298.4753
 291  328.8902
 292  366.7877
 293  254.3806
 294  276.0341
 295  398.788
 296  399.1621
 297  302.2063
 298  260.1774
 299  300.5461
 300  273.1483
 301  330.8139
 302  232.5406
 303  270.1325
 304  365.732
 305  451.6056
 306  354.0901
 307  219.4969
 308  231.3629
 309  222.1713
 310  156.8629
 311  256.048
 312  237.0881
 313  310.22
 314  252.9948
 315  164.3654
 316  166.0622
 317  234.1542
 318  241.8943
 319  309.2404
 320  322.0458
 321  379.7001
 322  305.4082
 323  387.1461
 324  305.031
 325  289.0865
 326  243.6353
 327  265.3441
 328  202.7596
 329  178.5696
 330  297.2924
 331  405.476
 332  203.9854
 333  153.2291
 334  206.6585
 335  164.2594
 336  145.0068
 337  116.6518
 338  186.6019
 339  250.5549
 340  214.8059
 341  220.9456
 342  272.8271
 343  271.6063
 344  215.284
 345  277.6665
 346  281.813
 347  226.1705
 348  220.7311
 349  307.5851
 350  400.6284
 351  336.5049
 352  347.2822
 353  286.5146
 354  221.9592
 355  217.1389
 356  292.8493
 357  213.0496
 358  269.1467
 359  385.8081
 360  440.4466
 361  364.7749
 362  338.2816
 363  497.6784
 364  384.8125
 365  338.4265
 366  187.1292
 367  200.1542
 368  314.9773
 369  296.9428
 370  234.9383
 371  288.6923
 372  339.6367
 373  374.4185
 374  332.2679
 375  101.7203
 376  89.82273
 377  227.9483
 378  250.8798
 379  331.8001
 380  291.2488
 381  261.4039
 382  304.1873
 383  343.1106
 384  232.4639
 385  202.7421
 386  343.0317
 387  261.9203
 388  175.5944
 389  246.65
 390  322.3516
 391  340.077
 392  204.5463
 393  149.0226
 394  192.8864
 395  207.7058
 396  273.0922
 397  294.7261
 398  459.7507
 399  420.1881
 400  302.505
 401  300.9131
 402  351.4294
 403  359.8056
 404  372.2938
 405  247.4566
 406  289.4875
 407  312.337
 408  318.929
 409  306.1757
 410  277.4609
 411  320.5856
 412  366.7303
 413  327.6803
 414  135.3928
 415  194.542
 416  241.8774
 417  316.0432
 418  269.0023
 419  191.242
 420  286.4783
 421  330.7737
 422  305.7855
 423  232.1762
 424  241.9321
 425  209.5841
 426  239.4981
 427  231.0164
 428  289.9537
 429  266.9945
 430  316.6906
 431  330.4984
 432  227.5706
 433  229.9492
 434  312.5919
 435  284.9572
 436  257.0309
 437  172.5296
 438  209.3849
 439  116.575
 440  215.9982
 441  340.0431
 442  382.7903
 443  353.1942
 444  259.5004
 445  216.2474
 446  257.1956
 447  282.7428
 448  299.8207
 449  290.4503
 450  199.4225
 451  271.2429
 452  208.5638
 453  257.7565
 454  226.3589
 455  192.0144
 456  116.3695
 457  202.4898
 458  281.8954
 459  267.5609
 460  338.9334
 461  388.5144
 462  448.4604
 463  317.9723
 464  198.642
 465  199.6476
 466  289.1257
 467  270.1903
 468  227.3134
 469  268.2599
 470  261.0213
 471  292.3312
 472  251.1951
 473  198.1502
 474  79.84152
 475  166.269
 476  337.5776
 477  305.2648
 478  293.4038
 479  219.5214
 480  224.1059
 481  328.831
 482  309.2734
 483  205.7374
 484  232.0555
 485  264.7394
 486  243.9249
 487  245.6232
 488  395.4229
 489  362.1897
 490  328.2451
 491  329.4028
 492  309.0075
 493  375.2828
 494  233.274
 495  222.0621
 496  303.1924
 497  395.8625
 498  370.5801
 499  273.2106
 500  380.9518
 501  402.8866
 502  436.419
 503  336.1106
 504  353.2529
 505  406.1203
 506  446.4625
 507  329.1357
 508  431.8035
 509  614.4045
 510  743.7416
 511  875.6199
