# Input file       =  1180322240.108938_cleaned.dat
# Candidate        =  PSR_0332+5434
# Telescope        =  AR
# Epoch_topo       =  57905.136829964562
# Epoch_bary       =  N/A
# T_sample         =  0.002
# Data Folded      =  7143424
# Data Avg         =  0.0318421812299051
# Data StdDev      =  0.999900452066597
# Profile Bins     =  512
# Profile Avg      =  444.221790892241 
# Profile StdDev   =  118.106826020886 
# Reduced chi-sqr  =  1.099
# Prob(Noise)      <  0.0608   (~1.5 sigma)
# P_topo (ms)      =  714.516436914283  +/- 0.000163
# P'_topo (s/s)    =  -0                +/- 8.84e-11
# P''_topo (s/s^2) =  0                 +/- 4.01e-14
# P_bary (ms)      =  N/A
# P'_bary (s/s)    =  N/A
# P''_bary (s/s^2) =  N/A
# P_orb (s)        =  N/A
# asin(i)/c (s)    =  N/A
# eccentricity     =  N/A
# w (rad)          =  N/A
# T_peri           =  N/A
######################################################
   0  943.9903
   1  776.2932
   2  690.0607
   3  582.7587
   4  519.8064
   5  456.3499
   6  406.518
   7  449.352
   8  497.2883
   9  521.2443
  10  453.3548
  11  426.9456
  12  543.34
  13  538.5973
  14  574.4901
  15  523.5399
  16  572.9954
  17  544.0999
  18  456.5974
  19  382.2107
  20  366.4234
  21  400.1071
  22  434.3351
  23  461.4982
  24  352.3669
  25  388.902
  26  440.8811
  27  462.5278
  28  471.5185
  29  435.1201
  30  376.1363
  31  348.9563
  32  424.6806
  33  413.099
  34  470.3712
  35  476.0463
  36  295.0246
  37  292.7221
  38  406.2658
  39  413.432
  40  467.531
  41  477.2628
  42  517.5491
  43  422.9513
  44  332.2601
  45  359.6472
  46  324.8552
  47  321.3777
  48  314.8228
  49  313.9578
  50  341.7458
  51  359.1115
  52  403.6931
  53  487.0539
  54  490.008
  55  457.5633
  56  304.5944
  57  334.0123
  58  455.8786
  59  548.6724
  60  480.8144
  61  442.9911
  62  421.3898
  63  339.2477
  64  390.1732
  65  401.1072
  66  363.3181
  67  461.8896
  68  486.4238
  69  434.1623
  70  510.8738
  71  537.4516
  72  453.2312
  73  476.1373
  74  578.2742
  75  524.0595
  76  479.325
  77  440.5763
  78  398.0096
  79  363.0291
  80  469.0105
  81  509.8134
  82  344.723
  83  409.577
  84  465.8572
  85  318.9983
  86  323.0552
  87  420.7974
  88  462.4691
  89  425.4377
  90  312.6156
  91  406.8794
  92  450.5728
  93  533.0518
  94  466.658
  95  442.0182
  96  399.138
  97  333.8271
  98  418.5142
  99  409.3567
 100  406.7078
 101  499.8898
 102  448.0125
 103  376.443
 104  305.2903
 105  286.8586
 106  326.1296
 107  408.1826
 108  461.9269
 109  415.0652
 110  476.1232
 111  345.0108
 112  418.6149
 113  547.4186
 114  418.551
 115  411.6732
 116  403.9821
 117  434.9769
 118  376.8975
 119  232.1596
 120  358.4158
 121  401.213
 122  495.3691
 123  500.4267
 124  475.9647
 125  446.2045
 126  413.9123
 127  430.2
 128  508.8864
 129  487.178
 130  440.1892
 131  388.3626
 132  327.5829
 133  428.1489
 134  440.401
 135  365.6008
 136  378.9776
 137  390.0152
 138  405.2415
 139  370.2201
 140  404.0975
 141  425.4536
 142  453.8609
 143  478.7707
 144  408.0797
 145  328.3754
 146  288.7624
 147  362.7578
 148  385.1597
 149  447.9568
 150  362.1521
 151  298.0942
 152  429.1913
 153  432.3658
 154  479.5641
 155  601.6821
 156  601.4872
 157  546.2133
 158  573.9398
 159  522.1844
 160  455.9455
 161  419.2535
 162  506.0902
 163  478.2023
 164  464.7339
 165  616.4831
 166  454.205
 167  463.9417
 168  384.4025
 169  308.0019
 170  460.6418
 171  385.9113
 172  411.7694
 173  539.0893
 174  626.1394
 175  534.6038
 176  566.001
 177  589.0005
 178  454.3435
 179  309.6305
 180  438.2508
 181  507.179
 182  472.5161
 183  524.791
 184  527.6974
 185  380.5826
 186  360.2158
 187  440.7067
 188  487.1148
 189  505.6299
 190  584.4608
 191  489.0293
 192  399.835
 193  361.6074
 194  469.5302
 195  512.2035
 196  403.2477
 197  505.8335
 198  582.5964
 199  635.7042
 200  729.5718
 201  630.1537
 202  557.277
 203  591.4252
 204  549.4665
 205  461.7166
 206  560.6772
 207  595.9694
 208  616.8898
 209  472.2331
 210  351.2597
 211  349.8133
 212  373.2239
 213  509.8729
 214  518.5785
 215  474.9398
 216  489.7322
 217  501.0887
 218  466.1202
 219  389.8596
 220  371.9653
 221  405.2676
 222  438.1418
 223  435.001
 224  461.0488
 225  441.2066
 226  519.9471
 227  494.4963
 228  415.7526
 229  510.3799
 230  464.3496
 231  479.0247
 232  543.0211
 233  524.8106
 234  553.2633
 235  586.6454
 236  457.9623
 237  436.1881
 238  500.4609
 239  451.3336
 240  458.6204
 241  626.6492
 242  652.4745
 243  474.3015
 244  282.4365
 245  348.5392
 246  284.8812
 247  314.1967
 248  420.156
 249  456.9985
 250  356.8878
 251  282.6626
 252  433.9275
 253  389.4149
 254  429.3396
 255  337.3455
 256  475.1777
 257  433.9605
 258  402.5577
 259  326.0205
 260  318.9034
 261  418.7946
 262  462.086
 263  435.8478
 264  472.0595
 265  444.4353
 266  479.2542
 267  452.5813
 268  473.5839
 269  512.0659
 270  531.6276
 271  518.8011
 272  403.4928
 273  471.1425
 274  602.9431
 275  516.9438
 276  384.116
 277  494.6956
 278  547.4648
 279  450.027
 280  417.3521
 281  345.4685
 282  417.2302
 283  442.8252
 284  416.9109
 285  376.9369
 286  483.5481
 287  474.7912
 288  370.002
 289  478.4408
 290  500.7633
 291  393.7176
 292  420.38
 293  465.6173
 294  364.9575
 295  387.156
 296  450.4981
 297  362.2887
 298  393.0363
 299  416.4785
 300  374.9801
 301  326.0001
 302  381.8435
 303  407.3186
 304  253.5065
 305  430.5891
 306  423.6398
 307  301.3456
 308  430.1598
 309  459.9997
 310  414.781
 311  421.4183
 312  484.254
 313  432.5203
 314  391.2808
 315  388.9338
 316  309.8427
 317  326.5412
 318  355.6099
 319  397.7927
 320  366.2395
 321  412.8578
 322  399.3018
 323  439.6366
 324  428.7805
 325  433.1292
 326  436.8857
 327  461.5626
 328  604.1299
 329  519.0731
 330  543.7021
 331  562.5868
 332  610.671
 333  461.4885
 334  464.5571
 335  484.9807
 336  380.6531
 337  367.03
 338  363.2421
 339  442.7991
 340  365.8868
 341  422.4674
 342  477.1217
 343  388.3047
 344  404.8561
 345  328.0746
 346  366.8639
 347  452.2848
 348  409.5312
 349  480.6436
 350  421.6955
 351  456.7021
 352  498.0831
 353  503.1988
 354  531.6154
 355  525.2791
 356  501.6972
 357  443.701
 358  489.9105
 359  468.2285
 360  465.5782
 361  358.4943
 362  262.4938
 363  377.248
 364  568.8841
 365  643.9083
 366  532.7651
 367  539.6713
 368  505.3434
 369  493.8389
 370  556.6016
 371  650.5679
 372  645.7349
 373  502.3157
 374  597.713
 375  573.7003
 376  462.8743
 377  390.0403
 378  397.232
 379  642.8277
 380  562.5395
 381  431.6841
 382  408.4476
 383  480.998
 384  511.2837
 385  456.6549
 386  376.1743
 387  348.6776
 388  373.8186
 389  371.4533
 390  417.956
 391  426.3756
 392  404.0775
 393  392.5379
 394  367.8544
 395  374.9573
 396  314.7439
 397  371.8636
 398  447.5093
 399  469.8514
 400  389.1445
 401  422.2314
 402  459.4523
 403  515.1357
 404  533.8044
 405  494.8044
 406  538.1368
 407  485.0739
 408  496.9542
 409  519.4302
 410  436.4038
 411  477.84
 412  481.0288
 413  490.5134
 414  515.3084
 415  490.1069
 416  413.7483
 417  476.1011
 418  522.5541
 419  371.2701
 420  393.5565
 421  466.3641
 422  454.242
 423  469.7393
 424  458.7428
 425  300.2806
 426  316.1193
 427  399.286
 428  363.8424
 429  368.7438
 430  419.9659
 431  388.1799
 432  372.4742
 433  299.5277
 434  271.6984
 435  339.4197
 436  441.245
 437  353.2992
 438  477.7739
 439  507.8487
 440  388.1275
 441  307.2057
 442  377.5477
 443  281.5819
 444  236.5115
 445  351.7031
 446  489.0424
 447  370.6566
 448  449.0114
 449  323.2559
 450  276.1339
 451  326.5698
 452  463.4207
 453  480.4346
 454  361.7266
 455  407.4416
 456  488.0341
 457  408.9377
 458  344.8439
 459  419.2717
 460  328.8251
 461  344.9759
 462  382.3818
 463  469.7495
 464  444.5399
 465  390.5858
 466  344.4609
 467  433.5381
 468  456.202
 469  309.3378
 470  324.8447
 471  433.5027
 472  382.3876
 473  355.9417
 474  368.163
 475  431.9205
 476  475.8575
 477  400.1437
 478  411.0557
 479  402.8604
 480  409.2439
 481  408.7029
 482  395.9397
 483  338.3344
 484  369.0235
 485  391.294
 486  428.198
 487  478.6031
 488  512.5179
 489  488.154
 490  471.3008
 491  407.2813
 492  473.6296
 493  450.3701
 494  384.2718
 495  378.7347
 496  408.2268
 497  417.6355
 498  449.0043
 499  526.5281
 500  516.7784
 501  430.6097
 502  493.1531
 503  567.8416
 504  607.3719
 505  550.2191
 506  539.9236
 507  619.7966
 508  653.7321
 509  683.9591
 510  874.7094
 511  907.9467
