# Input file       =  1180437945.13237_cleaned.dat
# Candidate        =  PSR_0332+5434
# Telescope        =  AR
# Epoch_topo       =  57906.476008476508
# Epoch_bary       =  N/A
# T_sample         =  0.002
# Data Folded      =  7340032
# Data Avg         =  0.025055837897649
# Data StdDev      =  1.00003373916079 
# Profile Bins     =  512
# Profile Avg      =  359.216382734856 
# Profile StdDev   =  119.737076068933 
# Reduced chi-sqr  =  1.187
# Prob(Noise)      <  0.00227   (~2.8 sigma)
# P_topo (ms)      =  714.515476410346  +/- 0.000203
# P'_topo (s/s)    =  -0                +/- 1.07e-10
# P''_topo (s/s^2) =  0                 +/- 4.74e-14
# P_bary (ms)      =  N/A
# P'_bary (s/s)    =  N/A
# P''_bary (s/s^2) =  N/A
# P_orb (s)        =  N/A
# asin(i)/c (s)    =  N/A
# eccentricity     =  N/A
# w (rad)          =  N/A
# T_peri           =  N/A
######################################################
   0  692.2808
   1  762.8564
   2  838.7016
   3  647.0374
   4  393.0661
   5  435.0919
   6  506.2324
   7  501.3699
   8  376.1714
   9  312.1264
  10  297.5903
  11  306.0794
  12  332.7851
  13  266.7611
  14  252.6913
  15  259.3471
  16  305.9218
  17  360.7506
  18  357.8592
  19  405.0226
  20  361.2785
  21  307.2104
  22  345.6705
  23  282.2531
  24  189.5297
  25  321.6409
  26  304.7119
  27  208.6163
  28  117.7829
  29  259.5369
  30  372.8858
  31  362.4689
  32  309.5265
  33  311.2359
  34  303.2666
  35  326.5013
  36  442.5519
  37  442.096
  38  415.5388
  39  386.0414
  40  452.9382
  41  398.5746
  42  255.8283
  43  222.5439
  44  356.2293
  45  330.2636
  46  347.6132
  47  301.0123
  48  238.5154
  49  333.5687
  50  432.5685
  51  411.564
  52  286.6119
  53  345.1627
  54  368.4515
  55  329.97
  56  292.5681
  57  242.8911
  58  231.6047
  59  387.5273
  60  493.0528
  61  434.3281
  62  352.2273
  63  267.5256
  64  255.8185
  65  367.5486
  66  434.3548
  67  334.0185
  68  286.7675
  69  253.4377
  70  309.5912
  71  306.708
  72  216.449
  73  329.1094
  74  346.2405
  75  273.9079
  76  161.4494
  77  254.755
  78  299.1716
  79  282.2596
  80  252.3324
  81  191.5493
  82  161.1398
  83  300.769
  84  362.0702
  85  361.6403
  86  301.2577
  87  413.6881
  88  461.5941
  89  447.3495
  90  377.8606
  91  337.0076
  92  324.6176
  93  280.107
  94  309.8859
  95  442.8033
  96  357.1016
  97  336.4741
  98  379.2035
  99  320.4965
 100  278.4402
 101  316.6389
 102  331.5203
 103  431.7845
 104  458.0488
 105  337.1667
 106  151.9502
 107  197.9828
 108  254.1514
 109  389.9269
 110  272.7923
 111  187.4226
 112  213.7682
 113  181.9259
 114  283.7983
 115  279.6831
 116  342.448
 117  261.1186
 118  270.0733
 119  294.2302
 120  381.6611
 121  433.0846
 122  492.7929
 123  304.8529
 124  253.8719
 125  313.0173
 126  441.7541
 127  450.3195
 128  357.3947
 129  363.4291
 130  393.4172
 131  440.5467
 132  377.9517
 133  321.5789
 134  358.5915
 135  401.3893
 136  411.7627
 137  412.9546
 138  416.3076
 139  385.2481
 140  345.9596
 141  308.2046
 142  381.7138
 143  446.1396
 144  499.2904
 145  237.4303
 146  364.1088
 147  476.4916
 148  495.1316
 149  450.6535
 150  372.7408
 151  269.5871
 152  225.7839
 153  370.2227
 154  371.3005
 155  273.6707
 156  272.3452
 157  348.7266
 158  402.7602
 159  274.0045
 160  273.4339
 161  241.8252
 162  334.723
 163  304.9286
 164  432.1281
 165  506.8107
 166  461.6053
 167  409.1765
 168  277.9846
 169  362.8069
 170  429.0678
 171  522.219
 172  486.2624
 173  421.6744
 174  406.0381
 175  434.7972
 176  523.7914
 177  535.1969
 178  412.539
 179  455.3902
 180  440.0051
 181  386.9642
 182  365.1503
 183  322.8811
 184  385.0646
 185  377.2442
 186  495.6723
 187  506.2029
 188  449.5702
 189  312.9866
 190  344.1798
 191  429.646
 192  350.6487
 193  333.2677
 194  301.9325
 195  414.4511
 196  317.6832
 197  359.2515
 198  334.9468
 199  354.1084
 200  386.8314
 201  320.8947
 202  401.7679
 203  514.7056
 204  424.3291
 205  376.658
 206  358.8772
 207  350.903
 208  390.4471
 209  348.2771
 210  350.2507
 211  282.6954
 212  169.2777
 213  252.4585
 214  411.3425
 215  389.5437
 216  273.2835
 217  417.8745
 218  600.534
 219  464.9513
 220  456.5779
 221  438.6783
 222  357.2407
 223  361.1465
 224  335.7943
 225  392.874
 226  449.9312
 227  305.7541
 228  247.7362
 229  335.6129
 230  466.1403
 231  483.5652
 232  380.812
 233  366.993
 234  442.1193
 235  340.7894
 236  241.1044
 237  214.4304
 238  424.7507
 239  514.6923
 240  361.6642
 241  216.6171
 242  324.2877
 243  310.0041
 244  320.2975
 245  287.2365
 246  256.4154
 247  383.4128
 248  344.833
 249  325.0952
 250  283.997
 251  331.4072
 252  325.6074
 253  326.5286
 254  313.7474
 255  338.9715
 256  339.4789
 257  294.5622
 258  358.39
 259  401.6395
 260  516.6555
 261  440.1866
 262  352.9454
 263  435.4027
 264  488.5959
 265  392.8986
 266  396.7581
 267  442.6176
 268  423.6404
 269  407.7967
 270  395.5641
 271  343.3601
 272  304.1875
 273  464.1567
 274  387.8569
 275  415.3825
 276  472.272
 277  481.8113
 278  343.089
 279  359.3829
 280  481.6953
 281  550.2586
 282  463.9866
 283  396.2164
 284  455.6532
 285  262.3959
 286  221.8526
 287  365.5489
 288  380.794
 289  389.715
 290  393.0108
 291  538.2532
 292  605.272
 293  478.713
 294  456.7855
 295  489.8655
 296  491.2782
 297  459.6371
 298  509.3644
 299  479.6375
 300  432.008
 301  380.8552
 302  467.7595
 303  456.6334
 304  330.369
 305  437.4503
 306  446.7917
 307  474.1418
 308  473.9246
 309  338.471
 310  303.3772
 311  321.8403
 312  359.8183
 313  386.8418
 314  422.141
 315  433.1247
 316  269.7675
 317  138.1015
 318  291.0941
 319  370.7795
 320  407.2087
 321  347.3304
 322  274.3044
 323  472.9489
 324  343.618
 325  320.8344
 326  416.1685
 327  365.8825
 328  285.1645
 329  203.9271
 330  252.8164
 331  248.312
 332  272.711
 333  300.136
 334  408.4354
 335  276.6441
 336  390.3039
 337  369.9383
 338  251.142
 339  373.3522
 340  434.687
 341  374.7387
 342  494.4298
 343  311.114
 344  404.0373
 345  349.918
 346  258.574
 347  425.1073
 348  427.8941
 349  418.3425
 350  393.9689
 351  386.9175
 352  333.7451
 353  292.8552
 354  207.747
 355  322.6949
 356  424.9973
 357  507.4009
 358  385.8678
 359  350.0803
 360  227.7586
 361  179.5518
 362  234.964
 363  219.1829
 364  350.8062
 365  286.8775
 366  107.7987
 367  163.3847
 368  234.8342
 369  376.7781
 370  400.4671
 371  359.66
 372  383.6548
 373  317.8466
 374  276.7341
 375  347.4314
 376  289.5724
 377  419.1429
 378  319.1016
 379  261.9377
 380  413.5782
 381  426.0037
 382  403.2263
 383  409.1747
 384  414.4366
 385  460.5928
 386  373.3018
 387  342.7924
 388  302.0729
 389  295.938
 390  407.5891
 391  439.8787
 392  417.5484
 393  299.2661
 394  260.0826
 395  316.2999
 396  377.6212
 397  290.538
 398  342.1162
 399  390.6298
 400  376.8079
 401  253.9451
 402  246.6253
 403  314.1256
 404  302.1614
 405  393.611
 406  421.3828
 407  489.5657
 408  313.5444
 409  172.4694
 410  307.1226
 411  287.4634
 412  229.8218
 413  316.5985
 414  432.7571
 415  338.9025
 416  435.5062
 417  338.9056
 418  143.9267
 419  136.1193
 420  239.1354
 421  261.3707
 422  392.0107
 423  518.7758
 424  525.1039
 425  362.8783
 426  412.2205
 427  404.7035
 428  215.7357
 429  280.2891
 430  299.3479
 431  370.8474
 432  300.6426
 433  316.0326
 434  428.3841
 435  416.7277
 436  399.4482
 437  430.4489
 438  335.8754
 439  406.12
 440  427.6477
 441  359.2097
 442  281.3314
 443  212.4301
 444  383.6872
 445  400.7207
 446  326.0928
 447  240.4412
 448  326.5948
 449  423.0782
 450  412.4983
 451  339.2936
 452  347.995
 453  312.1997
 454  234.4519
 455  227.1146
 456  307.0683
 457  324.1724
 458  229.3308
 459  309.2126
 460  410.1235
 461  469.3775
 462  351.4415
 463  295.8275
 464  443.6414
 465  472.4212
 466  353.6062
 467  326.6169
 468  377.7945
 469  316.3548
 470  292.0659
 471  436.4628
 472  498.4048
 473  443.8091
 474  418.4335
 475  355.5869
 476  385.7571
 477  449.6216
 478  388.5983
 479  295.6461
 480  376.9327
 481  445.8377
 482  284.1451
 483  303.191
 484  292.8958
 485  269.9048
 486  355.8984
 487  143.7666
 488  254.1247
 489  180.7791
 490  284.9357
 491  354.4153
 492  239.7686
 493  303.1276
 494  175.055
 495  146.26
 496  200.7029
 497  301.6598
 498  337.7099
 499  426.8901
 500  369.5229
 501  329.1331
 502  412.8707
 503  486.1564
 504  547.2995
 505  584.3337
 506  529.3024
 507  549.3391
 508  559.5364
 509  493.0487
 510  602.2948
 511  650.1499
