# Input file       =  1180595367.128308_cleaned.dat
# Candidate        =  PSR_0332+5434
# Telescope        =  AR
# Epoch_topo       =  57908.298022318377
# Epoch_bary       =  N/A
# T_sample         =  0.002
# Data Folded      =  7340032
# Data Avg         =  0.0323288739220677
# Data StdDev      =  1.0001229964875  
# Profile Bins     =  512
# Profile Avg      =  463.000760246448 
# Profile StdDev   =  119.747763119678 
# Reduced chi-sqr  =  1.131
# Prob(Noise)      <  0.0213   (~2.0 sigma)
# P_topo (ms)      =  714.51337588868   +/- 0.000228
# P'_topo (s/s)    =  -0                +/- 1.2e-10
# P''_topo (s/s^2) =  0                 +/- 5.32e-14
# P_bary (ms)      =  N/A
# P'_bary (s/s)    =  N/A
# P''_bary (s/s^2) =  N/A
# P_orb (s)        =  N/A
# asin(i)/c (s)    =  N/A
# eccentricity     =  N/A
# w (rad)          =  N/A
# T_peri           =  N/A
######################################################
   0  981.4871
   1  944.0142
   2  875.3528
   3  747.1351
   4  581.2013
   5  449.2214
   6  420.6812
   7  457.3502
   8  438.7635
   9  503.7442
  10  461.5972
  11  577.3169
  12  497.9627
  13  596.6698
  14  482.3772
  15  483.3021
  16  592.0337
  17  649.496
  18  501.6068
  19  490.0829
  20  465.2081
  21  537.3414
  22  510.3349
  23  463.0421
  24  461.0052
  25  442.5455
  26  526.3788
  27  525.7838
  28  460.9142
  29  579.8917
  30  554.059
  31  585.1691
  32  675.4581
  33  631.3774
  34  509.3636
  35  405.0051
  36  466.4358
  37  536.5927
  38  490.5499
  39  454.9678
  40  526.604
  41  475.7843
  42  443.8606
  43  313.4031
  44  406.4158
  45  489.741
  46  415.2073
  47  381.5089
  48  286.8666
  49  221.6342
  50  318.161
  51  444.4223
  52  570.4532
  53  428.9196
  54  413.1256
  55  472.4467
  56  547.3432
  57  524.1457
  58  418.8794
  59  333.6912
  60  326.6169
  61  376.0008
  62  414.7775
  63  413.0156
  64  427.9859
  65  462.432
  66  346.5598
  67  330.4241
  68  439.9189
  69  478.0467
  70  513.4894
  71  371.5859
  72  305.8647
  73  434.3894
  74  472.4021
  75  546.2735
  76  546.2148
  77  457.1084
  78  432.7084
  79  404.2017
  80  325.6814
  81  373.9161
  82  566.7768
  83  521.9837
  84  390.0152
  85  467.219
  86  475.2912
  87  475.7994
  88  461.4221
  89  536.2755
  90  423.8106
  91  454.9823
  92  454.8271
  93  439.887
  94  338.1936
  95  430.7143
  96  450.3144
  97  447.2124
  98  489.7537
  99  525.994
 100  601.5108
 101  475.5051
 102  493.6472
 103  487.2539
 104  498.7656
 105  422.5615
 106  448.7144
 107  433.0862
 108  542.2977
 109  484.5952
 110  535.4462
 111  574.6154
 112  575.6191
 113  517.9223
 114  477.281
 115  438.1659
 116  508.6826
 117  466.1808
 118  466.2759
 119  440.1942
 120  529.8917
 121  411.8173
 122  426.9993
 123  483.284
 124  470.8243
 125  548.2856
 126  425.9684
 127  448.6475
 128  376.7025
 129  277.7317
 130  403.7896
 131  345.837
 132  356.5394
 133  467.4571
 134  500.8501
 135  452.4158
 136  480.0272
 137  376.9316
 138  285.2485
 139  421.0357
 140  486.4398
 141  523.0505
 142  424.7023
 143  505.6712
 144  377.5605
 145  327.1902
 146  370.2409
 147  284.4074
 148  345.1087
 149  354.6663
 150  436.6958
 151  501.6265
 152  389.2708
 153  314.8978
 154  396.0143
 155  436.3817
 156  462.2726
 157  512.8006
 158  461.3821
 159  371.2018
 160  465.0755
 161  449.0348
 162  483.4971
 163  565.0986
 164  430.9778
 165  470.6295
 166  455.1404
 167  386.2965
 168  355.2859
 169  348.8853
 170  386.1205
 171  422.6948
 172  418.4702
 173  425.2651
 174  548.376
 175  578.4763
 176  529.0826
 177  470.1313
 178  431.7605
 179  429.3357
 180  424.4292
 181  493.6653
 182  573.3309
 183  545.5924
 184  470.8497
 185  441.6132
 186  389.9774
 187  398.798
 188  462.5825
 189  535.8578
 190  473.9761
 191  356.6168
 192  440.3646
 193  413.5558
 194  426.3755
 195  458.705
 196  462.385
 197  583.9086
 198  676.6559
 199  515.103
 200  451.5931
 201  317.3461
 202  339.5984
 203  417.6007
 204  511.9129
 205  564.8008
 206  488.4657
 207  385.8511
 208  365.6569
 209  505.7659
 210  527.6948
 211  410.891
 212  386.7138
 213  447.973
 214  472.6287
 215  434.3539
 216  464.732
 217  376.0695
 218  410.4803
 219  409.9925
 220  390.0378
 221  321.2183
 222  355.4606
 223  404.3212
 224  375.8693
 225  557.462
 226  604.1563
 227  336.2423
 228  445.638
 229  479.0948
 230  459.158
 231  454.9949
 232  483.6049
 233  480.7508
 234  451.6239
 235  403.1467
 236  344.3452
 237  400.5481
 238  414.4149
 239  461.2575
 240  510.2254
 241  589.0122
 242  532.2378
 243  481.3074
 244  493.2097
 245  414.4408
 246  475.3142
 247  527.7395
 248  614.2201
 249  568.586
 250  480.2245
 251  472.852
 252  516.1912
 253  463.8025
 254  371.4743
 255  416.2938
 256  487.1697
 257  594.3168
 258  508.5511
 259  417.1257
 260  420.2397
 261  535.3671
 262  418.4412
 263  476.6034
 264  440.4555
 265  440.0551
 266  408.2646
 267  442.0124
 268  487.2008
 269  420.6371
 270  463.8916
 271  512.3725
 272  524.4424
 273  449.863
 274  464.782
 275  576.3199
 276  479.9469
 277  441.7119
 278  635.9148
 279  702.488
 280  601.1452
 281  463.4603
 282  538.2565
 283  570.7219
 284  468.623
 285  474.4182
 286  484.0114
 287  571.0337
 288  591.5228
 289  418.752
 290  545.0578
 291  567.6063
 292  472.1842
 293  559.7719
 294  599.2255
 295  519.4374
 296  471.7008
 297  567.769
 298  511.4964
 299  528.9357
 300  452.3031
 301  400.6666
 302  490.3248
 303  322.4776
 304  338.9305
 305  360.4735
 306  373.7616
 307  362.9024
 308  348.646
 309  248.8476
 310  307.0176
 311  313.5973
 312  398.8808
 313  397.1144
 314  450.9531
 315  606.8574
 316  560.9366
 317  522.3015
 318  332.3423
 319  315.0395
 320  419.0266
 321  504.4065
 322  517.6309
 323  432.8466
 324  394.4701
 325  463.7514
 326  576.4048
 327  524.8371
 328  443.4695
 329  529.9176
 330  524.1954
 331  348.8794
 332  461.3631
 333  539.4936
 334  571.2596
 335  538.248
 336  486.232
 337  421.9122
 338  381.703
 339  334.5368
 340  327.6128
 341  435.2148
 342  510.509
 343  517.1771
 344  364.5464
 345  366.3244
 346  474.9326
 347  494.8493
 348  381.8463
 349  313.3837
 350  348.7598
 351  381.6297
 352  454.1089
 353  503.1309
 354  566.7881
 355  487.3925
 356  462.6478
 357  383.915
 358  332.461
 359  487.1058
 360  483.1623
 361  488.973
 362  532.0695
 363  389.909
 364  400.0994
 365  490.3754
 366  502.516
 367  475.8948
 368  396.0797
 369  394.0933
 370  485.1453
 371  496.6708
 372  419.4949
 373  488.3805
 374  481.4828
 375  468.388
 376  474.1871
 377  501.3257
 378  465.6268
 379  260.9773
 380  283.1656
 381  376.5305
 382  522.3521
 383  470.5005
 384  346.6049
 385  496.0219
 386  484.3256
 387  294.4043
 388  343.5638
 389  492.8203
 390  429.5732
 391  339.4143
 392  362.3958
 393  310.7148
 394  405.3442
 395  460.9327
 396  501.1679
 397  415.3171
 398  448.2402
 399  374.3381
 400  340.3292
 401  370.0352
 402  394.5833
 403  444.9108
 404  468.1953
 405  393.9677
 406  427.7789
 407  364.6917
 408  549.3226
 409  557.3682
 410  437.7015
 411  410.4708
 412  398.1999
 413  338.4016
 414  409.6879
 415  560.5538
 416  570.1667
 417  455.3771
 418  500.1403
 419  508.6568
 420  525.9426
 421  503.1989
 422  488.7377
 423  454.2348
 424  461.3323
 425  417.9713
 426  427.3166
 427  438.7636
 428  495.7438
 429  522.7917
 430  596.5323
 431  565.8522
 432  475.8457
 433  494.9919
 434  483.2343
 435  499.5422
 436  392.5637
 437  506.253
 438  436.4594
 439  464.5884
 440  369.9457
 441  335.066
 442  308.0766
 443  305.2474
 444  343.0444
 445  470.1926
 446  405.8138
 447  449.142
 448  497.4108
 449  491.124
 450  514.9158
 451  545.761
 452  520.0488
 453  596.3043
 454  537.7731
 455  603.8608
 456  533.0025
 457  503.9073
 458  473.2149
 459  586.9683
 460  636.384
 461  642.1785
 462  554.6017
 463  523.8484
 464  457.851
 465  385.9422
 466  311.7519
 467  351.0876
 468  422.4295
 469  417.9997
 470  416.8051
 471  432.9114
 472  312.7441
 473  349.7882
 474  418.4146
 475  372.4775
 476  396.1885
 477  273.5425
 478  290.1346
 479  414.4001
 480  344.6136
 481  343.0392
 482  413.4624
 483  368.476
 484  397.7045
 485  381.5845
 486  403.2088
 487  435.3559
 488  444.3382
 489  520.2066
 490  538.465
 491  463.3979
 492  444.7896
 493  535.0037
 494  527.8002
 495  560.7175
 496  530.0563
 497  524.9858
 498  578.2468
 499  470.0386
 500  547.5383
 501  521.4485
 502  520.5319
 503  481.5881
 504  536.5713
 505  586.5414
 506  655.1534
 507  717.748
 508  709.5127
 509  684.1431
 510  739.0435
 511  876.8812
