# Input file       =  1180939997.108558_cleaned.dat
# Candidate        =  PSR_0332+5434
# Telescope        =  AR
# Epoch_topo       =  57912.286795237938
# Epoch_bary       =  N/A
# T_sample         =  0.002
# Data Folded      =  7340032
# Data Avg         =  0.0263594569196235
# Data StdDev      =  1.00001621073175 
# Profile Bins     =  512
# Profile Avg      =  378.00794013671  
# Profile StdDev   =  119.7349773369   
# Reduced chi-sqr  =  1.554
# Prob(Noise)      <  1.23e-14   (~7.6 sigma)
# P_topo (ms)      =  714.509549108462  +/- 0.000301
# P'_topo (s/s)    =  -0                +/- 1.59e-10
# P''_topo (s/s^2) =  0                 +/- 7.02e-14
# P_bary (ms)      =  N/A
# P'_bary (s/s)    =  N/A
# P''_bary (s/s^2) =  N/A
# P_orb (s)        =  N/A
# asin(i)/c (s)    =  N/A
# eccentricity     =  N/A
# w (rad)          =  N/A
# T_peri           =  N/A
######################################################
   0  319.7203
   1  381.4578
   2  388.2192
   3  406.383
   4  373.6487
   5  364.8339
   6  407.3513
   7  330.2467
   8  372.3488
   9  297.9546
  10  367.3608
  11  487.673
  12  468.7667
  13  374.4092
  14  445.4769
  15  462.5209
  16  384.1787
  17  309.4181
  18  377.4165
  19  347.2478
  20  304.3846
  21  367.7658
  22  375.6975
  23  400.3743
  24  538.2765
  25  403.5477
  26  351.5903
  27  224.196
  28  269.6302
  29  304.5145
  30  294.8305
  31  425.0113
  32  295.4649
  33  381.4753
  34  420.0105
  35  410.4248
  36  376.3548
  37  380.734
  38  407.3773
  39  432.0819
  40  371.8936
  41  387.9326
  42  344.9185
  43  306.343
  44  371.4975
  45  396.8491
  46  518.1527
  47  414.9305
  48  356.1337
  49  326.2408
  50  341.2151
  51  217.6695
  52  192.1819
  53  404.9436
  54  376.062
  55  354.0539
  56  382.9208
  57  359.9534
  58  317.1476
  59  263.747
  60  204.8981
  61  279.8307
  62  286.3561
  63  358.6836
  64  377.5446
  65  381.258
  66  302.4497
  67  297.8029
  68  292.3292
  69  160.1805
  70  155.6373
  71  222.9968
  72  395.7286
  73  276.7234
  74  217.8262
  75  242.0117
  76  241.9925
  77  328.819
  78  409.5287
  79  471.6789
  80  483.1352
  81  451.2777
  82  290.0452
  83  357.2679
  84  276.7448
  85  319.8905
  86  294.9996
  87  370.6751
  88  318.2166
  89  235.3444
  90  375.8657
  91  327.5439
  92  329.2391
  93  379.0258
  94  353.2928
  95  376.9016
  96  402.1394
  97  336.6961
  98  342.4186
  99  329.2688
 100  370.5303
 101  327.4288
 102  287.2152
 103  315.0044
 104  380.3013
 105  303.6294
 106  251.7584
 107  247.3386
 108  279.4499
 109  218.4013
 110  253.4089
 111  269.7984
 112  250.9798
 113  294.4228
 114  300.1303
 115  300.5175
 116  433.5956
 117  457.2195
 118  479.7537
 119  408.0887
 120  414.5701
 121  498.0884
 122  406.9138
 123  469.784
 124  454.2967
 125  200.3067
 126  284.0341
 127  351.9127
 128  368.1054
 129  372.4654
 130  338.5598
 131  443.1825
 132  410.1301
 133  273.5107
 134  308.4525
 135  318.1443
 136  325.3919
 137  386.2709
 138  294.3633
 139  333.7697
 140  361.8883
 141  381.4511
 142  366.3351
 143  245.2366
 144  281.7101
 145  332.9945
 146  304.3966
 147  277.4364
 148  176.2669
 149  169.868
 150  204.1748
 151  196.9122
 152  313.8805
 153  243.5054
 154  177.3906
 155  258.0434
 156  343.4306
 157  324.7283
 158  197.1709
 159  307.373
 160  381.7766
 161  249.8754
 162  326.5652
 163  306.7276
 164  296.6945
 165  182.3349
 166  242.0671
 167  336.011
 168  280.8879
 169  240.3483
 170  51.81902
 171  151.3625
 172  220.5707
 173  188.7767
 174  195.2752
 175  280.6531
 176  226.9687
 177  168.5487
 178  254.4019
 179  396.7696
 180  232.5027
 181  186.6213
 182  301.1844
 183  369.6973
 184  336.8874
 185  268.5655
 186  143.4318
 187  371.9667
 188  323.1701
 189  256.6464
 190  383.7235
 191  434.7298
 192  425.878
 193  301.6812
 194  332.1666
 195  292.3827
 196  312.8473
 197  342.1529
 198  292.563
 199  267.5232
 200  277.9488
 201  305.406
 202  276.9901
 203  324.4768
 204  429.9222
 205  549.6837
 206  444.0919
 207  386.8622
 208  461.8911
 209  553.9238
 210  456.8114
 211  570.6189
 212  526.9876
 213  484.8972
 214  427.0918
 215  425.8899
 216  372.6694
 217  477.5978
 218  444.598
 219  332.6322
 220  461.5641
 221  466.0983
 222  424.5555
 223  362.1422
 224  313.2213
 225  322.0705
 226  271.4627
 227  225.6728
 228  208.1867
 229  315.0673
 230  406.2808
 231  333.0178
 232  316.7971
 233  342.4601
 234  351.0241
 235  339.9785
 236  425.4782
 237  484.8689
 238  345.2238
 239  335.4684
 240  355.0573
 241  319.5429
 242  333.9131
 243  260.4147
 244  297.8907
 245  340.5579
 246  371.8065
 247  382.9271
 248  372.0105
 249  365.5717
 250  311.9675
 251  309.0175
 252  424.823
 253  378.8645
 254  379.9992
 255  443.8546
 256  349.1323
 257  267.6912
 258  247.0375
 259  310.8942
 260  471.7957
 261  425.2377
 262  289.4211
 263  377.8601
 264  301.4114
 265  301.2897
 266  259.382
 267  404.7152
 268  385.0283
 269  300.9656
 270  418.0936
 271  485.7088
 272  449.0773
 273  428.0524
 274  488.0918
 275  390.6461
 276  441.372
 277  529.262
 278  480.0777
 279  344.6658
 280  356.2123
 281  434.9837
 282  367.0617
 283  403.6066
 284  481.8327
 285  400.0701
 286  425.7793
 287  380.6576
 288  424.8991
 289  353.7757
 290  371.6391
 291  365.3218
 292  358.8647
 293  372.3448
 294  355.1905
 295  386.694
 296  360.3056
 297  358.0997
 298  384.2605
 299  349.1028
 300  282.237
 301  330.9542
 302  300.3888
 303  237.2605
 304  277.7362
 305  259.5635
 306  397.9547
 307  443.6697
 308  387.4961
 309  346.7598
 310  289.2359
 311  286.5604
 312  252.924
 313  296.4549
 314  402.9586
 315  371.743
 316  288.9945
 317  373.0206
 318  446.787
 319  418.0836
 320  265.9912
 321  170.7041
 322  430.2997
 323  449.9857
 324  416.3774
 325  397.8562
 326  283.8681
 327  299.0441
 328  234.7816
 329  207.924
 330  293.8862
 331  368.0932
 332  356.9926
 333  327.2889
 334  298.5995
 335  256.6039
 336  363.9001
 337  317.2415
 338  319.343
 339  272.443
 340  370.0484
 341  387.9534
 342  179.3952
 343  284.6957
 344  435.1393
 345  446.3416
 346  522.3862
 347  505.7967
 348  395.2279
 349  386.8689
 350  502.3441
 351  596.4841
 352  578.1903
 353  338.868
 354  316.8334
 355  412.0455
 356  453.0317
 357  383.5177
 358  346.819
 359  417.9235
 360  472.2122
 361  480.7972
 362  432.1007
 363  389.4401
 364  410.623
 365  349.2642
 366  312.1574
 367  332.8074
 368  388.6815
 369  461.0483
 370  455.9788
 371  431.2334
 372  431.1712
 373  427.4797
 374  364.6477
 375  313.5745
 376  370.011
 377  420.2927
 378  431.0568
 379  394.1681
 380  480.3066
 381  351.6785
 382  339.9295
 383  394.9211
 384  460.573
 385  496.9045
 386  487.027
 387  464.4069
 388  474.8548
 389  419.2957
 390  313.5597
 391  262.1593
 392  360.9347
 393  377.9987
 394  423.4883
 395  315.7136
 396  330.625
 397  384.7322
 398  393.1097
 399  502.2707
 400  439.0244
 401  462.4419
 402  363.0101
 403  374.4092
 404  472.5002
 405  442.4581
 406  294.9507
 407  383.9727
 408  417.9872
 409  403.5518
 410  467.6181
 411  422.8373
 412  397.696
 413  410.442
 414  372.9442
 415  534.7838
 416  503.6404
 417  537.875
 418  462.1559
 419  425.3598
 420  535.1085
 421  560.6125
 422  551.5158
 423  553.7912
 424  455.6462
 425  471.4766
 426  444.0692
 427  434.6719
 428  520.6489
 429  454.5366
 430  481.3949
 431  443.4367
 432  425.5499
 433  399.108
 434  383.0539
 435  405.2249
 436  469.5101
 437  455.5345
 438  367.1161
 439  471.811
 440  454.097
 441  460.8487
 442  539.2716
 443  502.8906
 444  534.8553
 445  529.969
 446  482.7654
 447  466.5391
 448  529.9407
 449  408.6996
 450  441.3109
 451  464.2659
 452  385.8497
 453  456.452
 454  527.6608
 455  433.9775
 456  415.9561
 457  423.5625
 458  484.2955
 459  650.1674
 460  846.7182
 461  1001.503
 462  960.2057
 463  980.4108
 464  1020.962
 465  823.8122
 466  623.251
 467  603.7115
 468  567.4205
 469  347.0915
 470  496.7534
 471  447.8108
 472  363.4177
 473  338.6735
 474  401.8881
 475  530.2936
 476  471.2546
 477  435.7403
 478  355.6864
 479  483.2126
 480  607.3223
 481  372.8481
 482  278.2072
 483  384.8877
 484  448.0506
 485  428.926
 486  356.6859
 487  391.3051
 488  399.9015
 489  453.3836
 490  429.3054
 491  387.7277
 492  415.1706
 493  449.7298
 494  309.6517
 495  262.8822
 496  372.0638
 497  539.4534
 498  549.9233
 499  414.4728
 500  355.495
 501  403.2991
 502  433.6845
 503  333.0451
 504  394.1544
 505  441.0515
 506  468.3283
 507  396.8559
 508  430.1735
 509  478.6259
 510  449.6354
 511  494.933
