# Input file       =  1180666906.099774_cleaned.dat
# Candidate        =  PSR_0332+5434
# Telescope        =  AR
# Epoch_topo       =  57909.126019673306
# Epoch_bary       =  N/A
# T_sample         =  0.002
# Data Folded      =  7143424
# Data Avg         =  0.0344765121126646
# Data StdDev      =  1.00005334163564 
# Profile Bins     =  512
# Profile Avg      =  481.001193106157 
# Profile StdDev   =  118.124885120363 
# Reduced chi-sqr  =  0.909
# Prob(Noise)      <  0.93   (~0.0 sigma)
# P_topo (ms)      =  714.512566584153  +/- 0.000251
# P'_topo (s/s)    =  -0                +/- 1.36e-10
# P''_topo (s/s^2) =  0                 +/- 6.17e-14
# P_bary (ms)      =  N/A
# P'_bary (s/s)    =  N/A
# P''_bary (s/s^2) =  N/A
# P_orb (s)        =  N/A
# asin(i)/c (s)    =  N/A
# eccentricity     =  N/A
# w (rad)          =  N/A
# T_peri           =  N/A
######################################################
   0  484.4881
   1  581.1646
   2  567.4576
   3  450.1652
   4  461.5247
   5  478.5404
   6  520.5158
   7  535.553
   8  440.7684
   9  394.1324
  10  487.9136
  11  459.8704
  12  354.0067
  13  401.3272
  14  356.5823
  15  347.1225
  16  404.3085
  17  403.456
  18  390.7078
  19  395.686
  20  491.549
  21  475.1573
  22  442.2291
  23  394.7834
  24  509.9955
  25  521.9103
  26  509.0897
  27  509.1048
  28  461.7296
  29  326.1287
  30  409.8645
  31  508.4306
  32  487.5947
  33  456.4014
  34  497.4056
  35  452.1779
  36  418.4469
  37  510.7117
  38  524.695
  39  543.8314
  40  463.6436
  41  533.4804
  42  435.3708
  43  348.703
  44  471.3254
  45  504.5035
  46  502.2998
  47  478.0616
  48  517.6347
  49  538.3033
  50  494.5956
  51  463.2466
  52  458.6981
  53  422.4227
  54  509.553
  55  506.0432
  56  435.9442
  57  412.8813
  58  490.2605
  59  509.2995
  60  566.83
  61  588.4333
  62  514.5574
  63  589.2938
  64  579.6521
  65  487.6288
  66  469.4789
  67  407.4482
  68  420.8602
  69  464.9062
  70  518.3886
  71  437.4188
  72  504.7105
  73  494.8406
  74  447.0134
  75  409.501
  76  380.9946
  77  444.4364
  78  514.94
  79  483.075
  80  435.8526
  81  369.4893
  82  302.4505
  83  394.5146
  84  420.5341
  85  566.5245
  86  646.7654
  87  678.5433
  88  665.3516
  89  523.9352
  90  493.0624
  91  448.4773
  92  443.8329
  93  446.1217
  94  438.7771
  95  490.8435
  96  466.1946
  97  361.5983
  98  376.5227
  99  492.863
 100  616.4194
 101  497.1264
 102  551.5461
 103  511.6273
 104  406.5307
 105  395.7566
 106  334.6048
 107  433.4657
 108  496.3448
 109  424.7624
 110  494.4811
 111  506.5213
 112  485.2007
 113  515.2639
 114  466.8555
 115  418.4937
 116  496.9593
 117  613.1074
 118  487.5889
 119  529.0491
 120  606.6727
 121  580.2762
 122  478.0468
 123  577.1621
 124  583.5339
 125  411.9957
 126  396.6625
 127  488.4397
 128  483.1765
 129  483.1221
 130  455.5349
 131  446.1734
 132  483.7443
 133  413.7461
 134  477.3561
 135  535.7662
 136  561.2664
 137  654.0926
 138  596.7387
 139  599.8344
 140  667.4078
 141  538.5447
 142  450.282
 143  535.6282
 144  600.8163
 145  505.4057
 146  542.7071
 147  589.6198
 148  478.6328
 149  377.5246
 150  360.4197
 151  438.1292
 152  479.732
 153  469.8371
 154  343.4983
 155  314.9864
 156  436.0311
 157  403.0328
 158  415.7744
 159  362.0281
 160  350.2766
 161  348.8898
 162  320.3687
 163  484.3474
 164  456.0091
 165  529.041
 166  537.8899
 167  532.3675
 168  481.8062
 169  365.0001
 170  383.5842
 171  403.3837
 172  526.9956
 173  476.9244
 174  536.6252
 175  590.3462
 176  421.8189
 177  400.5834
 178  416.8197
 179  427.6351
 180  456.6797
 181  526.8703
 182  560.5497
 183  443.2455
 184  454.6352
 185  573.4471
 186  508.4388
 187  480.4791
 188  505.1052
 189  508.1913
 190  475.5074
 191  529.3068
 192  566.5157
 193  525.5069
 194  436.1874
 195  508.2159
 196  505.5802
 197  539.8825
 198  628.897
 199  508.4214
 200  570.7171
 201  552.1414
 202  531.9026
 203  559.7354
 204  502.1823
 205  573.3428
 206  515.5983
 207  502.8079
 208  459.8576
 209  409.9349
 210  450.3348
 211  541.7639
 212  505.4517
 213  526.8411
 214  613.33
 215  468.5952
 216  401.0978
 217  420.3412
 218  561.7683
 219  556.5648
 220  620.0851
 221  566.1074
 222  506.7458
 223  457.5853
 224  446.1905
 225  455.6405
 226  374.486
 227  297.1728
 228  410.85
 229  423.0652
 230  421.8541
 231  456.1238
 232  466.6925
 233  511.8805
 234  462.5919
 235  494.2614
 236  399.6194
 237  425.698
 238  529.0113
 239  530.394
 240  450.7303
 241  443.083
 242  486.6803
 243  497.9497
 244  388.6468
 245  456.5202
 246  553.0135
 247  541.978
 248  555.6202
 249  534.6734
 250  607.9236
 251  548.1349
 252  470.5529
 253  437.5733
 254  485.5718
 255  527.0838
 256  386.3715
 257  488.6327
 258  496.1465
 259  434.3561
 260  562.0846
 261  466.2512
 262  537.8915
 263  625.7954
 264  558.6677
 265  621.0461
 266  619.972
 267  572.8229
 268  644.9597
 269  621.6838
 270  568.4006
 271  458.3961
 272  507.8035
 273  463.1902
 274  347.8842
 275  341.2811
 276  395.9769
 277  330.3876
 278  424.677
 279  504.2042
 280  569.3411
 281  610.1609
 282  553.306
 283  579.1746
 284  585.7431
 285  525.6381
 286  458.3304
 287  532.5638
 288  642.9028
 289  545.8236
 290  441.5782
 291  560.6255
 292  547.7538
 293  476.3204
 294  524.1003
 295  713.8069
 296  792.8101
 297  936.1334
 298  929.6368
 299  851.289
 300  845.2786
 301  618.9575
 302  530.336
 303  311.8148
 304  419.768
 305  429.0872
 306  398.8044
 307  420.0493
 308  460.4139
 309  409.4362
 310  429.9745
 311  530.209
 312  472.1685
 313  432.5441
 314  530.9821
 315  590.3147
 316  472.8082
 317  434.5296
 318  478.2709
 319  543.373
 320  541.6532
 321  591.6586
 322  544.1525
 323  424.3961
 324  428.271
 325  418.0799
 326  515.142
 327  484.1394
 328  435.6144
 329  481.7023
 330  530.4264
 331  511.4292
 332  415.0735
 333  434.6852
 334  524.4622
 335  496.247
 336  432.5203
 337  404.1152
 338  557.1103
 339  498.4884
 340  512.6837
 341  406.9134
 342  348.5802
 343  362.8318
 344  446.4413
 345  428.4864
 346  373.3949
 347  437.779
 348  405.1654
 349  382.9766
 350  446.2423
 351  473.6658
 352  395.2872
 353  403.3348
 354  475.4254
 355  500.6832
 356  473.4465
 357  525.4997
 358  504.6135
 359  341.2183
 360  312.6825
 361  438.3057
 362  592.9235
 363  539.276
 364  532.9583
 365  451.2093
 366  344.149
 367  348.4727
 368  458.5515
 369  606.1561
 370  552.213
 371  452.8755
 372  399.1501
 373  498.7981
 374  326.8627
 375  431.648
 376  483.9877
 377  479.9632
 378  459.155
 379  435.0682
 380  362.5144
 381  376.7899
 382  458.7382
 383  427.526
 384  462.1707
 385  481.5367
 386  391.8656
 387  428.5317
 388  526.8284
 389  424.097
 390  413.4912
 391  440.0087
 392  448.1468
 393  487.0382
 394  509.5756
 395  415.8024
 396  390.1517
 397  378.2259
 398  424.5376
 399  475.3085
 400  496.7788
 401  473.8997
 402  463.398
 403  525.8679
 404  466.8765
 405  405.2121
 406  565.1317
 407  544.1705
 408  360.6348
 409  339.471
 410  501.5287
 411  487.4663
 412  509.5709
 413  511.6158
 414  407.0524
 415  546.5376
 416  551.1927
 417  440.9142
 418  406.2143
 419  417.933
 420  428.6041
 421  529.8102
 422  483.4852
 423  431.7557
 424  451.1825
 425  442.2202
 426  411.3673
 427  353.6084
 428  432.8236
 429  500.3645
 430  411.9821
 431  406.3509
 432  525.4144
 433  533.5227
 434  532.9293
 435  499.9608
 436  540.097
 437  425.8724
 438  439.5623
 439  396.5201
 440  523.3779
 441  436.3425
 442  381.5357
 443  426.6385
 444  635.8199
 445  599.2542
 446  498.1514
 447  509.8952
 448  494.0798
 449  452.4056
 450  476.4677
 451  362.5412
 452  380.7533
 453  403.0596
 454  500.3509
 455  403.5768
 456  285.7939
 457  425.6149
 458  477.7366
 459  333.3549
 460  387.2882
 461  432.028
 462  467.1806
 463  428.6527
 464  509.184
 465  567.3716
 466  582.3088
 467  450.3402
 468  359.7498
 469  445.4647
 470  420.5331
 471  475.8261
 472  573.6782
 473  580.3846
 474  486.7668
 475  352.9574
 476  445.7846
 477  455.2845
 478  433.8769
 479  546.5135
 480  497.3236
 481  518.6314
 482  528.455
 483  499.4387
 484  558.908
 485  471.0871
 486  442.9691
 487  505.9034
 488  432.8559
 489  498.7034
 490  399.3865
 491  548.9258
 492  573.9319
 493  534.8967
 494  516.2021
 495  470.2147
 496  506.9973
 497  478.2076
 498  428.0121
 499  441.1747
 500  467.5301
 501  456.196
 502  456.8701
 503  472.8469
 504  554.1963
 505  461.9058
 506  580.0463
 507  525.985
 508  469.2768
 509  480.5093
 510  564.7321
 511  574.0725
