# Input file       =  1180782598.102683_cleaned.dat
# Candidate        =  PSR_0332+5434
# Telescope        =  AR
# Epoch_topo       =  57910.465047484759
# Epoch_bary       =  N/A
# T_sample         =  0.002
# Data Folded      =  7340032
# Data Avg         =  0.0315080292165321
# Data StdDev      =  1.00007540917911 
# Profile Bins     =  512
# Profile Avg      =  451.760839732161 
# Profile StdDev   =  119.742065346752 
# Reduced chi-sqr  =  1.391
# Prob(Noise)      <  1.07e-08   (~5.6 sigma)
# P_topo (ms)      =  714.511622956077  +/- 0.000208
# P'_topo (s/s)    =  -0                +/- 1.1e-10
# P''_topo (s/s^2) =  0                 +/- 4.85e-14
# P_bary (ms)      =  N/A
# P'_bary (s/s)    =  N/A
# P''_bary (s/s^2) =  N/A
# P_orb (s)        =  N/A
# asin(i)/c (s)    =  N/A
# eccentricity     =  N/A
# w (rad)          =  N/A
# T_peri           =  N/A
######################################################
   0  1169.627
   1  883.7401
   2  762.8069
   3  816.6604
   4  626.0002
   5  461.9604
   6  415.537
   7  511.7531
   8  481.4854
   9  526.9233
  10  550.7742
  11  467.9814
  12  350.903
  13  306.3063
  14  361.3811
  15  524.1039
  16  476.6827
  17  454.3972
  18  421.3845
  19  318.2949
  20  289.979
  21  381.344
  22  433.7129
  23  496.9366
  24  372.3916
  25  470.696
  26  389.6889
  27  462.589
  28  541.0662
  29  509.7444
  30  453.4647
  31  340.2331
  32  491.2851
  33  398.3165
  34  467.0443
  35  534.1336
  36  532.6479
  37  427.8686
  38  282.8661
  39  305.562
  40  274.5122
  41  394.321
  42  381.5045
  43  449.3338
  44  575.9755
  45  508.5586
  46  352.5175
  47  459.3095
  48  406.4967
  49  432.0621
  50  380.5755
  51  501.9487
  52  548.9744
  53  548.9957
  54  553.6021
  55  575.024
  56  535.6746
  57  465.1272
  58  411.6889
  59  535.3682
  60  460.3714
  61  300.9371
  62  284.1154
  63  457.7153
  64  407.9423
  65  365.7177
  66  425.7664
  67  430.4823
  68  546.5099
  69  550.8209
  70  371.7758
  71  484.6792
  72  406.982
  73  388.9971
  74  435.9681
  75  425.8487
  76  395.548
  77  462.9283
  78  588.5226
  79  529.3156
  80  561.8107
  81  555.2219
  82  498.5749
  83  399.9059
  84  433.5132
  85  439.6073
  86  410.3044
  87  459.3538
  88  542.4089
  89  583.2092
  90  506.912
  91  418.6324
  92  452.5943
  93  434.9114
  94  462.4139
  95  391.6993
  96  410.2806
  97  464.0296
  98  316.3789
  99  330.9913
 100  368.1124
 101  382.3148
 102  407.246
 103  501.0159
 104  515.1086
 105  438.7222
 106  491.166
 107  438.2491
 108  442.1688
 109  310.0512
 110  234.0889
 111  301.086
 112  424.5951
 113  425.2102
 114  445.2919
 115  449.2728
 116  475.9626
 117  587.3266
 118  467.1444
 119  421.9866
 120  470.7291
 121  608.1832
 122  556.4622
 123  498.2891
 124  402.9595
 125  480.776
 126  509.6552
 127  404.9142
 128  393.8666
 129  404.4503
 130  485.3221
 131  459.4701
 132  486.5181
 133  410.4094
 134  427.4297
 135  554.112
 136  545.9242
 137  525.4254
 138  414.1011
 139  428.2613
 140  453.4096
 141  538.9631
 142  551.564
 143  639.4269
 144  598.9285
 145  590.7828
 146  703.7773
 147  652.5908
 148  542.1134
 149  538.6957
 150  560.5919
 151  528.3087
 152  547.3443
 153  565.701
 154  578.6667
 155  488.0413
 156  428.7857
 157  443.6591
 158  498.2454
 159  428.9366
 160  495.2537
 161  361.6411
 162  388.7759
 163  533.5956
 164  520.2813
 165  455.2874
 166  489.3263
 167  428.9169
 168  444.8475
 169  482.6854
 170  461.5426
 171  521.8621
 172  528.5951
 173  417.1272
 174  506.7992
 175  495.0683
 176  556.873
 177  413.9651
 178  322.0904
 179  423.8588
 180  411.6769
 181  445.6237
 182  429.0857
 183  507.7468
 184  579.7697
 185  434.8914
 186  545.9163
 187  547.2111
 188  327.2701
 189  224.8312
 190  341.9676
 191  474.2133
 192  510.2178
 193  455.0314
 194  474.5512
 195  467.2565
 196  472.8225
 197  506.7904
 198  386.2882
 199  470.4163
 200  383.5768
 201  487.4305
 202  525.9367
 203  450.2285
 204  383.9026
 205  410.6701
 206  419.643
 207  421.9372
 208  503.3716
 209  545.5221
 210  557.7992
 211  499.0601
 212  463.5799
 213  440.9822
 214  384.0373
 215  446.3401
 216  478.1286
 217  331.5777
 218  304.4959
 219  414.4369
 220  433.343
 221  389.0411
 222  473.3211
 223  463.4244
 224  389.9484
 225  373.33
 226  510.1087
 227  523.7468
 228  490.0095
 229  441.3439
 230  361.197
 231  386.472
 232  454.567
 233  309.7352
 234  268.7236
 235  453.7407
 236  355.4031
 237  317.7888
 238  355.7893
 239  397.6201
 240  555.4694
 241  585.1204
 242  399.5009
 243  376.2646
 244  408.3635
 245  453.3573
 246  411.8691
 247  342.0439
 248  386.2606
 249  349.5276
 250  358.9854
 251  443.4961
 252  400.1165
 253  422.618
 254  403.8689
 255  457.3814
 256  453.1588
 257  469.8083
 258  513.6376
 259  607.0417
 260  506.642
 261  395.665
 262  481.3688
 263  498.8002
 264  427.1804
 265  470.0343
 266  526.7303
 267  492.9856
 268  450.9683
 269  339.2522
 270  339.9023
 271  364.5269
 272  369.3009
 273  416.1651
 274  411.3988
 275  404.1957
 276  401.533
 277  310.5856
 278  345.9414
 279  375.2628
 280  452.7812
 281  395.4829
 282  337.1458
 283  256.8388
 284  286.3273
 285  392.9174
 286  322.8499
 287  389.0527
 288  402.7448
 289  383.7117
 290  321.1432
 291  364.6368
 292  401.4087
 293  481.3693
 294  403.1681
 295  279.1889
 296  358.0591
 297  405.6614
 298  380.9778
 299  462.6918
 300  584.0074
 301  526.3845
 302  355.4064
 303  444.1193
 304  532.3636
 305  465.0927
 306  416.4149
 307  597.0791
 308  420.2876
 309  478.4682
 310  465.6729
 311  383.8759
 312  413.8989
 313  275.403
 314  391.4989
 315  526.7627
 316  466.654
 317  347.1436
 318  309.9664
 319  289.4838
 320  257.4953
 321  345.4816
 322  440.9395
 323  386.1192
 324  384.8604
 325  386.3376
 326  417.3447
 327  430.7454
 328  390.512
 329  534.5446
 330  405.1223
 331  386.1784
 332  334.4325
 333  259.2824
 334  290.5523
 335  396.5123
 336  390.5084
 337  423.4892
 338  414.217
 339  350.0942
 340  244.2153
 341  335.2288
 342  528.838
 343  521.8936
 344  432.9498
 345  491.8975
 346  385.0145
 347  376.4972
 348  388.0164
 349  498.1095
 350  425.2916
 351  361.3827
 352  396.0312
 353  452.2159
 354  396.0358
 355  326.7058
 356  395.0233
 357  436.0797
 358  403.9709
 359  348.0155
 360  378.4226
 361  564.7444
 362  490.524
 363  421.8675
 364  550.865
 365  394.412
 366  323.7934
 367  298.3441
 368  408.5597
 369  456.2625
 370  447.4861
 371  387.449
 372  431.1421
 373  471.1051
 374  458.1422
 375  421.9702
 376  423.5816
 377  389.6026
 378  307.7216
 379  379.1391
 380  413.2686
 381  383.5297
 382  404.0787
 383  425.2737
 384  453.1476
 385  367.988
 386  353.0565
 387  426.1235
 388  418.0565
 389  370.0409
 390  408.3569
 391  549.5765
 392  539.4353
 393  521.3289
 394  526.2964
 395  497.7838
 396  417.671
 397  363.7719
 398  377.2735
 399  418.9265
 400  477.94
 401  590.9158
 402  631.4647
 403  504.5357
 404  476.5182
 405  495.1192
 406  489.8506
 407  491.3071
 408  298.2261
 409  297.316
 410  462.6135
 411  533.67
 412  529.7244
 413  504.6214
 414  474.3748
 415  432.8406
 416  431.1601
 417  519.8824
 418  489.2289
 419  411.0993
 420  323.5094
 421  429.5789
 422  542.3887
 423  506.0127
 424  479.3226
 425  473.1711
 426  509.0327
 427  458.8605
 428  358.4244
 429  246.5923
 430  426.4872
 431  560.8948
 432  539.8211
 433  393.5392
 434  329.9007
 435  417.492
 436  408.2422
 437  432.9276
 438  373.9603
 439  434.233
 440  316.0329
 441  211.8504
 442  313.7064
 443  306.4733
 444  312.0171
 445  381.9522
 446  470.6537
 447  515.6932
 448  301.259
 449  272.4525
 450  349.9974
 451  367.0599
 452  446.5729
 453  423.6443
 454  430.5118
 455  463.1852
 456  549.739
 457  477.4637
 458  524.0443
 459  525.0068
 460  473.3517
 461  378.0836
 462  393.0124
 463  502.446
 464  428.1331
 465  425.6251
 466  556.8194
 467  578.2215
 468  528.8942
 469  552.7703
 470  511.6552
 471  434.2452
 472  443.5128
 473  460.7644
 474  408.3905
 475  381.1703
 476  424.5118
 477  581.7089
 478  704.0884
 479  721.7701
 480  776.417
 481  598.2974
 482  490.6256
 483  563.2274
 484  572.6737
 485  664.1091
 486  509.6702
 487  565.6155
 488  483.5075
 489  411.0983
 490  606.0592
 491  595.1294
 492  572.4486
 493  580.285
 494  555.2733
 495  551.9294
 496  543.9452
 497  475.9829
 498  389.2964
 499  490.8064
 500  517.965
 501  498.8667
 502  512.5049
 503  410.7563
 504  466.3486
 505  521.9923
 506  529.3757
 507  499.0669
 508  726.0803
 509  798.0308
 510  949.2787
 511  1046.086
