# Input file       =  1180954929.103668_cleaned.dat
# Candidate        =  PSR_0332+5434
# Telescope        =  AR
# Epoch_topo       =  57912.459619255416
# Epoch_bary       =  N/A
# T_sample         =  0.002
# Data Folded      =  7340032
# Data Avg         =  0.0289668082117958
# Data StdDev      =  1.00010698300856 
# Profile Bins     =  512
# Profile Avg      =  415.277839409909 
# Profile StdDev   =  119.745845777222 
# Reduced chi-sqr  =  1.541
# Prob(Noise)      <  4.15e-14   (~7.5 sigma)
# P_topo (ms)      =  714.509717313757  +/- 0.000158
# P'_topo (s/s)    =  -0                +/- 8.34e-11
# P''_topo (s/s^2) =  0                 +/- 3.68e-14
# P_bary (ms)      =  N/A
# P'_bary (s/s)    =  N/A
# P''_bary (s/s^2) =  N/A
# P_orb (s)        =  N/A
# asin(i)/c (s)    =  N/A
# eccentricity     =  N/A
# w (rad)          =  N/A
# T_peri           =  N/A
######################################################
   0  1045.476
   1  1018.905
   2  867.0958
   3  728.6002
   4  600.34
   5  529.8845
   6  501.326
   7  468.0723
   8  476.6976
   9  554.454
  10  452.1989
  11  372.5436
  12  335.9131
  13  352.3577
  14  366.0827
  15  487.9861
  16  415.0775
  17  390.6022
  18  337.4917
  19  337.2267
  20  332.8398
  21  340.0711
  22  363.6433
  23  439.2918
  24  403.198
  25  330.9276
  26  299.2118
  27  264.136
  28  356.4701
  29  458.6659
  30  513.138
  31  412.2575
  32  417.9061
  33  445.9851
  34  441.3938
  35  330.5524
  36  440.4095
  37  595.4547
  38  462.8187
  39  350.4819
  40  332.4879
  41  414.1882
  42  474.6487
  43  568.8773
  44  524.1477
  45  436.2292
  46  472.8319
  47  258.2413
  48  358.6962
  49  409.2216
  50  338.5156
  51  442.0642
  52  362.2359
  53  341.0037
  54  345.8321
  55  397.5245
  56  475.3516
  57  382.0152
  58  318.131
  59  249.2464
  60  377.145
  61  399.0264
  62  387.7792
  63  412.9551
  64  422.7426
  65  305.2238
  66  290.4928
  67  352.5222
  68  370.3051
  69  448.2276
  70  463.2887
  71  518.5255
  72  431.722
  73  490.7401
  74  422.8543
  75  339.2314
  76  362.8207
  77  462.0807
  78  440.6121
  79  348.4286
  80  173.643
  81  341.4015
  82  402.408
  83  293.4482
  84  421.3593
  85  495.5952
  86  458.8457
  87  447.1113
  88  465.6985
  89  528.0058
  90  503.9908
  91  375.0644
  92  374.617
  93  301.4151
  94  263.7899
  95  281.619
  96  429.8411
  97  455.5048
  98  330.2469
  99  360.8647
 100  334.6437
 101  378.8257
 102  327.2019
 103  286.8414
 104  261.2578
 105  327.5794
 106  232.0632
 107  196.5235
 108  244.2462
 109  304.8071
 110  384.7126
 111  388.5605
 112  284.4567
 113  299.4322
 114  337.0448
 115  415.7386
 116  470.1613
 117  408.3395
 118  229.7229
 119  202.6398
 120  348.801
 121  444.2587
 122  476.8165
 123  489.0473
 124  449.258
 125  409.3683
 126  428.3163
 127  442.5251
 128  588.1407
 129  506.8145
 130  439.0132
 131  452.0637
 132  422.9328
 133  544.7566
 134  493.2384
 135  442.5967
 136  482.0612
 137  602.5043
 138  648.5754
 139  384.3622
 140  369.1163
 141  487.3339
 142  222.2956
 143  169.7205
 144  348.0576
 145  327.0865
 146  441.7263
 147  344.2595
 148  204.5615
 149  236.6328
 150  325.759
 151  411.0204
 152  364.9518
 153  382.942
 154  318.0595
 155  277.0468
 156  413.4663
 157  417.4811
 158  388.1258
 159  466.8475
 160  319.544
 161  320.6532
 162  358.8331
 163  352.2522
 164  419.1372
 165  607.7313
 166  457.9407
 167  350.0599
 168  303.0857
 169  467.392
 170  577.4837
 171  380.0393
 172  394.7407
 173  398.1686
 174  429.1747
 175  357.7082
 176  272.9632
 177  363.6864
 178  323.0576
 179  335.4523
 180  398.7608
 181  434.4369
 182  319.7913
 183  307.9152
 184  407.4495
 185  322.5613
 186  315.1274
 187  323.7646
 188  228.6379
 189  223.0938
 190  304.6479
 191  313.4822
 192  245.8844
 193  227.8411
 194  190.4589
 195  203.7941
 196  313.2766
 197  272.8476
 198  193.3359
 199  387.9719
 200  378.8401
 201  311.0596
 202  389.7495
 203  396.4873
 204  487.3102
 205  448.8076
 206  479.4279
 207  565.143
 208  509.724
 209  448.2739
 210  510.0983
 211  553.4652
 212  515.5951
 213  614.8342
 214  551.1727
 215  541.8785
 216  552.9645
 217  518.5626
 218  518.1452
 219  612.9493
 220  530.1767
 221  478.6603
 222  477.2066
 223  428.8422
 224  425.9778
 225  499.8714
 226  383.0166
 227  253.5523
 228  256.4249
 229  160.7321
 230  341.1531
 231  394.1781
 232  340.8241
 233  357.1351
 234  410.2783
 235  484.4435
 236  289.2761
 237  298.5545
 238  394.4576
 239  387.6505
 240  373.8213
 241  395.8894
 242  453.9337
 243  323.7314
 244  439.1036
 245  456.3271
 246  469.2526
 247  364.5311
 248  488.5892
 249  461.3789
 250  391.7278
 251  409.0882
 252  433.5707
 253  447.1284
 254  484.2523
 255  420.2926
 256  411.2774
 257  461.4347
 258  445.379
 259  468.8215
 260  431.3772
 261  471.2298
 262  458.3641
 263  345.2491
 264  423.0412
 265  490.3886
 266  414.3858
 267  432.0347
 268  462.545
 269  434.2601
 270  444.6185
 271  450.1075
 272  430.237
 273  468.2784
 274  405.9174
 275  382.111
 276  395.9264
 277  451.1259
 278  430.9463
 279  537.1138
 280  552.8393
 281  546.2338
 282  414.3802
 283  439.0073
 284  420.5301
 285  372.0372
 286  492.172
 287  426.4744
 288  430.2352
 289  439.6225
 290  416.7801
 291  343.7215
 292  483.4313
 293  536.2376
 294  561.0383
 295  521.0845
 296  432.6788
 297  375.0713
 298  407.2195
 299  502.8431
 300  558.6738
 301  516.1432
 302  439.8048
 303  506.6501
 304  567.8014
 305  475.8789
 306  568.3197
 307  504.5916
 308  585.0873
 309  406.8667
 310  388.8896
 311  365.4761
 312  363.3786
 313  398.5066
 314  420.6204
 315  343.2719
 316  266.7053
 317  346.7659
 318  422.9783
 319  378.8595
 320  344.7871
 321  316.4295
 322  378.42
 323  377.1115
 324  370.0401
 325  538.3034
 326  443.1863
 327  430.0653
 328  466.6206
 329  564.0193
 330  672.1868
 331  583.9501
 332  483.1531
 333  527.2181
 334  494.2173
 335  482.6988
 336  577.7721
 337  668.2054
 338  603.2563
 339  589.7648
 340  508.4189
 341  486.0901
 342  512.1386
 343  524.1721
 344  498.3425
 345  587.7573
 346  694.3014
 347  622.374
 348  430.1678
 349  395.9706
 350  351.311
 351  305.8757
 352  377.5827
 353  456.948
 354  371.7404
 355  330.9628
 356  324.3661
 357  314.7606
 358  404.3121
 359  376.7706
 360  301.5855
 361  333.3258
 362  266.1729
 363  215.7063
 364  264.189
 365  338.0814
 366  410.1933
 367  325.4571
 368  328.2303
 369  367.2695
 370  359.617
 371  440.7147
 372  445.8866
 373  427.9929
 374  426.5374
 375  533.1466
 376  493.0667
 377  524.6556
 378  532.0239
 379  521.7194
 380  425.0179
 381  431.1534
 382  490.2935
 383  420.7592
 384  427.3147
 385  421.1357
 386  459.629
 387  455.4989
 388  606.4774
 389  518.9069
 390  449.9795
 391  437.1015
 392  477.107
 393  435.5191
 394  436.4031
 395  466.4599
 396  485.9741
 397  515.4899
 398  378.0201
 399  337.9622
 400  410.0168
 401  404.323
 402  416.0546
 403  320.3845
 404  266.4927
 405  325.4813
 406  340.8029
 407  378.1768
 408  441.5077
 409  444.9965
 410  404.7539
 411  370.5517
 412  393.4099
 413  270.354
 414  306.3414
 415  365.6024
 416  460.6189
 417  380.7159
 418  372.3875
 419  461.1306
 420  412.6083
 421  480.2842
 422  451.7052
 423  370.7381
 424  371.2986
 425  342.5228
 426  399.6371
 427  450.2921
 428  457.3504
 429  395.9141
 430  345.4143
 431  315.5302
 432  375.3488
 433  524.8752
 434  437.4811
 435  321.3521
 436  261.6428
 437  335.871
 438  389.771
 439  370.1134
 440  225.6709
 441  189.2309
 442  210.3789
 443  306.4314
 444  262.1568
 445  118.7892
 446  184.0634
 447  266.4823
 448  324.6171
 449  317.8692
 450  313.5194
 451  267.1117
 452  331.6955
 453  177.1842
 454  169.6351
 455  312.3168
 456  496.5435
 457  393.6248
 458  311.2364
 459  364.8899
 460  483.7052
 461  568.0348
 462  540.5856
 463  440.4092
 464  454.0514
 465  341.3887
 466  480.9365
 467  489.7292
 468  510.7449
 469  504.1005
 470  551.6373
 471  457.7784
 472  510.0368
 473  527.3177
 474  520.8182
 475  550.3466
 476  575.8544
 477  495.0416
 478  426.8501
 479  360.2077
 480  374.2199
 481  378.0698
 482  376.8306
 483  445.9335
 484  489.6529
 485  396.5837
 486  389.0245
 487  334.1884
 488  294.8105
 489  442.2194
 490  412.5383
 491  452.1156
 492  489.0284
 493  433.5227
 494  428.3678
 495  344.0677
 496  393.22
 497  383.4418
 498  400.5984
 499  460.6932
 500  474.9876
 501  443.6085
 502  479.4763
 503  434.3117
 504  489.2831
 505  503.1815
 506  468.5797
 507  530.0634
 508  508.2288
 509  632.7407
 510  682.5228
 511  926.3327
