# Input file       =  1180524139.099545_cleaned.dat
# Candidate        =  PSR_0332+5434
# Telescope        =  AR
# Epoch_topo       =  57907.473623837330
# Epoch_bary       =  N/A
# T_sample         =  0.002
# Data Folded      =  7340032
# Data Avg         =  0.0270639371956151
# Data StdDev      =  1.00008471587305 
# Profile Bins     =  512
# Profile Avg      =  388.00377646856  
# Profile StdDev   =  119.743179665475 
# Reduced chi-sqr  =  1.178
# Prob(Noise)      <  0.0033   (~2.7 sigma)
# P_topo (ms)      =  714.514508441007  +/- 0.000508
# P'_topo (s/s)    =  -0                +/- 2.68e-10
# P''_topo (s/s^2) =  0                 +/- 1.18e-13
# P_bary (ms)      =  N/A
# P'_bary (s/s)    =  N/A
# P''_bary (s/s^2) =  N/A
# P_orb (s)        =  N/A
# asin(i)/c (s)    =  N/A
# eccentricity     =  N/A
# w (rad)          =  N/A
# T_peri           =  N/A
######################################################
   0  742.4844
   1  688.0208
   2  652.5798
   3  569.0048
   4  461.5718
   5  327.2774
   6  405.69
   7  377.3606
   8  381.0363
   9  358.7803
  10  365.1127
  11  412.3088
  12  362.5677
  13  411.1021
  14  331.1241
  15  216.4684
  16  236.4248
  17  403.0141
  18  355.6283
  19  284.8173
  20  354.2871
  21  281.0807
  22  379.7691
  23  420.419
  24  434.6948
  25  345.9372
  26  468.6097
  27  482.1865
  28  397.8744
  29  305.0594
  30  396.8304
  31  313.8543
  32  158.6379
  33  151.7557
  34  335.3737
  35  331.3496
  36  350.1299
  37  251.552
  38  232.5991
  39  364.3239
  40  428.5532
  41  463.6859
  42  396.8603
  43  327.6283
  44  219.3485
  45  389.5269
  46  439.8877
  47  242.322
  48  346.338
  49  441.6292
  50  386.7484
  51  263.7687
  52  316.607
  53  373.9373
  54  329.1861
  55  379.2056
  56  360.0435
  57  387.6544
  58  378.2103
  59  472.7469
  60  352.0435
  61  300.8397
  62  309.2938
  63  356.9414
  64  598.053
  65  414.567
  66  366.395
  67  422.8335
  68  434.0627
  69  380.3828
  70  348.0779
  71  420.922
  72  461.5883
  73  392.3727
  74  372.0395
  75  424.1715
  76  378.9872
  77  443.7387
  78  495.4068
  79  483.6092
  80  370.2105
  81  329.7574
  82  418.1619
  83  361.7083
  84  325.0913
  85  376.6071
  86  455.4246
  87  378.2073
  88  402.251
  89  359.6571
  90  433.6053
  91  315.4409
  92  264.7422
  93  288.3751
  94  418.0582
  95  463.506
  96  459.2846
  97  524.9849
  98  404.1909
  99  309.6495
 100  436.92
 101  532.6057
 102  572.8299
 103  510.5141
 104  366.9369
 105  413.9087
 106  467.6451
 107  484.0075
 108  428.4797
 109  477.5279
 110  495.9769
 111  525.9025
 112  561.5034
 113  587.2831
 114  480.3541
 115  394.6725
 116  379.2401
 117  467.8541
 118  505.6476
 119  390.873
 120  372.871
 121  296.6357
 122  258.5899
 123  400.8023
 124  370.6097
 125  523.4318
 126  421.8097
 127  348.9567
 128  397.1427
 129  285.083
 130  314.2059
 131  353.4946
 132  361.6829
 133  364.3106
 134  434.3005
 135  396.6315
 136  450.4068
 137  374.8211
 138  398.8912
 139  457.3796
 140  343.4766
 141  367.3683
 142  538.282
 143  591.6002
 144  422.7894
 145  327.1836
 146  300.0707
 147  330.5068
 148  319.9263
 149  308.7852
 150  342.7609
 151  402.4468
 152  312.7922
 153  274.8013
 154  307.3278
 155  370.2055
 156  321.9846
 157  419.6965
 158  368.2187
 159  279.499
 160  339.9963
 161  482.9029
 162  389.4484
 163  309.9432
 164  397.8473
 165  455.3949
 166  438.9304
 167  503.5097
 168  503.4839
 169  462.2908
 170  344.3916
 171  385.8697
 172  454.0184
 173  481.9032
 174  374.6136
 175  255.4229
 176  213.6843
 177  265.179
 178  208.1948
 179  250.2432
 180  309.9725
 181  431.7075
 182  372.5771
 183  280.2676
 184  312.5675
 185  347.9315
 186  386.2054
 187  318.0965
 188  270.4308
 189  312.1285
 190  279.4493
 191  337.497
 192  372.543
 193  243.3062
 194  344.6533
 195  355.2891
 196  338.4551
 197  382.428
 198  427.2424
 199  343.213
 200  379.8777
 201  372.9771
 202  356.7675
 203  442.4949
 204  373.5094
 205  239.4457
 206  289.9658
 207  358.3839
 208  451.8497
 209  371.3575
 210  366.5444
 211  408.0636
 212  376.1662
 213  379.978
 214  245.7989
 215  344.6196
 216  552.8066
 217  435.3121
 218  400.5929
 219  293.1207
 220  291.0618
 221  366.7067
 222  460.5172
 223  405.356
 224  383.2136
 225  350.146
 226  273.7864
 227  390.4977
 228  390.1559
 229  347.6144
 230  444.6389
 231  456.2323
 232  355.154
 233  406.987
 234  471.1012
 235  417.8951
 236  358.4236
 237  379.7668
 238  564.3229
 239  608.5192
 240  472.1101
 241  443.136
 242  386.4096
 243  455.5727
 244  421.5554
 245  356.5247
 246  334.8969
 247  380.9028
 248  417.1199
 249  362.9192
 250  282.8991
 251  342.9064
 252  330.9976
 253  360.9108
 254  346.868
 255  389.7404
 256  453.2287
 257  477.0543
 258  540.5012
 259  493.7659
 260  324.4952
 261  422.4968
 262  439.6665
 263  371.984
 264  347.0461
 265  290.4015
 266  209.9478
 267  243.1256
 268  334.3832
 269  287.0778
 270  227.761
 271  374.7238
 272  411.7634
 273  363.1982
 274  472.3556
 275  404.0034
 276  339.364
 277  393.7291
 278  380.536
 279  312.3246
 280  349.1884
 281  416.706
 282  434.961
 283  412.4706
 284  398.7913
 285  331.9128
 286  214.9525
 287  318.6533
 288  459.0784
 289  372.343
 290  287.2443
 291  378.722
 292  308.1589
 293  342.7017
 294  343.8958
 295  307.9598
 296  243.6791
 297  300.8989
 298  298.6636
 299  331.2614
 300  299.1236
 301  348.2938
 302  304.1238
 303  358.1931
 304  376.8886
 305  143.9941
 306  100.1881
 307  240.6982
 308  327.9931
 309  389.2485
 310  337.394
 311  152.8535
 312  194.4928
 313  277.8948
 314  322.9313
 315  392.7939
 316  378.8632
 317  443.4147
 318  473.6671
 319  408.2199
 320  405.4866
 321  459.3704
 322  483.0073
 323  544.8257
 324  598.6097
 325  528.2729
 326  522.2029
 327  538.7988
 328  423.8839
 329  357.0681
 330  366.3027
 331  398.4608
 332  388.5355
 333  426.2541
 334  453.9098
 335  447.0361
 336  306.4462
 337  419.2
 338  418.6901
 339  327.7786
 340  274.1099
 341  221.5869
 342  318.2725
 343  415.7271
 344  438.9582
 345  467.5144
 346  521.8059
 347  457.6743
 348  346.7732
 349  311.2101
 350  315.6355
 351  338.4127
 352  418.0649
 353  430.153
 354  380.7877
 355  522.0551
 356  416.8905
 357  419.1205
 358  437.8656
 359  440.8543
 360  598.7053
 361  539.8612
 362  515.3654
 363  547.1275
 364  454.9053
 365  413.4162
 366  462.3929
 367  559.552
 368  513.853
 369  367.8102
 370  461.4488
 371  438.904
 372  477.189
 373  463.6436
 374  494.3365
 375  504.5795
 376  423.6996
 377  428.2173
 378  495.2653
 379  399.6935
 380  429.9632
 381  561.2405
 382  466.3688
 383  352.5002
 384  293.3321
 385  449.6568
 386  379.4589
 387  487.3094
 388  509.4475
 389  467.04
 390  417.8027
 391  329.0644
 392  408.1863
 393  400.6027
 394  490.1892
 395  586.2825
 396  492.5733
 397  523.4157
 398  511.1694
 399  461.2515
 400  549.5314
 401  585.8157
 402  559.7473
 403  547.3294
 404  543.3544
 405  369.8159
 406  411.8689
 407  576.6284
 408  562.2617
 409  627.9579
 410  612.4167
 411  437.8271
 412  387.8217
 413  433.7569
 414  433.2276
 415  323.7071
 416  396.4303
 417  411.3059
 418  501.7081
 419  421.7001
 420  411.0457
 421  371.3663
 422  413.1166
 423  472.6759
 424  465.151
 425  464.9069
 426  483.6565
 427  522.1364
 428  353.9267
 429  312.2523
 430  309.9319
 431  375.3608
 432  232.6893
 433  244.6042
 434  249.8419
 435  300.4641
 436  361.3273
 437  360.4961
 438  410.9627
 439  358.819
 440  340.1367
 441  363.107
 442  251.9319
 443  289.7884
 444  270.7372
 445  309.7126
 446  314.1187
 447  375.8178
 448  264.2202
 449  349.0235
 450  376.1263
 451  378.5589
 452  399.2482
 453  363.7285
 454  386.4101
 455  409.9926
 456  464.8398
 457  295.3305
 458  277.2297
 459  320.3466
 460  384.2692
 461  328.874
 462  260.3016
 463  371.7767
 464  292.2452
 465  251.4372
 466  224.734
 467  314.8552
 468  206.1539
 469  231.7932
 470  366.4806
 471  339.7081
 472  314.6075
 473  359.7801
 474  345.0697
 475  173.3653
 476  135.437
 477  244.9381
 478  154.0225
 479  228.6968
 480  270.0434
 481  326.4984
 482  332.0226
 483  203.1555
 484  296.7109
 485  328.0168
 486  385.6423
 487  425.9125
 488  398.2603
 489  358.4523
 490  344.811
 491  366.6045
 492  482.7953
 493  398.5034
 494  458.2506
 495  379.8365
 496  338.7627
 497  368.1942
 498  353.5813
 499  345.9984
 500  374.9081
 501  439.7756
 502  488.1487
 503  548.3833
 504  449.0597
 505  525.7539
 506  555.5825
 507  424.9302
 508  408.4758
 509  499.0015
 510  619.0685
 511  841.2994
