# Input file       =  1180063718.097963_cleaned.dat
# Candidate        =  PSR_0332+5434
# Telescope        =  AR
# Epoch_topo       =  57902.144677059761
# Epoch_bary       =  N/A
# T_sample         =  0.002
# Data Folded      =  7208960
# Data Avg         =  0.0311415102719162
# Data StdDev      =  1.00001892886773 
# Profile Bins     =  512
# Profile Avg      =  438.496834389512 
# Profile StdDev   =  118.661421877374 
# Reduced chi-sqr  =  1.012
# Prob(Noise)      <  0.415   (~0.2 sigma)
# P_topo (ms)      =  714.519374458     +/- 0.000136
# P'_topo (s/s)    =  -0                +/- 7.29e-11
# P''_topo (s/s^2) =  0                 +/- 3.27e-14
# P_bary (ms)      =  N/A
# P'_bary (s/s)    =  N/A
# P''_bary (s/s^2) =  N/A
# P_orb (s)        =  N/A
# asin(i)/c (s)    =  N/A
# eccentricity     =  N/A
# w (rad)          =  N/A
# T_peri           =  N/A
######################################################
   0  437.6739
   1  481.1125
   2  538.7203
   3  443.7179
   4  344.9629
   5  378.4921
   6  431.4932
   7  401.5332
   8  396.5721
   9  426.3708
  10  533.6453
  11  558.9413
  12  515.6478
  13  499.5726
  14  456.1862
  15  414.6966
  16  515.2241
  17  505.0037
  18  416.1462
  19  360.5427
  20  545.1891
  21  450.4116
  22  398.5933
  23  400.7027
  24  430.3679
  25  359.0481
  26  450.8605
  27  506.4111
  28  499.469
  29  516.3626
  30  428.1192
  31  371.3677
  32  429.8391
  33  544.4923
  34  558.1522
  35  570.0498
  36  643.7424
  37  637.7447
  38  491.7946
  39  411.3326
  40  451.9617
  41  490.1147
  42  487.1221
  43  573.7274
  44  684.5779
  45  678.5002
  46  557.5735
  47  542.2036
  48  591.4048
  49  531.4146
  50  495.9983
  51  386.4868
  52  359.765
  53  365.6069
  54  392.693
  55  277.4879
  56  247.2329
  57  374.1794
  58  403.4175
  59  391.2663
  60  406.4778
  61  511.0482
  62  369.9333
  63  376.8228
  64  405.8635
  65  379.8474
  66  330.644
  67  333.5395
  68  464.6635
  69  374.8544
  70  360.6299
  71  448.6884
  72  430.8818
  73  523.5787
  74  355.2425
  75  343.5233
  76  284.1398
  77  339.3374
  78  603.4692
  79  599.5449
  80  387.7057
  81  498.4164
  82  555.8514
  83  443.8126
  84  463.3808
  85  451.4181
  86  493.6491
  87  532.2288
  88  492.1422
  89  510.3288
  90  539.9206
  91  530.3778
  92  517.7459
  93  561.1533
  94  488.2478
  95  496.1302
  96  503.1489
  97  399.8834
  98  425.2283
  99  547.8646
 100  533.9106
 101  518.4559
 102  528.7425
 103  432.233
 104  510.0232
 105  397.7995
 106  392.2674
 107  378.6857
 108  241.9762
 109  367.3987
 110  335.9655
 111  342.399
 112  385.4059
 113  424.6638
 114  377.985
 115  333.1901
 116  402.9783
 117  429.0753
 118  410.6496
 119  422.6463
 120  437.7658
 121  466.7903
 122  417.2071
 123  405.0504
 124  356.5946
 125  331.4661
 126  438.7083
 127  456.9683
 128  491.0299
 129  491.1764
 130  485.8227
 131  486.4456
 132  632.5598
 133  596.7638
 134  630.2395
 135  541.7223
 136  378.5977
 137  403.6956
 138  383.0093
 139  397.8844
 140  441.2782
 141  471.2746
 142  409.3428
 143  447.3157
 144  554.0015
 145  532.9402
 146  469.3352
 147  528.5425
 148  460.3971
 149  617.0699
 150  725.1011
 151  868.6548
 152  877.5495
 153  750.4741
 154  715.3232
 155  548.459
 156  355.1976
 157  428.7026
 158  398.7301
 159  374.4328
 160  434.4388
 161  507.3947
 162  486.2095
 163  517.6954
 164  535.1707
 165  490.3031
 166  547.7424
 167  548.5516
 168  490.3432
 169  448.2569
 170  421.3885
 171  433.5034
 172  526.5479
 173  555.6552
 174  505.6325
 175  500.3701
 176  495.9264
 177  524.6765
 178  459.9072
 179  533.7723
 180  503.924
 181  506.2448
 182  558.6116
 183  503.64
 184  528.7294
 185  472.3025
 186  417.232
 187  417.6281
 188  396.3933
 189  391.5959
 190  393.7246
 191  407.0762
 192  403.2367
 193  366.2901
 194  368.1487
 195  355.7377
 196  343.2381
 197  355.9073
 198  370.1754
 199  451.7488
 200  614.696
 201  460.5014
 202  442.9959
 203  443.0484
 204  393.936
 205  368.743
 206  355.4691
 207  447.3653
 208  514.1807
 209  467.7005
 210  437.8203
 211  416.0726
 212  459.4735
 213  487.7971
 214  496.926
 215  564.6624
 216  494.2171
 217  461.4812
 218  353.2595
 219  306.4704
 220  479.5526
 221  466.4477
 222  437.121
 223  452.2624
 224  412.4564
 225  449.4425
 226  306.4478
 227  374.9346
 228  483.7873
 229  469.4778
 230  414.2251
 231  365.9696
 232  427.2279
 233  458.6394
 234  461.1417
 235  427.3659
 236  405.4719
 237  349.9673
 238  353.6544
 239  468.2436
 240  462.0056
 241  470.5281
 242  337.3909
 243  441.1344
 244  507.7118
 245  435.6555
 246  309.2379
 247  349.2576
 248  455.6028
 249  442.9087
 250  537.9998
 251  453.9335
 252  443.4117
 253  394.5762
 254  369.5682
 255  415.2112
 256  388.4477
 257  437.6257
 258  348.5657
 259  391.8848
 260  339.3978
 261  356.3326
 262  374.2238
 263  414.4718
 264  595.4681
 265  545.4131
 266  488.8645
 267  526.5853
 268  364.1793
 269  202.373
 270  263.6556
 271  397.6445
 272  436.5006
 273  483.5872
 274  538.8321
 275  471.5919
 276  482.9767
 277  466.7744
 278  454.7348
 279  369.1621
 280  375.7604
 281  459.3299
 282  453.6105
 283  487.9263
 284  422.1789
 285  408.98
 286  389.6376
 287  388.6886
 288  301.5341
 289  364.1748
 290  330.4242
 291  359.8858
 292  458.4916
 293  301.9668
 294  331
 295  373.7796
 296  421.1805
 297  376.2096
 298  388.3161
 299  430.9604
 300  367.2862
 301  297.2111
 302  268.8441
 303  170.5264
 304  263.969
 305  334.0633
 306  385.8954
 307  372.2279
 308  433.4409
 309  363.106
 310  226.1072
 311  287.959
 312  328.7864
 313  420.9215
 314  394.4321
 315  460.0507
 316  441.8539
 317  411.6302
 318  514.9725
 319  415.431
 320  265.5637
 321  284.4315
 322  432.6398
 323  398.2548
 324  328.6014
 325  252.2787
 326  353.7459
 327  334.9818
 328  318.8819
 329  350.705
 330  382.1708
 331  467.3444
 332  418.0305
 333  385.1771
 334  246.7383
 335  271.7742
 336  322.52
 337  380.3983
 338  434.4073
 339  428.0832
 340  465.2557
 341  453.9684
 342  358.1481
 343  470.041
 344  387.1072
 345  418.9362
 346  412.1912
 347  363.2446
 348  437.2571
 349  419.7562
 350  322.0031
 351  358.5415
 352  378.96
 353  376.061
 354  377.1598
 355  387.9492
 356  435.4835
 357  397.8306
 358  514.5898
 359  358.9899
 360  378.2646
 361  538.3785
 362  407.4385
 363  414.1252
 364  416.9525
 365  461.2305
 366  422.6514
 367  444.7884
 368  399.9467
 369  320.4742
 370  351.416
 371  390.0394
 372  440.1729
 373  448.6877
 374  363.7879
 375  430.3412
 376  472.0594
 377  469.8711
 378  413.3069
 379  477.9764
 380  482.9442
 381  411.9515
 382  366.8758
 383  420.4688
 384  380.5525
 385  352.053
 386  355.7152
 387  327.8204
 388  334.5698
 389  515.8749
 390  521.4327
 391  425.9341
 392  319.3734
 393  375.6801
 394  416.8306
 395  372.5742
 396  550.8654
 397  528.0752
 398  506.6067
 399  473.2561
 400  564.0045
 401  581.1582
 402  434.9073
 403  353.1731
 404  500.0499
 405  464.4082
 406  517.2051
 407  493.4382
 408  445.2864
 409  438.9852
 410  373.4413
 411  537.8312
 412  582.0668
 413  491.865
 414  413.3352
 415  386.1887
 416  356.1191
 417  333.5817
 418  357.5172
 419  362.4408
 420  427.0093
 421  516.3705
 422  359.9933
 423  507.5248
 424  421.5259
 425  429.2628
 426  525.1071
 427  550.6277
 428  490.0874
 429  460.316
 430  474.6368
 431  506.1123
 432  532.6442
 433  521.1985
 434  581.682
 435  525.9895
 436  429.5855
 437  416.1283
 438  428.2652
 439  396.7896
 440  339.3986
 441  437.0624
 442  431.7018
 443  317.7327
 444  273.5703
 445  366.4991
 446  548.9837
 447  517.0627
 448  501.1203
 449  596.7053
 450  483.7048
 451  424.9065
 452  314.6313
 453  353.1329
 454  500.944
 455  533.6322
 456  518.4279
 457  453.4269
 458  390.926
 459  330.7804
 460  270.6823
 461  291.9127
 462  340.5936
 463  444.1847
 464  541.7949
 465  580.4338
 466  389.5772
 467  398.9022
 468  404.8685
 469  406.7653
 470  315.605
 471  362.6186
 472  391.1686
 473  378.5667
 474  406.8643
 475  420.8537
 476  504.9347
 477  506.0798
 478  432.0195
 479  387.0812
 480  421.1648
 481  494.6526
 482  529.4326
 483  480.0409
 484  449.4491
 485  470.89
 486  553.2851
 487  444.2977
 488  392.7363
 489  381.8828
 490  478.2112
 491  441.2487
 492  378.6384
 493  443.5293
 494  426.9341
 495  438.3077
 496  422.0416
 497  525.4137
 498  498.4045
 499  453.4144
 500  494.7147
 501  445.071
 502  490.8751
 503  443.8697
 504  299.7419
 505  432.9886
 506  495.5117
 507  578.2158
 508  588.0179
 509  470.4835
 510  515.3862
 511  473.8649
