# Input file       =  1180595367.128308_cleaned.dat
# Candidate        =  PSR_0332+5434
# Telescope        =  AR
# Epoch_topo       =  57908.298022318377
# Epoch_bary       =  N/A
# T_sample         =  0.002
# Data Folded      =  7340032
# Data Avg         =  0.0323288739220677
# Data StdDev      =  1.0001229964875  
# Profile Bins     =  512
# Profile Avg      =  463.000760008189 
# Profile StdDev   =  119.747763119678 
# Reduced chi-sqr  =  1.124
# Prob(Noise)      <  0.0268   (~1.9 sigma)
# P_topo (ms)      =  714.513376006919  +/- 0.000224
# P'_topo (s/s)    =  -0                +/- 1.18e-10
# P''_topo (s/s^2) =  0                 +/- 5.22e-14
# P_bary (ms)      =  N/A
# P'_bary (s/s)    =  N/A
# P''_bary (s/s^2) =  N/A
# P_orb (s)        =  N/A
# asin(i)/c (s)    =  N/A
# eccentricity     =  N/A
# w (rad)          =  N/A
# T_peri           =  N/A
######################################################
   0  966.8514
   1  906.5954
   2  815.7846
   3  642.6431
   4  519.6611
   5  397.7812
   6  471.9915
   7  403.2046
   8  503.955
   9  452.4781
  10  553.381
  11  540.1217
  12  538.8623
  13  555.3168
  14  450.05
  15  546.6916
  16  649.6238
  17  565.7012
  18  478.9996
  19  477.6488
  20  504.2477
  21  536.2912
  22  477.4304
  23  455.1868
  24  451.1793
  25  480.4866
  26  563.2471
  27  459.2411
  28  525.4697
  29  578.4778
  30  563.5286
  31  640.4951
  32  665.8055
  33  563.2989
  34  431.9132
  35  419.4474
  36  516.4004
  37  540.5604
  38  436.5866
  39  516.4032
  40  491.0614
  41  478.5605
  42  368.5216
  43  336.3362
  44  481.0536
  45  444.6894
  46  398.0736
  47  331.2844
  48  237.9655
  49  256.3907
  50  400.8831
  51  522.8767
  52  512.2653
  53  383.9525
  54  460.9523
  55  501.8896
  56  557.7349
  57  452.7971
  58  370.3628
  59  320.7129
  60  354.5244
  61  404.8861
  62  411.9217
  63  414.673
  64  473.3531
  65  400.0203
  66  318.3591
  67  373.3608
  68  490.5842
  69  481.2961
  70  471.2493
  71  275.424
  72  391.9652
  73  449.4541
  74  521.4899
  75  560.7748
  76  508.4215
  77  432.2974
  78  415.4559
  79  368.717
  80  311.6902
  81  504.3418
  82  578.2209
  83  424.778
  84  422.7871
  85  475.1771
  86  481.0691
  87  443.8182
  88  524.8857
  89  468.7242
  90  437.1582
  91  453.2897
  92  458.2605
  93  386.7255
  94  371.093
  95  464.9377
  96  433.876
  97  474.493
  98  497.8826
  99  595.0195
 100  518.9391
 101  485.0127
 102  475.9993
 103  507.2456
 104  449.8206
 105  453.0642
 106  418.9401
 107  504.1302
 108  516.8823
 109  501.4742
 110  563.0672
 111  580.9685
 112  532.0353
 113  516.4739
 114  423.3447
 115  496.8478
 116  483.6618
 117  480.7675
 118  436.7538
 119  478.673
 120  500.5233
 121  380.9101
 122  481.6872
 123  453.0714
 124  521.1471
 125  502.4059
 126  400.778
 127  454.7358
 128  279.0468
 129  354.0458
 130  397.5635
 131  318.7933
 132  424.2129
 133  500.074
 134  469.8162
 135  466.062
 136  438.8005
 137  314.3286
 138  343.1291
 139  480.1343
 140  504.7244
 141  478.5877
 142  456.4127
 143  477.9206
 144  295.1609
 145  372.9863
 146  308.0805
 147  310.0197
 148  360.2673
 149  387.6303
 150  496.4272
 151  450.5293
 152  317.0226
 153  368.8587
 154  416.3904
 155  444.0188
 156  481.444
 157  516.016
 158  394.2932
 159  417.4229
 160  466.6715
 161  452.1905
 162  543.5994
 163  504.3723
 164  420.4756
 165  491.0616
 166  402.374
 167  358.4231
 168  364.0262
 169  343.9307
 170  430.6927
 171  418.3532
 172  423.8552
 173  488.4056
 174  578.1359
 175  536.8473
 176  510.7258
 177  443.5333
 178  442.0644
 179  419.2391
 180  454.8876
 181  555.8426
 182  546.0936
 183  506.5369
 184  449.092
 185  426.2315
 186  380.1868
 187  431.5887
 188  495.9042
 189  544.5853
 190  369.3032
 191  409.2469
 192  426.6292
 193  421.8308
 194  452.4147
 195  447.9156
 196  518.5051
 197  645.9753
 198  610.7116
 199  453.4332
 200  411.8234
 201  293.4712
 202  399.0308
 203  452.942
 204  552.1179
 205  545.1837
 206  416.2607
 207  362.5851
 208  421.9505
 209  559.1041
 210  459.8505
 211  376.744
 212  421.2999
 213  465.3066
 214  458.1111
 215  445.6208
 216  431.05
 217  371.5801
 218  413.2217
 219  404.2302
 220  348.0629
 221  340.7402
 222  384.9335
 223  388.4107
 224  449.8996
 225  652.4097
 226  424.3126
 227  375.3855
 228  495.0019
 229  452.0383
 230  470.728
 231  434.6047
 232  515.8316
 233  455.8076
 234  445.6671
 235  354.5637
 236  375.1051
 237  388.0155
 238  455.7924
 239  465.4563
 240  573.7566
 241  567.6906
 242  494.8389
 243  481.4015
 244  454.0484
 245  433.6171
 246  510.7815
 247  590.5098
 248  596.0339
 249  514.7959
 250  464.5013
 251  498.818
 252  503.9957
 253  403.7256
 254  390.8997
 255  446.6829
 256  554.5034
 257  565.4991
 258  436.7545
 259  415.7608
 260  486.3134
 261  486.261
 262  435.9106
 263  465.298
 264  441.1472
 265  409.7831
 266  425.3601
 267  476.1939
 268  459.8246
 269  419.2789
 270  496.2918
 271  525.1088
 272  500.9761
 273  421.2693
 274  548.9088
 275  542.1436
 276  428.2552
 277  541.1385
 278  685.7241
 279  678.2482
 280  501.4045
 281  489.9486
 282  570.5916
 283  523.1165
 284  459.6236
 285  491.1332
 286  511.6759
 287  622.6328
 288  474.4109
 289  457.2745
 290  606.4413
 291  486.0876
 292  519.4683
 293  595.3381
 294  568.8885
 295  457.6986
 296  536.5275
 297  548.0332
 298  510.5398
 299  511.545
 300  373.4175
 301  483.2523
 302  400.2199
 303  315.8085
 304  355.7819
 305  367.4539
 306  356.8911
 307  376.3884
 308  284.235
 309  265.9002
 310  323.1774
 311  353.8384
 312  421.8719
 313  384.1169
 314  569.0363
 315  588.8777
 316  540.4847
 317  431.5083
 318  280.0196
 319  374.061
 320  480.2552
 321  507.3483
 322  496.76
 323  391.0399
 324  414.2922
 325  533.829
 326  569.4702
 327  473.5857
 328  464.8582
 329  569.8265
 330  405.1192
 331  392.8736
 332  509.1835
 333  563.0577
 334  566.5516
 335  518.0813
 336  432.8632
 337  407.6486
 338  347.2048
 339  324.2143
 340  380.5132
 341  487.8528
 342  535.4285
 343  434.0876
 344  334.4594
 345  433.3686
 346  492.9482
 347  455.3077
 348  320.2278
 349  341.3965
 350  343.2405
 351  438.5806
 352  472.4383
 353  556.4758
 354  527.2344
 355  455.9568
 356  438.9558
 357  319.6868
 358  426.0328
 359  508.6685
 360  461.7599
 361  541.5634
 362  463.5453
 363  358.5833
 364  450.4174
 365  500.8578
 366  502.6319
 367  436.4984
 368  379.786
 369  431.4687
 370  517.422
 371  429.1214
 372  468.42
 373  485.5462
 374  488.4394
 375  457.6393
 376  490.4634
 377  500.9853
 378  347.4995
 379  244.7762
 380  349.8086
 381  449.4273
 382  536.0781
 383  357.9516
 384  425.4358
 385  517.4755
 386  381.2785
 387  278.2603
 388  446.8609
 389  488.1916
 390  337.9362
 391  378.745
 392  311.5106
 393  376.3773
 394  424.812
 395  499.6122
 396  452.1092
 397  420.1125
 398  438.6934
 399  316.4261
 400  376.2073
 401  365.3569
 402  436.9314
 403  465.3794
 404  417.9533
 405  413.257
 406  385.5969
 407  454.8573
 408  582.7325
 409  505.015
 410  386.6891
 411  435.3045
 412  347.5822
 413  356.9727
 414  498.5133
 415  599.9698
 416  489.1747
 417  472.9103
 418  508.3919
 419  519.298
 420  527.1381
 421  487.8233
 422  469.8995
 423  448.3974
 424  446.7547
 425  408.112
 426  447.8411
 427  452.326
 428  524.5381
 429  549.0361
 430  624.0585
 431  495.8857
 432  475.0453
 433  485.8621
 434  496.8516
 435  440.3459
 436  443.0646
 437  486.7377
 438  444.2239
 439  428.9576
 440  334.0125
 441  311.3341
 442  321.4747
 443  304.0927
 444  424.4915
 445  453.4578
 446  396.2417
 447  499.1251
 448  483.8789
 449  513.6897
 450  540.0483
 451  522.163
 452  561.0531
 453  561.1891
 454  581.5995
 455  560.6099
 456  523.9586
 457  472.992
 458  544.1407
 459  608.6321
 460  651.9957
 461  584.8392
 462  545.3063
 463  491.562
 464  416.3992
 465  355.5637
 466  290.784
 467  409.8689
 468  408.8133
 469  425.3193
 470  435.342
 471  378.1424
 472  302.654
 473  409.1753
 474  393.6806
 475  384.1475
 476  356.6715
 477  226.6158
 478  398.2787
 479  369.0584
 480  323.5173
 481  385.7986
 482  387.5242
 483  391.7231
 484  397.4102
 485  382.9377
 486  427.5293
 487  432.3558
 488  469.0859
 489  560.2287
 490  485.6404
 491  444.7662
 492  478.9522
 493  565.7242
 494  537.9255
 495  559.3879
 496  495.4524
 497  564.7658
 498  526.1778
 499  493.6778
 500  554.1405
 501  519.9461
 502  500.161
 503  501.6907
 504  562.1747
 505  616.6326
 506  703.1918
 507  719.5798
 508  695.8247
 509  699.324
 510  812.2997
 511  953.6395
