# Input file       =  1180753068.109029_cleaned.dat
# Candidate        =  PSR_0332+5434
# Telescope        =  AR
# Epoch_topo       =  57910.123265150796
# Epoch_bary       =  N/A
# T_sample         =  0.002
# Data Folded      =  7143424
# Data Avg         =  0.0309779482298978
# Data StdDev      =  1.00003586073792 
# Profile Bins     =  512
# Profile Avg      =  432.19141882457  
# Profile StdDev   =  118.122820301469 
# Reduced chi-sqr  =  1.014
# Prob(Noise)      <  0.404   (~0.2 sigma)
# P_topo (ms)      =  714.511606141323  +/- 0.000538
# P'_topo (s/s)    =  -0                +/- 2.92e-10
# P''_topo (s/s^2) =  0                 +/- 1.32e-13
# P_bary (ms)      =  N/A
# P'_bary (s/s)    =  N/A
# P''_bary (s/s^2) =  N/A
# P_orb (s)        =  N/A
# asin(i)/c (s)    =  N/A
# eccentricity     =  N/A
# w (rad)          =  N/A
# T_peri           =  N/A
######################################################
   0  911.3544
   1  895.0669
   2  913.9775
   3  715.3223
   4  422.3071
   5  462.7272
   6  447.5665
   7  419.3592
   8  457.7776
   9  480.4135
  10  442.8197
  11  440.0516
  12  410.2981
  13  415.9211
  14  478.047
  15  480.1209
  16  416.1738
  17  387.2094
  18  389.305
  19  305.8156
  20  439.6629
  21  445.1317
  22  463.7629
  23  418.5354
  24  495.4879
  25  399.4332
  26  389.9864
  27  477.4499
  28  429.5601
  29  292.535
  30  459.2566
  31  553.6951
  32  482.1047
  33  453.2401
  34  479.5106
  35  488.4147
  36  418.2642
  37  523.2224
  38  509.0874
  39  511.5119
  40  441.5866
  41  359.9292
  42  419.9107
  43  418.234
  44  479.9458
  45  528.5406
  46  391.3571
  47  439.4728
  48  489.8731
  49  534.4705
  50  619.9648
  51  508.1286
  52  508.6767
  53  477.2026
  54  455.8831
  55  472.4182
  56  386.7629
  57  397.5417
  58  418.2236
  59  455.8935
  60  422.5921
  61  454.1243
  62  297.0322
  63  354.9286
  64  377.78
  65  484.4256
  66  432.908
  67  521.422
  68  470.5007
  69  445.139
  70  597.3228
  71  562.9534
  72  553.774
  73  348.6332
  74  309.8367
  75  371.6314
  76  363.0576
  77  498.5669
  78  388.9963
  79  479.3553
  80  413.1985
  81  410.982
  82  570.3936
  83  405.3882
  84  394.2029
  85  410.4791
  86  375.2021
  87  284.2752
  88  253.9475
  89  362.0643
  90  405.5929
  91  358.8123
  92  375.4623
  93  470.5751
  94  362.164
  95  278.0748
  96  240.4267
  97  314.6748
  98  445.895
  99  408.8987
 100  482.079
 101  430.2575
 102  554.3611
 103  481.8268
 104  393.0115
 105  343.5564
 106  455.7905
 107  473.3323
 108  397.8017
 109  472.8652
 110  363.0267
 111  400.3429
 112  400.3712
 113  388.5597
 114  482.9045
 115  499.8626
 116  475.4869
 117  429.819
 118  571.2869
 119  607.7553
 120  677.4018
 121  471.7497
 122  371.7957
 123  472.4636
 124  533.0159
 125  471.1052
 126  399.3167
 127  538.0062
 128  567.8796
 129  437.6158
 130  451.0182
 131  423.614
 132  453.609
 133  406.0697
 134  376.0214
 135  376.1468
 136  567.7023
 137  528.8308
 138  437.0729
 139  501.7597
 140  460.6137
 141  370.7932
 142  348.2916
 143  440.6591
 144  475.8192
 145  385.3765
 146  452.099
 147  486.9356
 148  444.8727
 149  449.2131
 150  464.9708
 151  387.1116
 152  349.3539
 153  394.9268
 154  302.2875
 155  365.0515
 156  393.718
 157  541.8543
 158  417.1572
 159  450.7505
 160  529.6418
 161  427.9372
 162  484.2153
 163  556.1231
 164  519.4929
 165  386.4966
 166  394.7253
 167  478.1589
 168  500.2392
 169  528.0316
 170  449.6198
 171  394.4586
 172  372.4635
 173  400.8551
 174  370.5977
 175  342.6279
 176  382.7728
 177  324.2385
 178  382.9293
 179  377.6884
 180  327.3988
 181  355.093
 182  365.8351
 183  350.3449
 184  377.5718
 185  437.5562
 186  459.4147
 187  417.4515
 188  365.261
 189  459.0048
 190  490.9651
 191  448.2944
 192  546.1177
 193  424.4197
 194  434.0562
 195  376.7536
 196  420.6438
 197  439.1136
 198  473.1197
 199  503.9092
 200  545.4118
 201  587.6093
 202  523.8462
 203  446.6211
 204  390.4302
 205  371.8289
 206  380.0601
 207  385.1182
 208  441.0131
 209  478.5602
 210  524.5906
 211  476.0849
 212  347.6902
 213  348.3118
 214  436.8294
 215  467.991
 216  397.2358
 217  324.502
 218  393.4148
 219  304.9926
 220  294.9733
 221  392.0249
 222  378.3556
 223  370.7293
 224  405.692
 225  347.5089
 226  206.9058
 227  338.6725
 228  300.467
 229  293.0616
 230  377.4432
 231  447.7766
 232  369.7783
 233  290.226
 234  333.683
 235  360.3991
 236  375.0668
 237  473.0766
 238  367.5931
 239  330.1805
 240  343.6783
 241  437.4773
 242  393.9549
 243  357.3441
 244  332.7793
 245  336.0373
 246  373.0184
 247  408.6329
 248  407.0679
 249  381.3148
 250  427.9959
 251  454.12
 252  476.5473
 253  509.8025
 254  556.3677
 255  454.9061
 256  457.0414
 257  399.3598
 258  338.3766
 259  503.1455
 260  455.1958
 261  346.2126
 262  431.1769
 263  522.2117
 264  530.1154
 265  424.1198
 266  368.7271
 267  373.4414
 268  379.4195
 269  409.597
 270  482.1438
 271  500.561
 272  416.9438
 273  473.7215
 274  492.7861
 275  552.035
 276  443.2961
 277  401.7343
 278  470.1751
 279  376.2842
 280  425.3799
 281  302.6703
 282  305.3858
 283  453.0611
 284  406.9926
 285  522.3916
 286  556.5163
 287  439.8339
 288  281.9619
 289  289.1651
 290  344.7721
 291  330.1475
 292  392.6786
 293  369.2823
 294  338.1186
 295  272.0925
 296  375.0679
 297  458.4958
 298  428.6792
 299  437.194
 300  524.8895
 301  532.7751
 302  442.638
 303  399.3841
 304  367.2093
 305  427.2924
 306  381.7454
 307  384.5529
 308  530.8331
 309  392.2834
 310  521.4396
 311  409.0891
 312  334.7531
 313  382.546
 314  339.2881
 315  481.5011
 316  402.9286
 317  491.1374
 318  493.3206
 319  319.8931
 320  274.1896
 321  331.1342
 322  377.4171
 323  382.7066
 324  423.5925
 325  420.571
 326  444.7064
 327  444.4387
 328  435.0466
 329  480.3881
 330  398.4525
 331  424.3175
 332  433.8924
 333  559.8366
 334  435.9291
 335  407.9846
 336  397.8458
 337  448.492
 338  455.1247
 339  421.0198
 340  445.8461
 341  417.0292
 342  429.7484
 343  512.0922
 344  508.166
 345  472.4575
 346  497.9004
 347  426.5482
 348  497.7213
 349  560.8168
 350  465.7937
 351  473.9785
 352  435.9926
 353  542.8017
 354  457.5022
 355  355.8274
 356  359.391
 357  394.985
 358  453.4016
 359  428.1103
 360  274.6233
 361  276.4482
 362  352.1215
 363  436.2696
 364  332.521
 365  413.8532
 366  357.6499
 367  371.9278
 368  417.5034
 369  418.0964
 370  453.7682
 371  335.0613
 372  412.4892
 373  440.9129
 374  354.2751
 375  402.9767
 376  456.4744
 377  456.7813
 378  379.1948
 379  347.0389
 380  400.0151
 381  447.9004
 382  438.0611
 383  470.4105
 384  453.6999
 385  413.8612
 386  398.6613
 387  330.6154
 388  462.9807
 389  522.0075
 390  518.5689
 391  538.1419
 392  461.8929
 393  523.3322
 394  513.4055
 395  469.1007
 396  419.2919
 397  389.3347
 398  420.4992
 399  463.6207
 400  463.6736
 401  420.3456
 402  435.5813
 403  444.8882
 404  450.3304
 405  344.9872
 406  356.5702
 407  488.1798
 408  521.939
 409  571.924
 410  523.0132
 411  467.7801
 412  610.6232
 413  634.0558
 414  407.3613
 415  417.8252
 416  485.8406
 417  466.0261
 418  486.6269
 419  433.8043
 420  452.1339
 421  394.3662
 422  409.7142
 423  456.12
 424  397.181
 425  425.756
 426  489.3721
 427  470.2274
 428  412.1268
 429  378.5794
 430  311.7438
 431  333.358
 432  364.7506
 433  409.7653
 434  319.8919
 435  235.5007
 436  283.9272
 437  350.088
 438  340.7858
 439  362.3536
 440  429.3392
 441  453.8345
 442  486.1486
 443  336.0078
 444  309.3563
 445  404.6809
 446  338.4996
 447  321.8514
 448  416.0708
 449  525.9974
 450  595.2648
 451  551.7555
 452  418.1702
 453  330.5375
 454  315.199
 455  390.3348
 456  401.7189
 457  272.2507
 458  441.7302
 459  427.2163
 460  333.8181
 461  295.6188
 462  399.4937
 463  410.8137
 464  269.0297
 465  442.3037
 466  501.6934
 467  436.3697
 468  405.3014
 469  411.9186
 470  400.6134
 471  437.727
 472  495.3371
 473  466.264
 474  406.1325
 475  429.2155
 476  411.6917
 477  328.265
 478  341.1527
 479  364.7574
 480  335.834
 481  371.4128
 482  504.0916
 483  500.6389
 484  340.3469
 485  348.3772
 486  418.3967
 487  448.4053
 488  391.2955
 489  368.2049
 490  422.8664
 491  377.6731
 492  513.5744
 493  557.449
 494  439.5934
 495  494.5616
 496  483.8589
 497  468.0541
 498  494.0392
 499  550.4189
 500  611.4496
 501  531.5663
 502  392.9214
 503  381.6812
 504  407.2914
 505  530.8307
 506  605.2295
 507  624.3224
 508  615.1308
 509  643.3272
 510  793.7886
 511  815.0002
