# Input file       =  1180078345.096534_cleaned.dat
# Candidate        =  PSR_0332+5434
# Telescope        =  AR
# Epoch_topo       =  57902.313971024698
# Epoch_bary       =  N/A
# T_sample         =  0.002
# Data Folded      =  7340032
# Data Avg         =  0.0297522460290202
# Data StdDev      =  1.00001623502849 
# Profile Bins     =  512
# Profile Avg      =  426.55338784274  
# Profile StdDev   =  119.734980246022 
# Reduced chi-sqr  =  1.158
# Prob(Noise)      <  0.00754   (~2.4 sigma)
# P_topo (ms)      =  714.519216824918  +/- 0.000205
# P'_topo (s/s)    =  -0                +/- 1.08e-10
# P''_topo (s/s^2) =  0                 +/- 4.79e-14
# P_bary (ms)      =  N/A
# P'_bary (s/s)    =  N/A
# P''_bary (s/s^2) =  N/A
# P_orb (s)        =  N/A
# asin(i)/c (s)    =  N/A
# eccentricity     =  N/A
# w (rad)          =  N/A
# T_peri           =  N/A
######################################################
   0  1001.519
   1  1004.629
   2  1000.298
   3  723.0952
   4  461.0989
   5  440.1585
   6  516.6547
   7  533.6267
   8  446.0024
   9  408.1908
  10  491.8104
  11  392.1837
  12  332.5123
  13  308.3495
  14  416.4231
  15  511.2067
  16  505.6687
  17  519.4916
  18  441.7147
  19  563.122
  20  506.3701
  21  364.2279
  22  371.8026
  23  237.3735
  24  320.2129
  25  463.7446
  26  415.0473
  27  459.0214
  28  481.5817
  29  302.7279
  30  331.1881
  31  468.5792
  32  421.2876
  33  389.6321
  34  439.2452
  35  485.8394
  36  400.8903
  37  425.164
  38  515.8956
  39  430.1717
  40  452.275
  41  455.2667
  42  433.4153
  43  268.0269
  44  316.5948
  45  374.3845
  46  416.7807
  47  358.2067
  48  322.831
  49  337.3109
  50  325.4111
  51  362.391
  52  418.197
  53  279.8408
  54  283.4559
  55  311.5113
  56  320.4741
  57  338.9845
  58  362.1018
  59  426.9967
  60  449.4616
  61  422.115
  62  397.223
  63  369.9403
  64  352.8442
  65  316.3596
  66  356.5338
  67  352.7408
  68  410.0396
  69  493.323
  70  412.4027
  71  421.4426
  72  643.9254
  73  519.1365
  74  477.0421
  75  498.8639
  76  443.0596
  77  507.2155
  78  420.7573
  79  458.5256
  80  536.3032
  81  431.2806
  82  338.1328
  83  311.8234
  84  454.5654
  85  407.9719
  86  309.9137
  87  434.148
  88  452.8347
  89  339.0146
  90  317.5127
  91  502.4094
  92  548.7626
  93  413.3475
  94  476.8929
  95  427.9224
  96  406.958
  97  479.5893
  98  484.9604
  99  488.4853
 100  411.6327
 101  431.4717
 102  408.9366
 103  429.3279
 104  475.7613
 105  536.9967
 106  511.4428
 107  514.3787
 108  492.4329
 109  483.8927
 110  491.223
 111  488.6237
 112  491.302
 113  333.164
 114  431.9031
 115  454.3649
 116  430.2462
 117  423.8927
 118  482.5861
 119  433.3368
 120  369.643
 121  389.1393
 122  425.1058
 123  411.1705
 124  494.3016
 125  442.2886
 126  276.563
 127  363.9705
 128  415.0762
 129  435.0919
 130  415.4769
 131  361.7284
 132  370.5763
 133  347.7487
 134  330.3488
 135  323.3601
 136  471.2415
 137  339.4137
 138  315.3804
 139  397.9423
 140  374.2269
 141  472.9675
 142  462.6484
 143  468.745
 144  433.8727
 145  411.6617
 146  423.1588
 147  407.9499
 148  398.9192
 149  378.7499
 150  313.5489
 151  418.5182
 152  377.8272
 153  326.4839
 154  285.3233
 155  278.3409
 156  325.7209
 157  371.3705
 158  303.2963
 159  211.5643
 160  371.2447
 161  395.5249
 162  406.2608
 163  475.8618
 164  486.6364
 165  390.3622
 166  299.3383
 167  309.4389
 168  523.1411
 169  514.7217
 170  369.6053
 171  294.6254
 172  293.1445
 173  361.7068
 174  410.6555
 175  531.688
 176  533.3215
 177  416.1362
 178  501.3816
 179  419.1438
 180  446.9943
 181  392.997
 182  494.9619
 183  489.6713
 184  295.43
 185  428.68
 186  431.8571
 187  381.7044
 188  298.8585
 189  397.3913
 190  408.7088
 191  422.8546
 192  269.4377
 193  312.963
 194  360.6891
 195  205.2286
 196  240.0086
 197  300.103
 198  336.8994
 199  279.231
 200  416.2449
 201  368.6865
 202  217.9968
 203  345.2684
 204  461.9906
 205  435.532
 206  390.2199
 207  355.0785
 208  438.1913
 209  459.4428
 210  327.5163
 211  372.4365
 212  465.6893
 213  434.545
 214  451.3688
 215  431.512
 216  408.0673
 217  446.682
 218  422.5621
 219  335.6644
 220  430.6124
 221  520.3406
 222  401.5637
 223  428.2407
 224  496.2199
 225  406.1761
 226  460.0095
 227  485.5427
 228  409.8434
 229  407.4848
 230  318.6352
 231  332.8096
 232  359.2637
 233  441.9551
 234  460.9111
 235  323.9422
 236  400.0303
 237  439.5197
 238  254.5089
 239  413.0924
 240  441.0579
 241  495.5384
 242  520.6064
 243  420.417
 244  372.347
 245  397.2863
 246  343.3529
 247  343.4839
 248  536.9723
 249  432.7913
 250  380.0439
 251  312.9116
 252  382.3193
 253  314.3816
 254  451.0393
 255  525.338
 256  511.9801
 257  422.1161
 258  411.0788
 259  428.5804
 260  468.8705
 261  400.8442
 262  360.1407
 263  383.1425
 264  353.0301
 265  333.2235
 266  301.6736
 267  380.8783
 268  422.9641
 269  406.9598
 270  340.3327
 271  329.4045
 272  482.9022
 273  548.0203
 274  335.5704
 275  389.0777
 276  427.1004
 277  451.6398
 278  387.7279
 279  289.2389
 280  406.5667
 281  419.6841
 282  514.7319
 283  444.7786
 284  355.4225
 285  353.3953
 286  317.2849
 287  387.4054
 288  382.3434
 289  428.1886
 290  454.3327
 291  321.3399
 292  270.1553
 293  288.8145
 294  379.7608
 295  339.7638
 296  302.7702
 297  471.9684
 298  391.8962
 299  270.0038
 300  374.0848
 301  414.9601
 302  269.1497
 303  452.368
 304  372.3436
 305  422.3256
 306  524.3069
 307  488.1899
 308  598.7661
 309  484.36
 310  461.6487
 311  699.9565
 312  598.1108
 313  500.5781
 314  548.3576
 315  534.2382
 316  501.1234
 317  428.3082
 318  377.3295
 319  414.5269
 320  385.4588
 321  438.4757
 322  492.9913
 323  539.9739
 324  447.449
 325  367.3965
 326  433.1565
 327  468.6235
 328  449.6185
 329  414.3427
 330  456.0305
 331  517.7103
 332  479.7271
 333  311.0493
 334  193.2271
 335  277.1101
 336  343.2002
 337  418.7942
 338  384.9381
 339  349.7706
 340  292.0361
 341  366.0719
 342  462.8163
 343  454.6379
 344  404.3055
 345  437.7188
 346  404.8394
 347  569.7218
 348  594.1667
 349  468.17
 350  420.7858
 351  395.1565
 352  402.2478
 353  319.6334
 354  344.8894
 355  390.0958
 356  384.2516
 357  372.2701
 358  351.4874
 359  374.5049
 360  438.5909
 361  417.7045
 362  394.4971
 363  426.9515
 364  488.662
 365  367.8058
 366  362.0785
 367  428.5586
 368  331.7975
 369  401.075
 370  481.6313
 371  494.9178
 372  387.8629
 373  388.281
 374  409.1475
 375  421.6649
 376  531.8834
 377  496.3683
 378  493.6292
 379  515.9847
 380  422.4401
 381  385.3739
 382  481.6283
 383  519.4294
 384  359.7846
 385  423.1989
 386  424.5908
 387  432.3949
 388  406.4099
 389  429.6553
 390  526.95
 391  532.0187
 392  507.3284
 393  448.9874
 394  375.5076
 395  449.2402
 396  401.4695
 397  444.771
 398  447.7628
 399  454.5181
 400  441.5308
 401  411.4668
 402  396.9486
 403  457.1209
 404  467.811
 405  532.7945
 406  489.7201
 407  424.716
 408  339.3785
 409  385.148
 410  643.4852
 411  566.7351
 412  421.4848
 413  464.804
 414  495.7343
 415  501.8588
 416  571.5682
 417  647.0984
 418  556.4711
 419  518.6898
 420  498.9058
 421  395.2348
 422  232.3672
 423  383.4303
 424  499.6954
 425  497.876
 426  239.9665
 427  432.994
 428  520.9813
 429  408.8153
 430  340.041
 431  525.5095
 432  509.6318
 433  387.9215
 434  331.4096
 435  431.0828
 436  484.4309
 437  420.7352
 438  524.8633
 439  506.5061
 440  456.1072
 441  386.8817
 442  425.5721
 443  463.0299
 444  512.1002
 445  525.4404
 446  429.965
 447  453.3666
 448  443.7077
 449  465.197
 450  360.2925
 451  343.6137
 452  371.2352
 453  390.4297
 454  464.3134
 455  455.7975
 456  409.7288
 457  382.3285
 458  362.3076
 459  373.8173
 460  426.7283
 461  347.7234
 462  547.8993
 463  540.5468
 464  499.8317
 465  455.2218
 466  514.1594
 467  406.8706
 468  430.3956
 469  450.6736
 470  575.4526
 471  592.673
 472  452.6656
 473  409.5397
 474  464.5406
 475  461.8506
 476  502.4781
 477  514.826
 478  544.1725
 479  484.7739
 480  568.6423
 481  419.8066
 482  488.3655
 483  541.4373
 484  478.7478
 485  419.9871
 486  438.5076
 487  365.3685
 488  356.7435
 489  524.6922
 490  524.6629
 491  570.9331
 492  443.3435
 493  532.093
 494  582.576
 495  543.514
 496  443.2833
 497  350.8104
 498  395.8528
 499  280.9321
 500  383.8114
 501  372.5878
 502  374.28
 503  315.6695
 504  382.3106
 505  449.4567
 506  446.9761
 507  525.5091
 508  492.3279
 509  509.3501
 510  736.5223
 511  928.2054
