# Input file       =  1180164504.097987_cleaned.dat
# Candidate        =  PSR_0332+5434
# Telescope        =  AR
# Epoch_topo       =  57903.311181689663
# Epoch_bary       =  N/A
# T_sample         =  0.002
# Data Folded      =  7340032
# Data Avg         =  0.0306486489395871
# Data StdDev      =  1.00020111974769 
# Profile Bins     =  512
# Profile Avg      =  439.402627337668 
# Profile StdDev   =  119.757117054832 
# Reduced chi-sqr  =  1.300
# Prob(Noise)      <  5.13e-06   (~4.4 sigma)
# P_topo (ms)      =  714.518235987711  +/- 0.000225
# P'_topo (s/s)    =  -0                +/- 1.19e-10
# P''_topo (s/s^2) =  0                 +/- 5.23e-14
# P_bary (ms)      =  N/A
# P'_bary (s/s)    =  N/A
# P''_bary (s/s^2) =  N/A
# P_orb (s)        =  N/A
# asin(i)/c (s)    =  N/A
# eccentricity     =  N/A
# w (rad)          =  N/A
# T_peri           =  N/A
######################################################
   0  1004.935
   1  974.6322
   2  787.357
   3  582.3123
   4  461.9368
   5  438.5526
   6  350.4778
   7  255.232
   8  272.0186
   9  247.2322
  10  327.48
  11  328.611
  12  444.5335
  13  452.8675
  14  386.5001
  15  348.2743
  16  447.3992
  17  438.2401
  18  381.1713
  19  321.5393
  20  340.2502
  21  213.2388
  22  318.2665
  23  410.1365
  24  455.4907
  25  367.369
  26  379.3799
  27  427.5702
  28  334.4614
  29  443.1647
  30  559.0892
  31  341.7452
  32  455.9092
  33  588.1058
  34  587.6579
  35  501.5428
  36  602.7897
  37  654.8287
  38  618.0495
  39  665.8911
  40  544.8191
  41  584.9998
  42  575.7955
  43  562.7245
  44  603.2698
  45  510.7407
  46  499.8545
  47  478.4367
  48  442.5095
  49  489.5231
  50  566.7183
  51  465.8236
  52  488.7549
  53  394.666
  54  421.1902
  55  370.1696
  56  324.2133
  57  401.2627
  58  372.6152
  59  329.194
  60  221.6632
  61  281.1818
  62  322.0354
  63  436.6349
  64  427.5219
  65  391.8398
  66  322.7144
  67  387.4159
  68  446.0887
  69  382.0947
  70  364.5167
  71  392.0398
  72  382.0099
  73  376.3856
  74  393.9972
  75  403.632
  76  461.7699
  77  477.262
  78  514.4115
  79  527.5884
  80  554.5865
  81  506.3052
  82  359.7042
  83  335.0986
  84  381.0259
  85  450.0608
  86  529.9125
  87  416.2737
  88  427.3044
  89  466.7796
  90  402.4262
  91  423.5402
  92  454.3493
  93  508.421
  94  524.3375
  95  526.5727
  96  486.1674
  97  536.197
  98  567.261
  99  492.7063
 100  412.9083
 101  412.1785
 102  472.6951
 103  455.267
 104  375.6558
 105  356.4824
 106  448.7112
 107  535.0774
 108  453.6053
 109  413.1714
 110  376.9508
 111  316.813
 112  284.8952
 113  313.6782
 114  359.145
 115  377.9225
 116  434.5417
 117  402.4055
 118  463.9501
 119  379.7054
 120  477.3926
 121  529.9012
 122  517.2423
 123  414.4708
 124  422.1681
 125  542.6039
 126  634.1597
 127  629.5923
 128  585.4175
 129  452.0815
 130  502.5294
 131  475.0342
 132  484.2842
 133  436.243
 134  389.2882
 135  354.807
 136  339.6342
 137  365.8432
 138  376.0137
 139  429.6069
 140  452.2446
 141  513.7559
 142  460.4316
 143  479.0833
 144  376.1267
 145  349.8536
 146  426.9901
 147  347.6954
 148  221.9943
 149  318.9411
 150  446.1716
 151  307.1226
 152  365.1985
 153  502.3772
 154  393.9584
 155  384.5902
 156  396.6198
 157  408.288
 158  328.0563
 159  284.6342
 160  434.3126
 161  391.2961
 162  403.1684
 163  447.6024
 164  444.103
 165  433.0852
 166  483.3616
 167  499.2491
 168  486.2333
 169  361.8308
 170  406.8556
 171  390.1814
 172  452.3093
 173  518.0007
 174  549.6783
 175  497.7041
 176  480.1374
 177  448.3735
 178  522.2359
 179  489.8108
 180  402.0193
 181  411.1058
 182  410.129
 183  519.7123
 184  420.3538
 185  434.5436
 186  456.8116
 187  563.1466
 188  526.906
 189  379.3541
 190  323.2448
 191  244.0936
 192  211.1781
 193  309.0237
 194  356.1866
 195  420.2359
 196  274.5497
 197  250.2903
 198  389.7666
 199  373.1924
 200  391.809
 201  334.6375
 202  364.233
 203  354.6542
 204  421.0213
 205  389.5962
 206  354.5853
 207  335.6018
 208  290.2754
 209  437.6772
 210  390.5627
 211  364.6465
 212  310.3362
 213  370.0527
 214  403.3342
 215  390.7083
 216  402.9662
 217  353.912
 218  313.3503
 219  274.717
 220  422.746
 221  399.414
 222  331.2441
 223  409.7842
 224  512.8849
 225  553.0068
 226  536.8083
 227  456.4796
 228  402.0782
 229  387.5715
 230  349.7864
 231  323.493
 232  292.2955
 233  347.2614
 234  386.8273
 235  427.8531
 236  449.6384
 237  445.7595
 238  382.085
 239  476.2401
 240  464.391
 241  479.3501
 242  510.2357
 243  521.4052
 244  535.5168
 245  508.0177
 246  442.8513
 247  449.3711
 248  495.514
 249  543.8765
 250  444.4954
 251  403.4947
 252  525.5308
 253  625.5587
 254  569.5367
 255  526.5735
 256  486.906
 257  459.301
 258  571.3375
 259  591.754
 260  531.7964
 261  435.9813
 262  475.7981
 263  672.1782
 264  531.9496
 265  526.9869
 266  544.2161
 267  468.5689
 268  396.9647
 269  433.8326
 270  320.1573
 271  343.9203
 272  382.5007
 273  461.8022
 274  488.9131
 275  404.9863
 276  357.4691
 277  351.3654
 278  412.866
 279  360.2699
 280  468.7964
 281  542.5145
 282  420.1172
 283  298.8049
 284  379.1275
 285  448.6746
 286  421.2343
 287  454.3271
 288  519.9263
 289  370.5526
 290  427.738
 291  491.2202
 292  442.5763
 293  481.4469
 294  458.3875
 295  385.0299
 296  386.3783
 297  438.7419
 298  466.6838
 299  471.5543
 300  446.798
 301  357.3462
 302  429.523
 303  441.3811
 304  568.5021
 305  395.2182
 306  453.7552
 307  359.6713
 308  432.7975
 309  562.2379
 310  486.3797
 311  536.9354
 312  409.4662
 313  328.1054
 314  304.3609
 315  235.4384
 316  317.834
 317  355.7243
 318  343.935
 319  493.6333
 320  414.1269
 321  437.4265
 322  343.2541
 323  318.0444
 324  315.8543
 325  316.3538
 326  447.4373
 327  437.3398
 328  337.1283
 329  357.8141
 330  317.3345
 331  275.3294
 332  362.7352
 333  422.1007
 334  430.0886
 335  469.3055
 336  455.623
 337  460.3544
 338  344.536
 339  314.4526
 340  384.1966
 341  441.6845
 342  473.8391
 343  498.8325
 344  360.3674
 345  349.8044
 346  402.7551
 347  465.5327
 348  560.515
 349  422.2252
 350  250.688
 351  329.707
 352  361.7223
 353  369.8612
 354  238.2632
 355  351.7831
 356  379.0647
 357  264.5382
 358  312.9335
 359  386.4362
 360  324.0671
 361  272.9541
 362  350.773
 363  366.1061
 364  435.8489
 365  375.26
 366  404.2376
 367  441.1633
 368  416.4182
 369  451.5911
 370  517.6641
 371  467.4191
 372  561.8908
 373  637.3287
 374  593.5858
 375  459.7182
 376  468.793
 377  506.5133
 378  440.3653
 379  510.8283
 380  539.4788
 381  528.7816
 382  397.4558
 383  326.5514
 384  362.1066
 385  411.8089
 386  456.4678
 387  467.2288
 388  384.6834
 389  424.493
 390  569.4767
 391  578.3638
 392  487.4857
 393  522.7721
 394  511.8942
 395  461.351
 396  362.1434
 397  413.3655
 398  447.7067
 399  507.0306
 400  437.006
 401  431.3856
 402  442.765
 403  388.9382
 404  401.3954
 405  388.2058
 406  416.6826
 407  435.5192
 408  485.5475
 409  468.2276
 410  547.4312
 411  411.8618
 412  356.2918
 413  565.6481
 414  538.0252
 415  427.4234
 416  377.3215
 417  448.5452
 418  429.1587
 419  398.7986
 420  444.9407
 421  609.7648
 422  365.3558
 423  363.2838
 424  352.2193
 425  403.435
 426  447.2276
 427  506.468
 428  621.3435
 429  530.7576
 430  368.2972
 431  470.6706
 432  573.4086
 433  457.8877
 434  427.2511
 435  511.3036
 436  487.1326
 437  408.5927
 438  433.2953
 439  344.7158
 440  272.1701
 441  383.1921
 442  380.1409
 443  371.3954
 444  407.7883
 445  469.0324
 446  395.5698
 447  250.6852
 448  318.3167
 449  532.1461
 450  603.8428
 451  551.2413
 452  555.0871
 453  568.9395
 454  507.2364
 455  564.308
 456  608.1012
 457  584.0976
 458  489.7367
 459  452.8936
 460  522.8304
 461  562.695
 462  656.626
 463  519.9159
 464  393.1935
 465  471.4309
 466  494.7138
 467  477.9695
 468  412.1497
 469  486.0147
 470  497.1109
 471  560.6976
 472  655.3901
 473  641.0143
 474  526.7379
 475  567.9782
 476  476.3261
 477  407.0414
 478  442.8147
 479  402.9815
 480  491.6909
 481  561.6829
 482  562.12
 483  513.195
 484  494.2948
 485  482.5396
 486  394.6428
 487  385.9005
 488  426.6711
 489  351.8336
 490  361.3032
 491  435.276
 492  477.274
 493  393.2023
 494  526.8058
 495  572.8414
 496  465.6855
 497  449.0009
 498  459.9371
 499  255.3714
 500  294.9413
 501  501.0756
 502  487.1203
 503  314.649
 504  410.7043
 505  435.5776
 506  495.8711
 507  466.3737
 508  522.0486
 509  644.1033
 510  863.8135
 511  945.6681
