# Input file       =  1180524139.099545_cleaned.dat
# Candidate        =  PSR_0332+5434
# Telescope        =  AR
# Epoch_topo       =  57907.473623837330
# Epoch_bary       =  N/A
# T_sample         =  0.002
# Data Folded      =  7340032
# Data Avg         =  0.0270639371956151
# Data StdDev      =  1.00008471587305 
# Profile Bins     =  512
# Profile Avg      =  388.003776395459 
# Profile StdDev   =  119.743179665475 
# Reduced chi-sqr  =  1.166
# Prob(Noise)      <  0.00562   (~2.5 sigma)
# P_topo (ms)      =  714.514508305525  +/- 0.00051
# P'_topo (s/s)    =  -0                +/- 2.69e-10
# P''_topo (s/s^2) =  0                 +/- 1.19e-13
# P_bary (ms)      =  N/A
# P'_bary (s/s)    =  N/A
# P''_bary (s/s^2) =  N/A
# P_orb (s)        =  N/A
# asin(i)/c (s)    =  N/A
# eccentricity     =  N/A
# w (rad)          =  N/A
# T_peri           =  N/A
######################################################
   0  805.8073
   1  713.8816
   2  659.1885
   3  633.7833
   4  532.9924
   5  384.8794
   6  355.5346
   7  391.452
   8  384.4411
   9  366.6445
  10  365.8905
  11  384.8437
  12  388.2581
  13  378.6472
  14  401.6173
  15  279.4557
  16  203.9288
  17  293.0062
  18  433.0004
  19  270.2395
  20  353.7908
  21  301.9319
  22  332.9817
  23  391.0847
  24  448.7139
  25  378.5845
  26  379.142
  27  502.3739
  28  452.8433
  29  338.4288
  30  344.9041
  31  375.006
  32  256.0768
  33  106.5304
  34  243.7209
  35  335.7047
  36  350.9898
  37  332.0658
  38  211.3895
  39  290.4702
  40  389.6488
  41  459.2527
  42  439.5883
  43  374.2708
  44  260.6729
  45  265.3755
  46  462.7375
  47  346.1464
  48  252.8067
  49  412.277
  50  427.0052
  51  325.4055
  52  257.0447
  53  366.3134
  54  347.483
  55  350.0222
  56  371.9312
  57  384.3481
  58  374.6212
  59  415.8206
  60  441.8122
  61  299.8322
  62  332.6189
  63  275.3403
  64  489.9179
  65  563.2191
  66  348.9117
  67  422.4985
  68  422.394
  69  421.665
  70  343.5965
  71  369.9022
  72  455.5997
  73  436.951
  74  377.5841
  75  395.6251
  76  399.4888
  77  394.3197
  78  474.6883
  79  498.096
  80  448.2018
  81  329.4699
  82  365.3697
  83  415.6584
  84  324.925
  85  341.0593
  86  419.0641
  87  430.1063
  88  381.2574
  89  391.641
  90  387.4582
  91  398.1552
  92  274.705
  93  271.3426
  94  331.6256
  95  486.9791
  96  424.1867
  97  509.4987
  98  477.2161
  99  332.036
 100  370.656
 101  473.73
 102  567.1485
 103  551.6547
 104  450.9657
 105  363.0743
 106  444.3835
 107  485.0895
 108  451.4834
 109  453.3324
 110  476.9199
 111  505.9019
 112  548.317
 113  579.7292
 114  563.0844
 115  417.0246
 116  384.2563
 117  400.5173
 118  521.7145
 119  449.8779
 120  373.5681
 121  354.5028
 122  237.7889
 123  343.1979
 124  382.5004
 125  425.7965
 126  531.7227
 127  346.4413
 128  394.745
 129  333.683
 130  281.0463
 131  345.3155
 132  357.374
 133  357.8198
 134  405.9895
 135  416.5166
 136  418.6536
 137  422.3172
 138  362.7571
 139  452.8999
 140  413.1716
 141  321.9458
 142  452.3401
 143  581.0993
 144  533.064
 145  357.8906
 146  303.3773
 147  320.8084
 148  326.427
 149  315.9528
 150  310.6974
 151  382.706
 152  368.092
 153  289.8828
 154  269.2642
 155  358.3137
 156  336.7068
 157  363.4677
 158  407.5266
 159  332.4073
 160  274.0277
 161  423.5777
 162  446.3387
 163  361.4192
 164  321.8549
 165  456.2252
 166  421.2545
 167  477.9273
 168  506.8639
 169  506.4902
 170  390.4832
 171  340.7161
 172  417.8645
 173  487.325
 174  440.2624
 175  330.8997
 176  208.4157
 177  248.5009
 178  243.5602
 179  220.2856
 180  268.1963
 181  360.6208
 182  433.8932
 183  308.2422
 184  298.1344
 185  308.7251
 186  388.7855
 187  360.689
 188  290.2469
 189  297.416
 190  294.0612
 191  296.237
 192  373.7819
 193  314.9835
 194  259.6459
 195  381.1976
 196  328.1151
 197  357.6408
 198  392.4899
 199  426.569
 200  319.9561
 201  413.6677
 202  327.1282
 203  404.7993
 204  437.2536
 205  301.259
 206  254.9036
 207  312.1884
 208  416.4423
 209  419.1228
 210  362.1664
 211  376.9599
 212  406.9085
 213  378.2212
 214  334.1266
 215  224.6356
 216  476.0815
 217  519.9862
 218  408.5189
 219  367.8502
 220  250.6571
 221  341.0543
 222  401.1019
 223  458.0576
 224  376.1951
 225  385.1431
 226  310.5821
 227  299.705
 228  418.1677
 229  365.6469
 230  381.099
 231  488.9815
 232  400.4052
 233  356.9103
 234  452.8474
 235  453.8802
 236  377.6616
 237  351.2663
 238  460.4761
 239  622.1151
 240  529.662
 241  469.2873
 242  403.2913
 243  425.3489
 244  439.9338
 245  391.9149
 246  317.139
 247  372.0584
 248  394.0084
 249  420.161
 250  297.8552
 251  316.7682
 252  342.6817
 253  348.7522
 254  355.369
 255  333.9745
 256  446.1784
 257  450.5634
 258  511.5319
 259  539.1441
 260  398.4165
 261  346.7488
 262  458.1306
 263  409.0374
 264  353.3237
 265  342.5921
 266  234.8445
 267  218.6041
 268  296.944
 269  330.7184
 270  249.0241
 271  269.0685
 272  423.6654
 273  364.1808
 274  420.1069
 275  479.2469
 276  327.866
 277  373.3453
 278  374.7048
 279  382.7133
 280  294.6784
 281  406.6178
 282  412.0007
 283  434.2881
 284  412.0042
 285  371.2535
 286  283.5589
 287  213.0562
 288  411.7466
 289  441.3152
 290  299.8615
 291  344.4711
 292  357.4715
 293  301.4161
 294  362.0172
 295  315.475
 296  280.8163
 297  268.8846
 298  299.7639
 299  316.4414
 300  319.0667
 301  305.3155
 302  361.3916
 303  287.6294
 304  409.5998
 305  274.1277
 306  91.15199
 307  159.6822
 308  276.825
 309  362.4158
 310  378.7392
 311  262.19
 312  144.2393
 313  246.7383
 314  285.7975
 315  353.1707
 316  400.644
 317  387.1259
 318  485.4325
 319  445.3985
 320  387.4021
 321  435.7716
 322  463.272
 323  513.006
 324  595.1766
 325  568.5542
 326  501.9395
 327  531.0152
 328  509.3229
 329  367.9268
 330  358.3376
 331  378.7696
 332  398.6774
 333  410.698
 334  426.4257
 335  480.7203
 336  365.708
 337  363.4536
 338  423.0567
 339  401.927
 340  272.6512
 341  268.2997
 342  222.5445
 343  386.4351
 344  418.1901
 345  452.4759
 346  484.4386
 347  508.2858
 348  411.8973
 349  330.2183
 350  314.6884
 351  320.0429
 352  371.7211
 353  445.468
 354  378.3182
 355  446.1518
 356  502.1869
 357  387.1651
 358  444.2641
 359  420.1091
 360  514.751
 361  596.8067
 362  507.3903
 363  544.3745
 364  515.9945
 365  419.1245
 366  417.4043
 367  507.2003
 368  568.5268
 369  447.8534
 370  379.8046
 371  479.8121
 372  424.5059
 373  495.9515
 374  469.9419
 375  515.4171
 376  456.1887
 377  409.2503
 378  467.2781
 379  489.1198
 380  373.2621
 381  495.1115
 382  534.4719
 383  413.962
 384  317.9976
 385  358.7928
 386  436.1765
 387  400.2406
 388  519.8464
 389  494.8582
 390  447.5976
 391  354.4427
 392  363.2426
 393  403.2561
 394  422.6968
 395  544.2717
 396  562.8774
 397  471.8679
 398  551.3095
 399  471.2099
 400  502.4762
 401  573.4086
 402  582.1086
 403  531.7161
 404  573.0743
 405  476.7169
 406  344.958
 407  501.7781
 408  567.6118
 409  582.1888
 410  645.2528
 411  557.8297
 412  374.7482
 413  423.6554
 414  430.0438
 415  401.9023
 416  324.024
 417  417.3607
 418  452.2045
 419  489.6883
 420  394.0627
 421  400.3092
 422  362.231
 423  457.6696
 424  464.787
 425  474.9218
 426  446.2826
 427  525.3799
 428  453.0956
 429  332.5473
 430  287.1233
 431  358.702
 432  309.2378
 433  234.2197
 434  246.2766
 435  268.5411
 436  339.5083
 437  355.3098
 438  378.7759
 439  400.4807
 440  331.1212
 441  372.5605
 442  316.3829
 443  259.1022
 444  290.0353
 445  276.0298
 446  313.4334
 447  345.6092
 448  328.9499
 449  286.1108
 450  390.7667
 451  354.5014
 452  402.3774
 453  363.0615
 454  385.5393
 455  386.0093
 456  454.4401
 457  405.786
 458  261.7487
 459  293.6335
 460  341.9937
 461  388.7416
 462  275.2982
 463  317.9359
 464  346.9057
 465  271.615
 466  212.8224
 467  283.3985
 468  266.0234
 469  197.924
 470  300.4176
 471  372.5147
 472  317.4788
 473  318.008
 474  380.8531
 475  257.2844
 476  139.2231
 477  190.5907
 478  222.3427
 479  165.1106
 480  265.4716
 481  278.3496
 482  356.5324
 483  251.7271
 484  241.0011
 485  314.2273
 486  349.3432
 487  412.2685
 488  420.3792
 489  371.6985
 490  365.0096
 491  336.7699
 492  442.8778
 493  429.0208
 494  428.7675
 495  431.5682
 496  353.8992
 497  353.363
 498  353.0575
 499  362.0966
 500  355.6278
 501  406.635
 502  453.4956
 503  513.9252
 504  514.0129
 505  463.5518
 506  573.0123
 507  498.218
 508  384.3558
 509  450.8999
 510  530.4101
 511  749.0973
