# Input file       =  1180437945.13237_cleaned.dat
# Candidate        =  PSR_0332+5434
# Telescope        =  AR
# Epoch_topo       =  57906.476008476508
# Epoch_bary       =  N/A
# T_sample         =  0.002
# Data Folded      =  7340032
# Data Avg         =  0.025055837897649
# Data StdDev      =  1.00003373916079 
# Profile Bins     =  512
# Profile Avg      =  359.216382755182 
# Profile StdDev   =  119.737076068933 
# Reduced chi-sqr  =  1.192
# Prob(Noise)      <  0.00178   (~2.9 sigma)
# P_topo (ms)      =  714.515476406457  +/- 0.000202
# P'_topo (s/s)    =  -0                +/- 1.07e-10
# P''_topo (s/s^2) =  0                 +/- 4.71e-14
# P_bary (ms)      =  N/A
# P'_bary (s/s)    =  N/A
# P''_bary (s/s^2) =  N/A
# P_orb (s)        =  N/A
# asin(i)/c (s)    =  N/A
# eccentricity     =  N/A
# w (rad)          =  N/A
# T_peri           =  N/A
######################################################
   0  737.7106
   1  825.034
   2  765.5788
   3  474.9636
   4  391.1618
   5  490.948
   6  511.2243
   7  442.9816
   8  311.4074
   9  311.477
  10  288.3496
  11  331.9775
  12  297.5149
  13  265.1975
  14  259.7853
  15  279.5434
  16  335.1188
  17  368.422
  18  361.5291
  19  415.6274
  20  300.1455
  21  346.9003
  22  320.9421
  23  209.3653
  24  260.714
  25  312.242
  26  275.7093
  27  131.3907
  28  189.2115
  29  344.4567
  30  361.428
  31  348.7157
  32  284.4269
  33  319.9706
  34  290.9419
  35  397.7926
  36  466.3413
  37  432.5483
  38  370.4781
  39  433.4377
  40  434.8689
  41  340.27
  42  191.1705
  43  306.9069
  44  352.5142
  45  332.0243
  46  330.345
  47  253.628
  48  279.9559
  49  416.5544
  50  422.2204
  51  348.8193
  52  286.1774
  53  382.7027
  54  352.2431
  55  301.6295
  56  278.8265
  57  202.3728
  58  310.4325
  59  466.132
  60  471.2628
  61  391.8494
  62  306.6067
  63  232.7261
  64  318.6475
  65  409.1206
  66  409.1581
  67  285.9388
  68  282.9333
  69  257.7541
  70  346.6331
  71  223.4921
  72  281.9271
  73  332.677
  74  342.2426
  75  179.574
  76  201.4737
  77  280.0358
  78  305.0825
  79  262.2787
  80  243.3537
  81  142.1873
  82  242.9882
  83  345.2477
  84  365.5181
  85  326.6181
  86  324.8356
  87  483.1027
  88  435.9108
  89  440.1762
  90  333.5076
  91  344.3031
  92  292.2
  93  282.0542
  94  387.1649
  95  429.7817
  96  309.0741
  97  372.4896
  98  350.715
  99  272.8242
 100  313.6553
 101  321.0795
 102  388.8431
 103  458.0152
 104  413.1948
 105  191.0495
 106  181.9677
 107  216.2658
 108  335.4655
 109  365.3416
 110  182.0049
 111  224.6252
 112  163.1229
 113  256.9034
 114  281.6886
 115  322.2724
 116  310.5419
 117  240.8452
 118  297.2648
 119  326.0659
 120  408.8264
 121  493.622
 122  399.6525
 123  268.0991
 124  253.0854
 125  392.6893
 126  455.4937
 127  414.1461
 128  339.9264
 129  403.0994
 130  398.825
 131  434.0595
 132  329.4418
 133  333.4303
 134  385.7087
 135  402.3077
 136  418.4313
 137  424.8652
 138  388.1603
 139  383.5858
 140  288.0932
 141  374.5335
 142  390.7144
 143  528.1964
 144  342.4633
 145  273.8056
 146  440.2727
 147  493.9093
 148  465.6161
 149  417.807
 150  313.0135
 151  220.5516
 152  306.3161
 153  386.4879
 154  316.6111
 155  262.57
 156  304.7997
 157  408.9229
 158  332.0103
 159  250.0206
 160  260.9412
 161  282.2165
 162  332.1005
 163  358.16
 164  499.2778
 165  484.7326
 166  443.2302
 167  314.6461
 168  321.7784
 169  401.929
 170  491.5473
 171  501.423
 172  445.3133
 173  420.1993
 174  420.5533
 175  471.2957
 176  569.8451
 177  431.4204
 178  430.0245
 179  446.9193
 180  406.5882
 181  397.6322
 182  322.1363
 183  374.5953
 184  352.3013
 185  457.8609
 186  511.6268
 187  487.5602
 188  369.1287
 189  283.4445
 190  433.897
 191  384.2095
 192  349.3623
 193  297.0399
 194  368.3236
 195  382.8111
 196  316.5494
 197  358.0312
 198  310.5382
 199  398.3949
 200  338.6867
 201  353.3097
 202  481.3765
 203  482.8453
 204  385.6786
 205  369.8628
 206  342.887
 207  374.7029
 208  384.1918
 209  341.739
 210  335.9309
 211  191.5463
 212  203.5184
 213  342.406
 214  440.2726
 215  290.1716
 216  329.2591
 217  539.6339
 218  556.6576
 219  424.7894
 220  476.6595
 221  386.8955
 222  355.8966
 223  346.7017
 224  340.4739
 225  461.5345
 226  371.255
 227  256.632
 228  274.6328
 229  425.5157
 230  488.521
 231  441.9748
 232  328.6027
 233  430.7062
 234  384.74
 235  302.3578
 236  179.8855
 237  340.9843
 238  488.8765
 239  465.2524
 240  239.2606
 241  274.2436
 242  340.3776
 243  294.5524
 244  330.4614
 245  231.8765
 246  344.4538
 247  373.5535
 248  327.9106
 249  299.0153
 250  302.1488
 251  344.5289
 252  315.0116
 253  329.3569
 254  320.0819
 255  359.1383
 256  304.5225
 257  318.7969
 258  378.2746
 259  468.1705
 260  502.6292
 261  367.5025
 262  398.806
 263  484.2809
 264  435.4029
 265  366.8969
 266  424.3223
 267  433.1338
 268  415.7188
 269  410.1234
 270  377.7231
 271  283.5557
 272  413.1937
 273  410.2301
 274  434.3882
 275  399.2073
 276  543.1938
 277  357.4325
 278  353.584
 279  421.0297
 280  547.1146
 281  530.5091
 282  375.5736
 283  464.4422
 284  337.1079
 285  220.1122
 286  287.1641
 287  405.7582
 288  373.9244
 289  390.1692
 290  450.3664
 291  606.9319
 292  540.8027
 293  444.9634
 294  490.2299
 295  489.2657
 296  483.5024
 297  458.6945
 298  527.4363
 299  428.9803
 300  433.5389
 301  385.551
 302  500.0944
 303  355.2965
 304  380.0222
 305  479.2175
 306  439.0719
 307  506.0864
 308  393.6502
 309  299.4415
 310  310.7911
 311  332.6569
 312  394.8799
 313  386.0388
 314  452.3386
 315  354.1319
 316  172.5098
 317  201.3469
 318  356.1805
 319  379.4406
 320  412.7641
 321  251.7963
 322  414.3008
 323  411.9471
 324  320.9403
 325  364.427
 326  411.843
 327  314.8906
 328  229.3341
 329  222.9468
 330  264.05
 331  245.4963
 332  285.4105
 333  373.3705
 334  351.7748
 335  311.9407
 336  422.2977
 337  271.776
 338  308.4644
 339  429.9047
 340  398.6484
 341  435.2239
 342  421.457
 343  316.5598
 344  418.6815
 345  271.6012
 346  325.1995
 347  467.683
 348  402.3729
 349  416.9249
 350  397.7954
 351  355.4332
 352  317.938
 353  224.7902
 354  272.6014
 355  357.5404
 356  511.3312
 357  434.4192
 358  362.9836
 359  299.809
 360  172.735
 361  223.9235
 362  205.6673
 363  287.4623
 364  354.3799
 365  170.7933
 366  120.9743
 367  198.4603
 368  314.3471
 369  414.6524
 370  369.6857
 371  380.2584
 372  345.7906
 373  271.4589
 374  330.0905
 375  308.6682
 376  343.2029
 377  417.3478
 378  228.0113
 379  360.7291
 380  435.741
 381  391.2788
 382  431.5988
 383  383.4444
 384  476.7863
 385  412.2345
 386  350.3752
 387  323.189
 388  283.6628
 389  355.5139
 390  430.9003
 391  440.7322
 392  357.1785
 393  262.0524
 394  269.3096
 395  384.5754
 396  319.3254
 397  322.472
 398  358.9092
 399  405.6249
 400  305.2801
 401  234.457
 402  278.0535
 403  306.0476
 404  344.5506
 405  413.5763
 406  467.2123
 407  430.5257
 408  197.9674
 409  236.0149
 410  333.6112
 411  227.8132
 412  261.1213
 413  405.191
 414  378.9217
 415  381.4347
 416  428.5038
 417  216.282
 418  111.2997
 419  206.2993
 420  235.7451
 421  330.7021
 422  456.8665
 423  560.3583
 424  428.1991
 425  362.3359
 426  451.7961
 427  277.153
 428  244.5342
 429  286.1562
 430  355.2155
 431  339.8372
 432  286.2296
 433  376.0694
 434  430.4106
 435  395.1403
 436  426.8185
 437  380.8824
 438  354.9228
 439  445.8821
 440  388.9207
 441  318.8109
 442  222.2776
 443  300.8236
 444  421.5564
 445  365.7805
 446  257.3691
 447  281.4053
 448  366.7885
 449  441.6871
 450  359.0809
 451  358.6171
 452  335.5775
 453  279.9985
 454  196.4594
 455  273.3476
 456  332.0188
 457  257.594
 458  266.5131
 459  356.4601
 460  467.7497
 461  416.5024
 462  293.4968
 463  367.9023
 464  493.3558
 465  416.0655
 466  307.9244
 467  377.1151
 468  334.4997
 469  293.4028
 470  366.0739
 471  496.6375
 472  471.6263
 473  409.9657
 474  391.1213
 475  344.065
 476  448.881
 477  421.7474
 478  336.2646
 479  306.8036
 480  452.4239
 481  354.7896
 482  265.9718
 483  335.0158
 484  239.3485
 485  364.7162
 486  218.1815
 487  189.0849
 488  236.3108
 489  203.3132
 490  371.207
 491  273.6238
 492  266.1824
 493  256.824
 494  117.8043
 495  187.0555
 496  254.3335
 497  327.6007
 498  398.5193
 499  408.1822
 500  330.2957
 501  361.0161
 502  457.4377
 503  514.6434
 504  584.5266
 505  543.2625
 506  527.0654
 507  576.0867
 508  517.8318
 509  548.8552
 510  628.3264
 511  662.1005
