# Input file       =  1180939997.108558_cleaned.dat
# Candidate        =  PSR_0332+5434
# Telescope        =  AR
# Epoch_topo       =  57912.286795237938
# Epoch_bary       =  N/A
# T_sample         =  0.002
# Data Folded      =  7340032
# Data Avg         =  0.0263594569196235
# Data StdDev      =  1.00001621073175 
# Profile Bins     =  512
# Profile Avg      =  378.007961561446 
# Profile StdDev   =  119.7349773369   
# Reduced chi-sqr  =  1.553
# Prob(Noise)      <  1.36e-14   (~7.6 sigma)
# P_topo (ms)      =  714.509547905695  +/- 0.000302
# P'_topo (s/s)    =  -0                +/- 1.59e-10
# P''_topo (s/s^2) =  0                 +/- 7.03e-14
# P_bary (ms)      =  N/A
# P'_bary (s/s)    =  N/A
# P''_bary (s/s^2) =  N/A
# P_orb (s)        =  N/A
# asin(i)/c (s)    =  N/A
# eccentricity     =  N/A
# w (rad)          =  N/A
# T_peri           =  N/A
######################################################
   0  972.2864
   1  1027.431
   2  835.4542
   3  630.2073
   4  599.5621
   5  577.0782
   6  352.1225
   7  485.7553
   8  459.489
   9  361.632
  10  343.0794
  11  389.7852
  12  531.6605
  13  473.9481
  14  439.4171
  15  355.7607
  16  470.713
  17  612.174
  18  387.6944
  19  275.26
  20  376.778
  21  444.8481
  22  436.5249
  23  353.6338
  24  393.4154
  25  395.9614
  26  456.0189
  27  429.3275
  28  387.5171
  29  413.2141
  30  451.8007
  31  316.9328
  32  261.9874
  33  363.0535
  34  534.0449
  35  554.5594
  36  419.6047
  37  356.279
  38  399.2931
  39  438.0858
  40  331.1991
  41  390.8602
  42  442.0022
  43  466.3817
  44  402.8981
  45  422.2199
  46  481.9886
  47  444.2142
  48  505.5914
  49  319.2318
  50  377.6213
  51  390.3084
  52  407.5732
  53  374.0453
  54  364.482
  55  404.4534
  56  337.6465
  57  369.4088
  58  303.364
  59  357.5377
  60  482.994
  61  474.6904
  62  375.3654
  63  440.6263
  64  462.2429
  65  396.8305
  66  306.7436
  67  374.7955
  68  350.3419
  69  299.2691
  70  368.0504
  71  373.9599
  72  396.6188
  73  534.8203
  74  412.9107
  75  353.8474
  76  228.2498
  77  263.1754
  78  311.1969
  79  287.8112
  80  425.1906
  81  297.8463
  82  377.6319
  83  419.5026
  84  410.0302
  85  374.7812
  86  382.9954
  87  407.2324
  88  430.849
  89  374.1547
  90  385.3755
  91  349.0064
  92  305.3458
  93  367.9872
  94  396.7904
  95  513.7354
  96  423.3008
  97  358.5804
  98  322.0028
  99  347.5946
 100  222.4244
 101  188.1239
 102  391.7345
 103  384.5947
 104  350.2013
 105  388.2713
 106  359.2544
 107  321.8026
 108  264.763
 109  205.971
 110  276.6967
 111  283.8768
 112  357.5779
 113  371.7278
 114  387.8836
 115  301.9406
 116  297.4548
 117  294.357
 118  169.7556
 119  153.3082
 120  214.4144
 121  391.3167
 122  283.8834
 123  221.0036
 124  240.3278
 125  243.2917
 126  321.4729
 127  404.2219
 128  469.9196
 129  481.5374
 130  460.377
 131  289.1727
 132  359.6271
 133  276.5246
 134  321.9137
 135  290.8164
 136  368.502
 137  325.8548
 138  235.9747
 139  367.8279
 140  334.1622
 141  322.0929
 142  384.6187
 143  347.2278
 144  378.0397
 145  402.5012
 146  340.765
 147  341.8665
 148  328.2922
 149  372.2013
 150  327.2814
 151  290.891
 152  308.5802
 153  381.4455
 154  308.52
 155  250.4558
 156  248.9671
 157  279.4577
 158  222.4444
 159  246.668
 160  274.1707
 161  247.0492
 162  292.7859
 163  301.6994
 164  298.4645
 165  425.4541
 166  455.7713
 167  481.9084
 168  413.8995
 169  407.6494
 170  497.2066
 171  415.9951
 172  458.0582
 173  471.8888
 174  201.1372
 175  277.7461
 176  350.718
 177  367.5402
 178  374.954
 179  336.2
 180  433.7291
 181  423.907
 182  274.4557
 183  307.1068
 184  317.777
 185  320.233
 186  388.3114
 187  301.0513
 188  327.2096
 189  361.6087
 190  380.1769
 191  369.0499
 192  248.7641
 193  279.0256
 194  333.8363
 195  301.75
 196  283.4964
 197  180.7534
 198  168.8287
 199  202.4655
 200  198.3945
 201  303.0454
 202  252.9786
 203  177.2796
 204  253.3692
 205  337.9998
 206  334.6289
 207  197.2788
 208  297.8667
 209  385.9438
 210  249.4243
 211  324.3498
 212  311.3186
 213  295.5462
 214  188.51
 215  235.5439
 216  336.7332
 217  278.0249
 218  250.1676
 219  54.99601
 220  145.8167
 221  220.7283
 222  189.317
 223  191.67
 224  281.6508
 225  228.2537
 226  168.1724
 227  243.1819
 228  399.9587
 229  241.5898
 230  187.1301
 231  291.3037
 232  370.5001
 233  333.7012
 234  282.3375
 235  136.7148
 236  364.4051
 237  330.7698
 238  254.4764
 239  378.2643
 240  431.7332
 241  430.7556
 242  305.2521
 243  332.6954
 244  294.2571
 245  310.4471
 246  341.0538
 247  293.617
 248  271.3192
 249  275.4826
 250  307.339
 251  275.5381
 252  319.3891
 253  422.0258
 254  548.5789
 255  453.6803
 256  383.922
 257  457.7847
 258  556.1762
 259  457.3132
 260  562.5242
 261  534.9183
 262  480.0625
 263  435.0882
 264  425.01
 265  373.9517
 266  470.6493
 267  452.8399
 268  332.6736
 269  454.5546
 270  470.1401
 271  424.5886
 272  364.6616
 273  316.4731
 274  323.129
 275  271.1674
 276  230.2217
 277  206.5275
 278  307.962
 279  406.7118
 280  335.7112
 281  315.3393
 282  342.3756
 283  348.265
 284  344.4005
 285  416.2704
 286  488.4285
 287  350.3436
 288  334.9844
 289  357.1205
 290  317.9776
 291  334.2474
 292  264.7167
 293  293.4767
 294  338.1946
 295  369.6783
 296  382.1578
 297  376.3126
 298  365.3943
 299  315.5076
 300  301.2024
 301  422.6755
 302  383.2466
 303  377.5877
 304  445.2599
 305  355.4537
 306  269.9029
 307  247.1169
 308  302.8059
 309  465.3102
 310  433.7137
 311  290.3893
 312  375.5906
 313  306.7379
 314  302.0296
 315  257.7044
 316  397.257
 317  388.9145
 318  304.6513
 319  406.4135
 320  486.2973
 321  453.8532
 322  422.4366
 323  489.9695
 324  395.1399
 325  434.6479
 326  527.2912
 327  483.8476
 328  352.9237
 329  351.0111
 330  432.8958
 331  374.5246
 332  395.2724
 333  485.0528
 334  398.7335
 335  427.4215
 336  381.8439
 337  424.014
 338  355.463
 339  369.7914
 340  371.753
 341  352.5889
 342  378.0085
 343  352.818
 344  387.1694
 345  360.1057
 346  356.4626
 347  382.9721
 348  354.3554
 349  280.0719
 350  329.4588
 351  304.34
 352  239.2106
 353  277.5944
 354  257.2654
 355  388.8693
 356  447.0077
 357  389.2215
 358  351.1485
 359  288.6931
 360  289.4483
 361  251.0124
 362  293.8582
 363  398.7841
 364  377.7472
 365  286.0002
 366  368.6622
 367  442.8857
 368  424.0019
 369  275.2497
 370  169.6813
 371  418.6687
 372  452.7953
 373  414.2422
 374  405.4126
 375  284.3618
 376  301.0329
 377  236.7159
 378  207.472
 379  287.2363
 380  368.8822
 381  356.4297
 382  333.6319
 383  296.1178
 384  255.7295
 385  357.0744
 386  326.5026
 387  313.0111
 388  279.6595
 389  361.1483
 390  397.2274
 391  184.6552
 392  272.252
 393  430.9851
 394  446.8312
 395  515.947
 396  511.7396
 397  399.8801
 398  382.216
 399  499.6763
 400  591.3248
 401  587.3406
 402  346.7326
 403  311.3818
 404  409.9325
 405  451.9869
 406  388.6016
 407  344.4788
 408  414.215
 409  470.5236
 410  483.5701
 411  432.9212
 412  390.9995
 413  409.6786
 414  353.1308
 415  314.532
 416  328.7812
 417  387.375
 418  457.5774
 419  458.2926
 420  431.7174
 421  431.2262
 422  427.3581
 423  369.3686
 424  311.9014
 425  368.9377
 426  414.7413
 427  434.8493
 428  394.6944
 429  480.1519
 430  358.1421
 431  334.7734
 432  394.3945
 433  454.2801
 434  497.458
 435  487.1392
 436  467.1262
 437  474.1579
 438  423.0932
 439  315.9803
 440  265.2682
 441  353.7997
 442  378.0735
 443  421.9418
 444  324.8979
 445  323.697
 446  388.8284
 447  388.3534
 448  498.9073
 449  443.1356
 450  460.8839
 451  366.6104
 452  371.731
 453  465.2384
 454  457.8394
 455  290.151
 456  379.0392
 457  420.6119
 458  401.3289
 459  465.8167
 460  426.7709
 461  394.8103
 462  414.2397
 463  368.4334
 464  528.3853
 465  510.5214
 466  534.5189
 467  469.0159
 468  421.8373
 469  531.137
 470  557.2683
 471  553.6508
 472  555.5104
 473  457.8656
 474  471.5881
 475  447.3692
 476  434.4005
 477  515.1653
 478  457.4425
 479  479.4322
 480  448.2999
 481  423.8827
 482  404.8378
 483  379.3384
 484  404.9964
 485  463.6348
 486  463.8428
 487  362.6927
 488  468.5322
 489  458.1536
 490  456.844
 491  539.9751
 492  502.4561
 493  530.1284
 494  532.9338
 495  484.9008
 496  469.01
 497  525.8835
 498  416.5529
 499  436.9395
 500  467.2795
 501  387.2489
 502  446.4197
 503  532.8691
 504  435.4808
 505  416.3876
 506  422.3875
 507  478.7878
 508  639.1192
 509  838.6129
 510  997.3984
 511  966.1246
