# Input file       =  1180408342.103741_cleaned.dat
# Candidate        =  PSR_0332+5434
# Telescope        =  AR
# Epoch_topo       =  57906.133380830332
# Epoch_bary       =  N/A
# T_sample         =  0.002
# Data Folded      =  7208960
# Data Avg         =  0.031162900927539
# Data StdDev      =  1.0001075023988  
# Profile Bins     =  512
# Profile Avg      =  438.728711423362 
# Profile StdDev   =  118.671931939568 
# Reduced chi-sqr  =  1.056
# Prob(Noise)      <  0.182   (~0.9 sigma)
# P_topo (ms)      =  714.515465745902  +/- 0.000375
# P'_topo (s/s)    =  -0                +/- 2.01e-10
# P''_topo (s/s^2) =  0                 +/- 9.05e-14
# P_bary (ms)      =  N/A
# P'_bary (s/s)    =  N/A
# P''_bary (s/s^2) =  N/A
# P_orb (s)        =  N/A
# asin(i)/c (s)    =  N/A
# eccentricity     =  N/A
# w (rad)          =  N/A
# T_peri           =  N/A
######################################################
   0  920.5229
   1  898.9008
   2  646.4362
   3  558.4321
   4  585.5042
   5  388.9604
   6  310.4689
   7  363.5879
   8  432.582
   9  336.0989
  10  405.7923
  11  513.3962
  12  453.1095
  13  415.4146
  14  429.6537
  15  338.0234
  16  373.5804
  17  393.0727
  18  385.0397
  19  414.6279
  20  421.3327
  21  471.9806
  22  503.999
  23  434.7073
  24  480.7086
  25  471.3308
  26  492.2821
  27  430.8324
  28  412.1842
  29  406.2342
  30  437.0695
  31  436.7668
  32  503.1157
  33  451.8242
  34  422.0309
  35  447.2183
  36  476.8631
  37  478.3556
  38  542.1862
  39  525.0901
  40  489.9826
  41  530.3232
  42  611.8028
  43  641.773
  44  550.4934
  45  512.5819
  46  484.1626
  47  515.8371
  48  537.0183
  49  594.9092
  50  537.5526
  51  489.837
  52  453.8957
  53  540.2294
  54  543.0754
  55  436.0508
  56  422.6089
  57  502.3401
  58  430.4955
  59  451.4309
  60  467.8672
  61  454.1249
  62  436.2614
  63  452.2779
  64  479.7673
  65  505.5478
  66  573.6348
  67  434.9044
  68  466.7542
  69  343.3928
  70  261.9055
  71  421.6624
  72  532.8188
  73  548.6281
  74  426.0714
  75  434.2049
  76  460.8837
  77  400.0602
  78  402.5284
  79  518.5636
  80  550.9315
  81  369.7874
  82  359.6617
  83  373.3566
  84  356.4775
  85  376.6694
  86  412.0401
  87  488.4149
  88  377.5621
  89  334.3847
  90  343.9698
  91  286.3111
  92  292.9505
  93  339.1206
  94  396.3038
  95  366.4872
  96  298.0917
  97  313.5522
  98  385.8476
  99  370.8779
 100  426.7444
 101  559.6177
 102  516.7543
 103  454.185
 104  248.2698
 105  256.6448
 106  413.3696
 107  430.0573
 108  373.3078
 109  353.5564
 110  338.69
 111  343.6818
 112  447.0057
 113  387.5011
 114  406.5901
 115  379.2918
 116  393.7992
 117  322.2012
 118  342.6317
 119  420.9832
 120  463.6841
 121  496.7457
 122  517.5134
 123  548.3059
 124  444.6573
 125  450.4837
 126  490.4479
 127  471.5832
 128  498.4684
 129  465.1553
 130  406.9236
 131  374.4466
 132  512.7859
 133  508.6582
 134  465.5531
 135  496.7863
 136  513.0203
 137  388.7969
 138  447.8933
 139  437.9025
 140  375.8438
 141  420.6342
 142  411.9584
 143  515.6111
 144  577.0109
 145  411.3539
 146  299.3448
 147  278.8392
 148  514.7009
 149  463.1752
 150  427.0689
 151  473.0142
 152  385.3964
 153  395.122
 154  413.4138
 155  380.8713
 156  476.2185
 157  392.5352
 158  423.5164
 159  608.704
 160  570.0877
 161  326.6313
 162  333.5127
 163  427.5879
 164  426.6269
 165  462.9494
 166  372.3957
 167  279.1386
 168  307.6451
 169  522.1499
 170  410.6429
 171  286.0609
 172  370.5485
 173  338.9519
 174  319.4269
 175  318.1244
 176  391.4099
 177  399.6201
 178  450.224
 179  472.8025
 180  423.3811
 181  350.0943
 182  418.1435
 183  428.962
 184  523.5239
 185  403.4237
 186  454.9743
 187  431.3179
 188  431.6637
 189  392.3913
 190  355.6471
 191  459.3231
 192  463.695
 193  397.4668
 194  385.9108
 195  402.5451
 196  420.8657
 197  440.3533
 198  416.3192
 199  375.9895
 200  376.9797
 201  348.9394
 202  347.8552
 203  358.6054
 204  444.9091
 205  580.1332
 206  549.0325
 207  462.5436
 208  453.4597
 209  474.4572
 210  428.2892
 211  332.0202
 212  402.7771
 213  459.4609
 214  438.6731
 215  517.3371
 216  605.5239
 217  566.1752
 218  501.871
 219  415.9174
 220  392.311
 221  361.9615
 222  328.953
 223  314.5306
 224  312.8875
 225  320.1394
 226  325.6695
 227  304.1191
 228  408.125
 229  435.3102
 230  387.73
 231  463.9339
 232  393.5147
 233  372.5854
 234  328.9039
 235  345.3385
 236  416.6547
 237  317.3614
 238  325.7227
 239  351.5735
 240  239.2488
 241  341.4949
 242  426.1752
 243  429.8874
 244  447.5731
 245  459.9539
 246  437.5931
 247  394.0505
 248  452.3402
 249  565.7368
 250  518.359
 251  476.7069
 252  481.4051
 253  488.5072
 254  506.9025
 255  566.8623
 256  576.546
 257  552.5674
 258  386.4452
 259  518.255
 260  455.2759
 261  378.0604
 262  519.8644
 263  502.5375
 264  370.3279
 265  413.1263
 266  493.2806
 267  502.8013
 268  524.7444
 269  324.5645
 270  248.9711
 271  278.6926
 272  314.9122
 273  395.6305
 274  349.1165
 275  331.9808
 276  397.5205
 277  307.9387
 278  242.6126
 279  329.5902
 280  421.2946
 281  444.1423
 282  415.099
 283  365.5272
 284  440.3118
 285  359.0138
 286  331.5036
 287  488.4708
 288  456.0035
 289  480.2243
 290  528.819
 291  508.9324
 292  344.3236
 293  371.6212
 294  383.7775
 295  325.5145
 296  383.8467
 297  345.7517
 298  397.2978
 299  331.0437
 300  410.0641
 301  428.3685
 302  269.4217
 303  296.9592
 304  324.2977
 305  278.3691
 306  359.713
 307  395.0192
 308  414.9803
 309  366.5041
 310  274.189
 311  276.9541
 312  349.7072
 313  416.9286
 314  233.2913
 315  339.3663
 316  386.3762
 317  363.2715
 318  242.1014
 319  339.5031
 320  409.8375
 321  422.2008
 322  408.8071
 323  437.6992
 324  531.8732
 325  530.6505
 326  403.8435
 327  357.0479
 328  318.9193
 329  358.6547
 330  407.4488
 331  496.944
 332  473.7055
 333  460.6689
 334  511.3122
 335  473.009
 336  453.7836
 337  522.5514
 338  583.2098
 339  577.7725
 340  496.7407
 341  348.2872
 342  442.6651
 343  509.6721
 344  439.546
 345  369.2321
 346  404.9909
 347  555.2731
 348  576.9603
 349  443.8785
 350  452.9071
 351  524.818
 352  566.1074
 353  505.3893
 354  544.7869
 355  496.6511
 356  551.0095
 357  454.3429
 358  375.2211
 359  395.1841
 360  521.6247
 361  404.5736
 362  391.6752
 363  364.1151
 364  333.0265
 365  427.797
 366  530.807
 367  412.1237
 368  435.5375
 369  368.6223
 370  387.1589
 371  333.0645
 372  382.3384
 373  424.6657
 374  364.9742
 375  399.7062
 376  340.875
 377  406.0871
 378  383.5042
 379  445.3445
 380  361.4871
 381  357.7484
 382  390.099
 383  486.0095
 384  458.791
 385  390.7275
 386  485.2831
 387  464.9653
 388  408.7292
 389  468.1921
 390  473.8234
 391  492.5389
 392  459.5031
 393  502.7477
 394  396.5909
 395  516.6654
 396  479.5062
 397  403.7292
 398  361.5619
 399  357.1188
 400  377.3834
 401  386.4787
 402  416.589
 403  294.2278
 404  405.3965
 405  465.4925
 406  442.4877
 407  478.199
 408  405.544
 409  494.6434
 410  474.6818
 411  570.2862
 412  475.4569
 413  492.2852
 414  399.0068
 415  502.0809
 416  506.5604
 417  407.9383
 418  521.4982
 419  581.4434
 420  579.7166
 421  520.0267
 422  382.8149
 423  462.0782
 424  420.3562
 425  446.9159
 426  460.5872
 427  493.0891
 428  456.0848
 429  530.6396
 430  503.4127
 431  503.0372
 432  439.3549
 433  429.1447
 434  527.0995
 435  456.0576
 436  442.5089
 437  475.9264
 438  456.8153
 439  340.0941
 440  548.2629
 441  661.4052
 442  579.9134
 443  354.5021
 444  382.2953
 445  353.601
 446  380.487
 447  371.937
 448  346.166
 449  438.3555
 450  457.0721
 451  494.3864
 452  530.216
 453  395.1989
 454  394.7484
 455  388.1301
 456  306.493
 457  393.6392
 458  411.3014
 459  591.069
 460  529.538
 461  505.4709
 462  571.6093
 463  527.171
 464  483.7821
 465  538.3885
 466  528.83
 467  478.4636
 468  412.8405
 469  479.2863
 470  502.9453
 471  464.833
 472  509.4478
 473  408.6031
 474  437.1202
 475  497.8352
 476  509.3455
 477  600.9132
 478  616.641
 479  465.6831
 480  523.703
 481  525.1588
 482  562.9713
 483  577.771
 484  513.5461
 485  486.2516
 486  506.3326
 487  526.5381
 488  529.2714
 489  458.4819
 490  394.4498
 491  389.1919
 492  489.0849
 493  388.0934
 494  446.4086
 495  433.9279
 496  463.8161
 497  438.942
 498  425.7863
 499  571.3246
 500  516.6309
 501  489.8528
 502  509.6283
 503  472.5757
 504  336.6566
 505  452.5095
 506  564.6173
 507  539.4605
 508  494.6411
 509  594.3736
 510  847.2867
 511  891.1251
