# Input file       =  1180437945.13237_cleaned.dat
# Candidate        =  PSR_0332+5434
# Telescope        =  AR
# Epoch_topo       =  57906.476008476508
# Epoch_bary       =  N/A
# T_sample         =  0.002
# Data Folded      =  7340032
# Data Avg         =  0.025055837897649
# Data StdDev      =  1.00003373916079 
# Profile Bins     =  512
# Profile Avg      =  359.216398625025 
# Profile StdDev   =  119.737076068933 
# Reduced chi-sqr  =  1.187
# Prob(Noise)      <  0.00222   (~2.8 sigma)
# P_topo (ms)      =  714.515477425609  +/- 0.000202
# P'_topo (s/s)    =  -0                +/- 1.07e-10
# P''_topo (s/s^2) =  0                 +/- 4.71e-14
# P_bary (ms)      =  N/A
# P'_bary (s/s)    =  N/A
# P''_bary (s/s^2) =  N/A
# P_orb (s)        =  N/A
# asin(i)/c (s)    =  N/A
# eccentricity     =  N/A
# w (rad)          =  N/A
# T_peri           =  N/A
######################################################
   0  387.6055
   1  386.2916
   2  481.537
   3  620.8564
   4  504.3279
   5  451.6243
   6  489.9586
   7  493.6102
   8  475.7641
   9  472.9514
  10  515.3186
  11  423.7405
  12  409.6923
  13  418.8529
  14  491.041
  15  335.0266
  16  406.4048
  17  462.2384
  18  449.0973
  19  501.6817
  20  371.4704
  21  296.275
  22  315.375
  23  345.4666
  24  392.0234
  25  407.2007
  26  444.2705
  27  316.4265
  28  148.5391
  29  238.4212
  30  367.8177
  31  390.3455
  32  388.5539
  33  251.0587
  34  453.6461
  35  382.7068
  36  313.7899
  37  393.5945
  38  393.9577
  39  298.2332
  40  214.7923
  41  234.7557
  42  260.0464
  43  252.5433
  44  291.3024
  45  399.6419
  46  312.6953
  47  346.2185
  48  402.912
  49  255.7499
  50  335.4211
  51  437.9572
  52  389.5041
  53  462.6523
  54  366.9375
  55  353.7238
  56  397.8622
  57  260.1375
  58  371.6433
  59  443.2919
  60  412.7041
  61  405.7147
  62  393.1839
  63  342.3041
  64  308.2555
  65  214.8728
  66  299.2703
  67  384.585
  68  515.7814
  69  406.4399
  70  363.3316
  71  266.8875
  72  169.7617
  73  230.5266
  74  209.4521
  75  318.656
  76  328.2435
  77  135.7995
  78  144.9588
  79  207.8579
  80  348.0328
  81  410.7232
  82  362.8992
  83  381.855
  84  342.6631
  85  269.6898
  86  339.0318
  87  289.9314
  88  382.6955
  89  378.6639
  90  236.1823
  91  387.209
  92  431.6633
  93  392.7977
  94  421.4787
  95  397.9356
  96  472.2944
  97  389.2407
  98  352.2173
  99  317.9038
 100  282.9677
 101  385.2131
 102  434.7758
 103  433.0538
 104  325.3846
 105  258.7094
 106  286.4828
 107  390.6675
 108  301.602
 109  338.9882
 110  370.5492
 111  392.6982
 112  280.3102
 113  234.6499
 114  297.4566
 115  301.2009
 116  369.2306
 117  415.0639
 118  481.3102
 119  379.7884
 120  180.3717
 121  270.3966
 122  318.9601
 123  224.789
 124  283.9899
 125  420.4194
 126  354.5334
 127  407.9513
 128  396.7561
 129  176.3002
 130  117.0555
 131  230.7619
 132  238.2053
 133  355.2213
 134  491.1289
 135  550.8414
 136  396.4043
 137  380.5437
 138  436.4551
 139  242.3269
 140  267.5751
 141  287.661
 142  361.4796
 143  323.284
 144  296.7046
 145  401.4949
 146  429.6983
 147  389.1295
 148  432.8238
 149  360.7884
 150  376.3648
 151  435.8191
 152  380.4969
 153  302.4777
 154  210.0951
 155  345.0844
 156  411.9857
 157  348.9984
 158  248.5188
 159  298.6238
 160  391.0843
 161  424.4824
 162  349.774
 163  364.8707
 164  318.9777
 165  262.5245
 166  206.3656
 167  290.7096
 168  331.546
 169  241.7053
 170  285.3558
 171  378.2559
 172  471.6252
 173  389.4665
 174  289.4424
 175  406.6873
 176  487.08
 177  385.6853
 178  310.0436
 179  384.3545
 180  320.2589
 181  290.1896
 182  403.8694
 183  503.8527
 184  450.5214
 185  417.5842
 186  372.0482
 187  358.6001
 188  452.7473
 189  408.8325
 190  318.6036
 191  333.5213
 192  459.0583
 193  313.7966
 194  287.2807
 195  319.8415
 196  241.3604
 197  375.889
 198  174.6684
 199  216.7122
 200  215.797
 201  234.555
 202  370.6971
 203  254.9693
 204  288.4291
 205  217.2415
 206  129.7203
 207  186.9142
 208  278.1117
 209  336.4799
 210  412.5841
 211  392.6082
 212  325.3732
 213  378.2634
 214  478.3492
 215  525.1689
 216  592.2557
 217  531.4135
 218  533.9927
 219  573.0199
 220  505.7473
 221  574.1429
 222  639.4597
 223  666.2473
 224  753.6974
 225  838.1461
 226  716.6194
 227  431.5034
 228  408.7941
 229  493.1226
 230  509.4483
 231  415.91
 232  310.7317
 233  306.3484
 234  296.0629
 235  329.1448
 236  284.0647
 237  262.088
 238  255.2512
 239  295.8206
 240  340.8186
 241  361.0806
 242  383.2912
 243  399.4315
 244  297.6617
 245  344.5693
 246  304.2179
 247  193.1016
 248  298.948
 249  306.8237
 250  247.543
 251  119.4134
 252  219.3718
 253  364.4535
 254  356.6298
 255  337.2018
 256  290.5434
 257  323.5201
 258  297.3807
 259  419.9576
 260  462.9967
 261  426.1484
 262  367.0287
 263  448.5503
 264  418.3216
 265  297.7596
 266  194.4896
 267  339.0975
 268  344.6146
 269  339.0682
 270  322.3455
 271  241.5192
 272  296.8736
 273  425.3653
 274  426.5022
 275  320.2526
 276  307.7352
 277  382.1172
 278  341.2142
 279  296.8248
 280  257.6539
 281  214.497
 282  348.2877
 283  481.0131
 284  456.9753
 285  373.8835
 286  290.1215
 287  234.1769
 288  340.6915
 289  422.7655
 290  380.2939
 291  277.3824
 292  274.6087
 293  274.8835
 294  335.1394
 295  212.6031
 296  312.7256
 297  339.2308
 298  317.3689
 299  158.0734
 300  234.1527
 301  291.6869
 302  290.6335
 303  254.4336
 304  224.3957
 305  144.3753
 306  270.0549
 307  355.4554
 308  370.848
 309  307.1496
 310  362.1996
 311  478.4372
 312  436.759
 313  412.0908
 314  335.018
 315  335.4541
 316  294.0857
 317  289.0767
 318  415.6355
 319  394.6934
 320  322.0197
 321  376.4745
 322  341.7278
 323  266.596
 324  314.8607
 325  324.8015
 326  412.9586
 327  457.6121
 328  382.0282
 329  170.7808
 330  194.1025
 331  223.1923
 332  364.3738
 333  326.7605
 334  181.5755
 335  221.724
 336  160.1149
 337  275.341
 338  280.6762
 339  337.2462
 340  286.2941
 341  254.1273
 342  292.9765
 343  347.8405
 344  422.9077
 345  503.1523
 346  354.0882
 347  258.7418
 348  274.4584
 349  418.011
 350  451.9657
 351  390.1697
 352  348.8874
 353  400.9758
 354  412.3411
 355  413.9998
 356  322.5853
 357  348.629
 358  394.5438
 359  412.9357
 360  408.6447
 361  422.164
 362  378.2397
 363  378.3287
 364  286.0545
 365  384.5032
 366  408.542
 367  524.4622
 368  285.7249
 369  322.1432
 370  452.7457
 371  502.0205
 372  457.7741
 373  394.8466
 374  292.5213
 375  220.5733
 376  339.7527
 377  380.1312
 378  294.5108
 379  261.7435
 380  321.304
 381  420.6702
 382  303.5823
 383  257.3383
 384  254.0638
 385  302.9791
 386  311.7063
 387  394.3889
 388  503.084
 389  474.3748
 390  439.7566
 391  287.1147
 392  344.7087
 393  405.7407
 394  508.5595
 395  498.679
 396  430.4402
 397  420.9781
 398  426.3067
 399  498.8891
 400  556.9895
 401  409.3737
 402  443.2129
 403  446.0396
 404  397.4008
 405  389.3033
 406  310.1798
 407  386.1498
 408  358.916
 409  481.7756
 410  510.4327
 411  467.7568
 412  342.3934
 413  304.2542
 414  440.7079
 415  366.0036
 416  344.5604
 417  294.4063
 418  395.0276
 419  351.5758
 420  334.3435
 421  346.5844
 422  326.2905
 423  398.5444
 424  335.1634
 425  366.2947
 426  501.5356
 427  456.6422
 428  383.8194
 429  362.3841
 430  348.3884
 431  379.4716
 432  371.7079
 433  341.241
 434  318.565
 435  168.5457
 436  225.729
 437  380.7213
 438  422.6044
 439  271.4835
 440  369.2942
 441  576.1296
 442  512.4403
 443  439.9012
 444  465.37
 445  366.407
 446  359.007
 447  339.0238
 448  357.6153
 449  464.4774
 450  344.5864
 451  249.4806
 452  295.0246
 453  442.8156
 454  497.1525
 455  414.3001
 456  341.055
 457  440.0794
 458  367.8576
 459  271.2639
 460  187.9952
 461  384.2189
 462  505.6806
 463  424.3504
 464  215.6508
 465  298.9959
 466  326.9222
 467  298.7402
 468  322.2959
 469  235.7901
 470  365.5476
 471  360.9388
 472  330.5085
 473  293.1825
 474  307.2709
 475  337.5859
 476  319.5905
 477  326.174
 478  325.5369
 479  351.691
 480  297.9756
 481  336.0273
 482  382.1416
 483  499.3055
 484  474.4635
 485  354.3118
 486  418.4369
 487  491.8084
 488  418.0497
 489  379.4921
 490  434.1938
 491  424.1686
 492  407.0866
 493  408.1667
 494  366.6335
 495  281.5059
 496  447.6506
 497  390.5044
 498  438.2369
 499  421.422
 500  528.4888
 501  340.5618
 502  352.9112
 503  452.9566
 504  551.8241
 505  503.1317
 506  375.1019
 507  476.0811
 508  292.2589
 509  217.4363
 510  324.1942
 511  394.8516
