# Input file       =  1180868747.104038_cleaned.dat
# Candidate        =  PSR_0332+5434
# Telescope        =  AR
# Epoch_topo       =  57911.462142407850
# Epoch_bary       =  N/A
# T_sample         =  0.002
# Data Folded      =  7340032
# Data Avg         =  0.0265537581015895
# Data StdDev      =  1.00003784339072 
# Profile Bins     =  512
# Profile Avg      =  380.447255661147 
# Profile StdDev   =  119.737567480843 
# Reduced chi-sqr  =  1.117
# Prob(Noise)      <  0.0338   (~1.8 sigma)
# P_topo (ms)      =  714.510669193063  +/- 0.000284
# P'_topo (s/s)    =  -0                +/- 1.5e-10
# P''_topo (s/s^2) =  0                 +/- 6.62e-14
# P_bary (ms)      =  N/A
# P'_bary (s/s)    =  N/A
# P''_bary (s/s^2) =  N/A
# P_orb (s)        =  N/A
# asin(i)/c (s)    =  N/A
# eccentricity     =  N/A
# w (rad)          =  N/A
# T_peri           =  N/A
######################################################
   0  362.6381
   1  493.1939
   2  406.4408
   3  407.2691
   4  443.0769
   5  373.9632
   6  442.7083
   7  242.3197
   8  360.1374
   9  501.0353
  10  458.9943
  11  370.4625
  12  355.2342
  13  367.8149
  14  426.3996
  15  499.4183
  16  474.7736
  17  454.4302
  18  439.3336
  19  441.952
  20  456.2112
  21  363.9204
  22  530.2437
  23  407.3657
  24  404.5794
  25  311.7101
  26  349.0188
  27  348.3731
  28  345.0076
  29  313.3756
  30  404.1293
  31  437.4373
  32  345.6126
  33  311.252
  34  274.7836
  35  462.0418
  36  385.7616
  37  281.6416
  38  369.4706
  39  475.3661
  40  277.0748
  41  144.5012
  42  260.1676
  43  314.021
  44  200.8852
  45  111.3322
  46  188.1873
  47  353.1718
  48  478.4052
  49  362.6161
  50  331.1678
  51  436.1616
  52  273.9025
  53  308.2406
  54  331.1054
  55  411.0545
  56  415.7426
  57  467.1581
  58  471.5322
  59  327.1545
  60  427.6726
  61  469.0856
  62  470.6947
  63  422.2899
  64  429.5776
  65  353.6015
  66  293.7319
  67  380.0731
  68  418.8052
  69  410.1362
  70  346.1858
  71  391.0334
  72  434.7854
  73  450.5871
  74  399.6532
  75  512.4229
  76  452.902
  77  338.9203
  78  377.6672
  79  344.8748
  80  442.0208
  81  515.3474
  82  524.1378
  83  467.1209
  84  475.071
  85  528.9584
  86  550.6385
  87  337.774
  88  371.8636
  89  366.9655
  90  316.4357
  91  347.4997
  92  496.7206
  93  533.5483
  94  441.9297
  95  322.9626
  96  357.7237
  97  365.0404
  98  255.5192
  99  350.5542
 100  360.481
 101  262.1886
 102  240.8201
 103  265.1423
 104  276.6805
 105  365.5807
 106  395.9559
 107  328.5377
 108  216.6324
 109  277.8493
 110  323.1952
 111  288.8283
 112  220.0475
 113  319.8147
 114  293.178
 115  287.3473
 116  311.6564
 117  376.9006
 118  303.7434
 119  236.0939
 120  346.4964
 121  312.0398
 122  308.2451
 123  300.3023
 124  264.8915
 125  348.0171
 126  399.32
 127  448.3817
 128  408.7026
 129  509.3351
 130  449.5782
 131  415.3593
 132  430.0481
 133  346.1731
 134  378.0209
 135  396.7106
 136  277.8959
 137  287.9458
 138  356.2839
 139  368.1835
 140  323.5245
 141  485.7569
 142  530.0737
 143  416.9402
 144  366.5817
 145  350.4252
 146  373.6121
 147  429.6533
 148  376.4893
 149  473.1902
 150  516.7837
 151  334.0973
 152  330.8544
 153  496.6164
 154  550.3965
 155  463.2047
 156  327.4876
 157  384.0782
 158  351.2375
 159  378.7841
 160  443.4881
 161  518.9066
 162  469.5822
 163  419.9949
 164  383.9152
 165  368.6751
 166  463.4169
 167  477.825
 168  399.8361
 169  449.1517
 170  421.3515
 171  366.8598
 172  447.2853
 173  362.9445
 174  339.458
 175  377.1285
 176  397.1105
 177  335.8678
 178  373.4102
 179  426.1406
 180  299.887
 181  340.7364
 182  319.6727
 183  296.9789
 184  369.1502
 185  335.8636
 186  337.1087
 187  385.0312
 188  296.7018
 189  319.705
 190  384.5217
 191  379.5523
 192  476.4212
 193  373.7457
 194  448.4812
 195  447.7504
 196  362.6
 197  362.3408
 198  252.4142
 199  251.0911
 200  235.3422
 201  323.8672
 202  421.2908
 203  323.5381
 204  310.231
 205  284.6818
 206  252.6761
 207  131.6758
 208  166.0631
 209  147.6139
 210  123.1294
 211  282.1896
 212  402.2802
 213  262.6674
 214  171.3138
 215  218.3834
 216  208.5088
 217  282.1758
 218  355.3262
 219  360.9106
 220  329.8163
 221  391.811
 222  349.8976
 223  275.9428
 224  311.6717
 225  373.7607
 226  426.024
 227  345.9507
 228  348.3419
 229  518.4974
 230  337.3645
 231  271.0045
 232  317.53
 233  336.1565
 234  438.4821
 235  382.01
 236  446.2831
 237  463.6063
 238  410.8217
 239  334.6965
 240  305.6239
 241  286.545
 242  372.7979
 243  413.1703
 244  407.0611
 245  332.7985
 246  338.6526
 247  367.9838
 248  326.4859
 249  369.5381
 250  371.3345
 251  291.9527
 252  300.6313
 253  330.0247
 254  446.2861
 255  425.4345
 256  390.6435
 257  381.0273
 258  455.0752
 259  460.7709
 260  334.175
 261  312.5653
 262  305.2964
 263  299.9842
 264  365.0359
 265  386.2645
 266  332.8654
 267  455.4194
 268  320.9823
 269  344.6673
 270  430.0881
 271  442.9903
 272  385.5836
 273  426.9734
 274  429.5522
 275  400.8533
 276  413.3129
 277  425.5677
 278  450.0602
 279  460.6786
 280  587.6431
 281  596.3017
 282  504.6854
 283  520.0677
 284  695.9716
 285  831.0373
 286  831.2856
 287  820.8475
 288  746.808
 289  487.9829
 290  404.7111
 291  348.1535
 292  353.3173
 293  333.6553
 294  336.137
 295  357.1259
 296  395.7708
 297  413.1214
 298  382.5397
 299  464.0689
 300  491.926
 301  544.1125
 302  497.3513
 303  452.8742
 304  465.3224
 305  387.6246
 306  367.5598
 307  424.7338
 308  435.441
 309  290.0311
 310  405.1874
 311  404.7502
 312  469.5049
 313  448.4912
 314  444.7589
 315  434.1512
 316  395.8409
 317  346.1139
 318  265.1532
 319  321.4081
 320  449.691
 321  526.7953
 322  362.2259
 323  332.8282
 324  471.7385
 325  447.9898
 326  434.3079
 327  416.3776
 328  370.5185
 329  423.5835
 330  421.9964
 331  405.1206
 332  402.3548
 333  397.2371
 334  323.8391
 335  399.0312
 336  392.4723
 337  333.8455
 338  287.7422
 339  342.731
 340  452.4505
 341  436.0985
 342  417.7204
 343  343.9925
 344  314.8169
 345  387.2996
 346  454.7662
 347  410.9565
 348  496.8111
 349  451.4713
 350  383.2886
 351  316.7404
 352  373.7383
 353  402.8127
 354  486.2997
 355  471.4719
 356  378.0393
 357  533.0644
 358  527.3076
 359  427.5282
 360  509.0018
 361  510.4645
 362  384.1433
 363  333.2966
 364  365.0887
 365  345.5217
 366  265.564
 367  316.1771
 368  341.7767
 369  378.2404
 370  327.2512
 371  341.9154
 372  197.7195
 373  204.8778
 374  249.9549
 375  316.2639
 376  329.4535
 377  374.3567
 378  444.0447
 379  517.3337
 380  333.882
 381  235.5128
 382  225.2361
 383  333.1725
 384  366.4694
 385  462.0813
 386  480.7236
 387  481.1514
 388  420.5303
 389  471.4293
 390  504.0822
 391  459.905
 392  482.4022
 393  516.1955
 394  413.3221
 395  412.2273
 396  483.5622
 397  407.2921
 398  349.615
 399  458.9368
 400  425.7105
 401  384.1075
 402  427.3851
 403  447.2234
 404  515.6099
 405  470.2871
 406  447.1064
 407  469.098
 408  434.9772
 409  480.6741
 410  358.8764
 411  473.0511
 412  541.7346
 413  343.7672
 414  231.3696
 415  447.738
 416  382.5789
 417  251.8211
 418  280.2131
 419  347.1934
 420  438.6504
 421  421.5067
 422  453.0435
 423  477.92
 424  358.6042
 425  347.0282
 426  346.0326
 427  409.263
 428  407.9321
 429  330.054
 430  288.6924
 431  359.8558
 432  394.821
 433  466.1631
 434  479.9236
 435  458.1
 436  285.865
 437  286.0321
 438  450.2664
 439  397.6213
 440  401.2746
 441  467.8637
 442  522.9649
 443  349.9887
 444  365.251
 445  287.8478
 446  374.6366
 447  385.3844
 448  422.7827
 449  440.147
 450  370.9763
 451  408.4041
 452  423.0442
 453  316.873
 454  299.7987
 455  263.3831
 456  339.433
 457  246.083
 458  247.7252
 459  304.6694
 460  274.1905
 461  268.7224
 462  253.2916
 463  266.0324
 464  225.7736
 465  168.9179
 466  259.8324
 467  236.0164
 468  180.2359
 469  302.2542
 470  354.5162
 471  224.0341
 472  87.3217
 473  252.9645
 474  304.099
 475  281.4435
 476  319.4857
 477  381.8665
 478  326.4807
 479  326.6652
 480  206.5924
 481  269.036
 482  353.7574
 483  407.36
 484  394.2663
 485  382.7176
 486  375.5591
 487  329.658
 488  334.7005
 489  458.9792
 490  368.2924
 491  324.5622
 492  505.3389
 493  395.9788
 494  452.2039
 495  410.309
 496  460.1947
 497  407.213
 498  343.0272
 499  375.7641
 500  418.261
 501  417.9068
 502  413.143
 503  508.9351
 504  393.5099
 505  355.5737
 506  299.4088
 507  379.3589
 508  504.5544
 509  425.3279
 510  349.69
 511  284.5984
