# Input file       =  1180696444.113249_cleaned.dat
# Candidate        =  PSR_0332+5434
# Telescope        =  AR
# Epoch_topo       =  57909.467894829271
# Epoch_bary       =  N/A
# T_sample         =  0.002
# Data Folded      =  7340032
# Data Avg         =  0.026757418012566
# Data StdDev      =  1.00004512763663 
# Profile Bins     =  512
# Profile Avg      =  383.659239246121 
# Profile StdDev   =  119.738439645724 
# Reduced chi-sqr  =  1.173
# Prob(Noise)      <  0.00409   (~2.6 sigma)
# P_topo (ms)      =  714.512581257503  +/- 0.000312
# P'_topo (s/s)    =  -0                +/- 1.64e-10
# P''_topo (s/s^2) =  0                 +/- 7.26e-14
# P_bary (ms)      =  N/A
# P'_bary (s/s)    =  N/A
# P''_bary (s/s^2) =  N/A
# P_orb (s)        =  N/A
# asin(i)/c (s)    =  N/A
# eccentricity     =  N/A
# w (rad)          =  N/A
# T_peri           =  N/A
######################################################
   0  748.1661
   1  730.9376
   2  643.7343
   3  588.5284
   4  385.3362
   5  399.7984
   6  383.2699
   7  470.4846
   8  448.8432
   9  330.4388
  10  211.0792
  11  167.5173
  12  247.6239
  13  311.3878
  14  323.0273
  15  407.4268
  16  443.4092
  17  377.5585
  18  310.3466
  19  263.7244
  20  466.8612
  21  415.3569
  22  378.7121
  23  320.7637
  24  315.4899
  25  209.2909
  26  299.6252
  27  339.191
  28  397.3432
  29  344.2473
  30  465.1941
  31  474.1624
  32  434.1973
  33  438.9247
  34  340.9475
  35  353.445
  36  548.685
  37  398.5935
  38  416.5133
  39  381.4607
  40  377.4608
  41  439.7923
  42  407.5696
  43  475.8524
  44  294.9168
  45  298.7282
  46  399.6493
  47  323.14
  48  354.6848
  49  365.0367
  50  462.9871
  51  301.5011
  52  251.2355
  53  214.2248
  54  347.6921
  55  443.6589
  56  338.3571
  57  256.4844
  58  229.4817
  59  284.9436
  60  329.4458
  61  275.9449
  62  349.2267
  63  250.7764
  64  202.673
  65  287.6876
  66  310.7774
  67  174.2244
  68  287.5588
  69  279.5002
  70  390.3253
  71  355.4228
  72  365.8098
  73  397.4336
  74  270.7631
  75  383.2009
  76  379.0987
  77  315.2291
  78  457.5999
  79  401.0278
  80  315.3037
  81  403.5902
  82  414.2762
  83  359.9367
  84  312.1422
  85  428.1518
  86  298.9994
  87  244.0421
  88  374.4791
  89  260.0796
  90  280.034
  91  360.1476
  92  278.87
  93  209.363
  94  193.1719
  95  273.4195
  96  335.5335
  97  345.4831
  98  231.7516
  99  369.6197
 100  295.8054
 101  274.4937
 102  327.322
 103  259.2022
 104  298.3888
 105  270.0663
 106  306.3731
 107  368.0686
 108  272.3907
 109  497.9655
 110  567.5883
 111  336.1879
 112  396.1059
 113  438.4185
 114  326.3516
 115  335.2115
 116  326.9818
 117  447.7821
 118  469.7332
 119  472.4297
 120  525.4874
 121  391.0441
 122  369.935
 123  297.0363
 124  348.8773
 125  357.7012
 126  450.1108
 127  390.9387
 128  385.6816
 129  351.6797
 130  343.4785
 131  353.3071
 132  225.1286
 133  294.4108
 134  315.399
 135  216.659
 136  296.9034
 137  404.6759
 138  273.7913
 139  300.6996
 140  332.5726
 141  136.4866
 142  177.2397
 143  274.3047
 144  372.0999
 145  468.2155
 146  277.8142
 147  312.6806
 148  342.5387
 149  284.5446
 150  392.3531
 151  270.6139
 152  282.4957
 153  302.8846
 154  427.3683
 155  385.5365
 156  349.1833
 157  448.8921
 158  581.2811
 159  437.0342
 160  422.4729
 161  462.9478
 162  493.4966
 163  362.3761
 164  418.3583
 165  417.6227
 166  340.785
 167  334.8638
 168  396.204
 169  391.6854
 170  456.7435
 171  348.6608
 172  340.8759
 173  369.9685
 174  386.6223
 175  496.2939
 176  499.6261
 177  329.6995
 178  270.8247
 179  359.7775
 180  442.0303
 181  331.1039
 182  323.0226
 183  332.243
 184  399.6613
 185  405.1342
 186  428.3538
 187  448.399
 188  392.5089
 189  345.3906
 190  359.9936
 191  402.0797
 192  452.6876
 193  465.7787
 194  440.5884
 195  353.9339
 196  393.5724
 197  520.3833
 198  495.033
 199  470.3907
 200  409.9467
 201  452.7012
 202  411.3821
 203  448.7421
 204  518.4017
 205  519.6337
 206  444.2701
 207  411.665
 208  374.7742
 209  327.7004
 210  432.3116
 211  423.7568
 212  460.7762
 213  439.5909
 214  340.2104
 215  398.2845
 216  411.0751
 217  374.6665
 218  369.1706
 219  413.2261
 220  364.541
 221  152.3523
 222  235.6399
 223  320.1314
 224  362.8366
 225  385.5862
 226  360.5096
 227  345.4467
 228  443.5697
 229  360.0732
 230  391.3861
 231  355.3367
 232  489.3355
 233  362.8011
 234  300.3664
 235  343.4362
 236  397.4676
 237  554.1957
 238  660.6555
 239  586.77
 240  448.5262
 241  392.1634
 242  415.8468
 243  290.2069
 244  352.0896
 245  435.0718
 246  437.4119
 247  484.3445
 248  679.6341
 249  594.0412
 250  540.7332
 251  404.626
 252  336.1448
 253  423.1286
 254  321.2339
 255  360.2173
 256  396.5451
 257  532.7376
 258  485.3235
 259  515.8665
 260  488.6693
 261  378.6995
 262  329.6794
 263  291.1193
 264  361.7534
 265  493.3519
 266  527.851
 267  437.7184
 268  306.468
 269  254.7511
 270  293.6818
 271  347.5418
 272  378.376
 273  423.959
 274  302.1407
 275  305.76
 276  324.8933
 277  377.8604
 278  436.0462
 279  385.7612
 280  393.7651
 281  469.6548
 282  416.1726
 283  420.2659
 284  496.2278
 285  431.7115
 286  373.4441
 287  455.3761
 288  502.6642
 289  601.9372
 290  479.6391
 291  341.9038
 292  316.5583
 293  347.766
 294  318.6074
 295  362.5946
 296  421.2173
 297  443.4487
 298  315.6329
 299  312.9668
 300  349.3571
 301  414.7969
 302  440.2964
 303  357.0095
 304  378.5882
 305  344.4437
 306  348.7909
 307  423.2704
 308  439.8715
 309  460.4245
 310  377.7872
 311  396.3489
 312  404.8705
 313  377.3243
 314  432.507
 315  454.23
 316  343.5129
 317  405.7607
 318  506.5082
 319  410.8561
 320  341.6108
 321  501.6249
 322  438.7348
 323  467.8678
 324  542.0154
 325  434.7064
 326  430.8481
 327  594.2126
 328  659.077
 329  561.5234
 330  474.9128
 331  394.9646
 332  431.7591
 333  500.1384
 334  584.7012
 335  514.7196
 336  456.9592
 337  593.7436
 338  488.0242
 339  329.4028
 340  347.9793
 341  380.2961
 342  396.5842
 343  399.331
 344  515.5654
 345  518.1493
 346  373.4102
 347  331.4151
 348  427.5338
 349  505.851
 350  538.2493
 351  581.4536
 352  480.3798
 353  457.5381
 354  329.433
 355  324.24
 356  330.782
 357  365.2804
 358  349.054
 359  309.2791
 360  309.7386
 361  391.8875
 362  406.6501
 363  323.7366
 364  394.3326
 365  400.5786
 366  390.0568
 367  403.3422
 368  372.7658
 369  379.3708
 370  444.5091
 371  506.5978
 372  466.0052
 373  438.03
 374  467.8389
 375  537.1288
 376  507.3215
 377  540.4584
 378  475.4893
 379  405.3798
 380  380.5087
 381  385.2896
 382  316.3148
 383  330.7744
 384  370.4601
 385  408.2785
 386  410.7361
 387  469.5898
 388  548.9244
 389  408.4152
 390  377.0631
 391  379.687
 392  419.593
 393  420.9554
 394  476.9552
 395  484.441
 396  405.215
 397  392.1088
 398  400.6819
 399  408.8364
 400  463.8783
 401  347.6875
 402  505.6058
 403  573.1417
 404  465.9823
 405  464.5057
 406  462.6026
 407  467.9548
 408  417.2654
 409  546.0309
 410  438.8806
 411  376.8009
 412  278.6959
 413  382.2374
 414  357.7509
 415  459.5968
 416  409.0961
 417  406.5271
 418  427.7882
 419  484.9461
 420  461.4849
 421  438.3428
 422  272.3263
 423  300.2838
 424  389.4497
 425  366.0152
 426  194.6468
 427  313.6853
 428  391.4991
 429  316.2663
 430  346.3355
 431  248.4818
 432  183.3583
 433  269.5754
 434  188.1353
 435  208.4194
 436  223.6997
 437  258.1784
 438  449.3538
 439  326.5575
 440  335.0272
 441  319.1653
 442  264.707
 443  353.2281
 444  307.567
 445  335.1527
 446  442.8001
 447  411.0236
 448  284.5578
 449  245.1122
 450  180.1653
 451  287.0491
 452  298.7609
 453  279.123
 454  389.0639
 455  425.1838
 456  231.9785
 457  302.4676
 458  400.6775
 459  450.6018
 460  439.3701
 461  477.9265
 462  399.0399
 463  295.5096
 464  231.8506
 465  152.137
 466  149.2227
 467  227.8176
 468  252.9141
 469  247.2724
 470  232.4585
 471  324.6182
 472  377.2528
 473  330.8814
 474  295.3394
 475  302.1915
 476  270.7977
 477  269.2521
 478  362.6992
 479  404.4112
 480  348.29
 481  246.3907
 482  264.1378
 483  322.4935
 484  299.7315
 485  181.8653
 486  285.3667
 487  381.8127
 488  362.1693
 489  283.2702
 490  408.3286
 491  356.0134
 492  284.9476
 493  446.6019
 494  417.1388
 495  447.517
 496  511.0768
 497  418.786
 498  516.8427
 499  531.4313
 500  445.866
 501  315.2647
 502  323.7783
 503  400.3913
 504  492.1011
 505  485.0868
 506  517.8456
 507  387.9028
 508  395.5925
 509  480.6891
 510  524.0936
 511  697.7492
