# Input file       =  1180753068.109029_cleaned.dat
# Candidate        =  PSR_0332+5434
# Telescope        =  AR
# Epoch_topo       =  57910.123265150796
# Epoch_bary       =  N/A
# T_sample         =  0.002
# Data Folded      =  7143424
# Data Avg         =  0.0309779482298978
# Data StdDev      =  1.00003586073792 
# Profile Bins     =  512
# Profile Avg      =  432.191418866586 
# Profile StdDev   =  118.122820301469 
# Reduced chi-sqr  =  1.018
# Prob(Noise)      <  0.38   (~0.3 sigma)
# P_topo (ms)      =  714.511605920553  +/- 0.000538
# P'_topo (s/s)    =  -0                +/- 2.92e-10
# P''_topo (s/s^2) =  0                 +/- 1.32e-13
# P_bary (ms)      =  N/A
# P'_bary (s/s)    =  N/A
# P''_bary (s/s^2) =  N/A
# P_orb (s)        =  N/A
# asin(i)/c (s)    =  N/A
# eccentricity     =  N/A
# w (rad)          =  N/A
# T_peri           =  N/A
######################################################
   0  897.6381
   1  910.2802
   2  855.2673
   3  505.4477
   4  442.563
   5  454.9345
   6  445.5115
   7  424.9847
   8  479.5496
   9  454.8941
  10  436.7083
  11  437.07
  12  391.3159
  13  436.0488
  14  503.8306
  15  440.2795
  16  397.6628
  17  402.3274
  18  327.6947
  19  371.4363
  20  456.8998
  21  463.046
  22  422.2518
  23  469.338
  24  446.5203
  25  383.304
  26  431.8479
  27  490.8581
  28  325.8522
  29  359.9291
  30  544.3894
  31  518.4552
  32  466.1784
  33  455.9659
  34  510.4805
  35  410.266
  36  494.3774
  37  507.8994
  38  523.0561
  39  468.1873
  40  391.5684
  41  373.324
  42  454.2531
  43  404.4313
  44  558.402
  45  436.0794
  46  408.096
  47  476.3377
  48  503.938
  49  605.9137
  50  556.6734
  51  492.8658
  52  507.1356
  53  438.6319
  54  506.2034
  55  392.0281
  56  409.6167
  57  386.0341
  58  463.7072
  59  409.8134
  60  469.7691
  61  352.4789
  62  330.3368
  63  357.6238
  64  446.3047
  65  448.2308
  66  472.7924
  67  525.334
  68  417.9813
  69  543.4639
  70  597.5002
  71  547.7485
  72  473.9259
  73  252.8556
  74  387.6642
  75  336.7461
  76  457.1538
  77  446.2306
  78  423.2027
  79  476.7501
  80  370.1992
  81  523.2548
  82  496.4643
  83  363.4092
  84  423.1951
  85  388.4911
  86  339.9765
  87  228.8338
  88  324.4004
  89  392.3943
  90  400.4372
  91  328.8247
  92  460.7508
  93  416.2161
  94  313.2592
  95  236.2747
  96  265.9271
  97  393.951
  98  442.7368
  99  442.3892
 100  475.3931
 101  481.056
 102  545.6313
 103  404.9442
 104  358.2386
 105  402.3916
 106  479.5857
 107  428.6966
 108  434.9011
 109  427.955
 110  364.5433
 111  409.3351
 112  398.3926
 113  425.4814
 114  521.7871
 115  465.3212
 116  455.5275
 117  480.8414
 118  613.004
 119  654.9594
 120  585.0221
 121  393.3822
 122  406.1794
 123  524.0544
 124  497.4811
 125  421.9818
 126  465.7134
 127  595.3415
 128  501.8188
 129  409.61
 130  444.0496
 131  419.2364
 132  447.6957
 133  387.245
 134  364.6545
 135  467.2969
 136  597.6089
 137  461.2262
 138  466.6385
 139  494.4601
 140  411.2475
 141  341.8167
 142  384.3741
 143  476.8711
 144  419.2717
 145  417.6728
 146  489.2584
 147  465.8284
 148  427.0127
 149  470.8822
 150  430.425
 151  346.2099
 152  394.3547
 153  335.6877
 154  331.6011
 155  363.8073
 156  488.4794
 157  492.2128
 158  402.8813
 159  511.2708
 160  491.6876
 161  420.4889
 162  562.7126
 163  537.7966
 164  448.1795
 165  351.446
 166  445.4222
 167  492.1399
 168  530.3958
 169  492.2852
 170  419.2062
 171  369.6663
 172  394.7228
 173  383.8528
 174  349.6089
 175  361.4379
 176  366.7157
 177  330.4307
 178  415.8866
 179  324.7757
 180  344.1914
 181  365.5471
 182  360.3008
 183  359.1046
 184  411.2473
 185  450.5036
 186  446.6635
 187  389.0925
 188  387.2488
 189  522.9202
 190  422.6371
 191  526.5245
 192  480.7204
 193  419.7883
 194  409.1067
 195  387.9301
 196  432.308
 197  458.6336
 198  489.3307
 199  536.1921
 200  566.085
 201  578.6585
 202  465.2427
 203  416.4769
 204  368.9544
 205  380.7589
 206  376.7144
 207  403.0587
 208  480.3865
 209  495.5893
 210  524.8344
 211  387.1651
 212  326.8332
 213  403.249
 214  470.6693
 215  428.9084
 216  351.8872
 217  349.6647
 218  370.0293
 219  267.3936
 220  366.0037
 221  387.6396
 222  369.4449
 223  384.135
 224  397.3469
 225  248.984
 226  259.2975
 227  346.4743
 228  274.6413
 229  352.0546
 230  418.3763
 231  424.3421
 232  295.5203
 233  322.2623
 234  359.2244
 235  348.8746
 236  447.306
 237  420.8662
 238  341.8004
 239  323.7088
 240  404.1191
 241  420.0814
 242  364.7644
 243  360.4786
 244  315.015
 245  383.2031
 246  362.4944
 247  434.1517
 248  370.9047
 249  414.2675
 250  444.7806
 251  462.6151
 252  505.6374
 253  526.4152
 254  524.7736
 255  412.4527
 256  465.9273
 257  331.0587
 258  436.0696
 259  497.7458
 260  382.8794
 261  369.5311
 262  486.6745
 263  551.804
 264  473.2458
 265  382.0774
 266  369.26
 267  378.8428
 268  385.2684
 269  451.5088
 270  520.202
 271  444.8782
 272  443.071
 273  474.2102
 274  537.0917
 275  505.3589
 276  387.8662
 277  459.2192
 278  420.5431
 279  399.0352
 280  377.589
 281  248.1276
 282  415.4314
 283  431.4458
 284  450.1542
 285  574.9474
 286  489.5595
 287  360.4769
 288  243.6649
 289  347.1943
 290  319.7147
 291  367.2052
 292  404.6587
 293  337.6151
 294  314.0177
 295  291.551
 296  457.341
 297  426.1677
 298  435.443
 299  471.7324
 300  556.298
 301  477.3973
 302  409.2976
 303  376.6023
 304  401.3234
 305  414.1269
 306  355.2225
 307  481.0605
 308  478.4827
 309  424.1097
 310  529.7209
 311  312.1573
 312  381.1657
 313  336.9168
 314  415.273
 315  454.6908
 316  427.6307
 317  528.9774
 318  398.9412
 319  284.506
 320  284.2762
 321  382.8705
 322  354.743
 323  422.0087
 324  415.382
 325  431.412
 326  470.6346
 327  395.2406
 328  491.9703
 329  412.201
 330  429.317
 331  417.9534
 332  512.063
 333  518.2734
 334  386.1844
 335  407.8698
 336  418.2448
 337  473.177
 338  430.9943
 339  438.3732
 340  441.0367
 341  405.0365
 342  471.9849
 343  526.6241
 344  468.1066
 345  513.5374
 346  438.4302
 347  453.1413
 348  550.8588
 349  508.6175
 350  462.8815
 351  450.2233
 352  504.6215
 353  505.0538
 354  404.2673
 355  309.8463
 356  411.0692
 357  395.9066
 358  493.5048
 359  321.5444
 360  276.2082
 361  305.5886
 362  420.3604
 363  382.0287
 364  357.8701
 365  407.2184
 366  333.556
 367  417.5084
 368  396.3806
 369  464.2065
 370  386.5529
 371  349.5265
 372  461.5452
 373  374.0766
 374  374.7383
 375  442.7089
 376  468.293
 377  417.7123
 378  345.7175
 379  369.7664
 380  431.0068
 381  446.5964
 382  441.1644
 383  483.7859
 384  432.839
 385  402.9047
 386  360.3414
 387  363.1785
 388  543.2033
 389  495.7303
 390  561.8469
 391  470.0181
 392  501.5449
 393  526.211
 394  484.5284
 395  434.4951
 396  400.827
 397  383.8963
 398  471.5181
 399  458.2321
 400  451.4331
 401  409.2908
 402  451.448
 403  453.6996
 404  394.3724
 405  321.1668
 406  435.1443
 407  525.5803
 408  534.6682
 409  563.0222
 410  470.7131
 411  537.2827
 412  667.1738
 413  503.903
 414  382.2454
 415  468.5189
 416  480.3668
 417  468.7666
 418  465.9039
 419  438.5101
 420  435.9657
 421  380.1886
 422  439.6049
 423  439.38
 424  381.0764
 425  489.4878
 426  474.3433
 427  437.878
 428  390.3785
 429  352.2155
 430  308.5584
 431  357.5486
 432  381.2889
 433  382.6721
 434  248.4889
 435  254.9005
 436  333.2195
 437  358.0094
 438  327.4348
 439  408.3625
 440  432.0802
 441  492.9139
 442  420.0536
 443  285.9659
 444  378.0098
 445  378.6566
 446  311.8516
 447  361.5898
 448  484.4494
 449  584.0061
 450  576.9346
 451  489.5081
 452  354.4529
 453  318.3404
 454  340.8542
 455  429.5543
 456  294.4677
 457  359.4424
 458  467.1672
 459  368.3141
 460  306.3467
 461  342.9658
 462  427.3223
 463  315.9601
 464  337.0211
 465  510.9476
 466  467.0518
 467  413.5084
 468  407.4876
 469  417.6051
 470  396.3837
 471  482.5334
 472  496.2845
 473  420.9052
 474  412.7406
 475  429.7062
 476  363.6368
 477  324.4334
 478  356.513
 479  357.0263
 480  337.628
 481  451.9077
 482  522.8383
 483  399.5375
 484  321.7856
 485  395.3086
 486  438.7698
 487  442.2124
 488  352.0125
 489  422.0454
 490  373.4574
 491  446.9359
 492  566.2745
 493  490.9976
 494  441.5504
 495  536.0392
 496  440.3918
 497  485.4256
 498  502.1981
 499  593.6516
 500  597.6642
 501  432.2536
 502  392.9464
 503  387.6275
 504  470.5557
 505  586.079
 506  606.7718
 507  647.0276
 508  595.4113
 509  750.6567
 510  791.9898
 511  875.8354
