# Input file       =  1180580777.110533_cleaned.dat
# Candidate        =  PSR_0332+5434
# Telescope        =  AR
# Epoch_topo       =  57908.129156371913
# Epoch_bary       =  N/A
# T_sample         =  0.002
# Data Folded      =  7143424
# Data Avg         =  0.0274997578695951
# Data StdDev      =  1.00004831529701 
# Profile Bins     =  512
# Profile Avg      =  383.662546104331 
# Profile StdDev   =  118.124291416359 
# Reduced chi-sqr  =  1.096
# Prob(Noise)      <  0.0648   (~1.5 sigma)
# P_topo (ms)      =  714.513528630185  +/- 0.000223
# P'_topo (s/s)    =  -0                +/- 1.21e-10
# P''_topo (s/s^2) =  0                 +/- 5.48e-14
# P_bary (ms)      =  N/A
# P'_bary (s/s)    =  N/A
# P''_bary (s/s^2) =  N/A
# P_orb (s)        =  N/A
# asin(i)/c (s)    =  N/A
# eccentricity     =  N/A
# w (rad)          =  N/A
# T_peri           =  N/A
######################################################
   0  368.62
   1  498.9624
   2  575.8823
   3  371.0177
   4  465.0005
   5  401.9486
   6  352.5282
   7  279.338
   8  374.6051
   9  531.4437
  10  507.0854
  11  379.0085
  12  343.933
  13  372.4236
  14  407.6761
  15  424.934
  16  348.1412
  17  228.1776
  18  368.3033
  19  342.1084
  20  288.2702
  21  240.9714
  22  226.4994
  23  206.7819
  24  282.8253
  25  190.3944
  26  268.0525
  27  192.3225
  28  304.4214
  29  343.8636
  30  191.7412
  31  266.2937
  32  334.466
  33  416.0023
  34  393.2584
  35  300.8261
  36  339.8763
  37  364.0637
  38  311.6232
  39  303.0671
  40  300.3546
  41  310.178
  42  330.2698
  43  355.0634
  44  335.0626
  45  367.4347
  46  328.3533
  47  385.5085
  48  395.6198
  49  356.6773
  50  410.0626
  51  463.5392
  52  425.3505
  53  334.7685
  54  327.6881
  55  424.6812
  56  471.5135
  57  527.4736
  58  509.684
  59  515.0304
  60  454.4353
  61  458.0903
  62  517.517
  63  543.7241
  64  597.9703
  65  585.3227
  66  452.2572
  67  390.8624
  68  460.2155
  69  512.0143
  70  542.1928
  71  451.7602
  72  353.5265
  73  411.0005
  74  371.4826
  75  355.7516
  76  449.5205
  77  416.3339
  78  450.6874
  79  384.3869
  80  297.3022
  81  365.2708
  82  506.9032
  83  540.8533
  84  377.7273
  85  485.5495
  86  476.0734
  87  343.3995
  88  379.3677
  89  405.9955
  90  307.7614
  91  270.828
  92  349.0049
  93  315.0171
  94  287.9803
  95  377.1297
  96  398.6177
  97  437.2309
  98  390.0341
  99  392.7972
 100  340.8268
 101  354.0059
 102  350.9369
 103  357.3851
 104  389.9868
 105  340.2543
 106  306.2333
 107  410.2917
 108  428.1578
 109  386.0987
 110  372.419
 111  396.6553
 112  347.451
 113  366.9343
 114  328.0464
 115  334.3994
 116  271.7136
 117  363.769
 118  387.2963
 119  428.1367
 120  437.7798
 121  351.6741
 122  291.7684
 123  336.537
 124  379.0031
 125  373.6969
 126  345.3932
 127  448.7997
 128  389.9739
 129  354.8894
 130  467.488
 131  473.3065
 132  442.8949
 133  329.6224
 134  402.5803
 135  336.4522
 136  311.8842
 137  450.1487
 138  509.2013
 139  391.6694
 140  355.799
 141  362.4527
 142  316.8852
 143  426.4038
 144  485.7219
 145  495.1219
 146  456.7943
 147  414.8096
 148  354.5072
 149  425.6883
 150  567.4332
 151  438.0565
 152  417.1483
 153  368.0198
 154  431.3538
 155  315.9828
 156  394.9936
 157  435.8483
 158  345.8002
 159  436.38
 160  399.6036
 161  414.9386
 162  370.8766
 163  397.946
 164  420.2618
 165  235.9828
 166  299.1819
 167  359.8761
 168  332.395
 169  379.9832
 170  375.8061
 171  314.0782
 172  214.6937
 173  247.9918
 174  323.9445
 175  496.7771
 176  468.1989
 177  366.4916
 178  380.0294
 179  348.3782
 180  367.3413
 181  387.5309
 182  264.097
 183  278.7762
 184  408.9207
 185  361.1158
 186  258.7503
 187  265.8302
 188  293.1904
 189  270.7858
 190  353.7836
 191  428.9755
 192  400.3676
 193  413.11
 194  411.0659
 195  375.2361
 196  380.8785
 197  415.0569
 198  373.0192
 199  370.3109
 200  364.4143
 201  376.5676
 202  387.2212
 203  441.5134
 204  424.7146
 205  476.8493
 206  470.2553
 207  386.8639
 208  378.0003
 209  421.5984
 210  334.7597
 211  388.6395
 212  352.2907
 213  195.1988
 214  321.2555
 215  466.5027
 216  438.8065
 217  359.6303
 218  265.411
 219  356.7647
 220  344.192
 221  340.9228
 222  395.8294
 223  341.8979
 224  309.0887
 225  324.4768
 226  342.6299
 227  446.484
 228  433.1263
 229  464.0832
 230  483.2501
 231  454.9832
 232  440.4102
 233  391.5688
 234  444.6774
 235  489.549
 236  358.945
 237  327.2073
 238  379.9172
 239  450.4043
 240  478.4746
 241  422.126
 242  303.4783
 243  328.8882
 244  277.8004
 245  361.7668
 246  487.5639
 247  318.2466
 248  319.6507
 249  313.2987
 250  328.2312
 251  325.2991
 252  436.5711
 253  421.1004
 254  305.0027
 255  284.9275
 256  326.5457
 257  304.9962
 258  442.1716
 259  503.6601
 260  302.6447
 261  289.0836
 262  224.1496
 263  303.3763
 264  449.5803
 265  362.5191
 266  264.2223
 267  386.6577
 268  405.1936
 269  464.6486
 270  360.3256
 271  309.0789
 272  450.1974
 273  410.6011
 274  378.8261
 275  484.3535
 276  494.6594
 277  518.713
 278  402.5461
 279  453.7291
 280  494.1723
 281  344.8339
 282  413.2979
 283  453.5571
 284  339.8101
 285  348.8167
 286  417.5995
 287  406.7377
 288  308.5518
 289  280.5728
 290  254.8403
 291  261.3033
 292  365.5148
 293  419.2614
 294  302.4353
 295  233.1769
 296  275.3808
 297  227.1693
 298  267.4171
 299  315.5193
 300  404.6425
 301  218.5276
 302  306.0065
 303  194.7547
 304  131.8686
 305  158.5261
 306  312.7032
 307  265.5845
 308  354.1824
 309  371.9913
 310  365.9529
 311  292.6881
 312  305.4294
 313  354.9106
 314  328.415
 315  386.3674
 316  381.2934
 317  372.5517
 318  286.7851
 319  306.8322
 320  406.0167
 321  353.8615
 322  405.2103
 323  319.0114
 324  307.8605
 325  317.8839
 326  458.5933
 327  440.22
 328  400.7454
 329  402.6643
 330  393.9037
 331  304.6126
 332  254.9891
 333  261.5374
 334  373.2676
 335  359.974
 336  393.5439
 337  276.6509
 338  301.5862
 339  300.7109
 340  310.7535
 341  329.8201
 342  307.3944
 343  334.9647
 344  224.5453
 345  370.9171
 346  433.577
 347  368.8098
 348  336.2724
 349  311.501
 350  301.7484
 351  407.617
 352  325.7741
 353  348.4006
 354  356.186
 355  308.308
 356  354.2015
 357  273.0865
 358  375.7076
 359  321.1337
 360  327.4258
 361  369.5214
 362  354.3408
 363  328.9052
 364  323.4247
 365  287.7913
 366  374.2603
 367  399.065
 368  361.0829
 369  358.7576
 370  335.855
 371  300.4326
 372  306.6078
 373  376.748
 374  369.9539
 375  382.0979
 376  458.1676
 377  337.327
 378  388.1139
 379  389.6268
 380  527.5464
 381  584.4926
 382  727.8522
 383  926.9254
 384  893.8295
 385  754.9449
 386  633.3881
 387  489.2882
 388  461.4617
 389  498.0541
 390  518.6983
 391  415.7587
 392  358.3462
 393  342.3539
 394  280.2801
 395  360.6566
 396  561.6481
 397  388.8043
 398  290.429
 399  350.4421
 400  506.8773
 401  470.2382
 402  538.8159
 403  498.0614
 404  486.2539
 405  375.9733
 406  267.1366
 407  388.18
 408  445.8046
 409  428.2703
 410  362.4229
 411  294.73
 412  319.5764
 413  343.3199
 414  372.8069
 415  292.5312
 416  395.625
 417  478.6697
 418  508.7928
 419  477.3145
 420  482.0037
 421  424.5965
 422  419.371
 423  520.4216
 424  584.9108
 425  392.7937
 426  325.2586
 427  429.9674
 428  474.0454
 429  388.2326
 430  414.5245
 431  401.2553
 432  372.6341
 433  242.6616
 434  208.6133
 435  391.1769
 436  454.6693
 437  438.7164
 438  321.7409
 439  348.7653
 440  595.0448
 441  529.3022
 442  464.6132
 443  544.7256
 444  536.1433
 445  541.8596
 446  483.5814
 447  448.2919
 448  459.2173
 449  395.4686
 450  418.5615
 451  482.2157
 452  499.8469
 453  482.7468
 454  442.2987
 455  409.3318
 456  387.7934
 457  285.6371
 458  250.4864
 459  350.2819
 460  459.9474
 461  424.5304
 462  346.9518
 463  248.4595
 464  310.0751
 465  320.4177
 466  304.8179
 467  259.7646
 468  314.1019
 469  295.0421
 470  309.1761
 471  401.7908
 472  437.4134
 473  528.9008
 474  376.5022
 475  276.0498
 476  286.6535
 477  387.9634
 478  362.3882
 479  364.4894
 480  370.361
 481  404.4359
 482  440.7548
 483  428.7577
 484  486.2131
 485  395.4164
 486  341.7012
 487  442.2035
 488  555.2739
 489  564.9866
 490  518.231
 491  528.714
 492  496.3368
 493  465.1109
 494  523.1283
 495  512.2615
 496  453.6488
 497  430.6861
 498  331.7715
 499  348.2327
 500  273.1249
 501  404.9552
 502  432.0168
 503  449.8849
 504  426.1029
 505  286.3116
 506  369.493
 507  382.721
 508  327.4262
 509  373.7708
 510  345.1765
 511  379.8065
