# Input file       =  1180322240.108938_cleaned.dat
# Candidate        =  PSR_0332+5434
# Telescope        =  AR
# Epoch_topo       =  57905.136829964562
# Epoch_bary       =  N/A
# T_sample         =  0.002
# Data Folded      =  7143424
# Data Avg         =  0.0318421812299051
# Data StdDev      =  0.999900452066597
# Profile Bins     =  512
# Profile Avg      =  444.221781374658 
# Profile StdDev   =  118.106826020886 
# Reduced chi-sqr  =  1.098
# Prob(Noise)      <  0.0621   (~1.5 sigma)
# P_topo (ms)      =  714.516438164809  +/- 0.000163
# P'_topo (s/s)    =  -0                +/- 8.85e-11
# P''_topo (s/s^2) =  0                 +/- 4.02e-14
# P_bary (ms)      =  N/A
# P'_bary (s/s)    =  N/A
# P''_bary (s/s^2) =  N/A
# P_orb (s)        =  N/A
# asin(i)/c (s)    =  N/A
# eccentricity     =  N/A
# w (rad)          =  N/A
# T_peri           =  N/A
######################################################
   0  409.997
   1  482.2422
   2  511.6492
   3  454.1843
   4  376.276
   5  347.7688
   6  373.7337
   7  372.096
   8  418.5082
   9  426.7094
  10  402.9002
  11  391.3923
  12  369.465
  13  372.9207
  14  315.1219
  15  373.4187
  16  448.2842
  17  469.6848
  18  388.7568
  19  423.3539
  20  459.7899
  21  516.0201
  22  532.4214
  23  495.8019
  24  538.1891
  25  484.3205
  26  498.4179
  27  519.0451
  28  434.9346
  29  481.4405
  30  479.0767
  31  491.1935
  32  515.5033
  33  488.0169
  34  412.672
  35  479.1949
  36  520.9554
  37  368.8543
  38  395.1154
  39  466.5202
  40  452.2408
  41  472.0534
  42  457.901
  43  297.2504
  44  317.3923
  45  401.4082
  46  360.9423
  47  372.5762
  48  417.4461
  49  388.7299
  50  372.395
  51  297.4561
  52  271.7378
  53  342.3099
  54  440.4964
  55  354.1745
  56  478.5997
  57  507.2574
  58  384.7055
  59  308.9573
  60  376.6567
  61  281.2023
  62  234.524
  63  357.6049
  64  487.6012
  65  370.6548
  66  448.9846
  67  320.6459
  68  275.6227
  69  328.9345
  70  465.5263
  71  478.4116
  72  360.7474
  73  410.1397
  74  487.0396
  75  407.5871
  76  346.6275
  77  417.5587
  78  327.7243
  79  346.862
  80  383.4229
  81  469.5917
  82  443.414
  83  388.6478
  84  345.5745
  85  436.7915
  86  454.3066
  87  307.786
  88  325.6821
  89  435.6971
  90  379.6225
  91  356.322
  92  367.8368
  93  436.0714
  94  473.4078
  95  399.7892
  96  410.7058
  97  404.4133
  98  407.1622
  99  409.6254
 100  394.8189
 101  338.8907
 102  369.6486
 103  390.8665
 104  428.9909
 105  479.9096
 106  512.0258
 107  487.2205
 108  470.868
 109  407.2961
 110  474.9579
 111  449.4317
 112  383.371
 113  378.7215
 114  408.1705
 115  419.3337
 116  449.4285
 117  528.8618
 118  514.7344
 119  429.9864
 120  494.0654
 121  568.9278
 122  608.129
 123  549.0684
 124  541.1538
 125  620.8102
 126  652.5559
 127  687.9244
 128  875.9655
 129  909.4749
 130  942.8884
 131  773.4366
 132  688.3892
 133  580.2421
 134  519.4393
 135  455.1185
 136  405.9761
 137  450.6842
 138  498.5792
 139  519.6975
 140  451.4894
 141  428.8742
 142  544.6354
 143  539.2136
 144  573.4731
 145  523.696
 146  573.1093
 147  542.0907
 148  456.1796
 149  380.8141
 150  368
 151  399.5597
 152  436.4493
 153  458.6994
 154  351.4723
 155  390.3163
 156  443.1099
 157  462.5679
 158  470.7441
 159  433.8981
 160  374.3555
 161  349.7907
 162  425.497
 163  413.7526
 164  471.3452
 165  474.3286
 166  291.8346
 167  295.1476
 168  407.4243
 169  414.541
 170  467.8211
 171  478.5589
 172  515.8851
 173  421.3685
 174  330.2762
 175  359.9071
 176  324.2427
 177  322.2665
 178  314.0773
 179  316.101
 180  341.3472
 181  358.8816
 182  405.6562
 183  487.5318
 184  490.5807
 185  454.1856
 186  303.8452
 187  335.5881
 188  458.9602
 189  548.2683
 190  478.6092
 191  443.3258
 192  420.2276
 193  337.7943
 194  392.903
 195  398.6751
 196  364.893
 197  464.5287
 198  484.7632
 199  434.98
 200  513.125
 201  536.4816
 202  451.3074
 203  478.3829
 204  578.3256
 205  522.9074
 206  478.8405
 207  438.8413
 208  398.7444
 209  362.7841
 210  471.3935
 211  508.3222
 212  340.5342
 213  414.9327
 214  463.757
 215  317.4456
 216  324.6134
 217  421.6004
 218  463.7235
 219  421.8731
 220  313.1992
 221  407.7468
 222  453.4521
 223  531.5574
 224  465.9572
 225  441.561
 226  397.1142
 227  333.9762
 228  420.1197
 229  407.6717
 230  409.257
 231  500.3511
 232  446.5898
 233  374.2162
 234  303.8908
 235  289.1975
 236  326.0163
 237  411.9798
 238  460.7275
 239  415.7315
 240  474.8848
 241  344.1776
 242  421.4641
 243  546.6253
 244  417.1248
 245  411.7124
 246  405.2855
 247  434.4806
 248  374.2868
 249  231.8077
 250  361.9839
 251  401.7885
 252  496.2395
 253  498.9021
 254  476.3459
 255  444.7116
 256  414.1678
 257  431.9356
 258  508.9253
 259  485.4848
 260  439.3175
 261  387.2585
 262  328.1524
 263  429.3896
 264  439.3966
 265  365.8415
 266  379.2704
 267  390.3422
 268  404.5465
 269  370.8477
 270  403.4271
 271  426.7008
 272  453.7973
 273  479.6787
 274  404.9569
 275  328.1381
 276  289.0599
 277  362.8731
 278  385.9944
 279  447.7459
 280  358.7277
 281  300.4632
 282  430.445
 283  433.2405
 284  482.5718
 285  602.1183
 286  600.4086
 287  545.5908
 288  574.545
 289  520.4534
 290  455.6784
 291  418.4934
 292  508.0726
 293  476.0685
 294  468.7232
 295  615.3779
 296  452.148
 297  464.7587
 298  380.5175
 299  308.7991
 300  463.1016
 301  383.2429
 302  414.6828
 303  541.7446
 304  625.5799
 305  532.8038
 306  567.9914
 307  587.7574
 308  451.8867
 309  309.1457
 310  440.1868
 311  507.0908
 312  471.5873
 313  527.7552
 314  524.5918
 315  379.8842
 316  361.6607
 317  442.0635
 318  486.0577
 319  506.8667
 320  583.9293
 321  487.7249
 322  398.1441
 323  362.2678
 324  473.2616
 325  509.5994
 326  402.8411
 327  509.6431
 328  582.5601
 329  639.0091
 330  728.7083
 331  626.6801
 332  557.9391
 333  592.0746
 334  547.1903
 335  462.7267
 336  562.2803
 337  596.7945
 338  615.1119
 339  468.1951
 340  351.0743
 341  349.9251
 342  375.4762
 343  511.0837
 344  516.8011
 345  475.092
 346  490.6803
 347  499.9375
 348  466.67
 349  387.3492
 350  373.2238
 351  405.487
 352  438.2898
 353  435.0562
 354  459.7933
 355  442.8678
 356  520.5665
 357  493.3384
 358  416.1821
 359  511.4196
 360  463.2771
 361  480.5783
 362  542.7014
 363  524.4384
 364  556.0784
 365  583.9543
 366  454.9232
 367  437.8188
 368  502.1557
 369  449.0496
 370  461.0658
 371  629.4225
 372  650.4216
 373  469.1764
 374  282.5647
 375  348.0475
 376  284.22
 377  315.5273
 378  421.915
 379  456.7498
 380  354.1979
 381  284.7608
 382  436.1236
 383  388.1641
 384  427.9679
 385  338.2451
 386  475.5081
 387  432.0146
 388  402.3587
 389  324.9753
 390  320.7271
 391  420.5196
 392  461.2333
 393  435.769
 394  473.2954
 395  443.8014
 396  480.5327
 397  451.3003
 398  476.2793
 399  510.3754
 400  533.3573
 401  515.3627
 402  403.5904
 403  474.5211
 404  603.7536
 405  512.0444
 406  385.0162
 407  497.8447
 408  546.6149
 409  448.4514
 410  417.1794
 411  343.5326
 412  419.1969
 413  442.3209
 414  416.8086
 415  378.0071
 416  485.7246
 417  471.9337
 418  369.429
 419  481.4282
 420  498.1215
 421  392.8012
 422  421.2072
 423  466.6855
 424  361.9981
 425  390.8044
 426  447.674
 427  361.1617
 428  396.0636
 429  415.7772
 430  374.4256
 431  325.3112
 432  383.1472
 433  404.2605
 434  254.0065
 435  434.0399
 436  420.6697
 437  301.977
 438  432.2739
 439  458.2957
 440  414.7193
 441  423.1714
 442  484.8474
 443  430.168
 444  391.3819
 445  388.6071
 446  309.6837
 447  325.2069
 448  358.4156
 449  397.6738
 450  365.832
 451  412.9226
 452  398.5169
 453  441.0284
 454  426.9337
 455  436.442
 456  434.6545
 457  465.978
 458  603.1321
 459  519.2209
 460  543.7018
 461  562.6705
 462  609.9818
 463  459.323
 464  465.5192
 465  485.5917
 466  377.6556
 467  367.7326
 468  363.1982
 469  443.778
 470  364.287
 471  424.6163
 472  476.5696
 473  387.6301
 474  405.4577
 475  327.1044
 476  368.4587
 477  451.8257
 478  409.0511
 479  481.0802
 480  420.9263
 481  459.2219
 482  497.9331
 483  503.4202
 484  532.1196
 485  523.5547
 486  501.7538
 487  442.9587
 488  491.5591
 489  467.0616
 490  465.2129
 491  355.7301
 492  261.0205
 493  382.6185
 494  571.7348
 495  643.9745
 496  530.8909
 497  538.9794
 498  505.0262
 499  493.8942
 500  558.6894
 501  652.6908
 502  642.1407
 503  502.021
 504  599.2064
 505  573.4156
 506  458.2034
 507  390.0094
 508  401.1259
 509  645.1505
 510  557.8802
 511  430.384
