# Input file       =  1180408342.103741_cleaned.dat
# Candidate        =  PSR_0332+5434
# Telescope        =  AR
# Epoch_topo       =  57906.133380830332
# Epoch_bary       =  N/A
# T_sample         =  0.002
# Data Folded      =  7208960
# Data Avg         =  0.031162900927539
# Data StdDev      =  1.0001075023988  
# Profile Bins     =  512
# Profile Avg      =  438.728698970993 
# Profile StdDev   =  118.671931939568 
# Reduced chi-sqr  =  1.058
# Prob(Noise)      <  0.177   (~0.9 sigma)
# P_topo (ms)      =  714.515466932529  +/- 0.000461
# P'_topo (s/s)    =  -0                +/- 2.47e-10
# P''_topo (s/s^2) =  0                 +/- 1.11e-13
# P_bary (ms)      =  N/A
# P'_bary (s/s)    =  N/A
# P''_bary (s/s^2) =  N/A
# P_orb (s)        =  N/A
# asin(i)/c (s)    =  N/A
# eccentricity     =  N/A
# w (rad)          =  N/A
# T_peri           =  N/A
######################################################
   0  392.4561
   1  439.4805
   2  519.5694
   3  445.3229
   4  491.9723
   5  504.6994
   6  445.549
   7  472.2209
   8  551.3175
   9  595.8401
  10  562.507
  11  417.4853
  12  368.7931
  13  476.2179
  14  515.3488
  15  385.479
  16  377.4706
  17  442.867
  18  608.2985
  19  520.1426
  20  424.3852
  21  488.9114
  22  542.799
  23  563.4702
  24  502.5283
  25  540.8802
  26  495.1965
  27  554.2344
  28  396.0499
  29  365.7502
  30  450.8126
  31  487.4209
  32  386.8558
  33  388.6606
  34  346.3408
  35  342.3864
  36  498.7739
  37  491.8539
  38  405.3754
  39  429.9286
  40  367.2137
  41  367.3016
  42  339.3973
  43  403.7386
  44  418.2526
  45  354.8571
  46  385.2156
  47  355.5855
  48  414.325
  49  405.9886
  50  431.6711
  51  331.4064
  52  367.1961
  53  422.8659
  54  503.5162
  55  408.6411
  56  428.3943
  57  493.3036
  58  438.1095
  59  432.5099
  60  471.8896
  61  483.0173
  62  466.1881
  63  499.071
  64  445.2758
  65  438.4955
  66  519.5001
  67  449.6118
  68  376.6497
  69  345.8894
  70  368.1658
  71  369.6913
  72  435.6679
  73  349.4317
  74  334.3932
  75  437.9292
  76  461.4215
  77  440.3185
  78  458.1743
  79  430.3407
  80  498.6066
  81  513.0338
  82  536.933
  83  492.6649
  84  439.7433
  85  419.5426
  86  528.8902
  87  457.8714
  88  438.355
  89  561.8239
  90  574.3206
  91  583.6411
  92  458.6007
  93  397.1872
  94  461.9703
  95  406.7138
  96  461.9227
  97  471.2887
  98  486.7498
  99  467.4134
 100  545.9944
 101  482.5278
 102  495.4482
 103  402.2003
 104  498.6772
 105  508.2707
 106  440.8442
 107  449.6095
 108  485.4502
 109  390.8665
 110  397.4557
 111  611.383
 112  662.4388
 113  461.2147
 114  367.1452
 115  368.7834
 116  358.0733
 117  396.5442
 118  348.4011
 119  386.2495
 120  448.504
 121  457.8934
 122  524.1981
 123  480.0544
 124  376.9586
 125  414.639
 126  355.4051
 127  326.0764
 128  403.6256
 129  463.4259
 130  616.7941
 131  468.5008
 132  555.6068
 133  561.2154
 134  512.0349
 135  489.7648
 136  549.9939
 137  502.3497
 138  454.2401
 139  423.0916
 140  501.2953
 141  483.2113
 142  476.6382
 143  504.0403
 144  378.8587
 145  496.2314
 146  486.0597
 147  536.2986
 148  637.1158
 149  534.8588
 150  485.9521
 151  524.6546
 152  550.9955
 153  576.222
 154  555.9999
 155  478.4313
 156  501.0528
 157  501.8592
 158  548.8273
 159  485.7734
 160  451.6452
 161  359.5417
 162  458.5209
 163  433.6997
 164  413.2842
 165  448.7197
 166  434.689
 167  461.8083
 168  407.0772
 169  490.6427
 170  584.1367
 171  485.3791
 172  502.0002
 173  517.5266
 174  399.8256
 175  353.0436
 176  518.9747
 177  570.2855
 178  504.2755
 179  515.8717
 180  700.5265
 181  896.8837
 182  889.7568
 183  936.8665
 184  802.1303
 185  569.9404
 186  591.233
 187  518.1265
 188  336.9141
 189  316.5312
 190  407.7582
 191  403.0719
 192  328.6107
 193  472.227
 194  504.2448
 195  405.7019
 196  459.0354
 197  363.8279
 198  370.4518
 199  368.0853
 200  391.9579
 201  393.3783
 202  406.8878
 203  446.9713
 204  496.2032
 205  495.4281
 206  415.5208
 207  499.7759
 208  473.9715
 209  474.9361
 210  416.9259
 211  396.4178
 212  418.8941
 213  451.7241
 214  450.793
 215  518.3877
 216  410.6954
 217  427.4803
 218  471.1484
 219  459.2992
 220  518.5206
 221  539.1699
 222  512.2883
 223  500.2236
 224  562.1368
 225  633.6999
 226  607.3937
 227  525.0358
 228  507.1224
 229  471.1157
 230  555.1418
 231  532.962
 232  614.7331
 233  468.4523
 234  502.3378
 235  457.893
 236  591.5988
 237  487.722
 238  418.4504
 239  453.746
 240  489.7275
 241  410.1044
 242  473.2993
 243  458.9767
 244  453.3055
 245  418.3103
 246  483.8611
 247  461.7709
 248  586.1163
 249  494.2876
 250  460.3137
 251  428.8862
 252  289.518
 253  293.1939
 254  499.6954
 255  544.6841
 256  510.4846
 257  385.9187
 258  470.4197
 259  434.1278
 260  390.7753
 261  438.2271
 262  551.8737
 263  506.2568
 264  326.858
 265  384.9302
 266  355.5606
 267  364.6203
 268  385.4219
 269  452.6467
 270  459.461
 271  334.5471
 272  351.2086
 273  313.9124
 274  279.3914
 275  312.3676
 276  368.2278
 277  407.6415
 278  325.9692
 279  284.4378
 280  345.2486
 281  388.9141
 282  366.9729
 283  506.398
 284  538.1959
 285  522.3804
 286  366.9546
 287  204.1051
 288  330.7425
 289  432.0591
 290  422.3077
 291  347.5271
 292  352.386
 293  333.3071
 294  395.4551
 295  430.7613
 296  372.978
 297  409.0627
 298  392.0741
 299  366.9034
 300  315.0962
 301  373.2804
 302  452.0061
 303  473.2192
 304  514.1032
 305  517.3923
 306  528.9896
 307  411.9941
 308  495.0112
 309  464.5809
 310  493.2115
 311  489.927
 312  445.8024
 313  365.3001
 314  437.0921
 315  537.5549
 316  477.8981
 317  470.9359
 318  507.4082
 319  462.3831
 320  385.9329
 321  477.327
 322  401.2689
 323  393.3644
 324  423.8659
 325  436.1992
 326  567.1711
 327  513.1268
 328  361.3123
 329  258.7606
 330  372.445
 331  535.1253
 332  413.36
 333  473.1184
 334  432.339
 335  378.4387
 336  402.1341
 337  401.9009
 338  413.1429
 339  465.1041
 340  376.1595
 341  484.5684
 342  653.9956
 343  445.8388
 344  305.6245
 345  390.4743
 346  415.2781
 347  453.1661
 348  429.6916
 349  350.7237
 350  244.1762
 351  401.2561
 352  517.3276
 353  315.551
 354  331.8289
 355  362.9015
 356  336.4039
 357  311.9483
 358  346.0833
 359  417.835
 360  395.0654
 361  478.8321
 362  451.4749
 363  384.11
 364  374.2505
 365  420.1646
 366  473.2219
 367  494.6996
 368  394.2215
 369  468.0357
 370  417.7545
 371  423.6991
 372  376.8609
 373  385.751
 374  484.0982
 375  430.4158
 376  382.0628
 377  394.1867
 378  409.5823
 379  423.7537
 380  447.6696
 381  383.3486
 382  382.0802
 383  360.714
 384  365.4013
 385  341.5988
 386  378.1925
 387  501.0863
 388  596.6965
 389  504.8897
 390  442.8156
 391  470.7518
 392  460.647
 393  393.3668
 394  323.41
 395  453.8089
 396  452.1171
 397  445.8474
 398  572.9418
 399  590.5333
 400  555.0701
 401  455.2571
 402  417.5044
 403  370.2828
 404  353.0149
 405  306.9747
 406  315.0374
 407  311.3015
 408  331.2094
 409  322.8299
 410  334.3929
 411  441.5706
 412  398.8663
 413  424.2045
 414  455.4101
 415  367.2485
 416  367.2437
 417  307.1302
 418  401.1704
 419  375.6289
 420  302.8013
 421  345.6571
 422  321.4935
 423  241.9029
 424  396.3043
 425  422.6115
 426  432.0606
 427  476.8107
 428  443.8982
 429  413.2325
 430  392.0565
 431  515.3418
 432  559.7958
 433  492.5472
 434  481.6681
 435  483.2882
 436  490.5313
 437  528.592
 438  574.5018
 439  592.3558
 440  476.4675
 441  423.4909
 442  533.8815
 443  391.2422
 444  410.5917
 445  546.5609
 446  440.8465
 447  366.4463
 448  466.6925
 449  476.744
 450  545.0223
 451  439.9814
 452  283.5549
 453  249.3606
 454  294.4599
 455  362.3188
 456  371.2278
 457  344.9222
 458  338.8088
 459  399.0372
 460  244.9782
 461  281.8444
 462  368.0589
 463  432.9392
 464  446.9228
 465  370.6896
 466  405.9347
 467  431.2527
 468  302.509
 469  411.5854
 470  485.7427
 471  451.84
 472  510.7449
 473  526.7902
 474  463.717
 475  312.5101
 476  409.9264
 477  340.2072
 478  366.7641
 479  368.5858
 480  362.9596
 481  361.9566
 482  350.5035
 483  442.8405
 484  368.9697
 485  242.7835
 486  337.8413
 487  301.0628
 488  301.1467
 489  388.9531
 490  388.5949
 491  416.703
 492  317.5326
 493  275.2843
 494  281.8871
 495  414.1846
 496  322.0787
 497  275.4991
 498  355.0903
 499  407.6329
 500  287.6212
 501  279.1859
 502  364.3992
 503  421.5085
 504  412.2556
 505  412.9602
 506  484.4684
 507  542.5751
 508  495.109
 509  364.9901
 510  347.2786
 511  304.2761
