# Input file       =  1180767674.113528_cleaned.dat
# Candidate        =  PSR_0332+5434
# Telescope        =  AR
# Epoch_topo       =  57910.292316128798
# Epoch_bary       =  N/A
# T_sample         =  0.002
# Data Folded      =  7340032
# Data Avg         =  0.0269757136285701
# Data StdDev      =  1.00003758640621 
# Profile Bins     =  512
# Profile Avg      =  386.48389454078  
# Profile StdDev   =  119.737536711309 
# Reduced chi-sqr  =  1.709
# Prob(Noise)      <  2.05e-21   (~9.4 sigma)
# P_topo (ms)      =  714.511454789606  +/- 0.00028
# P'_topo (s/s)    =  -0                +/- 1.48e-10
# P''_topo (s/s^2) =  0                 +/- 6.52e-14
# P_bary (ms)      =  N/A
# P'_bary (s/s)    =  N/A
# P''_bary (s/s^2) =  N/A
# P_orb (s)        =  N/A
# asin(i)/c (s)    =  N/A
# eccentricity     =  N/A
# w (rad)          =  N/A
# T_peri           =  N/A
######################################################
   0  1246.611
   1  1193.421
   2  970.8795
   3  692.7934
   4  412.3875
   5  435.9118
   6  340.8336
   7  247.3549
   8  391.0267
   9  481.8922
  10  492.3103
  11  431.8623
  12  463.593
  13  474.9024
  14  358.0438
  15  479.0501
  16  360.5555
  17  504.0087
  18  473.6454
  19  443.6382
  20  389.0342
  21  468.7478
  22  436.4758
  23  296.8954
  24  295.4911
  25  235.5336
  26  147.2694
  27  233.172
  28  352.2579
  29  301.8707
  30  294.7431
  31  326.3857
  32  358.4756
  33  331.9317
  34  326.3319
  35  388.9344
  36  264.8085
  37  218.2897
  38  368.5458
  39  444.3383
  40  318.5066
  41  252.5032
  42  245.3206
  43  382.7082
  44  339.1168
  45  312.6941
  46  335.0594
  47  138.8848
  48  190.1987
  49  286.1797
  50  407.7711
  51  383.1726
  52  321.0359
  53  252.124
  54  208.3973
  55  195.9723
  56  279.5256
  57  345.5031
  58  288.9685
  59  260.4054
  60  202.7876
  61  259.0721
  62  323.0728
  63  408.2704
  64  409.6441
  65  401.2992
  66  292.9964
  67  321.7132
  68  416.7418
  69  381.4262
  70  324.4265
  71  312.2834
  72  303.907
  73  359.4853
  74  283.0615
  75  420.2372
  76  458.4405
  77  414.1002
  78  328.7629
  79  337.9692
  80  365.0229
  81  392.662
  82  447.4593
  83  497.8369
  84  458.7437
  85  466.2689
  86  551.9834
  87  442.2862
  88  412.5835
  89  480.187
  90  518.7059
  91  522.6374
  92  456.3505
  93  506.5249
  94  430.5662
  95  327.6354
  96  467.1578
  97  450.7405
  98  491.4966
  99  449.0885
 100  365.7041
 101  407.0822
 102  475.0091
 103  410.7639
 104  343.0284
 105  209.9824
 106  270.8117
 107  500.3818
 108  477.9907
 109  347.2006
 110  450.8497
 111  499.1914
 112  495.3957
 113  444.4634
 114  363.2795
 115  449.9226
 116  484.1595
 117  428.7182
 118  285.3278
 119  325.6613
 120  382.8151
 121  435.1035
 122  461.093
 123  404.8236
 124  370.478
 125  368.0272
 126  379.7277
 127  374.7018
 128  383.4695
 129  423.1882
 130  446.1431
 131  451.1656
 132  364.6674
 133  376.7043
 134  364.4236
 135  578.393
 136  475.5616
 137  288.7869
 138  170.1924
 139  335.1188
 140  302.9461
 141  216.8384
 142  309.2887
 143  272.154
 144  184.9999
 145  220.5619
 146  300.9865
 147  340.2378
 148  404.9541
 149  379.3792
 150  362.5612
 151  521.5731
 152  519.5938
 153  402.7322
 154  382.507
 155  416.0138
 156  413.5379
 157  382.3152
 158  477.2515
 159  519.2849
 160  440.9607
 161  380.3684
 162  380.1922
 163  478.3296
 164  408.728
 165  472.259
 166  471.5749
 167  383.7109
 168  484.5193
 169  408.511
 170  297.0976
 171  465.3046
 172  493.8537
 173  387.6374
 174  405.4738
 175  431.5323
 176  371.2655
 177  337.9254
 178  356.7795
 179  267.7103
 180  240.8997
 181  268.43
 182  418.9517
 183  412.8411
 184  487.2322
 185  331.6824
 186  194.0462
 187  115.3014
 188  125.9425
 189  300.0616
 190  378.8059
 191  342.4965
 192  291.7558
 193  309.9553
 194  373.4753
 195  250.7785
 196  232.3804
 197  263.4554
 198  334.7867
 199  351.5959
 200  289.158
 201  290.3279
 202  286.8389
 203  262.6591
 204  453.1069
 205  348.8293
 206  217.6554
 207  258.9969
 208  255.6653
 209  327.2279
 210  427.4108
 211  420.2784
 212  323.4031
 213  282.8571
 214  334.7567
 215  312.9376
 216  353.3264
 217  426.4676
 218  239.1422
 219  338.5759
 220  316.5865
 221  341.1631
 222  457.2722
 223  378.637
 224  311.1645
 225  281.5064
 226  319.2272
 227  360.331
 228  250.0546
 229  266.2823
 230  264.584
 231  257.9795
 232  245.7902
 233  203.4351
 234  396.1963
 235  385.1069
 236  307.219
 237  276.288
 238  258.141
 239  389.3956
 240  362.7005
 241  349.4742
 242  428.8553
 243  489.5589
 244  448.209
 245  379.9023
 246  332.554
 247  396.5309
 248  353.9858
 249  382.7416
 250  387.0477
 251  407.541
 252  402.6351
 253  313.9506
 254  356.6679
 255  397.701
 256  463.8213
 257  436.7485
 258  467.6967
 259  583.541
 260  468.7626
 261  496.9751
 262  452.8784
 263  446.9503
 264  479.5386
 265  609.755
 266  522.8902
 267  400.0684
 268  404.1629
 269  364.9436
 270  328.1613
 271  330.4689
 272  453.6687
 273  576.5125
 274  509.3737
 275  419.4813
 276  429.1959
 277  445.6582
 278  327.4901
 279  311.2784
 280  399.9696
 281  362.124
 282  291.3396
 283  361.4979
 284  291.61
 285  328.9394
 286  340.2546
 287  246.8855
 288  314.7279
 289  470.3298
 290  257.3475
 291  192.005
 292  380.3015
 293  402.0406
 294  491.4811
 295  517.9937
 296  517.8169
 297  488.1891
 298  482.0464
 299  508.4466
 300  493.8518
 301  496.8766
 302  580.7637
 303  491.5684
 304  525.4258
 305  380.5616
 306  329.7228
 307  500.5719
 308  448.4983
 309  345.1671
 310  295.8657
 311  286.2901
 312  349.0625
 313  342.1776
 314  288.1648
 315  225.4765
 316  286.3492
 317  390.719
 318  393.1573
 319  408.3042
 320  411.4457
 321  426.8108
 322  405.4923
 323  433.6512
 324  528.281
 325  426.8082
 326  449.1382
 327  466.07
 328  329.5222
 329  433.9762
 330  421.8744
 331  338.3695
 332  454.7314
 333  468.6192
 334  637.8436
 335  424.1383
 336  379.8859
 337  351.1579
 338  442.2889
 339  422.7456
 340  353.7371
 341  419.1326
 342  390.7159
 343  413.2546
 344  440.0088
 345  348.3031
 346  268.6994
 347  340.839
 348  390.2063
 349  454.6545
 350  464.2751
 351  472.1022
 352  515.4627
 353  576.763
 354  545.9874
 355  508.9936
 356  576.1356
 357  555.6176
 358  521.2424
 359  490.7573
 360  539.8713
 361  451.1019
 362  393.1942
 363  377.6561
 364  379.5988
 365  422.3516
 366  453.4041
 367  507.7213
 368  403.0682
 369  335.7975
 370  401.862
 371  422.4507
 372  350.3812
 373  400.5309
 374  428.1311
 375  467.8243
 376  402.8083
 377  262.7453
 378  338.3084
 379  384.1547
 380  461.6094
 381  462.5304
 382  391.8334
 383  346.827
 384  402.1527
 385  270.1286
 386  256.3305
 387  287.7054
 388  195.3949
 389  214.663
 390  270.6873
 391  332.0827
 392  296.1241
 393  362.3084
 394  536.1104
 395  475.7443
 396  310.7288
 397  161.6787
 398  271.2286
 399  391.9589
 400  376.1131
 401  293.4911
 402  381.1169
 403  268.127
 404  241.3978
 405  242.2712
 406  267.5345
 407  347.7063
 408  277.1848
 409  389.4336
 410  339.5658
 411  365.5312
 412  281.5354
 413  306.6815
 414  425.6997
 415  396.6979
 416  403.2599
 417  323.2141
 418  229.2275
 419  246.2241
 420  434.4551
 421  379.8543
 422  344.6176
 423  332.3763
 424  359.0805
 425  271.1479
 426  382.6673
 427  316.6328
 428  347.9544
 429  332.1266
 430  341.9005
 431  273.4343
 432  247.3963
 433  371.396
 434  399.8463
 435  372.3534
 436  392.9586
 437  391.9484
 438  317.7149
 439  366.2698
 440  355.6125
 441  420.0012
 442  441.4309
 443  336.7493
 444  393.5991
 445  446.9792
 446  421.5023
 447  468.5529
 448  384.4585
 449  302.0592
 450  433.9943
 451  416.1975
 452  300.2247
 453  325.0089
 454  386.2563
 455  385.5293
 456  271.8165
 457  230.6748
 458  237.9526
 459  296.7445
 460  316.1964
 461  341.0022
 462  212.5042
 463  262.7479
 464  278.8608
 465  252.9348
 466  392.5265
 467  424.1665
 468  354.8577
 469  323.7144
 470  321.6898
 471  275.5307
 472  401.6674
 473  511.4099
 474  378.7446
 475  308.3732
 476  446.565
 477  478.8687
 478  454.3401
 479  433.548
 480  440.0078
 481  453.335
 482  359.94
 483  314.7357
 484  482.8415
 485  441.4036
 486  425.4764
 487  457.0233
 488  435.1868
 489  284.4537
 490  504.4582
 491  509.2338
 492  369.0286
 493  428.1455
 494  455.9203
 495  543.3317
 496  493.0446
 497  505.912
 498  565.9886
 499  452.8356
 500  520.1154
 501  497.6737
 502  586.4622
 503  541.3511
 504  466.0853
 505  447.4067
 506  477.7383
 507  439.5564
 508  498.1304
 509  626.9667
 510  778.3189
 511  1051.629
