# Input file       =  1180179408.10232_cleaned.dat
# Candidate        =  PSR_0332+5434
# Telescope        =  AR
# Epoch_topo       =  57903.483681739817
# Epoch_bary       =  N/A
# T_sample         =  0.002
# Data Folded      =  7340032
# Data Avg         =  0.0264257160507861
# Data StdDev      =  1.00004798596625 
# Profile Bins     =  512
# Profile Avg      =  378.812530460231 
# Profile StdDev   =  119.738781882208 
# Reduced chi-sqr  =  1.279
# Prob(Noise)      <  1.92e-05   (~4.1 sigma)
# P_topo (ms)      =  714.518399666087  +/- 0.000278
# P'_topo (s/s)    =  -0                +/- 1.47e-10
# P''_topo (s/s^2) =  0                 +/- 6.47e-14
# P_bary (ms)      =  N/A
# P'_bary (s/s)    =  N/A
# P''_bary (s/s^2) =  N/A
# P_orb (s)        =  N/A
# asin(i)/c (s)    =  N/A
# eccentricity     =  N/A
# w (rad)          =  N/A
# T_peri           =  N/A
######################################################
   0  859.6933
   1  944.3798
   2  756.1313
   3  407.9723
   4  352.1538
   5  486.6539
   6  394.7344
   7  358.1406
   8  472.2263
   9  465.9337
  10  431.461
  11  459.7361
  12  502.9514
  13  482.4714
  14  461.049
  15  412.6708
  16  288.5385
  17  407.1317
  18  520.926
  19  486.1625
  20  406.5664
  21  474.9469
  22  444.9699
  23  446.2451
  24  573.1268
  25  574.1289
  26  394.3321
  27  413.346
  28  392.5655
  29  448.7791
  30  493.1639
  31  371.119
  32  476.1574
  33  501.0983
  34  451.1576
  35  387.4532
  36  283.602
  37  320.5169
  38  362.0997
  39  339.3997
  40  294.0514
  41  304.2826
  42  330.2562
  43  291.4062
  44  382.3808
  45  377.484
  46  326.3392
  47  262.4797
  48  345.2732
  49  301.2215
  50  395.8446
  51  398.0604
  52  293.7143
  53  285.1338
  54  402.594
  55  486.1434
  56  266.1531
  57  387.1756
  58  521.1246
  59  399.452
  60  440.539
  61  471.1223
  62  477.1252
  63  572.2234
  64  518.2704
  65  436.0359
  66  397.9723
  67  367.6109
  68  387.6848
  69  375.688
  70  394.5175
  71  305.1566
  72  254.9774
  73  364.0609
  74  555.4065
  75  509.8709
  76  391.2536
  77  308.0724
  78  312.6577
  79  338.4807
  80  362.7113
  81  441.4122
  82  412.2859
  83  355.3022
  84  309.8777
  85  310.5092
  86  333.4242
  87  298.5328
  88  338.0936
  89  387.4663
  90  495.4583
  91  534.3663
  92  371.7418
  93  476.5743
  94  420.2532
  95  383.1856
  96  462.391
  97  568.6409
  98  561.3614
  99  490.0164
 100  454.5991
 101  442.2527
 102  373.3559
 103  387.6294
 104  434.8251
 105  356.861
 106  375.4241
 107  329.8626
 108  357.1092
 109  387.6705
 110  417.2418
 111  503.1685
 112  388.2577
 113  394.8922
 114  288.0274
 115  336.9897
 116  320.1783
 117  213.8117
 118  178.4352
 119  101.1469
 120  149.4939
 121  311.5855
 122  292.2813
 123  326.8488
 124  371.7774
 125  315.495
 126  342.6361
 127  326.0365
 128  291.4955
 129  317.9555
 130  325.0443
 131  316.882
 132  318.2819
 133  425.2005
 134  355.1687
 135  244.7864
 136  320.4357
 137  452.6533
 138  377.8718
 139  377.262
 140  441.2471
 141  434.2838
 142  387.1403
 143  461.5864
 144  376.4372
 145  430.5673
 146  415.6175
 147  376.6914
 148  470.9236
 149  398.3636
 150  356.1047
 151  286.7155
 152  380.8427
 153  417.5392
 154  424.2989
 155  485.0377
 156  490.2483
 157  356.1485
 158  304.9721
 159  349.1586
 160  264.3277
 161  193.7101
 162  247.1573
 163  345.9612
 164  463.924
 165  345.7729
 166  347.1325
 167  358.0276
 168  415.2843
 169  316.4376
 170  342.5397
 171  327.628
 172  197.0636
 173  315.8312
 174  350.8622
 175  369.0906
 176  372.03
 177  315.3376
 178  154.9639
 179  235.4689
 180  387.4466
 181  284.2236
 182  393.8917
 183  317.5452
 184  332.1299
 185  410.2831
 186  374.8645
 187  427.0128
 188  372.5536
 189  415.611
 190  351.5617
 191  331.1366
 192  371.9558
 193  426.4686
 194  413.2818
 195  354.9051
 196  390.9814
 197  343.7289
 198  386.7769
 199  406.8091
 200  455.8534
 201  510.073
 202  473.4999
 203  421.2004
 204  476.4771
 205  380.0815
 206  311.5277
 207  317.5605
 208  330.6666
 209  374.4928
 210  234.2221
 211  256.0446
 212  201.3727
 213  193.6927
 214  229.0917
 215  294.992
 216  310.4112
 217  206.8574
 218  216.3548
 219  419.0958
 220  329.186
 221  270.9474
 222  425.7565
 223  442.404
 224  364.6632
 225  262.8107
 226  364.2721
 227  408.2191
 228  462.2496
 229  388.2912
 230  281.4189
 231  344.2652
 232  349.6817
 233  387.5163
 234  403.6474
 235  339.7919
 236  299.266
 237  244.0825
 238  213.4454
 239  241.2931
 240  389.9164
 241  423.1519
 242  263.7244
 243  373.1727
 244  335.121
 245  295.7362
 246  333.9506
 247  452.5529
 248  284.824
 249  173.7406
 250  228.3411
 251  224.1263
 252  295.381
 253  77.73495
 254  171.6899
 255  281.2534
 256  357.1177
 257  323.3938
 258  131.5904
 259  264.0615
 260  256.8778
 261  268.9262
 262  157.205
 263  189.0412
 264  265.2422
 265  251.556
 266  270.245
 267  186.8518
 268  363.6528
 269  334.6573
 270  242.4536
 271  287.1906
 272  201.8698
 273  315.9911
 274  249.3675
 275  261.1616
 276  282.2464
 277  359.8523
 278  322.1442
 279  302.7844
 280  318.6174
 281  323.481
 282  351.1294
 283  385.0186
 284  272.7086
 285  336.7511
 286  302.7578
 287  315.1566
 288  348.948
 289  313.726
 290  301.7067
 291  460.4566
 292  400.6996
 293  263.378
 294  314.1578
 295  267.7439
 296  261.9205
 297  375.2992
 298  359.8771
 299  359.5004
 300  416.524
 301  459.9139
 302  393.233
 303  332.7735
 304  269.362
 305  350.3766
 306  353.2855
 307  340.8187
 308  270.5649
 309  317.6587
 310  387.6372
 311  413.6155
 312  349.347
 313  268.2262
 314  251.3444
 315  354.2922
 316  287.4011
 317  215.7929
 318  264.779
 319  294.0699
 320  292.653
 321  386.0455
 322  341.8326
 323  370.3647
 324  372.0396
 325  397.189
 326  356.4514
 327  314.1321
 328  313.7149
 329  325.574
 330  189.4112
 331  205.9014
 332  388.6364
 333  490.7751
 334  453.6547
 335  348.1108
 336  359.9048
 337  393.4745
 338  386.6993
 339  340.6708
 340  406.2765
 341  438.1092
 342  329.9119
 343  353.8403
 344  508.1375
 345  484.8535
 346  470.8507
 347  429.2285
 348  394.4771
 349  425.2455
 350  484.2519
 351  409.6801
 352  398.8035
 353  316.8025
 354  282.824
 355  389.1115
 356  521.437
 357  612.4453
 358  574.7089
 359  530.5072
 360  510.2209
 361  554.6277
 362  372.4521
 363  400.7518
 364  428.3796
 365  379.8825
 366  468.1667
 367  403.9028
 368  457.4976
 369  425.5612
 370  467.3849
 371  507.9477
 372  512.6839
 373  408.8857
 374  433.0682
 375  545.5735
 376  414.3457
 377  378.4363
 378  416.8017
 379  401.2436
 380  434.1195
 381  487.8525
 382  480.2847
 383  433.7723
 384  363.3893
 385  307.016
 386  247.1646
 387  270.0878
 388  289.2013
 389  220.6237
 390  250.1405
 391  273.1103
 392  338.5649
 393  331.3017
 394  354.5875
 395  430.0647
 396  386.2933
 397  373.7777
 398  356.682
 399  390.2206
 400  362.1338
 401  321.8831
 402  238.6473
 403  436.8672
 404  395.8103
 405  381.3301
 406  414.3137
 407  485.2224
 408  427.9776
 409  404.1325
 410  492.1765
 411  411.7302
 412  397.6177
 413  388.8981
 414  359.0294
 415  482.6824
 416  482.9305
 417  418.7562
 418  347.114
 419  334.7866
 420  358.6139
 421  459.1524
 422  464.8396
 423  496.0897
 424  479.1688
 425  554.2493
 426  538.4374
 427  418.7856
 428  460.3249
 429  379.3582
 430  453.0353
 431  480.5223
 432  399.476
 433  388.7729
 434  328.418
 435  277.8072
 436  304.0984
 437  358.3861
 438  326.1165
 439  388.1129
 440  421.9434
 441  442.2159
 442  606.7065
 443  475.4222
 444  396.8118
 445  504.8199
 446  517.6594
 447  471.304
 448  355.2324
 449  283.065
 450  210.9086
 451  240.9224
 452  448.9226
 453  545.5967
 454  421.4044
 455  436.7819
 456  346.2242
 457  428.7756
 458  450.2318
 459  321.8509
 460  294.0142
 461  341.4501
 462  428.0821
 463  359.3351
 464  310.0762
 465  364.7713
 466  388.9017
 467  264.3675
 468  402.854
 469  383.7363
 470  378.7572
 471  364.6263
 472  316.9712
 473  414.6165
 474  333.5029
 475  356.1562
 476  237.3106
 477  256.8055
 478  384.7641
 479  402.5653
 480  456.7895
 481  588.1046
 482  460.9181
 483  416.383
 484  418.0399
 485  409.7675
 486  329.8822
 487  352.0241
 488  505.4522
 489  481.737
 490  476.9066
 491  439.9084
 492  504.4992
 493  549.7827
 494  506.3048
 495  437.0463
 496  418.0386
 497  331.8105
 498  400.4841
 499  569.9362
 500  612.604
 501  466.6968
 502  450.0637
 503  502.7872
 504  472.9053
 505  486.8315
 506  470.7224
 507  512.3798
 508  463.3477
 509  597.8309
 510  661.0377
 511  721.8246
