# Input file       =  1180007091.099125_cleaned.dat
# Candidate        =  PSR_0332+5434
# Telescope        =  AR
# Epoch_topo       =  57901.489271980616
# Epoch_bary       =  N/A
# T_sample         =  0.002
# Data Folded      =  7340032
# Data Avg         =  0.028038038842485
# Data StdDev      =  1.00005625216176 
# Profile Bins     =  512
# Profile Avg      =  401.933214355493 
# Profile StdDev   =  119.739771618896 
# Reduced chi-sqr  =  1.109
# Prob(Noise)      <  0.044   (~1.7 sigma)
# P_topo (ms)      =  714.520364067664  +/- 0.000401
# P'_topo (s/s)    =  -0                +/- 2.12e-10
# P''_topo (s/s^2) =  0                 +/- 9.34e-14
# P_bary (ms)      =  N/A
# P'_bary (s/s)    =  N/A
# P''_bary (s/s^2) =  N/A
# P_orb (s)        =  N/A
# asin(i)/c (s)    =  N/A
# eccentricity     =  N/A
# w (rad)          =  N/A
# T_peri           =  N/A
######################################################
   0  489.142
   1  527.4515
   2  467.8444
   3  369.0745
   4  372.2353
   5  410.1569
   6  359.6545
   7  313.1566
   8  283.8089
   9  281.7188
  10  311.6566
  11  335.5419
  12  191.8645
  13  328.2134
  14  443.1091
  15  423.4427
  16  320.04
  17  329.7559
  18  380.4167
  19  405.3439
  20  344.8514
  21  338.8731
  22  391.0434
  23  397.3482
  24  385.3905
  25  353.6594
  26  399.5087
  27  413.1421
  28  473.8718
  29  405.9122
  30  294.0048
  31  243.7761
  32  395.2791
  33  396.5313
  34  400.2553
  35  410.6394
  36  340.4037
  37  409.4056
  38  549.3672
  39  580.2283
  40  743.4045
  41  831.1585
  42  918.0457
  43  883.3055
  44  818.0303
  45  756.6279
  46  586.7064
  47  538.9917
  48  537.2014
  49  630.3969
  50  556.0705
  51  434.2722
  52  452.1516
  53  550.4169
  54  471.3068
  55  431.2786
  56  352.3359
  57  503.166
  58  499.7367
  59  508.2918
  60  519.2391
  61  483.5293
  62  446.5114
  63  453.2448
  64  427.9754
  65  325.9667
  66  304.262
  67  326.6211
  68  417.8721
  69  509.0347
  70  454.9391
  71  427.868
  72  411.4216
  73  410.2448
  74  451.2959
  75  422.6141
  76  336.2316
  77  249.1432
  78  377.2217
  79  420.187
  80  379.0197
  81  428.7031
  82  476.1321
  83  480.2894
  84  467.1815
  85  503.9282
  86  398.6872
  87  354.9921
  88  473.3341
  89  625.6867
  90  440.9718
  91  429.0534
  92  441.8228
  93  400.2014
  94  380.1414
  95  333.2904
  96  277.4847
  97  117.6432
  98  294.8116
  99  417.589
 100  447.0492
 101  496.0113
 102  480.8029
 103  284.2892
 104  326.2126
 105  414.8234
 106  386.2347
 107  316.3728
 108  382.0779
 109  435.3509
 110  307.156
 111  365.0596
 112  445.1023
 113  511.7312
 114  397.7717
 115  356.1935
 116  363.1826
 117  254.5182
 118  321.3813
 119  370.1417
 120  372.7318
 121  315.2332
 122  312.705
 123  433.4925
 124  385.1728
 125  378.0794
 126  309.658
 127  298.9591
 128  478.5643
 129  462.7087
 130  341.1583
 131  287.6791
 132  332.121
 133  340.9831
 134  382.8922
 135  379.8719
 136  411.2512
 137  446.0603
 138  485.4486
 139  447.9585
 140  419.606
 141  426.1053
 142  420.6986
 143  459.9433
 144  381.146
 145  300.843
 146  333.2063
 147  347.6692
 148  341.5228
 149  459.5902
 150  518.043
 151  311.0468
 152  345.5521
 153  404.1203
 154  452.4573
 155  377.9318
 156  435.0537
 157  397.804
 158  456.4302
 159  317.2461
 160  395.2974
 161  478.8238
 162  390.7519
 163  464.7581
 164  466.9837
 165  471.0443
 166  497.9641
 167  533.9754
 168  441.5018
 169  434.235
 170  493.9552
 171  543.7889
 172  522.5724
 173  423.5672
 174  438.6025
 175  422.6554
 176  444.0406
 177  317.3297
 178  395.5361
 179  380.9678
 180  429.8949
 181  441.7285
 182  435.929
 183  362.8509
 184  285.0648
 185  441.8075
 186  509.9738
 187  474.6909
 188  460.9464
 189  394.7301
 190  428.4656
 191  438.8914
 192  402.9088
 193  385.6191
 194  353.4654
 195  312.8861
 196  321.4251
 197  183.3841
 198  232.7197
 199  369.778
 200  281.224
 201  353.0603
 202  334.315
 203  231.3599
 204  223.4674
 205  217.7356
 206  278.5287
 207  311.1108
 208  535.399
 209  446.472
 210  480.6112
 211  415.3151
 212  349.4366
 213  331.3279
 214  473.8113
 215  528.4124
 216  509.9414
 217  481.6341
 218  365.8527
 219  302.5153
 220  404.266
 221  393.6764
 222  192.5301
 223  259.537
 224  352.5648
 225  390.6517
 226  386.3284
 227  293.0364
 228  313.4024
 229  440.9994
 230  519.6224
 231  384.4209
 232  329.3765
 233  416.2199
 234  472.6231
 235  461.8783
 236  360.0882
 237  428.5688
 238  493.7641
 239  515.58
 240  432.2422
 241  518.3986
 242  448.6088
 243  323.3103
 244  241.0869
 245  193.065
 246  276.761
 247  455.0916
 248  410.3986
 249  379.6087
 250  387.6309
 251  475.5577
 252  434.3526
 253  396.1382
 254  354.3852
 255  332.1796
 256  364.6729
 257  439.7106
 258  485.8979
 259  376.4389
 260  308.7285
 261  398.7339
 262  537.4076
 263  426.4739
 264  400.1173
 265  459.9498
 266  498.5109
 267  407.6568
 268  460.0818
 269  451.5475
 270  461.7278
 271  337.7919
 272  400.1002
 273  334.0578
 274  151.581
 275  297.241
 276  374.4047
 277  426.3613
 278  314.4837
 279  366.7248
 280  289.2183
 281  287.6274
 282  420.8685
 283  430.0451
 284  552.8499
 285  459.3443
 286  278.079
 287  298.8594
 288  432.1826
 289  461.1681
 290  497.5154
 291  485.3675
 292  327.25
 293  432.811
 294  328.4464
 295  424.5238
 296  440.8359
 297  329.0154
 298  391.9278
 299  390.8208
 300  399.382
 301  308.4236
 302  320.8803
 303  426.1927
 304  438.1075
 305  336.7345
 306  348.764
 307  497.8729
 308  493.7821
 309  371.5604
 310  308.4208
 311  316.2003
 312  402.9514
 313  463.0826
 314  421.3701
 315  363.1224
 316  380.0912
 317  311.6497
 318  412.4029
 319  418.6031
 320  446.6588
 321  371.7853
 322  333.8486
 323  297.8214
 324  405.6781
 325  395.0872
 326  324.9293
 327  274.017
 328  280.2194
 329  290.1048
 330  390.2975
 331  467.1842
 332  429.8427
 333  368.4895
 334  257.4805
 335  281.096
 336  229.8696
 337  281.4869
 338  451.5226
 339  435.7955
 340  484.7578
 341  440.9784
 342  387.585
 343  460.4588
 344  334.7208
 345  361.3762
 346  384.7365
 347  449.117
 348  423.8233
 349  458.6614
 350  517.0979
 351  478.5684
 352  527.6982
 353  518.6842
 354  463.7517
 355  502.9159
 356  456.7526
 357  497.5818
 358  507.2732
 359  377.5544
 360  387.714
 361  306.8942
 362  295.6979
 363  348.851
 364  444.9392
 365  443.0188
 366  431.2118
 367  382.3225
 368  378.0586
 369  269.3321
 370  288.3435
 371  523.072
 372  418.908
 373  341.3902
 374  401.2611
 375  311.3468
 376  338.9478
 377  372.093
 378  401.3823
 379  295.0849
 380  288.1296
 381  387.9616
 382  448.0876
 383  444.3602
 384  451.835
 385  375.9232
 386  366.76
 387  399.0329
 388  269.2134
 389  301.2843
 390  417.1373
 391  332.3382
 392  422.7339
 393  362.0817
 394  390.3088
 395  434.8049
 396  458.1075
 397  467.9071
 398  470.3203
 399  463.4157
 400  400.2175
 401  361.0621
 402  289.1104
 403  322.1016
 404  351.9381
 405  336.4892
 406  340.7766
 407  290.1606
 408  345.0068
 409  333.2065
 410  350.8716
 411  356.6023
 412  416.805
 413  366.2055
 414  315.4088
 415  410.4831
 416  424.2767
 417  453.5674
 418  469.2404
 419  401.0958
 420  420.4394
 421  320.8232
 422  319.8396
 423  472.7959
 424  422.1494
 425  426.4167
 426  373.5861
 427  422.1967
 428  627.386
 429  445.0305
 430  495.5486
 431  391.2502
 432  228.3049
 433  369.2413
 434  492.1997
 435  435.4377
 436  479.1063
 437  389.2708
 438  296.6821
 439  378.0454
 440  347.7627
 441  380.9859
 442  424.7714
 443  420.7065
 444  347.9149
 445  372.9802
 446  281.6154
 447  336.7105
 448  300.8824
 449  339.3947
 450  341.5698
 451  240.7067
 452  337.5731
 453  314.2262
 454  371.6018
 455  363.3996
 456  400.9152
 457  300.4869
 458  290.5009
 459  363.7814
 460  403.8875
 461  458.4058
 462  434.8428
 463  560.9774
 464  473.3927
 465  412.6111
 466  226.0758
 467  327.3901
 468  430.6088
 469  414.5658
 470  478.4966
 471  556.7128
 472  450.5885
 473  462.3885
 474  504.8928
 475  468.4905
 476  403.8303
 477  309.8573
 478  223.2762
 479  285.7559
 480  342.362
 481  427.4829
 482  280.3532
 483  284.3678
 484  390.1915
 485  461.6214
 486  471.7228
 487  496.5389
 488  457.2549
 489  507.5886
 490  536.7679
 491  451.6186
 492  303.0399
 493  363.6803
 494  424.0336
 495  443.8676
 496  456.3947
 497  426.2109
 498  397.0597
 499  426.2457
 500  474.0759
 501  422.4014
 502  492.1857
 503  493.7851
 504  463.6493
 505  426.574
 506  484.2179
 507  574.3809
 508  450.4381
 509  330.2786
 510  411.6441
 511  472.5847
