# Input file       =  1180853821.116358_cleaned.dat
# Candidate        =  PSR_0332+5434
# Telescope        =  AR
# Epoch_topo       =  57911.289387920813
# Epoch_bary       =  N/A
# T_sample         =  0.002
# Data Folded      =  7340032
# Data Avg         =  0.0365716886715573
# Data StdDev      =  1.0000584909576  
# Profile Bins     =  512
# Profile Avg      =  524.305007059703 
# Profile StdDev   =  119.74003967672  
# Reduced chi-sqr  =  0.962
# Prob(Noise)      <  0.723   (~0.0 sigma)
# P_topo (ms)      =  714.510499416627  +/- 0.00036
# P'_topo (s/s)    =  -0                +/- 1.9e-10
# P''_topo (s/s^2) =  0                 +/- 8.39e-14
# P_bary (ms)      =  N/A
# P'_bary (s/s)    =  N/A
# P''_bary (s/s^2) =  N/A
# P_orb (s)        =  N/A
# asin(i)/c (s)    =  N/A
# eccentricity     =  N/A
# w (rad)          =  N/A
# T_peri           =  N/A
######################################################
   0  993.4112
   1  1032.446
   2  890.9653
   3  533.8358
   4  472.6696
   5  566.6436
   6  460.1598
   7  382.7717
   8  428.7059
   9  499.382
  10  464.8424
  11  540.2925
  12  566.8857
  13  570.8798
  14  512.2328
  15  491.7694
  16  589.8928
  17  575.8655
  18  499.2419
  19  464.8895
  20  543.1093
  21  439.556
  22  467.4345
  23  480.8064
  24  392.8003
  25  367.4133
  26  466.9696
  27  471.1382
  28  388.0649
  29  321.4191
  30  394.8917
  31  426.0582
  32  437.5161
  33  447.5536
  34  412.5983
  35  397.8982
  36  387.4033
  37  448.8636
  38  540.991
  39  483.7055
  40  455.6889
  41  510.7093
  42  593.9518
  43  544.4005
  44  373.6873
  45  482.1131
  46  504.6482
  47  508.5652
  48  556.1981
  49  642.3984
  50  502.7607
  51  508.3395
  52  504.4059
  53  445.8352
  54  385.5544
  55  522.6115
  56  512.7625
  57  529.9039
  58  522.895
  59  491.8717
  60  500.8489
  61  501.2072
  62  532.046
  63  563.306
  64  610.6597
  65  539.1194
  66  439.2366
  67  412.2819
  68  471.3925
  69  601.8729
  70  678.0692
  71  590.1584
  72  546.7834
  73  497.726
  74  508.2575
  75  483.2768
  76  537.2725
  77  583.5556
  78  612.6682
  79  586.3935
  80  522.7502
  81  569.7749
  82  530.4177
  83  489.9214
  84  549.4799
  85  573.7838
  86  536.1204
  87  510.4979
  88  636.5065
  89  648.0653
  90  489.8112
  91  519.8981
  92  531.9144
  93  638.3957
  94  502.0556
  95  489.3358
  96  569.5175
  97  522.0291
  98  512.2998
  99  551.1813
 100  532.0156
 101  400.9923
 102  429.9155
 103  437.454
 104  477.6266
 105  367.1258
 106  553.1769
 107  500.4949
 108  543.4748
 109  497.7697
 110  556.327
 111  514.1438
 112  406.6097
 113  341.1019
 114  480.4827
 115  454.4772
 116  550.0815
 117  526.0027
 118  507.2477
 119  539.8712
 120  558.2355
 121  453.6564
 122  523.1342
 123  649.6287
 124  642.527
 125  606.6135
 126  527.7133
 127  545.3284
 128  591.7902
 129  538.0389
 130  431.3972
 131  487.3235
 132  512.2401
 133  478.2461
 134  375.4697
 135  522.2024
 136  558.7534
 137  503.0519
 138  529.0047
 139  445.6479
 140  470.1047
 141  507.8857
 142  538.2236
 143  526.475
 144  506.4033
 145  490.0854
 146  511.5648
 147  476.4423
 148  409.4067
 149  487.17
 150  492.4298
 151  524.6749
 152  488.3235
 153  474.2109
 154  562.6216
 155  505.1185
 156  515.1363
 157  477.3204
 158  538.681
 159  534.0901
 160  467.3698
 161  519.5977
 162  473.7499
 163  433.0411
 164  490.0771
 165  466.5664
 166  427.7065
 167  429.0194
 168  436.8135
 169  484.1565
 170  486.994
 171  481.9007
 172  511.8586
 173  470.1782
 174  421.8407
 175  468.3668
 176  458.6553
 177  518.0255
 178  500.6462
 179  527.7657
 180  548.749
 181  382.7839
 182  313.2907
 183  434.5121
 184  525.8546
 185  603.6397
 186  570.788
 187  356.8281
 188  454.7275
 189  441.0532
 190  501.987
 191  558.9866
 192  509.2688
 193  520.7057
 194  563.6827
 195  587.4999
 196  623.8987
 197  560.9526
 198  536.9651
 199  628.9301
 200  710.4476
 201  715.6431
 202  623.7735
 203  692.1781
 204  629.0707
 205  524.469
 206  483.6464
 207  629.9949
 208  667.1358
 209  524.9292
 210  700.7683
 211  643.3035
 212  620.691
 213  589.9769
 214  661.7722
 215  662.6705
 216  647.4949
 217  581.2079
 218  699.4308
 219  540.5616
 220  517.5186
 221  534.2084
 222  687.4365
 223  740.655
 224  566.6838
 225  556.2524
 226  636.1751
 227  580.9077
 228  593.4752
 229  654.6049
 230  638.2949
 231  540.712
 232  531.8996
 233  600.2591
 234  512.2535
 235  511.1921
 236  495.3648
 237  555.3335
 238  541.8213
 239  624.9391
 240  593.9612
 241  583.6687
 242  629.9985
 243  654.5533
 244  733.524
 245  679.9485
 246  635.575
 247  607.0728
 248  551.9003
 249  533.3583
 250  457.7598
 251  434.6715
 252  604.2627
 253  646.4819
 254  657.3536
 255  514.8924
 256  510.8246
 257  547.9075
 258  608.9995
 259  750.5276
 260  733.2479
 261  608.6812
 262  519.5184
 263  510.6564
 264  655.9409
 265  538.3624
 266  498.6247
 267  499.3022
 268  572.2877
 269  640.706
 270  543.4915
 271  443.255
 272  395.1372
 273  523.5735
 274  452.723
 275  389.6831
 276  464.6423
 277  520.9294
 278  526.8848
 279  386.7755
 280  373.76
 281  572.3633
 282  549.2744
 283  543.3196
 284  553.9144
 285  521.8549
 286  530.7683
 287  666.3672
 288  620.5406
 289  577.2962
 290  544.3285
 291  669.934
 292  551.5784
 293  429.9056
 294  569.8438
 295  551.3033
 296  510.9611
 297  506.0897
 298  479.6313
 299  530.3628
 300  465.7307
 301  472.6219
 302  526.2637
 303  465.2876
 304  507.7255
 305  474.3315
 306  552.8418
 307  472.185
 308  421.1832
 309  581.3163
 310  524.7961
 311  528.9203
 312  462.9698
 313  423.055
 314  557.0028
 315  562.9363
 316  606.4352
 317  569.3846
 318  437.9746
 319  474.8147
 320  373.1227
 321  479.0788
 322  408.2785
 323  495.4941
 324  446.3321
 325  477.2132
 326  564.6854
 327  653.9471
 328  534.1202
 329  402.8618
 330  456.4493
 331  425.9417
 332  492.2007
 333  500.9095
 334  570.8833
 335  592.3777
 336  520.8375
 337  530.8647
 338  410.744
 339  465.7243
 340  468.8703
 341  468.012
 342  515.6263
 343  448.2076
 344  487.0717
 345  407.3423
 346  497.7449
 347  582.3294
 348  504.0372
 349  502.6581
 350  442.1148
 351  404.7525
 352  350.5134
 353  377.5179
 354  362.8953
 355  443.9888
 356  540.3091
 357  517.2588
 358  534.2184
 359  495.359
 360  513.4758
 361  586.9296
 362  563.1203
 363  539.8776
 364  635.2375
 365  648.1964
 366  580.6453
 367  447.4525
 368  556.0107
 369  539.2762
 370  479.8003
 371  576.6392
 372  576.576
 373  628.7285
 374  551.2883
 375  515.5373
 376  473.7963
 377  544.3655
 378  462.2763
 379  496.4697
 380  487.2029
 381  505.3293
 382  443.6313
 383  482.5828
 384  546.6331
 385  627.6509
 386  464.2979
 387  500.9438
 388  572.0906
 389  518.6881
 390  607.5135
 391  571.1228
 392  597.7715
 393  554.6085
 394  442.1781
 395  531.3112
 396  499.2729
 397  568.0715
 398  586.3585
 399  507.0261
 400  570.1334
 401  556.6094
 402  512.928
 403  641.4239
 404  728.4373
 405  576.6786
 406  444.5911
 407  502.0316
 408  630.8708
 409  569.9153
 410  584.7385
 411  516.205
 412  489.2077
 413  544.4031
 414  539.1061
 415  539.2083
 416  618.9142
 417  619.8206
 418  585.4048
 419  574.0268
 420  556.7988
 421  573.3999
 422  563.5762
 423  514.5201
 424  538.2021
 425  522.1793
 426  480.4239
 427  453.4235
 428  475.4083
 429  460.0999
 430  430.2913
 431  469.6523
 432  502.574
 433  493.6956
 434  445.0196
 435  512.7386
 436  527.8132
 437  493.1805
 438  572.8206
 439  531.8912
 440  544.8236
 441  493.589
 442  523.4495
 443  472.2079
 444  507.3427
 445  450.2975
 446  431.3083
 447  346.2963
 448  508.1396
 449  572.3397
 450  573.9515
 451  534.6102
 452  491.0648
 453  487.7622
 454  452.3675
 455  444.7984
 456  487.1227
 457  517.3066
 458  389.4331
 459  439.025
 460  478.1188
 461  536.4588
 462  492.3347
 463  501.4981
 464  444.8934
 465  589.2175
 466  584.216
 467  596.86
 468  569.2081
 469  521.9482
 470  489.6758
 471  532.7244
 472  506.136
 473  504.0948
 474  478.1221
 475  458.6453
 476  477.0794
 477  388.4823
 478  493.1358
 479  462.6234
 480  467.3659
 481  469.1424
 482  447.8151
 483  449.7873
 484  459.8408
 485  510.7359
 486  479.4167
 487  521.1347
 488  537.107
 489  433.5781
 490  476.7633
 491  547.0256
 492  680.1252
 493  601.7506
 494  473.9211
 495  499.9574
 496  562.3085
 497  549.4727
 498  448.7501
 499  335.4518
 500  352.3971
 501  488.0724
 502  563.8696
 503  556.9012
 504  429.1129
 505  589.3206
 506  564.7331
 507  544.1621
 508  600.7333
 509  766.8885
 510  888.3999
 511  882.8179
