# Input file       =  1180681523.102148_cleaned.dat
# Candidate        =  PSR_0332+5434
# Telescope        =  AR
# Epoch_topo       =  57909.295197941530
# Epoch_bary       =  N/A
# T_sample         =  0.002
# Data Folded      =  7340032
# Data Avg         =  0.0327436329725281
# Data StdDev      =  1.000107628895   
# Profile Bins     =  512
# Profile Avg      =  469.498824253201 
# Profile StdDev   =  119.745923111167 
# Reduced chi-sqr  =  1.211
# Prob(Noise)      <  0.00073   (~3.2 sigma)
# P_topo (ms)      =  714.512413762523  +/- 0.00033
# P'_topo (s/s)    =  -0                +/- 1.74e-10
# P''_topo (s/s^2) =  0                 +/- 7.69e-14
# P_bary (ms)      =  N/A
# P'_bary (s/s)    =  N/A
# P''_bary (s/s^2) =  N/A
# P_orb (s)        =  N/A
# asin(i)/c (s)    =  N/A
# eccentricity     =  N/A
# w (rad)          =  N/A
# T_peri           =  N/A
######################################################
   0  1044.233
   1  970.3986
   2  876.1924
   3  622.3959
   4  454.6816
   5  466.1846
   6  535.9441
   7  592.394
   8  563.385
   9  685.0905
  10  673.0623
  11  422.599
  12  540.3718
  13  648.2811
  14  599.2971
  15  703.2946
  16  658.8859
  17  608.8035
  18  570.3583
  19  575.0606
  20  547.6642
  21  389.2306
  22  437.7717
  23  424.1438
  24  396.2915
  25  435.9423
  26  495.9763
  27  524.4406
  28  479.7062
  29  487.4426
  30  390.0295
  31  394.674
  32  420.9167
  33  320.9624
  34  397.0178
  35  396.3987
  36  427.7049
  37  486.7446
  38  417.7228
  39  365.6935
  40  298.6667
  41  403.2741
  42  477.1996
  43  474.783
  44  562.5911
  45  466.9569
  46  554.2418
  47  517.7086
  48  559.811
  49  555.2759
  50  561.0045
  51  547.4103
  52  563.0023
  53  590.5529
  54  498.6074
  55  541.2813
  56  575.5843
  57  519.0368
  58  505.3239
  59  647.8966
  60  524.6326
  61  547.645
  62  582.748
  63  532.5013
  64  464.6452
  65  474.6844
  66  437.9706
  67  421.3455
  68  501.1733
  69  444.2175
  70  379.4308
  71  538.8104
  72  472.9146
  73  412.073
  74  530.9221
  75  488.1842
  76  429.9572
  77  404.4448
  78  510.0369
  79  516.2594
  80  379.9855
  81  373.1287
  82  512.2085
  83  530.1799
  84  512.8475
  85  487.6162
  86  491.9555
  87  437.669
  88  474.4182
  89  417.5707
  90  342.8834
  91  445.7281
  92  454.6335
  93  442.7636
  94  387.2027
  95  509.0184
  96  451.0928
  97  483.8484
  98  533.636
  99  532.6196
 100  572.4603
 101  486.1019
 102  456.2989
 103  461.0352
 104  441.9995
 105  421.6766
 106  638.7866
 107  672.8947
 108  617.4733
 109  619.8385
 110  551.6633
 111  516.1456
 112  484.9452
 113  504.3588
 114  470.6053
 115  477.2041
 116  459.2765
 117  515.2619
 118  601.7946
 119  583.5798
 120  444.1224
 121  440.254
 122  509.9642
 123  455.35
 124  418.6979
 125  500.1169
 126  542.8941
 127  389.5927
 128  424.9561
 129  512.4114
 130  478.9281
 131  514.4435
 132  472.941
 133  464.1325
 134  509.272
 135  554.072
 136  529.991
 137  474.1647
 138  455.0775
 139  508.9894
 140  539.2391
 141  489.145
 142  500.4052
 143  492.5312
 144  497.4005
 145  532.902
 146  476.8148
 147  476.9335
 148  553.1601
 149  440.0471
 150  414.4753
 151  461.7213
 152  447.1161
 153  439.3217
 154  378.7596
 155  358.6103
 156  435.9572
 157  456.0659
 158  517.709
 159  695.9832
 160  616.2287
 161  522.4946
 162  461.0887
 163  389.8312
 164  371.0074
 165  500.9613
 166  479.8426
 167  524.6566
 168  503.0144
 169  458.2646
 170  432.2573
 171  439.032
 172  484.4128
 173  367.5564
 174  440.5168
 175  444.458
 176  352.9423
 177  412.473
 178  380.8428
 179  356.0972
 180  483.804
 181  443.9443
 182  469.4095
 183  652.4667
 184  582.9029
 185  498.668
 186  511.1862
 187  531.2514
 188  530.393
 189  478.3798
 190  512.905
 191  471.6469
 192  548.3311
 193  585.6926
 194  566.8564
 195  661.1324
 196  628.5109
 197  522.2319
 198  525.4163
 199  527.024
 200  501.4627
 201  522.2344
 202  513.04
 203  455.8792
 204  407.8142
 205  439.351
 206  409.2267
 207  390.966
 208  403.4769
 209  476.0358
 210  371.4588
 211  513.6565
 212  536.3971
 213  392.0544
 214  339.4491
 215  389.6002
 216  416.5633
 217  463.4555
 218  520.568
 219  523.7579
 220  507.8361
 221  483.3612
 222  532.1677
 223  519.1691
 224  553.3077
 225  463.9518
 226  439.818
 227  481.6153
 228  499.3959
 229  426.2519
 230  462.9876
 231  508.8438
 232  512.2061
 233  512.6124
 234  530.6611
 235  563.421
 236  606.4473
 237  527.3723
 238  565.5187
 239  606.0941
 240  506.57
 241  386.4431
 242  522.9674
 243  489.9678
 244  425.3372
 245  434.5685
 246  378.9826
 247  452.5267
 248  529.2896
 249  560.1132
 250  534.9857
 251  549.7867
 252  485.9885
 253  531.5059
 254  558.8022
 255  511.096
 256  419.6783
 257  466.848
 258  442.4357
 259  465.7903
 260  633.9773
 261  622.5114
 262  461.2836
 263  505.1744
 264  570.432
 265  511.004
 266  456.8821
 267  557.6395
 268  461.9184
 269  546.5951
 270  495.4506
 271  471.5284
 272  485.1066
 273  462.2998
 274  495.9168
 275  539.1238
 276  555.7612
 277  470.1843
 278  424.5937
 279  363.2436
 280  426.9049
 281  467.4102
 282  380.6786
 283  460.1049
 284  446.1174
 285  525.7875
 286  568.5512
 287  500.6175
 288  366.0925
 289  255.3774
 290  421.3966
 291  438.1404
 292  554.1002
 293  424.106
 294  415.4668
 295  534.6201
 296  394.2638
 297  360.7175
 298  379.0511
 299  464.0818
 300  360.6451
 301  351.076
 302  468.7648
 303  561.4238
 304  487.7821
 305  501.4882
 306  480.684
 307  517.6331
 308  422.3235
 309  557.7571
 310  583.3141
 311  484.7789
 312  398.008
 313  396.7326
 314  444.5808
 315  622.8291
 316  555.4529
 317  415.4836
 318  441.0388
 319  520.6205
 320  550.8563
 321  428.9359
 322  370.758
 323  373.0619
 324  454.5245
 325  472.0476
 326  385.0385
 327  485.5997
 328  420.4471
 329  485.1926
 330  413.8599
 331  335.2364
 332  310.6309
 333  306.0489
 334  300.8505
 335  281.7203
 336  357.8587
 337  442.1194
 338  354.6422
 339  486.3207
 340  531.2987
 341  394.2374
 342  436.469
 343  508.9836
 344  437.9315
 345  437.8422
 346  464.3875
 347  359.1538
 348  351.4461
 349  334.8845
 350  373.9341
 351  431.8198
 352  486.4482
 353  505.9598
 354  437.8184
 355  411.2268
 356  472.5656
 357  449.0814
 358  544.0002
 359  563.0457
 360  450.6626
 361  505.0052
 362  494.8569
 363  396.2746
 364  447.6111
 365  530.0634
 366  542.0129
 367  523.8538
 368  420.6983
 369  264.0208
 370  439.4635
 371  427.8153
 372  501.3809
 373  444.9864
 374  428.468
 375  372.6123
 376  349.0187
 377  354.1556
 378  385.092
 379  397.3242
 380  346.6979
 381  394.105
 382  348.8083
 383  334.555
 384  274.9086
 385  202.6323
 386  250.0868
 387  211.7867
 388  266.3387
 389  351.0481
 390  348.1757
 391  439.4648
 392  437.5164
 393  483.9969
 394  405.7004
 395  203.8736
 396  315.0946
 397  332.5595
 398  298.5502
 399  387.5245
 400  384.6236
 401  451.0331
 402  492.1202
 403  368.0901
 404  343.735
 405  452.4597
 406  511.8224
 407  439.7162
 408  324.2661
 409  226.2008
 410  281.353
 411  371.1345
 412  326.635
 413  363.5326
 414  505.5261
 415  454.8226
 416  384.9622
 417  464.3846
 418  485.4168
 419  387.2461
 420  443.5917
 421  552.1165
 422  585.2047
 423  496.5358
 424  411.0962
 425  377.2596
 426  474.478
 427  415.213
 428  392.7785
 429  416.612
 430  432.2844
 431  395.2037
 432  308.5533
 433  353.2015
 434  439.0154
 435  449.7528
 436  599.5225
 437  594.3813
 438  536.0017
 439  464.5018
 440  491.8774
 441  525.1791
 442  528.1741
 443  383.3698
 444  466.7229
 445  454.0201
 446  393.3687
 447  453.4167
 448  608.5377
 449  552.601
 450  470.4229
 451  425.6902
 452  502.2441
 453  453.8539
 454  429.2943
 455  497.6596
 456  527.6086
 457  520.2095
 458  435.6556
 459  388.9634
 460  326.4042
 461  456.3187
 462  479.1737
 463  431.2538
 464  425.2844
 465  450.896
 466  503.6915
 467  570.0264
 468  469.2516
 469  436.24
 470  378.7821
 471  453.8325
 472  513.0672
 473  375.6403
 474  359.9039
 475  451.6306
 476  419.3568
 477  353.5135
 478  363.8528
 479  287.8181
 480  428.1757
 481  533.9333
 482  487.0548
 483  440.5971
 484  360.6516
 485  440.5273
 486  296.1133
 487  301.9951
 488  270.7399
 489  372.7372
 490  410.3629
 491  424.7754
 492  391.1856
 493  467.6929
 494  414.3742
 495  435.8691
 496  524.2297
 497  532.3259
 498  500.4056
 499  394.7177
 500  399.628
 501  473.3782
 502  483.2334
 503  464.8734
 504  437.4516
 505  469.1469
 506  585.2237
 507  517.5771
 508  615.6302
 509  734.9337
 510  890.9174
 511  953.4597
