# Input file       =  1180782598.102683_cleaned.dat
# Candidate        =  PSR_0332+5434
# Telescope        =  AR
# Epoch_topo       =  57910.465047484759
# Epoch_bary       =  N/A
# T_sample         =  0.002
# Data Folded      =  7340032
# Data Avg         =  0.0315080292165321
# Data StdDev      =  1.00007540917911 
# Profile Bins     =  512
# Profile Avg      =  451.760839763389 
# Profile StdDev   =  119.742065346752 
# Reduced chi-sqr  =  1.394
# Prob(Noise)      <  8.53e-09   (~5.6 sigma)
# P_topo (ms)      =  714.511623069063  +/- 0.000212
# P'_topo (s/s)    =  -0                +/- 1.12e-10
# P''_topo (s/s^2) =  0                 +/- 4.94e-14
# P_bary (ms)      =  N/A
# P'_bary (s/s)    =  N/A
# P''_bary (s/s^2) =  N/A
# P_orb (s)        =  N/A
# asin(i)/c (s)    =  N/A
# eccentricity     =  N/A
# w (rad)          =  N/A
# T_peri           =  N/A
######################################################
   0  1141.098
   1  1061.695
   2  787.977
   3  803.7288
   4  749.7415
   5  546.9053
   6  402.6814
   7  470.4082
   8  489.8133
   9  492.3178
  10  550.7284
  11  526.9241
  12  421.6811
  13  312.7746
  14  339.5955
  15  409.6977
  16  551.1769
  17  428.0787
  18  467.4137
  19  369.8998
  20  284.0146
  21  330.4257
  22  402.4761
  23  474.2222
  24  458.2737
  25  381.3376
  26  471.177
  27  366.5614
  28  533.8851
  29  527.5713
  30  495.9077
  31  379.1633
  32  391.1436
  33  489.6839
  34  391.9354
  35  523.5036
  36  512.6071
  37  536.1984
  38  324.9549
  39  308.4621
  40  273.093
  41  322.248
  42  407.128
  43  391.2551
  44  500.4069
  45  600.2966
  46  391.842
  47  404.9939
  48  443.6251
  49  422.7225
  50  407.6264
  51  427.2434
  52  533.8197
  53  549.9775
  54  554.2494
  55  562.7008
  56  564.7774
  57  502.9759
  58  406.5842
  59  471.2763
  60  527.1196
  61  399.9385
  62  272.37
  63  348.3127
  64  469.8046
  65  355.7256
  66  402.1734
  67  438.3235
  68  448.4858
  69  601.1155
  70  431.1372
  71  415.6037
  72  493.7738
  73  366.3331
  74  434.1276
  75  407.5241
  76  421.4595
  77  393.2046
  78  553.5461
  79  561.5678
  80  551.3898
  81  559.8034
  82  542.6158
  83  445.0034
  84  397.8517
  85  447.5569
  86  424.5895
  87  409.2279
  88  509.8152
  89  555.5853
  90  575.4012
  91  442.5764
  92  448.2466
  93  433.8051
  94  451.7871
  95  439.6197
  96  385.6099
  97  450.833
  98  406.7168
  99  289.2181
 100  358.8676
 101  371.8765
 102  383.307
 103  452.9671
 104  532.4244
 105  463.4997
 106  462.2414
 107  470.9546
 108  432.4041
 109  415.945
 110  237.1608
 111  271.5433
 112  332.7838
 113  471.384
 114  394.9611
 115  490.7111
 116  417.1488
 117  549.2502
 118  539.4653
 119  436.2695
 120  435.8069
 121  548.1971
 122  595.6929
 123  525.9721
 124  447.4294
 125  410.9654
 126  530.4659
 127  470.3202
 128  385.6872
 129  390.7619
 130  431.3679
 131  493.0327
 132  464.0054
 133  460.7165
 134  386.9458
 135  500.4621
 136  562.8972
 137  541.6697
 138  465.5267
 139  419.0655
 140  431.9865
 141  499.2292
 142  541.4822
 143  585.5812
 144  643.5399
 145  575.6443
 146  639.448
 147  714.4677
 148  583.3505
 149  525.5188
 150  556.7947
 151  538.5275
 152  536.7427
 153  551.5172
 154  580.8657
 155  545.2023
 156  461.0058
 157  419.7482
 158  495.1509
 159  451.0446
 160  467.239
 161  446.1537
 162  335.2607
 163  464.8384
 164  540.1888
 165  499.221
 166  450.118
 167  492.0331
 168  393.6917
 169  486.9963
 170  463.7358
 171  500.1226
 172  513.649
 173  489.4222
 174  428.2563
 175  537.8871
 176  512.8539
 177  511.2495
 178  344.1849
 179  362.6685
 180  436.0396
 181  407.051
 182  452.021
 183  444.6411
 184  579.8986
 185  512.4228
 186  446.5831
 187  586.3412
 188  442.9488
 189  271.4286
 190  253.9167
 191  424.1492
 192  486.1278
 193  498.7977
 194  444.1698
 195  498.872
 196  438.5817
 197  523.4543
 198  422.5543
 199  434.7614
 200  437.2438
 201  419.0388
 202  517.553
 203  496.4872
 204  397.5336
 205  414.1432
 206  400.5534
 207  422.8517
 208  434.0131
 209  548.2023
 210  553.3793
 211  541.4489
 212  462.4899
 213  462.7703
 214  415.2733
 215  395.0364
 216  485.0743
 217  418.6961
 218  306.1678
 219  334.9807
 220  448.2698
 221  385.443
 222  443.1859
 223  460.4879
 224  462.101
 225  338.956
 226  451.1186
 227  508.5131
 228  529.711
 229  466.7995
 230  420.0224
 231  324.9237
 232  457.0521
 233  395.3184
 234  270.9475
 235  349.5625
 236  435.418
 237  319.185
 238  331.317
 239  377.2158
 240  449.4494
 241  609.3234
 242  485.0215
 243  377.9877
 244  382.2284
 245  439.8171
 246  453.4003
 247  357.8437
 248  366.5388
 249  375.4799
 250  342.705
 251  408.0064
 252  422.1805
 253  417.1297
 254  399.2064
 255  448.0958
 256  439.4428
 257  463.8173
 258  478.0762
 259  554.3425
 260  602.0847
 261  424.6543
 262  419.7415
 263  522.1427
 264  448.9414
 265  445.8726
 266  499.9809
 267  517.0121
 268  482.8362
 269  390.4918
 270  334.4062
 271  344.641
 272  372.7536
 273  382.0022
 274  417.3123
 275  398.3781
 276  420.9922
 277  363.4518
 278  304.0254
 279  366.865
 280  408.8124
 281  453.6576
 282  358.5082
 283  312.3677
 284  233.3615
 285  352.4464
 286  362.5206
 287  339.5678
 288  414.8077
 289  390.1693
 290  374.7394
 291  305.7143
 292  410.4998
 293  419.1776
 294  483.4744
 295  319.5232
 296  288.2986
 297  395.3116
 298  389.5696
 299  413.3028
 300  519.7249
 301  594.9458
 302  443.8422
 303  360.1995
 304  511.5236
 305  504.9526
 306  414.6194
 307  501.312
 308  549.9928
 309  389.3425
 310  530.7887
 311  393.9247
 312  427.112
 313  345.853
 314  279.6589
 315  487.5503
 316  500.252
 317  413.1023
 318  324.2929
 319  318.6031
 320  265.2528
 321  278.7747
 322  406.6495
 323  424.2213
 324  371.9278
 325  389.1212
 326  380.14
 327  463.1133
 328  373.7696
 329  476.4048
 330  477.6385
 331  393.4195
 332  374.1359
 333  294.3654
 334  255.655
 335  332.3723
 336  409.3297
 337  396.9159
 338  428.0391
 339  400.3103
 340  290.1103
 341  269.8801
 342  412.8909
 343  573.6116
 344  442.5676
 345  482.5877
 346  454.1248
 347  375.9247
 348  358.1155
 349  444.1396
 350  483.6968
 351  386.4363
 352  358.0687
 353  436.4576
 354  434.7429
 355  359.6717
 356  344.5798
 357  428.3959
 358  427.9658
 359  382.792
 360  331.8737
 361  461.1211
 362  581.9386
 363  414.0015
 364  499.2481
 365  490.615
 366  343.7404
 367  321.3442
 368  324.3142
 369  453.6726
 370  446.7253
 371  426.378
 372  379.7493
 373  472.7742
 374  458.343
 375  455.1183
 376  410.9522
 377  420.4205
 378  350.0744
 379  316.5951
 380  425.6765
 381  380.7784
 382  404.257
 383  396.9504
 384  452.6286
 385  431.6501
 386  323.6067
 387  397.568
 388  425.3381
 389  402.2745
 390  364.5293
 391  481.1432
 392  551.1124
 393  528.0892
 394  519.9406
 395  531.2878
 396  457.5074
 397  385.0751
 398  366.8175
 399  398.2552
 400  435.1248
 401  528.5486
 402  631.1053
 403  576.0191
 404  463.4708
 405  500.9924
 406  479.0168
 407  515.4019
 408  413.1656
 409  262.5374
 410  372.9732
 411  503.6176
 412  537.5399
 413  520.5182
 414  502.1882
 415  442.284
 416  434.6305
 417  453.8211
 418  535.6057
 419  449.9269
 420  370.3286
 421  340.1664
 422  503.5741
 423  523.8524
 424  491.9783
 425  469.8928
 426  492.2162
 427  517.5324
 428  411.8608
 429  295.0588
 430  280.6235
 431  509.074
 432  572.0886
 433  487.1257
 434  344.7031
 435  368.3268
 436  423.5127
 437  414.6518
 438  410.6687
 439  389.305
 440  410.0186
 441  240.737
 442  239.305
 443  345.2585
 444  287.9505
 445  348.0396
 446  392.1967
 447  535.116
 448  433.7647
 449  250.5068
 450  323.1437
 451  338.1982
 452  426.9043
 453  434.3825
 454  427.4053
 455  416.1402
 456  529.0281
 457  507.3177
 458  501.9948
 459  535.2029
 460  499.6221
 461  447.4907
 462  343.6049
 463  466.0891
 464  479.1444
 465  396.9058
 466  485.6068
 467  579.9306
 468  562.9465
 469  523.6149
 470  556.6052
 471  465.7606
 472  434.7991
 473  459.664
 474  435.2184
 475  390.232
 476  381.033
 477  489.5426
 478  650.6138
 479  714.6838
 480  756.3571
 481  739.8307
 482  490.256
 483  540.9338
 484  544.8533
 485  626.1719
 486  611.6512
 487  505.9266
 488  591.2039
 489  390.461
 490  506.7028
 491  603.2748
 492  600.4724
 493  577.2134
 494  574.566
 495  547.5271
 496  533.08
 497  537.9091
 498  426.5458
 499  415.8135
 500  530.3803
 501  489.7892
 502  523.0386
 503  459.0935
 504  410.133
 505  506.1859
 506  540.9589
 507  499.1622
 508  581.4323
 509  774.7277
 510  861.702
 511  987.9414
