# Input file       =  1180939997.108558_cleaned.dat
# Candidate        =  PSR_0332+5434
# Telescope        =  AR
# Epoch_topo       =  57912.286795237938
# Epoch_bary       =  N/A
# T_sample         =  0.002
# Data Folded      =  7340032
# Data Avg         =  0.0263594569196235
# Data StdDev      =  1.00001621073175 
# Profile Bins     =  512
# Profile Avg      =  378.007961698135 
# Profile StdDev   =  119.7349773369   
# Reduced chi-sqr  =  1.564
# Prob(Noise)      <  4.61e-15   (~7.7 sigma)
# P_topo (ms)      =  714.509547849956  +/- 0.000301
# P'_topo (s/s)    =  -0                +/- 1.59e-10
# P''_topo (s/s^2) =  0                 +/- 7.01e-14
# P_bary (ms)      =  N/A
# P'_bary (s/s)    =  N/A
# P''_bary (s/s^2) =  N/A
# P_orb (s)        =  N/A
# asin(i)/c (s)    =  N/A
# eccentricity     =  N/A
# w (rad)          =  N/A
# T_peri           =  N/A
######################################################
   0  932.7503
   1  1028.755
   2  952.907
   3  743.0249
   4  585.3713
   5  630.0377
   6  466.9802
   7  367.5313
   8  535.702
   9  376.2173
  10  362.093
  11  333.8117
  12  471.0662
  13  519.0848
  14  460.0084
  15  398.636
  16  374.5774
  17  566.6182
  18  542.366
  19  305.4884
  20  303.5023
  21  411.9448
  22  464.3081
  23  382.7371
  24  383.3593
  25  374.166
  26  434.6067
  27  451.1738
  28  412.6215
  29  379.3793
  30  451.3633
  31  400.8663
  32  275.2213
  33  290.9153
  34  431.5937
  35  580.1203
  36  498.2344
  37  372.7976
  38  355.2855
  39  432.6585
  40  392.3488
  41  338.3097
  42  439.1183
  43  453.9675
  44  458.8257
  45  373.222
  46  475.432
  47  433.2228
  48  507.5311
  49  409.0379
  50  337.0525
  51  390.7781
  52  394.1273
  53  392.2413
  54  367.5612
  55  375.2903
  56  409.6709
  57  312.7417
  58  363.3199
  59  286.338
  60  430.9353
  61  513.189
  62  417.4088
  63  400.235
  64  458.0984
  65  448.7707
  66  323.0818
  67  331.7788
  68  386.4009
  69  312.2019
  70  333.0169
  71  369.936
  72  383.8828
  73  453.9657
  74  513.52
  75  352.5881
  76  322.5985
  77  217.5751
  78  314.5963
  79  269.5461
  80  359.1476
  81  380.6349
  82  307.7579
  83  410.2697
  84  416.4449
  85  395.6115
  86  376.3403
  87  389.4783
  88  409.7413
  89  414.9948
  90  369.3387
  91  406.2765
  92  309.3016
  93  325.63
  94  385.8926
  95  436.2192
  96  511.9315
  97  371.6161
  98  334.3062
  99  349.8664
 100  291.6508
 101  185.0745
 102  256.0561
 103  441.599
 104  337.9279
 105  384.6314
 106  366.1996
 107  353.6572
 108  288.8251
 109  242.4513
 110  225.166
 111  278.497
 112  319.3287
 113  350.813
 114  413.9408
 115  332.5778
 116  302.0154
 117  291.8884
 118  256.682
 119  135.1795
 120  179.5124
 121  295.9131
 122  380.7111
 123  235.1685
 124  217.6111
 125  247.4511
 126  253.3954
 127  372.5878
 128  437.5619
 129  480.1681
 130  494.3267
 131  377.28
 132  316.8871
 133  326.4265
 134  295.9948
 135  286.685
 136  337.671
 137  360.8346
 138  276.1932
 139  259.1701
 140  401.3805
 141  294.718
 142  377.084
 143  353.6016
 144  369.3856
 145  386.1929
 146  386.3622
 147  328.2386
 148  335.6374
 149  355.5595
 150  346.37
 151  311.4499
 152  279.5641
 153  339.746
 154  373.1753
 155  268.7657
 156  259.3726
 157  269.5424
 158  260.2303
 159  194.7515
 160  284.6055
 161  254.2521
 162  271.4762
 163  307.3671
 164  286.6464
 165  350.8593
 166  444.9665
 167  467.8344
 168  468.6733
 169  389.618
 170  447.4566
 171  493.1688
 172  371.3745
 173  538.3665
 174  316.2392
 175  210.1469
 176  330.5374
 177  357.8779
 178  373.8587
 179  367.3197
 180  343.114
 181  487.6139
 182  322.4417
 183  283.7088
 184  318.381
 185  321.6536
 186  359.8289
 187  357.64
 188  285.6792
 189  351.5797
 190  356.709
 191  400.0938
 192  311.5824
 193  242.0924
 194  316.0619
 195  318.7917
 196  307.5168
 197  231.2064
 198  167.3367
 199  173.0674
 200  214.5243
 201  233.1998
 202  317.1719
 203  198.3787
 204  204.1784
 205  280.353
 206  365.202
 207  262.8952
 208  206.9885
 209  374.6991
 210  321.467
 211  264.9441
 212  350.4175
 213  282.5376
 214  269.7339
 215  154.6002
 216  320.6835
 217  300.9595
 218  299.4466
 219  152.9019
 220  63.75906
 221  194.3864
 222  209.8401
 223  163.3452
 224  252.8808
 225  264.0283
 226  204.6471
 227  168.6062
 228  342.2637
 229  350.8216
 230  190.3413
 231  215.9342
 232  351.8286
 233  339.6418
 234  348.7702
 235  175.2502
 236  224.2563
 237  388.7087
 238  282.2821
 239  293.9299
 240  421.2132
 241  448.5768
 242  360.7293
 243  300.3697
 244  325.4991
 245  300.2015
 246  330.1142
 247  319.118
 248  282.8141
 249  264.9356
 250  308.9736
 251  284.2457
 252  283.2811
 253  354.5743
 254  491.4374
 255  531.6627
 256  400.55
 257  394.9654
 258  529.6068
 259  503.1536
 260  481.4872
 261  598.3058
 262  485.5996
 263  481.5938
 264  417.59
 265  409.8811
 266  386.5045
 267  493.911
 268  390.4654
 269  360.3748
 270  493.9968
 271  448.4208
 272  409.7365
 273  335.8858
 274  321.173
 275  289.2126
 276  270.6116
 277  199.072
 278  237.3747
 279  369.5552
 280  380.0857
 281  317.2242
 282  331.638
 283  342.6038
 284  348.2124
 285  353.8616
 286  481.4292
 287  431.9751
 288  324.5692
 289  344.6788
 290  337.4777
 291  320.6633
 292  308.7249
 293  258.6573
 294  327.3417
 295  353.1729
 296  383.8396
 297  385.696
 298  361.9735
 299  358.299
 300  273.4443
 301  369.6823
 302  426.1493
 303  362.33
 304  414.9301
 305  408.1332
 306  315.3856
 307  257.6341
 308  248.921
 309  382.9865
 310  490.642
 311  356.0352
 312  316.7788
 313  368.5736
 314  277.5007
 315  285.741
 316  298.6662
 317  428.9018
 318  347.9289
 319  314.5141
 320  472.6951
 321  475.907
 322  424.3416
 323  460.8635
 324  449.0077
 325  383.6255
 326  500.4252
 327  514.7462
 328  448.1172
 329  314.1736
 330  408.8836
 331  412.8105
 332  354.7882
 333  468.7984
 334  436.5001
 335  410.0633
 336  404.222
 337  393.8934
 338  410.208
 339  340.2077
 340  386.6566
 341  343.5547
 342  383.8091
 343  347.7491
 344  378.7015
 345  369.93
 346  354.9193
 347  369.9992
 348  389.2616
 349  311.9467
 350  296.7668
 351  336.4469
 352  268.0056
 353  251.3214
 354  267.2458
 355  285.8188
 356  445.1888
 357  414.4263
 358  387.1583
 359  311.7229
 360  293.8418
 361  260.5405
 362  252.0722
 363  339.1744
 364  421.6841
 365  322.9882
 366  317.9085
 367  407.8888
 368  460.0271
 369  368.3824
 370  196.1742
 371  254.3413
 372  476.2696
 373  422.4429
 374  427.7153
 375  346.9536
 376  281.0891
 377  282.2493
 378  204.9844
 379  229.0543
 380  341.212
 381  354.3859
 382  369.4877
 383  303.1354
 384  295.265
 385  256.6743
 386  394.5009
 387  283.5514
 388  328.634
 389  278.4709
 390  422.6132
 391  294.69
 392  179.1374
 393  365.0594
 394  433.4748
 395  462.884
 396  540.2406
 397  477.153
 398  370.9326
 399  427.5842
 400  538.2633
 401  616.4937
 402  487.1185
 403  294.3835
 404  360.626
 405  446.2513
 406  435.8232
 407  358.2459
 408  354.133
 409  439.861
 410  487.333
 411  459.5986
 412  413.0522
 413  397.7406
 414  399.6573
 415  332.3469
 416  305.8356
 417  349.4503
 418  408.6455
 419  473.9482
 420  444.3177
 421  441.3703
 422  418.2646
 423  429.8362
 424  314.9306
 425  346.3609
 426  383.0044
 427  449.3141
 428  398.9696
 429  438.1887
 430  452.9678
 431  315.9568
 432  367.1364
 433  403.5581
 434  501.4477
 435  479.1357
 436  482.9216
 437  457.1672
 438  477.0535
 439  371.8241
 440  294.1276
 441  282.083
 442  375.3233
 443  392.7632
 444  403.0406
 445  282.8273
 446  370.4526
 447  372.9621
 448  440.4029
 449  491.1558
 450  437.133
 451  441.2867
 452  355.2937
 453  393.1588
 454  513.6373
 455  355.2708
 456  314.4585
 457  417.3674
 458  399.9468
 459  432.1068
 460  466.7383
 461  379.8909
 462  425.0294
 463  373.7514
 464  432.4508
 465  559.165
 466  491.4003
 467  539.452
 468  413.0424
 469  480.3125
 470  552.4178
 471  558.7319
 472  552.9434
 473  509.5547
 474  454.7794
 475  466.4974
 476  442.6925
 477  460.7551
 478  509.0207
 479  450.6481
 480  490.7112
 481  422.3572
 482  419.9182
 483  374.5065
 484  397.0037
 485  408.8194
 486  509.2631
 487  391.5557
 488  416.8333
 489  482.0879
 490  429.4076
 491  497.6456
 492  517.3983
 493  514.701
 494  553.147
 495  505.3274
 496  486.9174
 497  480.574
 498  508.3462
 499  372.5404
 500  483.2786
 501  434.7478
 502  369.1679
 503  528.2032
 504  478.1404
 505  434.4531
 506  412.2165
 507  432.3022
 508  543.366
 509  722.3074
 510  921.9501
 511  1010.191
