# Input file       =  1180681523.102148_cleaned.dat
# Candidate        =  PSR_0332+5434
# Telescope        =  AR
# Epoch_topo       =  57909.295197941530
# Epoch_bary       =  N/A
# T_sample         =  0.002
# Data Folded      =  7340032
# Data Avg         =  0.0327436329725281
# Data StdDev      =  1.000107628895   
# Profile Bins     =  512
# Profile Avg      =  469.498806858459 
# Profile StdDev   =  119.745923111167 
# Reduced chi-sqr  =  1.215
# Prob(Noise)      <  0.000604   (~3.2 sigma)
# P_topo (ms)      =  714.512414865171  +/- 0.00033
# P'_topo (s/s)    =  -0                +/- 1.74e-10
# P''_topo (s/s^2) =  0                 +/- 7.69e-14
# P_bary (ms)      =  N/A
# P'_bary (s/s)    =  N/A
# P''_bary (s/s^2) =  N/A
# P_orb (s)        =  N/A
# asin(i)/c (s)    =  N/A
# eccentricity     =  N/A
# w (rad)          =  N/A
# T_peri           =  N/A
######################################################
   0  472.3789
   1  478.8563
   2  427.5872
   3  392.8036
   4  348.9617
   5  348.2051
   6  373.5052
   7  404.7641
   8  356.151
   9  381.244
  10  361.9337
  11  343.7269
  12  299.9956
  13  211.3364
  14  237.2213
  15  231.7572
  16  225.2856
  17  344.3129
  18  332.9601
  19  420.9508
  20  446.5034
  21  462.3086
  22  446.1427
  23  260.1195
  24  249.7006
  25  365.8987
  26  282.3441
  27  371.8701
  28  390.6863
  29  423.039
  30  481.4049
  31  422.0105
  32  317.142
  33  427.3131
  34  505.93
  35  474.4557
  36  367.7253
  37  238.076
  38  246.727
  39  351.8967
  40  358.5448
  41  333.2088
  42  466.5194
  43  495.0407
  44  368.36
  45  452.4464
  46  475.3493
  47  436.9192
  48  390.3314
  49  536.6954
  50  574.5143
  51  542.8009
  52  429.2233
  53  379.8846
  54  439.8766
  55  451.8328
  56  381.1915
  57  414.5692
  58  423.6013
  59  435.4782
  60  317.1188
  61  324.7606
  62  420.1739
  63  426.9853
  64  552.0919
  65  626.2994
  66  552.7952
  67  477.0735
  68  469.7201
  69  525.6937
  70  542.3773
  71  424.9562
  72  407.7211
  73  494.0214
  74  409.9094
  75  395.5679
  76  582.0232
  77  585.3556
  78  495.1429
  79  428.8327
  80  473.2756
  81  489.5464
  82  413.8634
  83  477.9639
  84  514.5831
  85  549.4703
  86  441.3954
  87  424.7362
  88  315.063
  89  422.9301
  90  481.7701
  91  454.7924
  92  407.794
  93  450.8891
  94  469.8655
  95  577.3413
  96  502.7456
  97  457.5152
  98  381.745
  99  409.0363
 100  513.0196
 101  424.6245
 102  341.8033
 103  423.7504
 104  449.8047
 105  371.0652
 106  355.6088
 107  324.1713
 108  341.4912
 109  533.9173
 110  489.4958
 111  486.0644
 112  361.1363
 113  424.8652
 114  349.3261
 115  288.9309
 116  280.3988
 117  323.9323
 118  414.4469
 119  429.2478
 120  398.7492
 121  446.5663
 122  435.975
 123  403.2746
 124  499.2059
 125  523.7432
 126  531.785
 127  413.6644
 128  397.6194
 129  438.7188
 130  504.7993
 131  462.805
 132  450.9803
 133  434.2867
 134  567.2643
 135  540.163
 136  568.7555
 137  698.5983
 138  841.2431
 139  937.9201
 140  1024.47
 141  1006.303
 142  905.1253
 143  734.7503
 144  475.8954
 145  456.709
 146  493.6566
 147  600.8534
 148  552.8376
 149  633.9865
 150  726.5569
 151  486.255
 152  475.401
 153  638.593
 154  606.2136
 155  652.6214
 156  697.3692
 157  610.2122
 158  593.386
 159  562.7988
 160  588.4449
 161  427.1179
 162  409.9339
 163  431.6399
 164  403.6843
 165  410.3987
 166  486.8346
 167  523.373
 168  485.6579
 169  492.5306
 170  421.479
 171  390.7856
 172  420.1582
 173  350.8195
 174  364.0195
 175  406.649
 176  394.645
 177  483.5683
 178  448.4569
 179  386.058
 180  313.8939
 181  331.1592
 182  488.9313
 183  437.8656
 184  579.0936
 185  480.3084
 186  531.6956
 187  536.4555
 188  532.2567
 189  567.8464
 190  554.6719
 191  550.5858
 192  548.2578
 193  597.1024
 194  537.4005
 195  500.9334
 196  579.4884
 197  542.2084
 198  473.39
 199  640.456
 200  557.5284
 201  541.8014
 202  557.7319
 203  566.209
 204  474.8309
 205  478.4213
 206  452.6168
 207  414.3457
 208  475.8988
 209  476.8144
 210  386.0043
 211  470.6578
 212  541.3828
 213  392.038
 214  516.574
 215  500.6218
 216  456.8225
 217  397.191
 218  468.8158
 219  531.6298
 220  415.0256
 221  364.2051
 222  476.8327
 223  528.6885
 224  537.2587
 225  462.1745
 226  512.6083
 227  431.6889
 228  477.7978
 229  438.8734
 230  358.0186
 231  401.3004
 232  469.4731
 233  447.0107
 234  395.6056
 235  467.5823
 236  481.9728
 237  468.7788
 238  504.8972
 239  549.9155
 240  543.2162
 241  553.7534
 242  433.4751
 243  467.2722
 244  448.3296
 245  404.2656
 246  559.1915
 247  698.1469
 248  645.3583
 249  621.3522
 250  574.617
 251  508.5943
 252  499.13
 253  496.7658
 254  483.6227
 255  472.5343
 256  467.8729
 257  484.0191
 258  588.797
 259  591.2
 260  504.1311
 261  413.5958
 262  502.173
 263  483.2
 264  413.094
 265  454.8444
 266  571.4122
 267  421.3013
 268  387.7709
 269  494.8432
 270  491.2039
 271  515.5949
 272  476.0981
 273  477.9233
 274  471.6544
 275  562.4558
 276  522.0059
 277  504.7891
 278  452.9954
 279  488.7887
 280  537.4867
 281  496.0959
 282  497.9771
 283  501.7795
 284  492.8694
 285  515.7816
 286  511.4465
 287  446.6037
 288  557.7505
 289  488.4014
 290  400.4322
 291  454.7966
 292  453.5234
 293  438.2203
 294  407.3562
 295  352.1513
 296  415.75
 297  446.1632
 298  471.9918
 299  656.2209
 300  671.8035
 301  547.1436
 302  468.7989
 303  420.3246
 304  353.8015
 305  461.2463
 306  498.172
 307  504.0601
 308  524.9142
 309  452.6647
 310  475.4244
 311  390.3229
 312  512.3715
 313  373.1103
 314  413.5461
 315  471.134
 316  371.2512
 317  378.7275
 318  406.9158
 319  336.2805
 320  461.3209
 321  473.4596
 322  420.7106
 323  611.2817
 324  615.7016
 325  526.1782
 326  497.7835
 327  539.3392
 328  522.7527
 329  513.1636
 330  488.5068
 331  501.7143
 332  497.6254
 333  568.7153
 334  581.6193
 335  603.7664
 336  686.1379
 337  529.4337
 338  533.8861
 339  513.6787
 340  532.0609
 341  506.498
 342  531.1718
 343  465.0007
 344  425.3084
 345  431.1548
 346  419.7215
 347  380.3203
 348  390.6865
 349  463.0403
 350  416.9377
 351  441.4296
 352  563.1632
 353  436.179
 354  330.2534
 355  385.9471
 356  404.9221
 357  448.591
 358  493.8197
 359  532.9606
 360  512.7684
 361  495.7061
 362  518.4634
 363  514.3842
 364  546.6376
 365  505.4592
 366  433.0419
 367  460.472
 368  505.8312
 369  447.8542
 370  439.2688
 371  511.2565
 372  502.3799
 373  508.0905
 374  523.9464
 375  542.5336
 376  617.0982
 377  539.0367
 378  548.5084
 379  600.5828
 380  574.8851
 381  384.4553
 382  482.6533
 383  514.0912
 384  436.6414
 385  439.0134
 386  384.965
 387  423.6305
 388  508.5425
 389  569.2335
 390  530.7808
 391  541.7974
 392  516.4072
 393  492.6347
 394  575.3356
 395  524.309
 396  441.3423
 397  443.9746
 398  474.9569
 399  429.8804
 400  581.865
 401  647.9979
 402  501.8241
 403  475.199
 404  568.9928
 405  539.8237
 406  446.604
 407  536.2235
 408  495.8102
 409  525.6397
 410  514.1966
 411  479.3166
 412  477.7817
 413  464.9577
 414  473.6046
 415  530.5101
 416  556.9689
 417  509.5534
 418  424.5204
 419  394.5363
 420  385.4332
 421  483.4023
 422  394.5848
 423  435.7722
 424  460.462
 425  471.1932
 426  578.373
 427  521.5656
 428  434.5667
 429  254.2937
 430  366.0449
 431  433.8347
 432  513.9584
 433  505.1288
 434  366.1096
 435  529.0956
 436  440.4764
 437  366.6229
 438  361.4829
 439  450.5218
 440  419.3163
 441  318.5551
 442  431.407
 443  541.099
 444  521.8888
 445  486.6376
 446  471.5861
 447  521.7214
 448  450.7911
 449  496.771
 450  604.405
 451  508.8456
 452  429.7464
 453  378.7484
 454  428.8592
 455  556.7435
 456  615.5921
 457  433.708
 458  434.5772
 459  488.4238
 460  554.4324
 461  471.5154
 462  375.0146
 463  375.9692
 464  398.5369
 465  513.44
 466  381.5379
 467  471.832
 468  445.0429
 469  439.1463
 470  470.8212
 471  339.6007
 472  326.4013
 473  293.3614
 474  318.8371
 475  290.3932
 476  311.8612
 477  429.6643
 478  381.5828
 479  417.4972
 480  568.2448
 481  415.4277
 482  417.7744
 483  481.8044
 484  479.5771
 485  406.9379
 486  481.8494
 487  392.8045
 488  355.8172
 489  331.0974
 490  357.1562
 491  407.7228
 492  475.7181
 493  507.2025
 494  468.1348
 495  408.2095
 496  449.9159
 497  458.0596
 498  489.0246
 499  605.2391
 500  465.0176
 501  483.0292
 502  503.2698
 503  427.8178
 504  409.8462
 505  515.9539
 506  540.6675
 507  538.0972
 508  474.677
 509  278.0374
 510  385.7546
 511  442.0739
