# Input file       =  1180767674.113528_cleaned.dat
# Candidate        =  PSR_0332+5434
# Telescope        =  AR
# Epoch_topo       =  57910.292316128798
# Epoch_bary       =  N/A
# T_sample         =  0.002
# Data Folded      =  7340032
# Data Avg         =  0.0269757136285701
# Data StdDev      =  1.00003758640621 
# Profile Bins     =  512
# Profile Avg      =  386.48387413438  
# Profile StdDev   =  119.737536711309 
# Reduced chi-sqr  =  1.727
# Prob(Noise)      <  3.07e-22   (~9.6 sigma)
# P_topo (ms)      =  714.511456005611  +/- 0.000278
# P'_topo (s/s)    =  -0                +/- 1.47e-10
# P''_topo (s/s^2) =  0                 +/- 6.47e-14
# P_bary (ms)      =  N/A
# P'_bary (s/s)    =  N/A
# P''_bary (s/s^2) =  N/A
# P_orb (s)        =  N/A
# asin(i)/c (s)    =  N/A
# eccentricity     =  N/A
# w (rad)          =  N/A
# T_peri           =  N/A
######################################################
   0  293.9455
   1  245.066
   2  298.9746
   3  422.4558
   4  403.6749
   5  338.2773
   6  325.2217
   7  303.5716
   8  297.7783
   9  472.4088
  10  470.4899
  11  328.6515
  12  359.0701
  13  471.3483
  14  461.4046
  15  447.2022
  16  430.6309
  17  454.1146
  18  435.4826
  19  316.0631
  20  366.6606
  21  508.9745
  22  395.4231
  23  460.4246
  24  451.0332
  25  377.8508
  26  329.1684
  27  574.4207
  28  428.2622
  29  378.9797
  30  441.9862
  31  477.265
  32  540.4013
  33  484.8806
  34  532.21
  35  554.3521
  36  421.0564
  37  560.3822
  38  497.278
  39  605.0995
  40  495.6796
  41  451.2932
  42  455.674
  43  468.4925
  44  443.5025
  45  568.687
  46  655.4495
  47  890.2902
  48  1121.613
  49  1284.686
  50  1111.816
  51  892.381
  52  545.6718
  53  401.1437
  54  413.9149
  55  294.395
  56  269.2083
  57  453.4639
  58  476.9869
  59  491.928
  60  409.7786
  61  506.6103
  62  418.7707
  63  406.0924
  64  454.0628
  65  374.4792
  66  524.1267
  67  444.3872
  68  420.879
  69  402.907
  70  493.3936
  71  375.496
  72  275.4212
  73  305.9167
  74  173.0376
  75  170.0103
  76  306.8112
  77  324.5879
  78  303.9178
  79  278.3997
  80  365.8809
  81  343.5407
  82  323.1967
  83  357.2504
  84  355.952
  85  231.0322
  86  248.696
  87  436.2033
  88  391.9612
  89  296.4822
  90  226.8922
  91  290.6413
  92  386.9557
  93  309.1403
  94  345.1048
  95  264.5415
  96  135.4053
  97  218.5749
  98  355.6346
  99  388.3381
 100  395.2558
 101  273.4854
 102  248.1289
 103  178.2735
 104  223.6522
 105  318.4414
 106  319.0753
 107  301.3623
 108  221.5331
 109  224.8138
 110  262.2994
 111  358.3902
 112  417.3823
 113  416.8398
 114  356.13
 115  297.5716
 116  352.3433
 117  433.8531
 118  326.6873
 119  344.771
 120  287.9988
 121  350.6749
 122  311.4665
 123  310.4889
 124  461.7766
 125  435.2676
 126  400.6862
 127  310.2808
 128  360.735
 129  366.8899
 130  406.0401
 131  476.1479
 132  481.0178
 133  466.078
 134  483.0327
 135  557.6323
 136  385.7642
 137  449.1094
 138  490.0936
 139  534.8192
 140  491.2533
 141  465.4199
 142  521.6948
 143  349.766
 144  378.9492
 145  464.2607
 146  466.3632
 147  490.4076
 148  407.3037
 149  368.9217
 150  437.8836
 151  469.9505
 152  382.2679
 153  300.0728
 154  184.5109
 155  369.9385
 156  528.8453
 157  398.1865
 158  377.4978
 159  476.2933
 160  516.6302
 161  485.4958
 162  406.5498
 163  378.7922
 164  483.0524
 165  470.7492
 166  372.8774
 167  278.3218
 168  340.5262
 169  408.153
 170  450.1846
 171  447.5711
 172  393.4939
 173  357.3713
 174  380.0145
 175  371.8716
 176  374.891
 177  405.5822
 178  426.8017
 179  462.3624
 180  415.0219
 181  368.4431
 182  357.6933
 183  430.9881
 184  580.2162
 185  395.1471
 186  231.1759
 187  219.4571
 188  367.809
 189  240.822
 190  245.6988
 191  310.7014
 192  243.611
 193  173.6543
 194  249.4032
 195  325.4172
 196  360.7766
 197  426.2849
 198  340.5006
 199  416.3058
 200  541.8152
 201  475.767
 202  388.0576
 203  393.2834
 204  426.9923
 205  387.5052
 206  409.3633
 207  514.3019
 208  493.6948
 209  425.5581
 210  356.426
 211  417.6681
 212  468.1136
 213  413.58
 214  511.5915
 215  410.4198
 216  413.0858
 217  492.4191
 218  341.7954
 219  345.4654
 220  493.038
 221  455.5627
 222  380.281
 223  434.256
 224  413.7498
 225  326.457
 226  360.9131
 227  321.4204
 228  264.7538
 229  222.25
 230  333.0295
 231  418.6733
 232  457.7079
 233  446.6036
 234  272.7671
 235  154.6184
 236  97.10488
 237  191.5459
 238  344.8596
 239  379.2865
 240  320.7806
 241  275.8459
 242  356.9467
 243  329.4042
 244  227.4917
 245  240.3199
 246  281.669
 247  349.2844
 248  336.7821
 249  273.3566
 250  313.282
 251  254.1825
 252  332.0703
 253  461.2787
 254  276.4448
 255  221.3235
 256  255.782
 257  259.5551
 258  390.4173
 259  442.5835
 260  398.1683
 261  272.702
 262  303.7661
 263  333.3187
 264  300.0636
 265  418.9686
 266  351.0311
 267  250.4566
 268  347.3794
 269  300.3151
 270  394.5453
 271  461.1116
 272  339.5154
 273  301.1423
 274  281.8867
 275  353.9026
 276  319.1044
 277  236.8397
 278  275.9473
 279  249.4921
 280  271.4564
 281  217.4269
 282  265.2299
 283  434.0618
 284  349.0758
 285  288.5107
 286  255.2483
 287  297.1525
 288  413.932
 289  331.9
 290  365.8185
 291  459.8264
 292  481.1735
 293  444.847
 294  338.8601
 295  363.6123
 296  384.5178
 297  340.9734
 298  404.6505
 299  381.5056
 300  410.899
 301  380.3979
 302  298.4185
 303  388.3497
 304  420.1011
 305  468.2962
 306  437.8083
 307  516.1047
 308  568.5588
 309  446.2526
 310  496.0441
 311  439.4049
 312  455.6806
 313  525.0148
 314  612.9257
 315  451.4366
 316  415.1546
 317  373.1652
 318  362.7308
 319  310.9055
 320  359.3766
 321  528.3268
 322  566.0175
 323  470.8692
 324  409.9046
 325  441.7417
 326  410.005
 327  305.4111
 328  337.371
 329  422.5251
 330  304.0621
 331  322.6797
 332  342.2036
 333  290.5436
 334  343.4833
 335  320.6091
 336  230.1753
 337  411.175
 338  412.708
 339  180.6833
 340  258.4261
 341  394.7163
 342  428.0721
 343  519.4634
 344  519.774
 345  514.2677
 346  470.6107
 347  500.34
 348  499.9155
 349  492.7192
 350  523.2278
 351  566.1298
 352  492.9376
 353  506.5139
 354  317.4473
 355  399.152
 356  505.8043
 357  400.1275
 358  320.1735
 359  290.9637
 360  304.2215
 361  363.8485
 362  314.9934
 363  246.3766
 364  253.9877
 365  318.02
 366  429.3135
 367  364.0057
 368  434.1341
 369  404.4109
 370  421.3842
 371  396.1555
 372  475.1491
 373  514.3177
 374  416.0806
 375  483.3614
 376  398.6588
 377  340.3464
 378  468.0831
 379  360.1606
 380  385.2204
 381  459.8132
 382  545.6412
 383  593.0334
 384  373.8745
 385  375.3231
 386  365.7191
 387  461.3484
 388  375.2076
 389  381.0902
 390  404.9998
 391  409.4644
 392  408.0211
 393  447.1519
 394  275.922
 395  305.5636
 396  344.369
 397  424.6783
 398  462.829
 399  472.1685
 400  475.5076
 401  536.6816
 402  584.8834
 403  527.1702
 404  530.3789
 405  584.2607
 406  529.2075
 407  520.175
 408  490.7109
 409  530.0175
 410  408.0789
 411  392.9068
 412  373.6848
 413  407.4717
 414  432.0646
 415  461.5294
 416  512.4166
 417  325.1978
 418  373.1616
 419  403.3702
 420  409.1939
 421  359.5364
 422  417.3202
 423  433.6296
 424  470.6361
 425  332.15
 426  283.2409
 427  341.0858
 428  433.573
 429  456.2178
 430  454.5697
 431  348.0844
 432  380.9938
 433  364.3812
 434  244.6739
 435  264.9786
 436  282.5406
 437  162.6952
 438  249.3597
 439  292.2047
 440  332.5482
 441  312.3814
 442  412.7064
 443  557.2104
 444  414.4673
 445  240.3094
 446  165.6425
 447  331.7685
 448  398.6755
 449  336.4407
 450  324.5826
 451  375.4525
 452  234.0844
 453  245.603
 454  232.918
 455  310.0816
 456  324.554
 457  303.9656
 458  396.1081
 459  336.9226
 460  351.4572
 461  240.3611
 462  382.9596
 463  417.7462
 464  399.0811
 465  375.4521
 466  288.929
 467  213.8147
 468  314.3392
 469  448.1077
 470  346.8055
 471  352.8785
 472  337.5697
 473  319.2878
 474  296.0573
 475  391.1484
 476  304.7847
 477  354.7105
 478  340.0356
 479  310.606
 480  255.1643
 481  269.5102
 482  417.0423
 483  374.1309
 484  389.2556
 485  391.9879
 486  370.5642
 487  326.2824
 488  360.0338
 489  376.2766
 490  449.1827
 491  408.4578
 492  339.8071
 493  423.6098
 494  430.632
 495  415.1471
 496  477.2099
 497  317.3494
 498  355.9297
 499  454.1677
 500  380.1789
 501  276.9364
 502  358.679
 503  395.0693
 504  369.8799
 505  226.3815
 506  236.3404
 507  246.13
 508  305.2263
 509  341.756
 510  295.5746
 511  207.358
