# Input file       =  1180236029.103016_cleaned.dat
# Candidate        =  PSR_0332+5434
# Telescope        =  AR
# Epoch_topo       =  57904.139017396017
# Epoch_bary       =  N/A
# T_sample         =  0.002
# Data Folded      =  7208960
# Data Avg         =  0.0317606560230876
# Data StdDev      =  1.00009491710015 
# Profile Bins     =  512
# Profile Avg      =  446.918271211839 
# Profile StdDev   =  118.670438578404 
# Reduced chi-sqr  =  1.349
# Prob(Noise)      <  2.16e-07   (~5.1 sigma)
# P_topo (ms)      =  714.517413795173  +/- 0.000277
# P'_topo (s/s)    =  -0                +/- 1.49e-10
# P''_topo (s/s^2) =  0                 +/- 6.68e-14
# P_bary (ms)      =  N/A
# P'_bary (s/s)    =  N/A
# P''_bary (s/s^2) =  N/A
# P_orb (s)        =  N/A
# asin(i)/c (s)    =  N/A
# eccentricity     =  N/A
# w (rad)          =  N/A
# T_peri           =  N/A
######################################################
   0  1003.175
   1  902.72
   2  746.8792
   3  590.3006
   4  468.9735
   5  454.6996
   6  462.6959
   7  588.7273
   8  571.1243
   9  531.2346
  10  460.1855
  11  522.4717
  12  506.7983
  13  554.3154
  14  571.0502
  15  463.4922
  16  491.3275
  17  465.7158
  18  404.1911
  19  464.5523
  20  582.28
  21  509.6051
  22  388.5957
  23  361.8057
  24  442.6726
  25  514.1163
  26  341.8033
  27  426.7008
  28  539.5457
  29  437.9933
  30  445.1256
  31  426.201
  32  475.0895
  33  473.3486
  34  445.6674
  35  557.7252
  36  510.1783
  37  464.574
  38  538.9163
  39  624.8223
  40  565.4045
  41  520.2234
  42  512.4474
  43  566.2162
  44  508.5996
  45  492.4271
  46  495.6154
  47  432.3405
  48  364.5359
  49  432.787
  50  513.6158
  51  634.8593
  52  540.9108
  53  486.5728
  54  364.0392
  55  441.8984
  56  490.1793
  57  447.2359
  58  535.1974
  59  470.3709
  60  453.6181
  61  464.0909
  62  460.3617
  63  450.6092
  64  445.2487
  65  446.1616
  66  369.5509
  67  264.8781
  68  344.675
  69  509.8481
  70  597.168
  71  572.9962
  72  509.4439
  73  464.5019
  74  453.0543
  75  532.0443
  76  427.6686
  77  537.5366
  78  538.6868
  79  629.5488
  80  568.6465
  81  455.8761
  82  506.6414
  83  463.8
  84  515.4982
  85  456.7722
  86  448.8026
  87  442.9595
  88  417.397
  89  383.0747
  90  446.9427
  91  409.2899
  92  391.5336
  93  386.8503
  94  340.3455
  95  378.9122
  96  356.8336
  97  301.4791
  98  299.8779
  99  327.683
 100  286.9909
 101  294.7386
 102  473.2284
 103  438.4638
 104  292.5566
 105  416.2445
 106  404.2576
 107  348.2242
 108  408.3809
 109  409.4252
 110  349.941
 111  363.6125
 112  406.0074
 113  408.4552
 114  370.5232
 115  486.873
 116  434.2402
 117  417.235
 118  463.421
 119  463.3105
 120  420.208
 121  453.3976
 122  511.6126
 123  509.5047
 124  627.0779
 125  579.8776
 126  510.6945
 127  557.1379
 128  642.1044
 129  582.5068
 130  512.831
 131  403.6488
 132  411.0226
 133  350.9674
 134  318.5583
 135  413.9615
 136  488.1015
 137  412.0853
 138  446.3124
 139  381.3127
 140  313.6208
 141  384.9843
 142  370.9317
 143  360.535
 144  396.4427
 145  352.1478
 146  372.0923
 147  395.0136
 148  204.7582
 149  293.6468
 150  415.4837
 151  449.8546
 152  370.1683
 153  398.3007
 154  378.8295
 155  293.6859
 156  403.2684
 157  574.1154
 158  548.4387
 159  463.9768
 160  455.7558
 161  570.8807
 162  494.7877
 163  440.2547
 164  439.7385
 165  391.5335
 166  488.2143
 167  465.5181
 168  467.0668
 169  480.2667
 170  498.0638
 171  474.6749
 172  471.3059
 173  494.1982
 174  484.4098
 175  434.5287
 176  462.0134
 177  419.8902
 178  462.5273
 179  409.3223
 180  328.2319
 181  415.5181
 182  465.2813
 183  519.5623
 184  408.2011
 185  296.6993
 186  249.8298
 187  361.0404
 188  264.2749
 189  306.3452
 190  310.1161
 191  238.9386
 192  335.0359
 193  430.2374
 194  558.1848
 195  559.811
 196  522.0912
 197  429.7618
 198  368.1871
 199  426.4207
 200  464.6433
 201  548.9543
 202  576.8231
 203  537.6945
 204  461.5724
 205  601.2219
 206  606.8122
 207  575.6599
 208  473.1179
 209  605.0583
 210  631.4522
 211  492.1092
 212  549.2515
 213  485.3308
 214  428.8607
 215  520.1519
 216  450.3332
 217  298.7577
 218  264.2483
 219  423.9979
 220  345.5878
 221  249.9983
 222  121.7593
 223  342.5338
 224  325.7017
 225  401.9598
 226  515.849
 227  370.2363
 228  331.0089
 229  308.707
 230  262.7797
 231  291.981
 232  273.7332
 233  210.7497
 234  174.0087
 235  305.348
 236  339.808
 237  356.4643
 238  249.242
 239  336.2286
 240  384.0341
 241  352.1198
 242  381.4731
 243  353.7994
 244  258.7462
 245  310.9851
 246  490.1412
 247  468.8593
 248  317.8538
 249  257.6152
 250  301.122
 251  259.2906
 252  396.6424
 253  400.7655
 254  330.5636
 255  296.1917
 256  431.7967
 257  520.0092
 258  413.2393
 259  434.3782
 260  385.4793
 261  379.5522
 262  405.9787
 263  465.4373
 264  470.7632
 265  439.308
 266  412.6882
 267  403.1646
 268  436.413
 269  437.1287
 270  293.7553
 271  262.2484
 272  466.7927
 273  492.4084
 274  431.5473
 275  397.605
 276  419.2407
 277  438.6571
 278  464.931
 279  409.9868
 280  402.5215
 281  330.4555
 282  458.8009
 283  326.4907
 284  369.7784
 285  442.9707
 286  465.7429
 287  353.1141
 288  361.6642
 289  468.3369
 290  501.5041
 291  482.0087
 292  377.4259
 293  278.4582
 294  363.712
 295  365.6177
 296  388.8492
 297  505.1672
 298  498.4955
 299  524.5908
 300  444.4646
 301  429.1109
 302  445.3839
 303  376.5096
 304  334.402
 305  302.5988
 306  373.7045
 307  467.278
 308  350.7282
 309  357.5896
 310  348.0633
 311  303.6406
 312  364.1392
 313  336.1043
 314  341.155
 315  368.3961
 316  327.2012
 317  349.3969
 318  355.8426
 319  337.2933
 320  348.6942
 321  357.8781
 322  387.0858
 323  338.2246
 324  393.6071
 325  519.4023
 326  472.6434
 327  422.3657
 328  366.5458
 329  451.9577
 330  444.1675
 331  484.0395
 332  445.3162
 333  465.7641
 334  588.4661
 335  485.1134
 336  450.4359
 337  622.7605
 338  516.0447
 339  506.0821
 340  653.3815
 341  544.8605
 342  494.5566
 343  536.7876
 344  570.1706
 345  597.088
 346  531.5532
 347  463.4698
 348  497.2325
 349  587.4729
 350  523.6146
 351  501.9502
 352  490.8204
 353  602.5602
 354  663.7072
 355  628.7856
 356  635.7053
 357  619.4357
 358  546.1021
 359  409.7618
 360  416.4176
 361  440.0225
 362  432.1783
 363  352.8661
 364  411.2107
 365  399.1354
 366  379.3634
 367  398.9404
 368  510.7295
 369  480.4147
 370  422.21
 371  518.5983
 372  579.4137
 373  602.4683
 374  488.1438
 375  440.4073
 376  517.8749
 377  496.5695
 378  447.7153
 379  606.1846
 380  510.465
 381  414.2823
 382  476.8554
 383  494.7038
 384  446.7981
 385  397.9865
 386  512.1059
 387  444.3478
 388  405.8939
 389  350.4135
 390  402.7574
 391  433.2997
 392  507.2544
 393  440.3363
 394  364.347
 395  346.4828
 396  525.3914
 397  571.9519
 398  452.4571
 399  423.5291
 400  454.0049
 401  478.3508
 402  391.3685
 403  383.024
 404  432.9095
 405  541.2707
 406  358.8999
 407  435.6228
 408  433.8036
 409  364.0524
 410  359.8139
 411  490.8665
 412  499.4284
 413  468.5164
 414  401.1992
 415  520.0818
 416  525.9969
 417  434.164
 418  462.9015
 419  572.5176
 420  584.2123
 421  427.9886
 422  451.46
 423  506.2779
 424  436.7911
 425  454.3582
 426  459.6613
 427  503.2822
 428  427.5135
 429  460.6902
 430  441.2544
 431  444.5272
 432  458.5123
 433  486.4614
 434  342.7583
 435  345.9429
 436  421.0789
 437  432.1178
 438  361.2242
 439  353.193
 440  344.824
 441  443.7358
 442  387.3046
 443  347.0724
 444  289.6793
 445  384.0991
 446  360.4967
 447  387.1755
 448  400.8068
 449  390.5992
 450  457.1821
 451  458.3917
 452  426.8733
 453  366.5409
 454  420.6334
 455  537.9013
 456  491.5132
 457  519.3939
 458  450.6833
 459  433.7221
 460  402.4857
 461  347.6615
 462  461.8276
 463  474.1923
 464  476.1433
 465  436.5171
 466  506.6732
 467  555.5596
 468  482.4048
 469  333.1517
 470  408.777
 471  470.7961
 472  476.9087
 473  543.6235
 474  652.3911
 475  557.6111
 476  586.0775
 477  535.6686
 478  371.5046
 479  361.2322
 480  400.5414
 481  487.7783
 482  400.8846
 483  356.7607
 484  391.842
 485  416.7352
 486  387.8484
 487  483.2774
 488  403.9549
 489  490.8971
 490  581.201
 491  534.0507
 492  384.0613
 493  374.1914
 494  420.6723
 495  515.0487
 496  580.7285
 497  556.9359
 498  596.7067
 499  659.7816
 500  503.6733
 501  545.6503
 502  536.9177
 503  503.4701
 504  537.4387
 505  535.1058
 506  551.1585
 507  599.7909
 508  613.6975
 509  700.1617
 510  806.3847
 511  1001.731
