# Input file       =  1180925359.100276_cleaned.dat
# Candidate        =  PSR_0332+5434
# Telescope        =  AR
# Epoch_topo       =  57912.117373845787
# Epoch_bary       =  N/A
# T_sample         =  0.002
# Data Folded      =  7208960
# Data Avg         =  0.0211061534775421
# Data StdDev      =  1.00012969226586 
# Profile Bins     =  512
# Profile Avg      =  297.057767201313 
# Profile StdDev   =  118.674564970905 
# Reduced chi-sqr  =  1.178
# Prob(Noise)      <  0.00331   (~2.7 sigma)
# P_topo (ms)      =  714.509700000992  +/- 0.000172
# P'_topo (s/s)    =  -0                +/- 9.25e-11
# P''_topo (s/s^2) =  0                 +/- 4.16e-14
# P_bary (ms)      =  N/A
# P'_bary (s/s)    =  N/A
# P''_bary (s/s^2) =  N/A
# P_orb (s)        =  N/A
# asin(i)/c (s)    =  N/A
# eccentricity     =  N/A
# w (rad)          =  N/A
# T_peri           =  N/A
######################################################
   0  126.2443
   1  285.8841
   2  231.2734
   3  244.8475
   4  334.2546
   5  369.5012
   6  303.9004
   7  281.9469
   8  421.0875
   9  380.1505
  10  318.3375
  11  379.4407
  12  321.0642
  13  317.3077
  14  350.0137
  15  155.6518
  16  327.9084
  17  222.7689
  18  179.787
  19  340.0118
  20  374.1569
  21  237.7692
  22  229.7568
  23  246.5166
  24  142.5197
  25  119.8321
  26  206.1581
  27  291.7689
  28  234.9907
  29  170.2028
  30  184.8147
  31  248.4365
  32  251.175
  33  245.7594
  34  246.4642
  35  237.8568
  36  138.8051
  37  146.5333
  38  171.0306
  39  166.1723
  40  262.1758
  41  186.921
  42  188.2438
  43  220.3789
  44  209.4985
  45  250.9716
  46  360.405
  47  338.9532
  48  297.3031
  49  233.8453
  50  318.9716
  51  472.611
  52  445.3853
  53  406.0921
  54  370.835
  55  345.2234
  56  337.6916
  57  284.4829
  58  205.6548
  59  172.4388
  60  224.9287
  61  114.12
  62  282.897
  63  391.5922
  64  201.6385
  65  208.4165
  66  133.0664
  67  232.5573
  68  325.0477
  69  323.8164
  70  384.8413
  71  287.7168
  72  274.3838
  73  223.0759
  74  263.6923
  75  362.3372
  76  196.6071
  77  137.4638
  78  211.1611
  79  227.0424
  80  190.4546
  81  339.4794
  82  421.0609
  83  266.6541
  84  196.248
  85  248.9589
  86  349.9319
  87  322.1407
  88  190.501
  89  324.8578
  90  261.2671
  91  320.886
  92  286.4307
  93  322.8509
  94  395.7479
  95  310.4641
  96  398.1807
  97  303.6975
  98  214.5839
  99  375.6062
 100  471.8988
 101  433.1575
 102  352.4044
 103  451.9023
 104  393.2021
 105  381.5055
 106  315.3745
 107  192.4735
 108  234.5141
 109  338.1302
 110  414.6388
 111  360.3145
 112  320.9309
 113  385.1136
 114  265.8201
 115  169.5093
 116  266.1787
 117  112.8114
 118  293.5302
 119  388.5511
 120  368.0628
 121  310.4268
 122  242.0708
 123  360.5267
 124  325.7742
 125  203.4001
 126  352.7335
 127  298.8426
 128  256.7187
 129  213.0146
 130  203.8652
 131  261.5567
 132  261.0475
 133  232.4612
 134  343.4744
 135  323.1444
 136  240.8993
 137  280.0667
 138  436.6032
 139  489.4552
 140  283.6931
 141  107.3867
 142  219.6269
 143  301.1666
 144  329.0211
 145  352.145
 146  340.6164
 147  187.8941
 148  271.783
 149  274.1545
 150  224.8642
 151  332.3927
 152  376.5463
 153  358.4163
 154  340.6323
 155  263.6092
 156  261.6706
 157  374.0432
 158  329.0088
 159  192.7673
 160  227.6631
 161  326.4284
 162  304.449
 163  180.4106
 164  156.5779
 165  229.6782
 166  236.4858
 167  406.5479
 168  428.3276
 169  354.8791
 170  263.0619
 171  372.4265
 172  323.8288
 173  245.1618
 174  207.2094
 175  240.6463
 176  221.5225
 177  287.4879
 178  338.4924
 179  210.475
 180  157.8569
 181  322.9975
 182  319.0185
 183  308.4288
 184  395.3698
 185  344.1239
 186  308.2069
 187  366.2338
 188  191.6773
 189  148.5873
 190  288.2968
 191  408.0835
 192  406.9203
 193  391.2197
 194  300.5816
 195  370.6687
 196  295.0607
 197  210.9298
 198  265.1905
 199  252.7226
 200  214.2727
 201  232.5194
 202  284.8172
 203  285.5824
 204  254.3888
 205  257.42
 206  363.6516
 207  287.7247
 208  254.5196
 209  231.9226
 210  251.2909
 211  260.3278
 212  278.1236
 213  180.7574
 214  200.5122
 215  277.2891
 216  364.7031
 217  381.8047
 218  418.8961
 219  359.9014
 220  316.5446
 221  367.6407
 222  335.7157
 223  294.2746
 224  319.1372
 225  371.3902
 226  422.8243
 227  371.5748
 228  259.522
 229  206.1726
 230  273.4684
 231  202.8705
 232  250.3719
 233  296.8158
 234  441.8041
 235  382.8141
 236  270.9617
 237  187.0161
 238  168.5729
 239  304.4492
 240  236.1431
 241  205.2129
 242  328.067
 243  369.8556
 244  507.5872
 245  279.2434
 246  278.8615
 247  261.3974
 248  275.884
 249  338.0887
 250  317.2001
 251  253.6044
 252  375.0032
 253  384.4592
 254  335.5852
 255  349.494
 256  349.8535
 257  298.348
 258  263.4956
 259  342.3264
 260  317.1763
 261  344.5311
 262  231.7811
 263  222.9503
 264  206.2196
 265  210.0484
 266  422.6227
 267  493.4506
 268  408.1599
 269  310.5351
 270  249.3735
 271  270.1628
 272  167.2256
 273  307.769
 274  404.8778
 275  330.1486
 276  459.7727
 277  333.4079
 278  394.4585
 279  318.1059
 280  358.192
 281  342.3056
 282  225.2507
 283  234.1122
 284  350.008
 285  376.4536
 286  267.5551
 287  237.308
 288  271.2304
 289  210.4532
 290  42.64233
 291  48.13482
 292  268.2748
 293  296.8988
 294  438.6795
 295  285.5963
 296  206.652
 297  90.74076
 298  99.5508
 299  208.1997
 300  378.1707
 301  435.897
 302  378.0282
 303  174.9233
 304  255.8697
 305  310.7014
 306  355.3943
 307  306.633
 308  353.6627
 309  179.6077
 310  241.1262
 311  281.3186
 312  180.7983
 313  213.8437
 314  247.0085
 315  285.2003
 316  221.3981
 317  290.3978
 318  353.099
 319  269.1567
 320  310.2452
 321  341.1979
 322  213.6617
 323  204.6964
 324  233.189
 325  315.714
 326  386.7866
 327  332.095
 328  260.1325
 329  268.0853
 330  333.3981
 331  255.753
 332  276.3411
 333  381.5039
 334  377.0908
 335  332.2336
 336  180.7425
 337  281.519
 338  430.4204
 339  362.7117
 340  395.3295
 341  417.1531
 342  349.4959
 343  356.7804
 344  381.9732
 345  327.243
 346  290.3775
 347  431.4328
 348  459.3011
 349  417.3777
 350  423.4669
 351  433.1088
 352  474.6845
 353  724.2675
 354  894.7131
 355  818.9151
 356  791.8232
 357  716.2089
 358  510.0152
 359  352.7422
 360  286.1691
 361  259.0656
 362  256.9882
 363  314.705
 364  187.1317
 365  295.2621
 366  314.2253
 367  356.8717
 368  214.6707
 369  214.9878
 370  198.7087
 371  247.602
 372  226.5251
 373  172.3088
 374  208.8202
 375  280.7672
 376  276.4733
 377  319.2848
 378  284.6549
 379  264.1935
 380  488.0788
 381  412.0143
 382  307.6025
 383  291.7261
 384  312.297
 385  238.466
 386  236.3973
 387  228.826
 388  240.263
 389  326.9313
 390  378.4775
 391  429.6005
 392  523.2323
 393  456.7111
 394  263.865
 395  303.4265
 396  310.8964
 397  338.7212
 398  350.9252
 399  351.0102
 400  381.6353
 401  314.9543
 402  380.5153
 403  335.3549
 404  194.1165
 405  221.4877
 406  269.6605
 407  259.2116
 408  284.7568
 409  373.8131
 410  373.1252
 411  138.8958
 412  205.8219
 413  399.5177
 414  243.3917
 415  310.2241
 416  411.2271
 417  421.5859
 418  294.3414
 419  409.2305
 420  358.8887
 421  215.2534
 422  269.1213
 423  192.9019
 424  181.2209
 425  239.9922
 426  188.6393
 427  202.043
 428  265.775
 429  368.1593
 430  232.5581
 431  155.325
 432  354.5905
 433  286.134
 434  193.6857
 435  378.8714
 436  329.0226
 437  280.5134
 438  307.7011
 439  298.1286
 440  262.3271
 441  321.9101
 442  264.2262
 443  224.7796
 444  319.3883
 445  346.3587
 446  262.0825
 447  278.5356
 448  398.2485
 449  394.9476
 450  250.4597
 451  324.887
 452  342.8405
 453  165.3404
 454  193.0992
 455  256.0349
 456  235.9815
 457  299.8576
 458  290.9991
 459  292.4476
 460  316.5028
 461  359.9318
 462  298.5806
 463  287.2624
 464  232.1183
 465  347.1747
 466  386.5327
 467  366.7542
 468  280.5994
 469  292.113
 470  380.4741
 471  339.3825
 472  267.4426
 473  339.2264
 474  248.526
 475  108.5958
 476  282.7386
 477  311.1474
 478  217.3766
 479  239.1829
 480  302.2612
 481  251.973
 482  247.395
 483  305.8307
 484  403.9752
 485  359.0222
 486  402.5225
 487  319.6171
 488  288.9545
 489  218.1
 490  240.5163
 491  189.9581
 492  158.4673
 493  265.7125
 494  295.2882
 495  243.3359
 496  218.5797
 497  304.4505
 498  339.0493
 499  319.0099
 500  298.0356
 501  291.8885
 502  262.5464
 503  252.2941
 504  259.812
 505  279.9736
 506  245.1232
 507  234.5613
 508  280.0839
 509  295.2103
 510  280.6701
 511  253.3443
