# Input file       =  1180164504.097987_cleaned.dat
# Candidate        =  PSR_0332+5434
# Telescope        =  AR
# Epoch_topo       =  57903.311181689663
# Epoch_bary       =  N/A
# T_sample         =  0.002
# Data Folded      =  7340032
# Data Avg         =  0.0306486489395871
# Data StdDev      =  1.00020111974769 
# Profile Bins     =  512
# Profile Avg      =  439.402627320561 
# Profile StdDev   =  119.757117054832 
# Reduced chi-sqr  =  1.301
# Prob(Noise)      <  4.81e-06   (~4.4 sigma)
# P_topo (ms)      =  714.518235973591  +/- 0.000225
# P'_topo (s/s)    =  -0                +/- 1.19e-10
# P''_topo (s/s^2) =  0                 +/- 5.23e-14
# P_bary (ms)      =  N/A
# P'_bary (s/s)    =  N/A
# P''_bary (s/s^2) =  N/A
# P_orb (s)        =  N/A
# asin(i)/c (s)    =  N/A
# eccentricity     =  N/A
# w (rad)          =  N/A
# T_peri           =  N/A
######################################################
   0  1025.337
   1  880.663
   2  667.1236
   3  491.9412
   4  448.8967
   5  403.6256
   6  272.4826
   7  284.4677
   8  245.7091
   9  287.6836
  10  338.4121
  11  362.584
  12  503.0637
  13  389.1375
  14  376.0656
  15  385.2124
  16  466.7445
  17  404.6103
  18  328.9401
  19  354.8402
  20  256.1154
  21  254.1248
  22  370.9347
  23  453.5058
  24  407.7326
  25  362.0592
  26  423.587
  27  389.1997
  28  326.8898
  29  576.811
  30  407.0603
  31  388.0004
  32  537.3204
  33  616.9568
  34  516.9968
  35  545.799
  36  646.4553
  37  628.8564
  38  656.1769
  39  614.1118
  40  539.4804
  41  606.2087
  42  532.3878
  43  617.3348
  44  539.4169
  45  498.2632
  46  488.6588
  47  449.2206
  48  466.4244
  49  534.4159
  50  530.8293
  51  460.6239
  52  459.2334
  53  392.6495
  54  426.9975
  55  321.9225
  56  361.5007
  57  388.8917
  58  363.9156
  59  250.367
  60  251.8921
  61  284.5648
  62  397.9731
  63  447.0755
  64  407.9243
  65  353.4461
  66  342.9291
  67  438.7153
  68  401.2207
  69  385.6723
  70  357.7804
  71  421.9539
  72  351.8907
  73  388.5586
  74  384.2402
  75  428.5015
  76  483.7893
  77  505.6085
  78  513.9409
  79  547.7536
  80  529.0424
  81  446.847
  82  305.8335
  83  385.7412
  84  384.9512
  85  514.146
  86  489.0783
  87  385.2362
  88  487.2201
  89  421.8066
  90  407.4565
  91  450.0135
  92  466.8156
  93  535.5175
  94  509.1861
  95  522.3309
  96  496.8803
  97  563.8055
  98  529.5192
  99  432.2272
 100  409.0432
 101  441.3041
 102  492.6704
 103  395.9459
 104  356.0914
 105  404.767
 106  513.5012
 107  504.0226
 108  408.2994
 109  394.5046
 110  353.9292
 111  288.7823
 112  294.2214
 113  348.4341
 114  361.6671
 115  431.9452
 116  397.221
 117  453.9434
 118  401.5553
 119  438.4037
 120  500.2346
 121  546.8806
 122  440.7268
 123  417.0248
 124  452.8654
 125  636.5074
 126  607.6301
 127  657.2678
 128  481.2081
 129  485.9586
 130  486.0851
 131  480.3159
 132  457.496
 133  399.174
 134  368.2771
 135  340.4807
 136  367.3235
 137  375.8657
 138  400.5218
 139  439.9633
 140  495.6555
 141  477.4968
 142  474.0137
 143  430.337
 144  332.3755
 145  412.8112
 146  393.9701
 147  280.7928
 148  242.1669
 149  419.2433
 150  377.5585
 151  286.4557
 152  479.8174
 153  456.8102
 154  372.4654
 155  393.901
 156  397.2515
 157  373.9872
 158  268.0088
 159  389.1498
 160  418.5273
 161  380.376
 162  430.9753
 163  451.1997
 164  434.7046
 165  464.191
 166  495.3535
 167  512.9503
 168  399.6328
 169  371.3373
 170  395.0561
 171  435.7371
 172  485.0836
 173  550.0641
 174  515.7066
 175  497.7058
 176  450.3704
 177  481.9337
 178  530.6428
 179  423.7435
 180  415.4609
 181  382.5956
 182  491.7076
 183  473.1899
 184  409.6223
 185  446.5704
 186  515.8052
 187  569.402
 188  449.3465
 189  323.4766
 190  287.0984
 191  213.0187
 192  265.9335
 193  321.2926
 194  441.0641
 195  328.008
 196  244.7435
 197  312.189
 198  400.6901
 199  386.8013
 200  355.8585
 201  357.9922
 202  338.7263
 203  410.2989
 204  408.3311
 205  359.6013
 206  356.9302
 207  291.7437
 208  360.131
 209  434.2113
 210  363.1903
 211  334.0315
 212  337.1273
 213  398.8669
 214  398.9316
 215  378.6417
 216  396.0038
 217  338.2128
 218  274.9654
 219  354.3124
 220  425.1126
 221  346.7589
 222  363.9583
 223  480.193
 224  534.2783
 225  558.8952
 226  492.704
 227  430.8777
 228  378.6526
 229  383.8999
 230  317.6649
 231  303.2794
 232  303.8221
 233  388.5539
 234  397.673
 235  450.1311
 236  452.355
 237  415.86
 238  414.8384
 239  498.6442
 240  448.5361
 241  505.6587
 242  518.013
 243  531.525
 244  533.678
 245  463.8116
 246  432.3164
 247  470.6126
 248  534.3361
 249  508.5627
 250  392.3205
 251  459.5351
 252  607.2674
 253  598.5605
 254  542.9786
 255  508.013
 256  450.3419
 257  526.1603
 258  576.6107
 259  592.4543
 260  455.7401
 261  428.3409
 262  602.8019
 263  629.4252
 264  505.8669
 265  544.1675
 266  508.7282
 267  404.0049
 268  423.2044
 269  388.0724
 270  304.8394
 271  378.3439
 272  407.5671
 273  502.8964
 274  446.1788
 275  378.3334
 276  333.5438
 277  405.3411
 278  382.9948
 279  386.073
 280  550.4379
 281  465.7197
 282  355.7619
 283  299.9995
 284  463.3822
 285  425.417
 286  422.3521
 287  517.869
 288  429.2894
 289  389.2639
 290  461.5274
 291  475.6019
 292  455.6965
 293  468.0883
 294  438.9514
 295  354.6699
 296  440.6289
 297  435.9597
 298  476.5786
 299  465.742
 300  391.9591
 301  401.8379
 302  419.4483
 303  547.3117
 304  470.1603
 305  417.4156
 306  399.3589
 307  375.3069
 308  525.5966
 309  541.9804
 310  492.9128
 311  502.7
 312  319.7224
 313  334.4941
 314  244.59
 315  275.2057
 316  363.2175
 317  325.4051
 318  438.6479
 319  472.7879
 320  416.3724
 321  399.7737
 322  301.5277
 323  335.8784
 324  287.1934
 325  394.7676
 326  456.2695
 327  390.9566
 328  319.4716
 329  357.8066
 330  268.054
 331  318.747
 332  419.2271
 333  406.3146
 334  478.2203
 335  441.7236
 336  463.4297
 337  399.4382
 338  311.588
 339  364.52
 340  418.6003
 341  450.5002
 342  517.0804
 343  417.1948
 344  346.3836
 345  370.246
 346  442.775
 347  517.8686
 348  522.3842
 349  278.5264
 350  303.0206
 351  341.9448
 352  387.0599
 353  268.6367
 354  302.8867
 355  401.4309
 356  303.1602
 357  269.4002
 358  344.9484
 359  386.4431
 360  270.7047
 361  322.717
 362  353.6287
 363  415.9764
 364  414.1456
 365  365.6862
 366  450.9638
 367  401.9965
 368  440.2159
 369  481.7561
 370  510.3486
 371  488.3483
 372  633.0555
 373  614.6255
 374  529.8276
 375  442.9754
 376  507.9802
 377  471.3596
 378  459.4396
 379  552.7643
 380  506.3755
 381  487.0805
 382  315.2327
 383  370.5229
 384  370.7498
 385  458.6884
 386  456.1984
 387  437.6844
 388  366.9788
 389  514.7375
 390  593.5612
 391  517.8642
 392  490.4749
 393  539.9991
 394  472.7738
 395  426.6039
 396  359.3525
 397  456.3448
 398  472.355
 399  477.3522
 400  413.3423
 401  461.7573
 402  408.1275
 403  394.2138
 404  391.9773
 405  397.5896
 406  431.2663
 407  464.9792
 408  479.4538
 409  507.5711
 410  517.3848
 411  317.557
 412  485.7105
 413  571.2169
 414  481.2388
 415  372.9862
 416  424.1088
 417  440.3698
 418  425.1268
 419  380.7719
 420  571.8245
 421  494.2695
 422  334.4611
 423  361.8203
 424  361.7808
 425  438.4932
 426  468.0255
 427  567.9814
 428  612.3122
 429  417.3579
 430  412.8818
 431  543.9278
 432  526.7916
 433  406.105
 434  485.7527
 435  508.3934
 436  445.0893
 437  406.2472
 438  407.4088
 439  277.2059
 440  344.9436
 441  390.944
 442  378.5779
 443  367.4949
 444  453.7277
 445  445.6245
 446  310.9857
 447  241.3073
 448  448.8849
 449  599.7477
 450  576.1281
 451  531.5693
 452  574.6158
 453  519.1619
 454  551.1151
 455  585.1659
 456  615.5496
 457  531.2715
 458  444.0258
 459  495.8449
 460  542.3006
 461  622.0635
 462  609.2994
 463  428.8097
 464  416.4714
 465  510.2719
 466  487.8277
 467  435.914
 468  450.3576
 469  498.5559
 470  515.5517
 471  614.4205
 472  671.2903
 473  562.6685
 474  536.7545
 475  555.299
 476  397.8693
 477  449.8351
 478  392.5433
 479  463.062
 480  531.1985
 481  574.684
 482  539.1652
 483  501.0862
 484  496.0323
 485  435.7921
 486  366.3729
 487  417.0906
 488  391.6372
 489  335.9812
 490  405.59
 491  474.1858
 492  422.3223
 493  448.0161
 494  582.9543
 495  528.6002
 496  418.8235
 497  491.5824
 498  338.6114
 499  241.2
 500  407.7049
 501  549.6211
 502  349.2032
 503  377.0706
 504  417.2579
 505  484.2621
 506  480.7767
 507  482.3553
 508  576.8135
 509  759.8289
 510  924.5944
 511  969.0706
