# Input file       =  1180595367.128308_cleaned.dat
# Candidate        =  PSR_0332+5434
# Telescope        =  AR
# Epoch_topo       =  57908.298022318377
# Epoch_bary       =  N/A
# T_sample         =  0.002
# Data Folded      =  7340032
# Data Avg         =  0.0323288739220677
# Data StdDev      =  1.0001229964875  
# Profile Bins     =  512
# Profile Avg      =  463.000815446379 
# Profile StdDev   =  119.747763119678 
# Reduced chi-sqr  =  1.130
# Prob(Noise)      <  0.0221   (~2.0 sigma)
# P_topo (ms)      =  714.513377086894  +/- 0.000227
# P'_topo (s/s)    =  -0                +/- 1.2e-10
# P''_topo (s/s^2) =  0                 +/- 5.28e-14
# P_bary (ms)      =  N/A
# P'_bary (s/s)    =  N/A
# P''_bary (s/s^2) =  N/A
# P_orb (s)        =  N/A
# asin(i)/c (s)    =  N/A
# eccentricity     =  N/A
# w (rad)          =  N/A
# T_peri           =  N/A
######################################################
   0  353.4811
   1  319.806
   2  413.6581
   3  465.8898
   4  497.5275
   5  407.1688
   6  455.6545
   7  357.1089
   8  349.836
   9  367.0316
  10  401.5341
  11  449.3255
  12  460.5297
  13  396.8952
  14  427.1081
  15  366.7512
  16  561.1886
  17  552.4703
  18  424.5739
  19  417.6278
  20  391.6853
  21  338.6221
  22  420.4103
  23  571.2767
  24  556.3163
  25  457.3598
  26  500.9777
  27  508.8959
  28  528.0842
  29  500.7875
  30  488.0991
  31  449.9786
  32  461.5796
  33  410.4804
  34  436.6969
  35  435.8126
  36  503.9529
  37  523.9113
  38  606.3188
  39  553.1081
  40  476.7819
  41  494.875
  42  481.4714
  43  496.0175
  44  389.8467
  45  512.6769
  46  429.0384
  47  465.8577
  48  361.508
  49  332.1537
  50  309.6581
  51  304.0485
  52  358.0201
  53  462.4787
  54  402.7086
  55  460.6695
  56  496.01
  57  492.5196
  58  518.8869
  59  543.4843
  60  527.22
  61  593.1281
  62  540.1022
  63  602.6226
  64  531.2842
  65  496.5367
  66  481.9069
  67  592.6145
  68  641.5403
  69  631.0626
  70  552.2068
  71  524.0576
  72  449.9044
  73  378.8833
  74  305.4313
  75  361.9415
  76  420.5731
  77  422.4279
  78  418.3619
  79  426.8038
  80  302.7201
  81  361.191
  82  417.2267
  83  369.7138
  84  397.8159
  85  259.5683
  86  312.169
  87  403.4875
  88  340.0148
  89  351.8756
  90  409.6758
  91  371.0202
  92  399.1007
  93  379.4066
  94  410.2509
  95  434.8785
  96  444.0419
  97  528.8446
  98  531.4138
  99  464.1385
 100  446.4543
 101  545.0364
 102  525.2838
 103  565.7124
 104  518.3802
 105  532.2664
 106  576.8448
 107  467.2464
 108  552.1191
 109  514.5383
 110  521.0687
 111  480.1582
 112  544.6218
 113  587.1213
 114  664.8348
 115  718.1965
 116  712.7097
 117  680.6091
 118  750.2476
 119  893.78
 120  983.6932
 121  933.1664
 122  865.8928
 123  731.8304
 124  570.4696
 125  437.7312
 126  427.243
 127  452.0282
 128  449.8221
 129  492.1259
 130  473.3436
 131  581.2596
 132  495.5336
 133  601.0087
 134  468.7649
 135  493.5991
 136  606.3207
 137  636.0756
 138  494.4992
 139  491.2428
 140  468.8932
 141  537.7857
 142  505.9263
 143  459.4175
 144  459.3972
 145  448.2217
 146  533.9579
 147  514.4109
 148  467.4316
 149  583.1224
 150  552.7985
 151  591.6431
 152  679.8757
 153  619.3607
 154  500.7945
 155  399.3876
 156  476.422
 157  538.7755
 158  480.2913
 159  467.6402
 160  520.3708
 161  475.041
 162  437.1207
 163  309.8279
 164  422.9244
 165  481.5469
 166  408.2985
 167  375.798
 168  283.0003
 169  221.2738
 170  331.918
 171  456.5292
 172  569.5942
 173  412.0833
 174  420.934
 175  475.9169
 176  556.7514
 177  513.7156
 178  414.9223
 179  327.2133
 180  329.0987
 181  383.6006
 182  411.8472
 183  412.5101
 184  434.1126
 185  456.3643
 186  336.603
 187  335.0461
 188  452.0271
 189  475.7305
 190  513.9272
 191  353.2834
 192  318.5281
 193  436.0113
 194  480.6564
 195  549.6156
 196  541.7353
 197  453.942
 198  424.0968
 199  402.9243
 200  315.7887
 201  396.0317
 202  574.9683
 203  509.9576
 204  388.2582
 205  469.3447
 206  474.3343
 207  471.4507
 208  474.7326
 209  530.3702
 210  420.8702
 211  458.3607
 212  450.5511
 213  432.0494
 214  339.1355
 215  440.7695
 216  446.2982
 217  451.0494
 218  490.5099
 219  537.5144
 220  591.7131
 221  471.5342
 222  495.4233
 223  489.0817
 224  492.8077
 225  422.2579
 226  448.6619
 227  442.3602
 228  543.2369
 229  483.2829
 230  538.4848
 231  580.9604
 232  566.7375
 233  516.0906
 234  468.9749
 235  444.3305
 236  504.3985
 237  465.9234
 238  467.201
 239  441.3601
 240  534.3289
 241  401.1815
 242  438.5119
 243  477.3163
 244  477.5182
 245  547.8802
 246  416.0308
 247  452.7252
 248  358.8781
 249  285.4912
 250  406.1075
 251  340.2961
 252  367.25
 253  472.7224
 254  499.4013
 255  451.9463
 256  478.5406
 257  363.4978
 258  290.8417
 259  433.3231
 260  487.9917
 261  520.1412
 262  422.2843
 263  510.7872
 264  355.9362
 265  339.1962
 266  360.9711
 267  283.5849
 268  348.2576
 269  360.0399
 270  445.2918
 271  500.6358
 272  373.9951
 273  318.8629
 274  399.2499
 275  442.7519
 276  467.8858
 277  514.0455
 278  449.0196
 279  372.3186
 280  469.5498
 281  448.1815
 282  491.8168
 283  563.0427
 284  416.8128
 285  485.5276
 286  445.8588
 287  380.2276
 288  358.2657
 289  343.5851
 290  391.2957
 291  426.073
 292  420.794
 293  426.6247
 294  559.5682
 295  572.3229
 296  530.8154
 297  458.3473
 298  436.0571
 299  428.0388
 300  426.7609
 301  502.7831
 302  569.8297
 303  542.6297
 304  463.4766
 305  439.4395
 306  386.5846
 307  405.5077
 308  469.4493
 309  542.6929
 310  456.902
 311  356.8672
 312  438.2856
 313  415.5911
 314  431.7612
 315  457.5742
 316  466.9882
 317  598.0232
 318  674.8946
 319  497.0403
 320  450.0721
 321  303.5913
 322  352.3957
 323  424.738
 324  515.5532
 325  568.0603
 326  477.0251
 327  380.7357
 328  372.8331
 329  517.296
 330  517.5668
 331  400.3917
 332  394.1962
 333  455.0643
 334  468.8242
 335  431.7228
 336  461.7287
 337  369.6248
 338  421.1735
 339  408.6837
 340  381.4588
 341  321.9978
 342  360.5639
 343  402.344
 344  380.4328
 345  580.865
 346  580.9504
 347  330.3725
 348  455.1361
 349  478.4433
 350  459.6461
 351  447.6286
 352  500.1229
 353  468.3055
 354  452.2424
 355  394.0185
 356  350.4376
 357  399.9629
 358  422.3919
 359  455.6442
 360  523.329
 361  590.6116
 362  524.3802
 363  482.4876
 364  488.593
 365  409.7796
 366  484.3644
 367  535.0419
 368  612.4856
 369  566.085
 370  475.5895
 371  474.4294
 372  515.3224
 373  456.1359
 374  371.2099
 375  420.5357
 376  498.2622
 377  592.4142
 378  495.8435
 379  418.0227
 380  423.5768
 381  537.7061
 382  412.7397
 383  476.555
 384  439.1061
 385  434.4885
 386  411.7228
 387  450.611
 388  482.9993
 389  418.5692
 390  470.7753
 391  512.9608
 392  523.6074
 393  441.4908
 394  479.0978
 395  573.8278
 396  467.6082
 397  456.7892
 398  646.3757
 399  702.608
 400  578.5825
 401  464.5369
 402  548.6717
 403  566.3902
 404  458.8131
 405  483.7186
 406  485.8743
 407  579.0815
 408  576.9575
 409  417.1817
 410  565.8044
 411  550.8409
 412  476.7418
 413  566.5009
 414  593.5923
 415  509.6216
 416  483.1056
 417  568.5701
 418  504.7893
 419  532.2526
 420  436.0526
 421  414.3979
 422  480.5436
 423  312.4887
 424  346.0156
 425  361.2939
 426  367.6577
 427  364.1097
 428  347.3531
 429  246.0533
 430  311.5558
 431  312.4697
 432  411.7117
 433  389.0148
 434  471.8465
 435  607.5617
 436  552.9744
 437  516.5528
 438  315.6058
 439  326.0168
 440  428.632
 441  504.2338
 442  521.2672
 443  421.9313
 444  398.3205
 445  472.4065
 446  578.2713
 447  514.1092
 448  443.937
 449  541.5159
 450  507.8783
 451  348.3917
 452  469.9
 453  543.6992
 454  574.8861
 455  532.4827
 456  478.0481
 457  419.8041
 458  377.4424
 459  333.0233
 460  330.5351
 461  445.7929
 462  517.9511
 463  501.7469
 464  357.1239
 465  379.2445
 466  479.3984
 467  490.7052
 468  365.68
 469  317.5381
 470  347.5208
 471  391.1213
 472  456.1693
 473  516.8987
 474  557.1993
 475  482.6206
 476  462.8843
 477  371.0356
 478  346.4641
 479  496.6356
 480  476.3465
 481  498.2313
 482  522.1593
 483  382.5535
 484  409.1736
 485  488.0949
 486  505.237
 487  470.4274
 488  390.079
 489  400.8389
 490  493.2901
 491  485.5026
 492  422.6018
 493  488.693
 494  483.4239
 495  466.0146
 496  477.9897
 497  503.5908
 498  450.5872
 499  250.0917
 500  294.4126
 501  387.0433
 502  529.8775
 503  451.7273
 504  354.4658
 505  502.4255
 506  472.0293
 507  281.9785
 508  361.4712
 509  500.5665
 510  412.3074
 511  343.0932
