# Input file       =  1180408342.103741_cleaned.dat
# Candidate        =  PSR_0332+5434
# Telescope        =  AR
# Epoch_topo       =  57906.133380830332
# Epoch_bary       =  N/A
# T_sample         =  0.002
# Data Folded      =  7208960
# Data Avg         =  0.031162900927539
# Data StdDev      =  1.0001075023988  
# Profile Bins     =  512
# Profile Avg      =  438.728711391866 
# Profile StdDev   =  118.671931939568 
# Reduced chi-sqr  =  1.056
# Prob(Noise)      <  0.183   (~0.9 sigma)
# P_topo (ms)      =  714.515465766882  +/- 0.00046
# P'_topo (s/s)    =  -0                +/- 2.47e-10
# P''_topo (s/s^2) =  0                 +/- 1.11e-13
# P_bary (ms)      =  N/A
# P'_bary (s/s)    =  N/A
# P''_bary (s/s^2) =  N/A
# P_orb (s)        =  N/A
# asin(i)/c (s)    =  N/A
# eccentricity     =  N/A
# w (rad)          =  N/A
# T_peri           =  N/A
######################################################
   0  889.8401
   1  938.5696
   2  792.976
   3  567.0084
   4  591.6865
   5  513.4835
   6  335.0215
   7  317.1952
   8  411.491
   9  398.3571
  10  330.8832
  11  476.1813
  12  501.7317
  13  403.9554
  14  461.4479
  15  359.5021
  16  371.1759
  17  368.6707
  18  392.8333
  19  394.6872
  20  405.5846
  21  447.571
  22  497.733
  23  493.222
  24  418.4218
  25  498.9443
  26  474.8008
  27  472.4789
  28  414.4903
  29  397.3112
  30  420.0418
  31  452.9936
  32  453.9633
  33  515.875
  34  409.6349
  35  426.1464
  36  472.6372
  37  459.1024
  38  521.08
  39  538.6227
  40  510.7797
  41  501.7257
  42  564.7697
  43  634.4863
  44  604.8479
  45  522.81
  46  505.6983
  47  471.941
  48  557.8968
  49  534.5957
  50  613.3173
  51  465.8303
  52  501.3112
  53  460.2446
  54  593.1104
  55  483.4324
  56  419.351
  57  456.7328
  58  487.9361
  59  408.4052
  60  474.9813
  61  458.7741
  62  452.2503
  63  418.4646
  64  486.076
  65  460.3979
  66  590.2639
  67  489.6446
  68  461.483
  69  425.0757
  70  287.1651
  71  298.6192
  72  501.1112
  73  545.559
  74  507.1918
  75  385.9179
  76  471.6266
  77  431.7574
  78  389.3344
  79  442.9247
  80  554.7575
  81  500.0328
  82  326.3058
  83  384.731
  84  353.9419
  85  366.0522
  86  387.5811
  87  456.056
  88  455.8211
  89  332.3
  90  352.4354
  91  310.4441
  92  280.8144
  93  313.1141
  94  369.5852
  95  407.7556
  96  324.9125
  97  283.2833
  98  347.5426
  99  388.4347
 100  367.9716
 101  510.8063
 102  536.0673
 103  522.502
 104  359.494
 105  203.8078
 106  336.6485
 107  432.7751
 108  420.61
 109  347.2975
 110  351.3465
 111  334.0402
 112  397.1447
 113  428.0186
 114  376.5476
 115  408.0476
 116  392.1518
 117  364.904
 118  314.8712
 119  375.6272
 120  452.9747
 121  473.4535
 122  514.784
 123  519.2432
 124  526.941
 125  411.0172
 126  495.669
 127  463.466
 128  494.993
 129  487.3412
 130  446.3051
 131  364.5919
 132  440.7026
 133  536.618
 134  476.5632
 135  472.7981
 136  507.5369
 137  457.7671
 138  388.3621
 139  476.9197
 140  400.0139
 141  395.8564
 142  421.8454
 143  438.9426
 144  570.7567
 145  506.996
 146  358.4881
 147  257.1409
 148  380.5706
 149  532.846
 150  411.8997
 151  475.686
 152  430.0907
 153  377.8424
 154  402.132
 155  401.8707
 156  416.2495
 157  461.2823
 158  378.5617
 159  489.455
 160  653.1653
 161  439.1017
 162  305.9093
 163  393.3257
 164  414.0807
 165  455.6373
 166  427.2867
 167  347.241
 168  244.3113
 169  407.7404
 170  514.9597
 171  310.5527
 172  335.7603
 173  360.485
 174  335.9882
 175  312.0496
 176  348.5203
 177  419.0384
 178  395.3214
 179  479.2376
 180  450.7223
 181  380.9252
 182  376.8381
 183  419.7593
 184  477.1393
 185  490.7628
 186  396.1502
 187  466.1898
 188  418.5853
 189  422.515
 190  375.7771
 191  388.8785
 192  482.9616
 193  428.7111
 194  381.7031
 195  395.5182
 196  410.9914
 197  423.7285
 198  448.596
 199  379.9994
 200  381.5826
 201  359.7024
 202  365.6525
 203  340.5253
 204  381.7893
 205  506.4099
 206  596.127
 207  501.2824
 208  442.0593
 209  471.5626
 210  460.0351
 211  390.673
 212  324.9203
 213  455.0446
 214  452.6841
 215  447.968
 216  576.6531
 217  587.6826
 218  553.0377
 219  452.6241
 220  418.64
 221  369.2033
 222  350.7156
 223  305.9137
 224  314.3926
 225  313.0887
 226  332.4005
 227  321.0008
 228  337.8489
 229  442.0641
 230  397.3965
 231  426.5319
 232  453.4203
 233  367.0174
 234  366.017
 235  306.1591
 236  404.6881
 237  372.9268
 238  302.6925
 239  348.3847
 240  316.1879
 241  244.2814
 242  398.6922
 243  423.6214
 244  432.1407
 245  477.4398
 246  441.8189
 247  412.4677
 248  392.9899
 249  519.8055
 250  557.9311
 251  492.146
 252  482.7768
 253  483.3995
 254  490.9461
 255  529.8851
 256  573.4426
 257  593.6277
 258  469.4288
 259  428.6618
 260  530.9641
 261  387.6997
 262  416.2284
 263  547.7245
 264  436.7545
 265  366.1412
 266  470.3373
 267  475.6146
 268  546.9962
 269  433.492
 270  281.0485
 271  251.9395
 272  294.0464
 273  365.5462
 274  368.8938
 275  345.0074
 276  338.9028
 277  397.9765
 278  244.7699
 279  283.1667
 280  371.2138
 281  431.7281
 282  446.2295
 283  369.2324
 284  408.3629
 285  429.038
 286  300.4064
 287  418.3668
 288  484.9148
 289  450.7478
 290  513.0325
 291  526.3574
 292  458.2015
 293  313.0939
 294  410.675
 295  338.9141
 296  368.2754
 297  368.213
 298  365.7272
 299  359.6616
 300  350.3553
 301  445.2946
 302  363.1624
 303  245.1004
 304  338.231
 305  298.9008
 306  305.3716
 307  391.2122
 308  387.7263
 309  414.8417
 310  314.8778
 311  275.1934
 312  283.4562
 313  417.652
 314  315.5267
 315  279.1915
 316  356.1262
 317  407.7248
 318  282.957
 319  283.1527
 320  365.5082
 321  420.5948
 322  412.3987
 323  414.5568
 324  486.594
 325  541.9378
 326  491.4128
 327  364.6163
 328  344.5407
 329  306.4455
 330  393.3551
 331  442.8061
 332  518.3114
 333  445.7469
 334  493.4812
 335  503.1757
 336  444.9834
 337  473.9145
 338  553.7629
 339  594.155
 340  561.5798
 341  411.7503
 342  372.8166
 343  476.8586
 344  513.8839
 345  382.9328
 346  380.4062
 347  448.6182
 348  607.7858
 349  514.5562
 350  425.1284
 351  490.9449
 352  544.3761
 353  561.8108
 354  502.9597
 355  540.4438
 356  496.9159
 357  551.8694
 358  393.6688
 359  364.1993
 360  456.0129
 361  483.831
 362  386.5088
 363  387.5403
 364  344.9094
 365  345.1956
 366  502.5204
 367  487.7206
 368  407.1232
 369  425.8071
 370  368.716
 371  365.8337
 372  341.6778
 373  404.8849
 374  415.1953
 375  355.8397
 376  385.0292
 377  357.5802
 378  412.8417
 379  409.4496
 380  429.1519
 381  329.9974
 382  367.7567
 383  425.7874
 384  503.9635
 385  405.1885
 386  432.2468
 387  492.8725
 388  435.2524
 389  435.095
 390  471.3838
 391  484.6964
 392  464.0978
 393  502.6335
 394  439.215
 395  442.8771
 396  519.1118
 397  447.3626
 398  375.7179
 399  345.0118
 400  369.0467
 401  369.0426
 402  437.2605
 403  344.4939
 404  339.9814
 405  438.8032
 406  460.8246
 407  441.9821
 408  454.4061
 409  434.2768
 410  495.415
 411  517.759
 412  534.0136
 413  494.6346
 414  435.9651
 415  423.1474
 416  529.5261
 417  453.9517
 418  440.4219
 419  563.5728
 420  575.2595
 421  581.6879
 422  453.8011
 423  401.1551
 424  461.6828
 425  406.0215
 426  462.4214
 427  472.0172
 428  484.5981
 429  471.1483
 430  544.7013
 431  482.847
 432  493.4795
 433  401.0688
 434  501.3324
 435  507.4689
 436  440.4014
 437  450.7677
 438  484.63
 439  386.5666
 440  404.4516
 441  614.0034
 442  661.4428
 443  453.3534
 444  368.3103
 445  367.192
 446  359.4285
 447  396.3297
 448  348.335
 449  389.4751
 450  447.7325
 451  458.6295
 452  526.674
 453  475.7699
 454  376.951
 455  414.0344
 456  353.4063
 457  328.6274
 458  404.834
 459  467.224
 460  615.619
 461  466.5117
 462  559.3627
 463  558.9166
 464  510.1382
 465  492.1872
 466  550.2178
 467  501.9647
 468  450.0603
 469  424.9209
 470  502.7331
 471  482.3299
 472  477.6475
 473  501.0703
 474  378.3601
 475  498.3242
 476  486.7703
 477  539.7044
 478  639.0659
 479  528.9034
 480  487.7886
 481  524.1991
 482  552.1749
 483  576.7008
 484  554.6695
 485  476.7646
 486  501.5468
 487  501.0748
 488  549.279
 489  484.6226
 490  450.8918
 491  358.4427
 492  462.285
 493  430.327
 494  416.2342
 495  448.6867
 496  433.7389
 497  461.421
 498  406.3378
 499  496.0237
 500  581.3112
 501  484.1817
 502  503.404
 503  517.0548
 504  394.2192
 505  356.7072
 506  522.9196
 507  569.2988
 508  503.3029
 509  518.449
 510  707.9317
 511  898.6554
