# Input file       =  1180265636.121797_cleaned.dat
# Candidate        =  PSR_0332+5434
# Telescope        =  AR
# Epoch_topo       =  57904.481691224501
# Epoch_bary       =  N/A
# T_sample         =  0.002
# Data Folded      =  7340032
# Data Avg         =  0.0259384435342129
# Data StdDev      =  1.00003242934144 
# Profile Bins     =  512
# Profile Avg      =  371.690341327279 
# Profile StdDev   =  119.736919240284 
# Reduced chi-sqr  =  1.196
# Prob(Noise)      <  0.00153   (~3.0 sigma)
# P_topo (ms)      =  714.517424119447  +/- 0.000288
# P'_topo (s/s)    =  -0                +/- 1.52e-10
# P''_topo (s/s^2) =  0                 +/- 6.7e-14
# P_bary (ms)      =  N/A
# P'_bary (s/s)    =  N/A
# P''_bary (s/s^2) =  N/A
# P_orb (s)        =  N/A
# asin(i)/c (s)    =  N/A
# eccentricity     =  N/A
# w (rad)          =  N/A
# T_peri           =  N/A
######################################################
   0  289.1595
   1  398.3238
   2  512.0351
   3  411.4262
   4  286.2216
   5  301.7545
   6  312.9084
   7  360.0471
   8  327.0257
   9  372.2888
  10  392.7612
  11  367.743
  12  505.7518
  13  491.5546
  14  408.6009
  15  315.5665
  16  453.4079
  17  381.7401
  18  293.11
  19  365.7858
  20  479.1957
  21  476.0045
  22  387.8409
  23  297.5293
  24  492.7622
  25  538.3506
  26  462.0741
  27  424.5089
  28  420.7771
  29  410.7828
  30  482.1044
  31  412.2227
  32  432.8456
  33  416.3334
  34  380.645
  35  391.7934
  36  467.0873
  37  448.0317
  38  450.0349
  39  345.5416
  40  388.2159
  41  365.868
  42  391.9661
  43  383.359
  44  434.7982
  45  381.6809
  46  354.8341
  47  340.2769
  48  490.3
  49  436.0225
  50  294.6328
  51  355.8349
  52  474.5004
  53  360.4606
  54  402.6063
  55  455.0883
  56  463.0277
  57  557.4423
  58  391.3938
  59  265.8117
  60  283.5037
  61  414.1984
  62  586.1235
  63  408.3717
  64  456.6295
  65  377.5607
  66  314.27
  67  284.051
  68  401.0353
  69  518.0814
  70  503.7127
  71  447.9834
  72  490.3369
  73  389.9835
  74  247.7299
  75  380.1105
  76  432.3204
  77  419.1136
  78  480.9822
  79  576.7062
  80  699.393
  81  733.3427
  82  831.0775
  83  853.8672
  84  853.5306
  85  675.2886
  86  453.9701
  87  307.4029
  88  369.6062
  89  359.1296
  90  320.8881
  91  401.2513
  92  404.4117
  93  374.6725
  94  451.4576
  95  363.4178
  96  318.3882
  97  438.0522
  98  500.923
  99  397.1236
 100  231.7396
 101  309.598
 102  383.5169
 103  444.03
 104  348.6044
 105  382.628
 106  473.6388
 107  499.0522
 108  387.3339
 109  308.2816
 110  436.3133
 111  443.8745
 112  377.6317
 113  483.1313
 114  380.9842
 115  405.1207
 116  368.2557
 117  290.6821
 118  388.2469
 119  356.6053
 120  448.9031
 121  598.5704
 122  449.7246
 123  374.4097
 124  281.5974
 125  219.805
 126  243.2682
 127  184.4876
 128  222.7919
 129  327.8469
 130  401.0152
 131  370.5855
 132  323.3063
 133  288.793
 134  319.4327
 135  212.8792
 136  246.1544
 137  368.3059
 138  217.9291
 139  136.256
 140  265.7794
 141  319.2913
 142  477.1183
 143  432.6879
 144  350.6081
 145  231.27
 146  397.7504
 147  334.4344
 148  301.6692
 149  273.3845
 150  329.6124
 151  390.2855
 152  313.563
 153  416.2634
 154  456.0963
 155  323.2072
 156  401.6241
 157  430.2847
 158  319.9569
 159  387.3646
 160  448.108
 161  528.8972
 162  513.3052
 163  492.3915
 164  510.2465
 165  472.9727
 166  426.7277
 167  475.7275
 168  569.6259
 169  556.7069
 170  354.5204
 171  376.7032
 172  401.6327
 173  371.1609
 174  427.3094
 175  365.3355
 176  265.356
 177  192.8484
 178  288.619
 179  344.0282
 180  343.7669
 181  363.4858
 182  401.5788
 183  382.7462
 184  326.4431
 185  364.2085
 186  408.9995
 187  351.6134
 188  341.1623
 189  229.2859
 190  312.7044
 191  303.4549
 192  334.9397
 193  308.3195
 194  168.7137
 195  212.8998
 196  389.9548
 197  452.1154
 198  405.6142
 199  525.1985
 200  467.769
 201  441.4013
 202  328.3857
 203  434.9866
 204  379.8774
 205  431.9973
 206  400.2564
 207  490.8662
 208  419.5359
 209  514.32
 210  521.3033
 211  474.8998
 212  481.2439
 213  384.875
 214  397.7711
 215  377.0112
 216  355.9431
 217  419.2253
 218  313.2785
 219  219.6948
 220  345.624
 221  418.9288
 222  417.6794
 223  352.6636
 224  311.2406
 225  444.2397
 226  398.0403
 227  261.827
 228  278.3404
 229  264.7325
 230  313.5699
 231  276.4423
 232  310.9741
 233  410.7527
 234  355.8114
 235  337.1153
 236  305.3708
 237  312.2851
 238  298.8496
 239  354.8161
 240  265.1884
 241  286.4407
 242  422.7907
 243  457.4566
 244  467.1564
 245  383.1461
 246  359.9011
 247  355.7593
 248  348.7231
 249  387.6076
 250  321.7935
 251  353.7007
 252  388.8322
 253  460.9843
 254  455.7914
 255  493.7731
 256  367.2988
 257  286.9421
 258  384.6773
 259  275.8611
 260  357.0001
 261  333.4051
 262  274.1333
 263  311.3308
 264  414.1369
 265  460.7612
 266  445.5392
 267  387.2466
 268  349.283
 269  313.5349
 270  523.7269
 271  435.5244
 272  400.0143
 273  303.5224
 274  321.5683
 275  429.8077
 276  403.4102
 277  367.6226
 278  521.0317
 279  463.9069
 280  422.2268
 281  403.1114
 282  455.4003
 283  452.3506
 284  432.4596
 285  470.1068
 286  366.2277
 287  194.2028
 288  305.4042
 289  329.6381
 290  375.693
 291  431.6062
 292  291.7554
 293  398.0781
 294  451.7452
 295  398.3564
 296  269.8924
 297  228.5514
 298  201.8038
 299  366.8652
 300  343.3299
 301  171.7039
 302  162.0773
 303  173.8011
 304  222.1339
 305  276.7536
 306  374.6564
 307  395.9092
 308  401.1041
 309  300.9698
 310  322.6181
 311  434.6021
 312  245.3834
 313  206.9662
 314  292.6313
 315  270.3264
 316  171.4921
 317  303.1775
 318  316.4266
 319  208.2007
 320  346.2555
 321  412.9467
 322  369.5042
 323  260.1164
 324  292.9489
 325  246.7364
 326  258.3304
 327  288.1246
 328  366.0937
 329  361.1732
 330  367.9339
 331  343.0165
 332  333.3875
 333  259.6034
 334  361.19
 335  379.8651
 336  335.9251
 337  381.5964
 338  454.6614
 339  472.4707
 340  341.5269
 341  326.6895
 342  384.5728
 343  347.5528
 344  360.7829
 345  346.4138
 346  331.7969
 347  383.1247
 348  292.9141
 349  182.3817
 350  316.3021
 351  269.338
 352  230.9069
 353  189.8752
 354  190.5509
 355  293.0489
 356  347.1814
 357  388.0583
 358  366.546
 359  344.2405
 360  307.5643
 361  377.0219
 362  354.4624
 363  410.4307
 364  481.496
 365  494.0513
 366  395.8176
 367  375.6027
 368  373.6696
 369  470.47
 370  372.1017
 371  403.452
 372  428.3211
 373  456.1172
 374  409.8738
 375  440.3911
 376  337.6758
 377  362.2068
 378  277.4864
 379  343.2809
 380  376.4438
 381  443.2749
 382  385.8687
 383  396.534
 384  428.2775
 385  270.2635
 386  270.1599
 387  345.8437
 388  247.6713
 389  217.2964
 390  349.7535
 391  452.7538
 392  344.223
 393  277.4524
 394  374.5549
 395  361.0473
 396  307.1439
 397  317.601
 398  371.7639
 399  303.8959
 400  168.1233
 401  173.1405
 402  296.9561
 403  306.5338
 404  273.9725
 405  291.0291
 406  278.9447
 407  256.7762
 408  229.7946
 409  269.5459
 410  331.5218
 411  330.3476
 412  503.1627
 413  488.6602
 414  433.6758
 415  468.6507
 416  431.1885
 417  479.4745
 418  389.7062
 419  474.0471
 420  436.441
 421  346.6732
 422  428.3122
 423  370.4335
 424  299.6655
 425  271.6743
 426  406.0817
 427  331.2909
 428  243.1873
 429  174.5028
 430  202.1014
 431  332.9413
 432  383.7352
 433  351.9859
 434  297.2536
 435  435.0131
 436  351.4588
 437  307.8811
 438  300.8133
 439  325.4491
 440  299.039
 441  225.1732
 442  183.1565
 443  285.7824
 444  173.5042
 445  245.1912
 446  310.1065
 447  407.8703
 448  338.3988
 449  335.7028
 450  432.294
 451  415.963
 452  373.7355
 453  401.9635
 454  440.9907
 455  415.4341
 456  345.1324
 457  416.4142
 458  388.4556
 459  447.3196
 460  428.6667
 461  491.6625
 462  414.8243
 463  304.4326
 464  551.2157
 465  426.6684
 466  462.3146
 467  508.9955
 468  449.8169
 469  419.1841
 470  386.065
 471  476.9389
 472  378.9171
 473  299.5167
 474  381.3127
 475  359.5288
 476  374.9405
 477  376.8596
 478  348.2456
 479  327.6038
 480  266.1287
 481  292.3035
 482  242.7516
 483  326.5485
 484  444.7191
 485  439.2463
 486  307.4841
 487  204.5237
 488  242.5486
 489  397.1981
 490  406.5148
 491  187.6619
 492  258.9714
 493  407.0772
 494  305.2644
 495  328.9563
 496  348.7646
 497  499.3931
 498  553.0822
 499  467.2929
 500  486.6853
 501  485.252
 502  439.3014
 503  461.3443
 504  370.7133
 505  272.9303
 506  286.3015
 507  373.8633
 508  469.7553
 509  425.2451
 510  415.3299
 511  258.9929
