# Input file       =  1180839218.112024_cleaned.dat
# Candidate        =  PSR_0332+5434
# Telescope        =  AR
# Epoch_topo       =  57911.120371666948
# Epoch_bary       =  N/A
# T_sample         =  0.002
# Data Folded      =  7143424
# Data Avg         =  0.0297959735187331
# Data StdDev      =  1.00003722539244 
# Profile Bins     =  512
# Profile Avg      =  415.604880541044 
# Profile StdDev   =  118.122981492529 
# Reduced chi-sqr  =  1.202
# Prob(Noise)      <  0.00113   (~3.1 sigma)
# P_topo (ms)      =  714.510651782236  +/- 0.000365
# P'_topo (s/s)    =  -0                +/- 1.98e-10
# P''_topo (s/s^2) =  0                 +/- 8.99e-14
# P_bary (ms)      =  N/A
# P'_bary (s/s)    =  N/A
# P''_bary (s/s^2) =  N/A
# P_orb (s)        =  N/A
# asin(i)/c (s)    =  N/A
# eccentricity     =  N/A
# w (rad)          =  N/A
# T_peri           =  N/A
######################################################
   0  387.7737
   1  482.5745
   2  376.8331
   3  383.1606
   4  384.4892
   5  443.6901
   6  427.6873
   7  514.4451
   8  498.2817
   9  417.9742
  10  402.2797
  11  375.9453
  12  485.0831
  13  537.312
  14  471.0277
  15  362.5754
  16  345.9321
  17  413.8018
  18  403.7711
  19  337.3511
  20  457.9578
  21  458.9878
  22  456.5021
  23  455.3669
  24  375.3178
  25  433.4334
  26  413.8749
  27  374.9476
  28  296.3816
  29  235.7762
  30  346.2182
  31  408.5082
  32  367.9941
  33  350.4673
  34  441.6131
  35  447.7557
  36  388.4636
  37  472.6599
  38  463.6073
  39  372.6583
  40  407.0064
  41  447.9534
  42  509.5265
  43  537.3273
  44  520.3837
  45  446.6435
  46  461.7491
  47  486.3586
  48  472.5204
  49  465.4039
  50  513.8379
  51  497.5887
  52  540.6052
  53  542.7603
  54  577.079
  55  503.7407
  56  518.0422
  57  344.3278
  58  402.4179
  59  451.1505
  60  488.4043
  61  390.6395
  62  334.5192
  63  481.7033
  64  511.1423
  65  429.4797
  66  467.5712
  67  579.5106
  68  680.9141
  69  915.4031
  70  955.4764
  71  879.5283
  72  894.8271
  73  808.2697
  74  545.9808
  75  547.4658
  76  453.2359
  77  421.2307
  78  419.7547
  79  403.8409
  80  375.3169
  81  428.8774
  82  497.7965
  83  471.3963
  84  454.9218
  85  447.7379
  86  455.8815
  87  478.6959
  88  499.0286
  89  492.7348
  90  356.8724
  91  337.27
  92  355.6074
  93  349.4225
  94  418.3232
  95  437.6625
  96  336.9474
  97  258.856
  98  354.1146
  99  307.0374
 100  298.8291
 101  421.7205
 102  452.9613
 103  458.8903
 104  362.415
 105  342.4218
 106  351.6982
 107  401.0013
 108  336.7501
 109  409.3514
 110  505.7404
 111  431.7596
 112  385.3571
 113  338.8475
 114  407.676
 115  392.3519
 116  419.8413
 117  448.0306
 118  399.5517
 119  299.3781
 120  359.3413
 121  395.0326
 122  383.9568
 123  280.5623
 124  279.1717
 125  260.7947
 126  248.1273
 127  339.108
 128  351.815
 129  460.2797
 130  414.6771
 131  428.5099
 132  407.2043
 133  301.9616
 134  310.6416
 135  395.5706
 136  301.7093
 137  253.9429
 138  279.5354
 139  419.878
 140  407.7219
 141  366.3449
 142  305.7878
 143  362.0148
 144  415.4082
 145  481.7838
 146  422.9402
 147  390.5922
 148  406.2764
 149  329.9093
 150  349.6349
 151  441.2146
 152  498.8552
 153  377.8577
 154  511.1274
 155  509.1932
 156  467.8806
 157  583.9103
 158  496.0492
 159  399.0224
 160  383.0186
 161  427.433
 162  441.7966
 163  575.7421
 164  692.6287
 165  677.0164
 166  568.3475
 167  519.2926
 168  496.4723
 169  418.6952
 170  439.0586
 171  577.862
 172  558.4737
 173  624.6248
 174  563.0464
 175  459.3147
 176  457.054
 177  372.172
 178  426.3356
 179  499.9217
 180  551.4488
 181  423.3066
 182  321.5052
 183  410.0376
 184  395.544
 185  357.2471
 186  359.7007
 187  403.6273
 188  432.392
 189  374.2461
 190  331.877
 191  343.0765
 192  385.6731
 193  391.2192
 194  440.9649
 195  464.0669
 196  504.4185
 197  393.719
 198  359.1251
 199  289.9127
 200  349.6175
 201  395.1021
 202  288.1111
 203  297.9486
 204  396.0614
 205  425.233
 206  479.0186
 207  472.708
 208  537.261
 209  527.3959
 210  455.1344
 211  498.5351
 212  441.5932
 213  472.8911
 214  556.0278
 215  462.7319
 216  555.0934
 217  520.8818
 218  486.0459
 219  417.3066
 220  513.2343
 221  413.2039
 222  467.8111
 223  526.2781
 224  478.2379
 225  435.1452
 226  495.2892
 227  510.056
 228  463.2207
 229  483.2703
 230  509.8827
 231  479.1108
 232  538.1786
 233  531.4829
 234  532.2964
 235  509.7034
 236  541.7449
 237  561.8566
 238  490.1988
 239  460.2056
 240  501.9765
 241  545.4464
 242  539.8674
 243  509.3482
 244  553.1359
 245  513.4474
 246  466.0697
 247  433.8055
 248  366.1276
 249  310.0518
 250  304.2096
 251  417.5655
 252  442.5317
 253  493.1392
 254  439.1572
 255  564.7944
 256  519.8488
 257  415.54
 258  391.4281
 259  492.1738
 260  534.2999
 261  369.5037
 262  388.4129
 263  434.0499
 264  553.1575
 265  517.07
 266  426.301
 267  432.2628
 268  435.3093
 269  391.4385
 270  378.4382
 271  464.8857
 272  465.5647
 273  344.8535
 274  309.5919
 275  394.2934
 276  370.8693
 277  438.6265
 278  313.719
 279  325.9838
 280  335.7098
 281  362.9572
 282  304.3586
 283  297.7598
 284  346.3757
 285  311.0772
 286  284.2185
 287  380.2612
 288  436.0275
 289  418.1631
 290  421.2495
 291  492.1968
 292  407.7241
 293  273.4651
 294  319.6701
 295  356.8662
 296  445.4873
 297  484.8821
 298  454.1952
 299  503.8854
 300  424.4876
 301  448.5426
 302  459.3341
 303  528.9979
 304  465.8056
 305  539.502
 306  412.5807
 307  389.3665
 308  372.7519
 309  358.3984
 310  415.0178
 311  309.5231
 312  333.5641
 313  505.7299
 314  422.5755
 315  443.7452
 316  429.1416
 317  351.4173
 318  316.7224
 319  418.2032
 320  473.3046
 321  385.3655
 322  337.4801
 323  309.5291
 324  389.55
 325  410.5995
 326  514.7526
 327  521.2972
 328  465.3758
 329  364.1006
 330  333.3581
 331  408.5777
 332  347.3165
 333  259.3672
 334  328.705
 335  382.3293
 336  456.9001
 337  405.1638
 338  415.9532
 339  349.3369
 340  303.3015
 341  389.0788
 342  451.5866
 343  329.1864
 344  373.9696
 345  349.5368
 346  314.3331
 347  322.251
 348  313.3847
 349  294.4326
 350  332.5535
 351  305.8768
 352  230.5787
 353  336.5615
 354  413.4956
 355  321.7202
 356  313.3382
 357  435.2129
 358  397.2964
 359  420.5303
 360  395.204
 361  406.245
 362  420.5765
 363  432.6999
 364  437.1806
 365  265.7679
 366  351.1168
 367  460.0387
 368  415.9888
 369  404.6459
 370  459.9217
 371  404.4831
 372  341.5335
 373  352.6717
 374  332.937
 375  371.9821
 376  253.5972
 377  177.7366
 378  379.5901
 379  544.7188
 380  495.8447
 381  301.098
 382  454.6693
 383  545.9344
 384  425.6801
 385  431.212
 386  444.1821
 387  539.9709
 388  426.9835
 389  379.9001
 390  384.0621
 391  373.9453
 392  433.7433
 393  426.6733
 394  464.501
 395  564.7513
 396  489.5987
 397  339.248
 398  296.7915
 399  399.6495
 400  370.0951
 401  300.7948
 402  320.005
 403  348.4075
 404  368.8833
 405  410.805
 406  444.6533
 407  402.4454
 408  388.2326
 409  443.6933
 410  436.8264
 411  398.537
 412  555.2182
 413  411.7467
 414  345.8802
 415  341.1158
 416  284.8334
 417  321.0203
 418  267.1462
 419  337.954
 420  300.2769
 421  219.2335
 422  232.1445
 423  381.1328
 424  373.3721
 425  336.8058
 426  295.4468
 427  263.2095
 428  434.8713
 429  408.889
 430  307.5995
 431  270.0583
 432  256.0926
 433  278.8074
 434  277.1458
 435  397.2206
 436  369.2612
 437  355.5827
 438  354.718
 439  349.4117
 440  294.2054
 441  381.7671
 442  376.8015
 443  432.4657
 444  496.5378
 445  592.6428
 446  534.2706
 447  514.4728
 448  482.7981
 449  447.3088
 450  349.8886
 451  401.6962
 452  392.2352
 453  387.5744
 454  429.188
 455  464.4648
 456  378.5019
 457  327.4113
 458  361.1827
 459  328.1966
 460  273.1679
 461  272.3519
 462  489.1132
 463  543.3895
 464  441.276
 465  455.045
 466  337.5097
 467  289.4193
 468  289.6076
 469  344.325
 470  311.212
 471  419.3882
 472  437.2265
 473  459.5756
 474  565.6259
 475  380.7173
 476  394.4224
 477  481.1854
 478  464.5549
 479  388.8468
 480  301.6993
 481  390.0893
 482  440.8265
 483  389.1416
 484  368.4918
 485  347.4375
 486  289.6106
 487  301.11
 488  223.7291
 489  371.0503
 490  433.596
 491  348.6114
 492  418.1949
 493  442.6495
 494  348.8229
 495  299.4699
 496  307.0175
 497  381.9766
 498  397.571
 499  369.3399
 500  326.601
 501  282.6439
 502  305.1372
 503  436.6508
 504  416.6329
 505  428.963
 506  281.5348
 507  327.5302
 508  380.2865
 509  426.2133
 510  457.3735
 511  467.9138
