# Input file       =  1181385701.112891_cleaned.dat
# Candidate        =  PSR_0332+5434
# Telescope        =  AR
# Epoch_topo       =  57917.445406399202
# Epoch_bary       =  N/A
# T_sample         =  0.002
# Data Folded      =  7340032
# Data Avg         =  0.0290745604028752
# Data StdDev      =  1.00003320574813 
# Profile Bins     =  512
# Profile Avg      =  416.823023644476 
# Profile StdDev   =  119.737012201815 
# Reduced chi-sqr  =  0.930
# Prob(Noise)      <  0.869   (~0.0 sigma)
# P_topo (ms)      =  714.505020468874  +/- 0.0002
# P'_topo (s/s)    =  -0                +/- 1.06e-10
# P''_topo (s/s^2) =  0                 +/- 4.66e-14
# P_bary (ms)      =  N/A
# P'_bary (s/s)    =  N/A
# P''_bary (s/s^2) =  N/A
# P_orb (s)        =  N/A
# asin(i)/c (s)    =  N/A
# eccentricity     =  N/A
# w (rad)          =  N/A
# T_peri           =  N/A
######################################################
   0  357.0723
   1  445.0891
   2  457.6539
   3  568.8121
   4  505.1764
   5  321.8166
   6  319.1729
   7  398.2497
   8  456.6756
   9  329.4678
  10  311.4256
  11  472.3071
  12  510.1168
  13  528.804
  14  556.0231
  15  535.6009
  16  584.8057
  17  518.371
  18  562.2378
  19  548.6989
  20  446.8497
  21  394.7532
  22  411.3379
  23  477.5567
  24  485.4091
  25  381.3207
  26  489.3011
  27  436.7359
  28  454.1606
  29  599.5259
  30  492.7094
  31  446.8442
  32  381.0816
  33  400.5317
  34  440.8528
  35  485.8656
  36  492.6276
  37  434.2704
  38  472.0327
  39  561.1794
  40  494.2167
  41  397.2106
  42  450.9045
  43  474.3034
  44  401.7814
  45  417.1247
  46  495.2172
  47  327.9163
  48  373.9931
  49  456.2566
  50  486.2562
  51  594.9938
  52  484.53
  53  401.5218
  54  376.0668
  55  457.7881
  56  451.4066
  57  442.2957
  58  383.8661
  59  439.1316
  60  381.1712
  61  314.8058
  62  424.7589
  63  398.7236
  64  509.8237
  65  513.0797
  66  438.4575
  67  402.3237
  68  496.711
  69  479.1283
  70  318.4648
  71  335.3062
  72  406.3701
  73  422.1748
  74  420.7077
  75  472.9283
  76  449.2401
  77  393.0585
  78  424.8797
  79  515.871
  80  465.8117
  81  366.4419
  82  381.9537
  83  439.8125
  84  479.2249
  85  451.4253
  86  570.0744
  87  496.7418
  88  413.6336
  89  431.0645
  90  456.5766
  91  468.7962
  92  408.1589
  93  479.0714
  94  431.3904
  95  366.1173
  96  411.0721
  97  414.4218
  98  418.2842
  99  398.023
 100  437.7418
 101  463.1797
 102  421.0378
 103  351.9053
 104  450.208
 105  391.4207
 106  441.251
 107  371.2773
 108  518.91
 109  431.3471
 110  280.9834
 111  328.686
 112  475.7084
 113  405.7444
 114  346.1798
 115  422.7195
 116  374.8016
 117  343.1198
 118  348.7033
 119  424.456
 120  362.6527
 121  295.6979
 122  425.961
 123  528.7115
 124  392.3053
 125  394.8873
 126  293.5727
 127  388.3453
 128  332.4633
 129  243.0323
 130  387.5681
 131  473.6584
 132  466.8484
 133  392.9783
 134  413.3731
 135  469.5108
 136  357.8043
 137  475.7515
 138  525.1257
 139  456.4831
 140  387.4586
 141  349.7512
 142  412.547
 143  351.7282
 144  401.3389
 145  620.1672
 146  533.6579
 147  492.8066
 148  477.1909
 149  497.957
 150  547.4774
 151  437.2777
 152  291.3477
 153  260.4899
 154  343.6894
 155  293.563
 156  324.7656
 157  259.8863
 158  374.1901
 159  344.4166
 160  315.2481
 161  353.5002
 162  321.1692
 163  336.1839
 164  375.604
 165  358.6247
 166  212.0743
 167  363.5314
 168  336.549
 169  345.8975
 170  437.5779
 171  407.973
 172  449.4506
 173  496.0699
 174  403.8894
 175  280.7589
 176  306.6665
 177  302.9793
 178  351.0472
 179  340.9015
 180  386.4199
 181  373.737
 182  347.3346
 183  363.6919
 184  332.9338
 185  383.4179
 186  370.9949
 187  290.0542
 188  305.1818
 189  457.7809
 190  394.4453
 191  311.2947
 192  199.1699
 193  189.9503
 194  278.6842
 195  401.2885
 196  255.8622
 197  322.6109
 198  333.7653
 199  321.0099
 200  347.3253
 201  423.1107
 202  404.9305
 203  361.3458
 204  323.9091
 205  398.8819
 206  307.9338
 207  317.1157
 208  404.9113
 209  402.547
 210  395.3282
 211  448.5457
 212  414.8324
 213  353.0699
 214  395.1543
 215  387.7773
 216  408.7802
 217  434.2092
 218  363.1679
 219  272.8945
 220  301.2209
 221  226.5439
 222  393.9438
 223  500.2432
 224  444.958
 225  396.6048
 226  294.4827
 227  411.4604
 228  537.1053
 229  576.1975
 230  415.0825
 231  434.774
 232  442.934
 233  440.5594
 234  413.7011
 235  347.3205
 236  361.9645
 237  463.0871
 238  524.1538
 239  477.2815
 240  500.7475
 241  372.9524
 242  377.6929
 243  363.5544
 244  355.5864
 245  219.5165
 246  256.975
 247  346.7643
 248  335.7228
 249  426.4991
 250  320.0398
 251  329.8925
 252  330.284
 253  390.0478
 254  422.6299
 255  467.9975
 256  391.6018
 257  300.8528
 258  240.3911
 259  355.5387
 260  399.9702
 261  435.6091
 262  499.3995
 263  297.8308
 264  329.3902
 265  468.442
 266  477.5709
 267  425.5681
 268  401.6388
 269  410.1
 270  430.7164
 271  467.7448
 272  532.2089
 273  574.7036
 274  513.3533
 275  531.8285
 276  456.7991
 277  510.9689
 278  501.9024
 279  550.783
 280  647.1213
 281  505.1332
 282  403.2187
 283  443.3423
 284  466.5169
 285  362.0596
 286  321.6855
 287  361.8936
 288  405.015
 289  462.0324
 290  517.5416
 291  546.3492
 292  403.3106
 293  299.5791
 294  211.2501
 295  213.7051
 296  406.0361
 297  513.5806
 298  408.9344
 299  446.2986
 300  415.2375
 301  238.8709
 302  317.5019
 303  415.5481
 304  386.3145
 305  280.0876
 306  270.2728
 307  403.9787
 308  395.6487
 309  285.2192
 310  377.2525
 311  400.6566
 312  491.6107
 313  323.8002
 314  448.1818
 315  552.5195
 316  452.0337
 317  470.1363
 318  433.2275
 319  396.5261
 320  352.0652
 321  364.8943
 322  406.1433
 323  412.0742
 324  477.0216
 325  493.1118
 326  503.3928
 327  516.5071
 328  447.3118
 329  451.3574
 330  383.4205
 331  326.8542
 332  245.6283
 333  391.4719
 334  396.8578
 335  429.6036
 336  356.7501
 337  417.6581
 338  485.9492
 339  390.6039
 340  357.9407
 341  462.7882
 342  351.7756
 343  296.8022
 344  345.7449
 345  326.2371
 346  312.1848
 347  361.0511
 348  426.92
 349  449.1999
 350  487.5909
 351  396.9635
 352  440.2298
 353  322.3331
 354  403.0488
 355  351.4581
 356  310.4641
 357  400.2815
 358  449.585
 359  471.5756
 360  301.1731
 361  392.0057
 362  464.4441
 363  518.5369
 364  421.327
 365  482.3259
 366  435.591
 367  416.8954
 368  406.9161
 369  361.5861
 370  365.4722
 371  456.6294
 372  473.5649
 373  483.2676
 374  430.2831
 375  395.5129
 376  298.5053
 377  404.3302
 378  463.9291
 379  507.1927
 380  431.6697
 381  485.6813
 382  519.9324
 383  601.7401
 384  458.5724
 385  500.6905
 386  491.0721
 387  489.8016
 388  349.3673
 389  340.5702
 390  349.8087
 391  411.972
 392  459.4476
 393  513.3544
 394  499.6232
 395  576.0787
 396  526.5218
 397  416.5203
 398  393.9907
 399  451.179
 400  484.182
 401  503.7147
 402  351.9718
 403  362.4242
 404  359.4503
 405  280.4135
 406  367.6929
 407  446.7526
 408  559.5551
 409  422.922
 410  406.3732
 411  356.576
 412  367.7033
 413  288.0298
 414  407.2246
 415  518.5341
 416  431.5685
 417  392.475
 418  578.5732
 419  481.6808
 420  386.1878
 421  368.5788
 422  410.3869
 423  298.4004
 424  387.2184
 425  341.1337
 426  311.796
 427  355.6844
 428  418.946
 429  413.3803
 430  523.1237
 431  527.5312
 432  286.3741
 433  284.359
 434  366.9037
 435  399.8151
 436  335.5374
 437  425.6136
 438  570.2708
 439  392.3146
 440  431.9385
 441  501.9751
 442  443.8829
 443  429.062
 444  527.3518
 445  388.8417
 446  368.4442
 447  485.8895
 448  508.1921
 449  442.8621
 450  429.0919
 451  480.4977
 452  394.778
 453  334.8042
 454  454.4328
 455  421.9031
 456  352.1479
 457  402.1169
 458  348.3494
 459  335.9706
 460  528.7831
 461  616.9911
 462  654.025
 463  721.1678
 464  772.5704
 465  777.9134
 466  657.9982
 467  531.0423
 468  336.1126
 469  236.3757
 470  352.6508
 471  409.3651
 472  501.4141
 473  526.303
 474  482.7661
 475  580.8903
 476  542.3392
 477  458.8167
 478  391.5556
 479  556.0219
 480  520.3953
 481  473.3972
 482  308.5369
 483  392.6152
 484  386.2905
 485  480.4492
 486  542.0182
 487  431.5287
 488  391.4184
 489  381.3468
 490  402.3871
 491  356.6928
 492  361.9433
 493  456.0644
 494  404.7538
 495  410.6237
 496  400.5048
 497  349.3806
 498  350.2064
 499  401.0195
 500  512.3594
 501  476.1891
 502  448.544
 503  520.3401
 504  428.9587
 505  415.4654
 506  455.7198
 507  453.3009
 508  438.3844
 509  442.1953
 510  392.2317
 511  460.2204
