# Input file       =  1181284629.109167_cleaned.dat
# Candidate        =  PSR_0332+5434
# Telescope        =  AR
# Epoch_topo       =  57916.275591541285
# Epoch_bary       =  N/A
# T_sample         =  0.002
# Data Folded      =  7340032
# Data Avg         =  0.0270619617859309
# Data StdDev      =  1.00002808448777 
# Profile Bins     =  512
# Profile Avg      =  387.592305536833 
# Profile StdDev   =  119.736399017762 
# Reduced chi-sqr  =  1.193
# Prob(Noise)      <  0.00168   (~2.9 sigma)
# P_topo (ms)      =  714.505780499587  +/- 0.000219
# P'_topo (s/s)    =  -0                +/- 1.15e-10
# P''_topo (s/s^2) =  0                 +/- 5.09e-14
# P_bary (ms)      =  N/A
# P'_bary (s/s)    =  N/A
# P''_bary (s/s^2) =  N/A
# P_orb (s)        =  N/A
# asin(i)/c (s)    =  N/A
# eccentricity     =  N/A
# w (rad)          =  N/A
# T_peri           =  N/A
######################################################
   0  362.1456
   1  515.1353
   2  660.0431
   3  529.2249
   4  394.8094
   5  376.2725
   6  287.2297
   7  381.9859
   8  381.3092
   9  403.1532
  10  303.3708
  11  373.9228
  12  488.2507
  13  373.2922
  14  331.3351
  15  395.0243
  16  348.4976
  17  265.3575
  18  397.756
  19  355.5486
  20  471.644
  21  523.0651
  22  575.7374
  23  584.0955
  24  427.5732
  25  342.6505
  26  328.4862
  27  437.8061
  28  443.3221
  29  427.7404
  30  661.2416
  31  497.6819
  32  456.6585
  33  450.1926
  34  385.4433
  35  319.6409
  36  376.1536
  37  594.9959
  38  438.1992
  39  366.0236
  40  412.176
  41  499.0342
  42  518.5785
  43  438.0933
  44  414.9657
  45  488.2599
  46  599.4689
  47  419.7304
  48  337.492
  49  357.1059
  50  456.9646
  51  368.3811
  52  369.6859
  53  559.4877
  54  479.8045
  55  403.3091
  56  270.5144
  57  308.6823
  58  351.5624
  59  377.1461
  60  393.3398
  61  359.2553
  62  390.1114
  63  377.9211
  64  354.5787
  65  377.5436
  66  257.7587
  67  424.7145
  68  422.7833
  69  424.5642
  70  587.8944
  71  521.8995
  72  485.3087
  73  438.8114
  74  386.2682
  75  428.5842
  76  419.4987
  77  356.4867
  78  383.5334
  79  445.7289
  80  502.0153
  81  437.181
  82  394.8795
  83  305.1411
  84  389.2014
  85  371.9991
  86  482.6277
  87  530.0786
  88  477.3179
  89  562.4091
  90  739.7018
  91  928.4168
  92  892.8558
  93  847.1093
  94  812.3971
  95  834.2575
  96  640.6785
  97  406.2964
  98  323.7722
  99  401.9487
 100  377.3837
 101  272.102
 102  357.7409
 103  382.8809
 104  296.7934
 105  443.7025
 106  551.4331
 107  496.4781
 108  401.0461
 109  324.9395
 110  461.3636
 111  416.4076
 112  473.4258
 113  428.0424
 114  235.0959
 115  281.4912
 116  393.9846
 117  431.7437
 118  459.8783
 119  439.8142
 120  372.3414
 121  421.2995
 122  345.9936
 123  192.6464
 124  260.099
 125  291.6229
 126  499.0016
 127  508.2655
 128  425.0729
 129  467.2959
 130  485.0219
 131  465.982
 132  421.3657
 133  433.0099
 134  402.4609
 135  334.5636
 136  417.7147
 137  401.2629
 138  442.7432
 139  326.3198
 140  278.0798
 141  239.6871
 142  355.5964
 143  293.5265
 144  349.4695
 145  391.3836
 146  411.0008
 147  408.336
 148  320.6079
 149  257.04
 150  192.5363
 151  235.4737
 152  294.8528
 153  340.7672
 154  358.8064
 155  339.8996
 156  424.9644
 157  431.417
 158  411.9641
 159  379.7217
 160  353.6382
 161  328.9919
 162  285.4806
 163  306.2997
 164  214.7198
 165  239.8232
 166  322.1141
 167  362.2347
 168  350.8965
 169  356.2084
 170  441.9423
 171  455.8981
 172  506.1301
 173  400.3426
 174  403.4261
 175  372.8863
 176  356.6585
 177  355.3085
 178  395.7877
 179  409.637
 180  450.5108
 181  444.1107
 182  540.1726
 183  521.2662
 184  385.9923
 185  292.6459
 186  246.5554
 187  450.3537
 188  468.323
 189  391.7134
 190  318.378
 191  331.3081
 192  382.2815
 193  398.3993
 194  482.6418
 195  493.0286
 196  435.0175
 197  385.2001
 198  319.5804
 199  414.8732
 200  456.7793
 201  330.5274
 202  316.4964
 203  374.8921
 204  410.8119
 205  272.7576
 206  292.2272
 207  376.355
 208  334.0957
 209  333.9966
 210  298.507
 211  179.7298
 212  347.2379
 213  259.7592
 214  239.637
 215  265.4518
 216  388.4583
 217  374.2078
 218  344.7306
 219  363.4839
 220  451.6381
 221  380.1804
 222  371.2284
 223  413.3984
 224  316.7145
 225  274.3287
 226  416.4767
 227  377.5304
 228  307.991
 229  270.8516
 230  375.4816
 231  339.3872
 232  336.1238
 233  436.7349
 234  522.714
 235  398.767
 236  406.9052
 237  402.9012
 238  377.3291
 239  432.5549
 240  384.8399
 241  370.8641
 242  311.9587
 243  254.605
 244  271.8089
 245  366.5414
 246  384.0988
 247  408.8173
 248  396.1357
 249  278.0629
 250  275.2861
 251  271.5611
 252  376.9621
 253  312.8758
 254  233.804
 255  300.3171
 256  353.4434
 257  383.6106
 258  492.6245
 259  513.0591
 260  394.9299
 261  302.1187
 262  329.1131
 263  291.0808
 264  256.8609
 265  264.4906
 266  408.8377
 267  437.3875
 268  357.2397
 269  374.9014
 270  217.9624
 271  237.1213
 272  275.8127
 273  240.8495
 274  273.2737
 275  281.0286
 276  347.7135
 277  344.3991
 278  373.2843
 279  325.4883
 280  412.1194
 281  384.0531
 282  473.1252
 283  456.8095
 284  453.8463
 285  497.5685
 286  514.5533
 287  477.7521
 288  390.5172
 289  430.5175
 290  482.855
 291  441.9346
 292  525.5136
 293  445.3443
 294  441.6706
 295  442.7972
 296  454.2385
 297  436.5612
 298  363.7585
 299  334.137
 300  340.6812
 301  332.3898
 302  223.1229
 303  262.5528
 304  329.2518
 305  274.5208
 306  233.2934
 307  297.7581
 308  292.0585
 309  295.2802
 310  250.1519
 311  305.9514
 312  332.7034
 313  292.7751
 314  444.028
 315  305.3016
 316  224.8196
 317  147.1326
 318  316.5246
 319  511.3359
 320  388.6414
 321  393.7043
 322  307.867
 323  252.8573
 324  320.1497
 325  241.7381
 326  346.0618
 327  381.7269
 328  426.4733
 329  549.2805
 330  370.8387
 331  382.6981
 332  359.6294
 333  413.3129
 334  429.0442
 335  450.0616
 336  403.7162
 337  352.049
 338  354.381
 339  349.0955
 340  366.3941
 341  379.8946
 342  418.5432
 343  296.6971
 344  432.1077
 345  404.2735
 346  396.3416
 347  334.9644
 348  475.7747
 349  449.8717
 350  491.3178
 351  474.4157
 352  358.2965
 353  354.5509
 354  329.1776
 355  335.1712
 356  323.1015
 357  273.6626
 358  378.5515
 359  447.3683
 360  470.959
 361  343.8597
 362  336.4155
 363  461.5986
 364  404.3619
 365  479.7554
 366  495.8519
 367  506.7328
 368  476.2472
 369  505.1956
 370  509.7866
 371  408.4548
 372  367.2127
 373  306.4229
 374  304.4827
 375  418.1603
 376  389.6052
 377  301.5896
 378  310.9312
 379  359.4024
 380  280.5226
 381  299.7509
 382  451.7629
 383  542.1997
 384  545.3324
 385  405.57
 386  360.5385
 387  455.0953
 388  591.4267
 389  533.6154
 390  384.5694
 391  292.4585
 392  385.6713
 393  370.2737
 394  423.7204
 395  398.3666
 396  383.9211
 397  330.8724
 398  403.1002
 399  445.7453
 400  405.4012
 401  334.0783
 402  327.9796
 403  444.2267
 404  373.0099
 405  385.7697
 406  492.2266
 407  415.0859
 408  392.638
 409  412.6367
 410  354.8386
 411  475.8608
 412  404.899
 413  333.1107
 414  371.7598
 415  321.7609
 416  300.4471
 417  338.4042
 418  350.6022
 419  399.7984
 420  496.1242
 421  531.7794
 422  412.2572
 423  459.1393
 424  394.2536
 425  403.0084
 426  513.5623
 427  471.4377
 428  421.4024
 429  397.7301
 430  464.9605
 431  414.8272
 432  471.4535
 433  378.8868
 434  454.3513
 435  400.8395
 436  265.2321
 437  340.6965
 438  314.0448
 439  414.9323
 440  345.8446
 441  401.01
 442  442.6053
 443  409.1425
 444  356.3353
 445  436.2779
 446  367.3204
 447  335.3547
 448  423.5248
 449  432.1093
 450  405.1564
 451  303.7201
 452  319.7263
 453  313.5835
 454  355.26
 455  335.7954
 456  270.6058
 457  322.636
 458  398.6678
 459  386.1909
 460  416.9071
 461  471.0128
 462  370.8908
 463  298.481
 464  328.5493
 465  365.879
 466  405.5265
 467  445.3359
 468  291.9188
 469  270.2768
 470  386.6371
 471  208.875
 472  244.0331
 473  394.2412
 474  357.3611
 475  394.8193
 476  414.2933
 477  425.8635
 478  362.1002
 479  339.042
 480  261.0204
 481  301.0721
 482  350.1333
 483  328.5846
 484  305.7504
 485  326.6261
 486  350.844
 487  445.5792
 488  483.6724
 489  426.9093
 490  368.9158
 491  344.8596
 492  367.4843
 493  270.953
 494  269.4583
 495  391.479
 496  502.5356
 497  427.6595
 498  367.93
 499  316.8588
 500  276.648
 501  239.3133
 502  395.455
 503  343.8547
 504  303.8857
 505  382.4693
 506  368.9771
 507  427.8602
 508  376.0585
 509  207.0712
 510  176.271
 511  276.442
