# Input file       =  1181471836.140327_cleaned.dat
# Candidate        =  PSR_0332+5434
# Telescope        =  AR
# Epoch_topo       =  57918.442339587120
# Epoch_bary       =  N/A
# T_sample         =  0.002
# Data Folded      =  7340032
# Data Avg         =  0.0357749964954104
# Data StdDev      =  1.00018029958773 
# Profile Bins     =  512
# Profile Avg      =  512.958605619515 
# Profile StdDev   =  119.754624193862 
# Reduced chi-sqr  =  1.162
# Prob(Noise)      <  0.00653   (~2.5 sigma)
# P_topo (ms)      =  714.504092429841  +/- 0.000245
# P'_topo (s/s)    =  -0                +/- 1.29e-10
# P''_topo (s/s^2) =  0                 +/- 5.71e-14
# P_bary (ms)      =  N/A
# P'_bary (s/s)    =  N/A
# P''_bary (s/s^2) =  N/A
# P_orb (s)        =  N/A
# asin(i)/c (s)    =  N/A
# eccentricity     =  N/A
# w (rad)          =  N/A
# T_peri           =  N/A
######################################################
   0  551.5649
   1  491.2915
   2  549.8043
   3  598.548
   4  484.7534
   5  504.66
   6  626.1358
   7  430.9733
   8  395.6411
   9  528.1557
  10  541.5698
  11  470.286
  12  553.2562
  13  420.2932
  14  417.494
  15  516.0509
  16  599.8016
  17  497.6953
  18  386.8425
  19  498.8298
  20  500.3719
  21  554.5691
  22  561.0731
  23  579.9243
  24  501.0927
  25  492.6288
  26  387.8632
  27  559.9061
  28  619.1643
  29  538.7854
  30  520.1445
  31  486.8963
  32  437.8783
  33  576.6448
  34  503.1664
  35  527.4536
  36  479.8162
  37  512.9537
  38  546.149
  39  426.1814
  40  549.1136
  41  571.8793
  42  454.8322
  43  409.0951
  44  484.3351
  45  485.2645
  46  491.0002
  47  442.6519
  48  420.9793
  49  524.0098
  50  486.836
  51  406.163
  52  383.5592
  53  461.0838
  54  558.3161
  55  494.2799
  56  440.9931
  57  489.9471
  58  413.8468
  59  469.8098
  60  513.9942
  61  469.3634
  62  453.2613
  63  633.031
  64  579.2504
  65  485.0431
  66  483.4353
  67  510.4836
  68  368.8432
  69  472.0698
  70  495.4412
  71  575.1495
  72  590.5002
  73  546.9171
  74  595.0309
  75  528.6311
  76  519.9247
  77  468.708
  78  395.4412
  79  452.8324
  80  461.0537
  81  568.5774
  82  606.6125
  83  639.1987
  84  558.7509
  85  536.964
  86  470.9401
  87  454.3832
  88  427.7603
  89  482.997
  90  530.1703
  91  610.9479
  92  559.6885
  93  542.5213
  94  496.9984
  95  532.1776
  96  578.517
  97  531.5024
  98  376.892
  99  290.7874
 100  372.8068
 101  462.8997
 102  401.827
 103  397.6326
 104  473.9331
 105  504.0863
 106  486.2339
 107  412.262
 108  314.5309
 109  405.8055
 110  309.8042
 111  435.203
 112  526.2766
 113  521.2793
 114  499.2997
 115  480.5057
 116  477.1427
 117  408.7567
 118  448.5853
 119  438.2025
 120  563.0513
 121  614.9068
 122  669.8621
 123  695.6309
 124  639.7998
 125  538.1243
 126  399.42
 127  544.6221
 128  595.3007
 129  490.1365
 130  531.8419
 131  538.1168
 132  577.8892
 133  565.1924
 134  453.072
 135  498.1783
 136  482.0458
 137  434.444
 138  486.3721
 139  570.836
 140  549.2823
 141  526.4373
 142  474.944
 143  460.7372
 144  514.1685
 145  488.8905
 146  490.0366
 147  402.4417
 148  431.5632
 149  461.4279
 150  439.916
 151  370.3107
 152  476.077
 153  457.8242
 154  559.2086
 155  623.7049
 156  628.468
 157  552.0909
 158  522.3132
 159  615.3394
 160  664.5195
 161  567.1836
 162  602.2816
 163  701.3426
 164  650.3094
 165  694.2876
 166  742.7291
 167  591.0983
 168  504.0725
 169  617.7481
 170  524.8565
 171  556.906
 172  618.7108
 173  549.1226
 174  598.4368
 175  466.002
 176  494.9105
 177  558.1044
 178  592.731
 179  501.2742
 180  578.3699
 181  605.4927
 182  547.9186
 183  491.9922
 184  547.296
 185  599.6882
 186  552.8102
 187  571.983
 188  482.3124
 189  434.2835
 190  439.8596
 191  440.5443
 192  457.0908
 193  500.3003
 194  571.5457
 195  523.545
 196  535.1223
 197  432.0275
 198  439.987
 199  414.4435
 200  481.6198
 201  495.1407
 202  400.6169
 203  348.4837
 204  436.8702
 205  489.7249
 206  423.7267
 207  445.8145
 208  597.4727
 209  463.83
 210  299.8327
 211  328.5771
 212  398.572
 213  419.6383
 214  422.4659
 215  429.4973
 216  497.9414
 217  417.7058
 218  343.2823
 219  482.8995
 220  480.3963
 221  338.0606
 222  305.5857
 223  404.0749
 224  508.2746
 225  604.9838
 226  697.3306
 227  512.4353
 228  415.7534
 229  497.7083
 230  538.631
 231  568.1676
 232  432.4297
 233  363.4241
 234  370.9299
 235  511.4812
 236  425.0577
 237  490.6234
 238  373.1645
 239  489.5331
 240  557.2349
 241  462.5562
 242  435.1714
 243  572.5053
 244  720.5743
 245  602.8127
 246  584.8488
 247  557.3729
 248  557.8809
 249  635.2935
 250  672.1706
 251  601.9955
 252  545.9045
 253  518.3789
 254  617.7538
 255  663.2379
 256  609.4219
 257  575.131
 258  457.5983
 259  524.7102
 260  524.7389
 261  471.5805
 262  408.3481
 263  495.7615
 264  557.7028
 265  442.3019
 266  374.4038
 267  456.3307
 268  422.4546
 269  499.0398
 270  468.1526
 271  604.8121
 272  590.3826
 273  580.6757
 274  513.8909
 275  552.5607
 276  464.4081
 277  329.0687
 278  370.6691
 279  456.3833
 280  500.034
 281  535.7305
 282  487.6735
 283  598.9989
 284  620.5704
 285  487.9637
 286  470.7328
 287  416.4022
 288  432.6872
 289  553.1997
 290  621.9339
 291  616.9333
 292  574.3943
 293  522.4786
 294  584.8492
 295  546.4319
 296  524.7081
 297  510.4816
 298  499.9741
 299  558.5024
 300  497.8273
 301  496.1913
 302  477.431
 303  528.1149
 304  466.2862
 305  422.4336
 306  553.9255
 307  559.8173
 308  469.0739
 309  512.8062
 310  478.1942
 311  508.8351
 312  458.9429
 313  554.9529
 314  566.4136
 315  528.4952
 316  632.5325
 317  512.6492
 318  503.3416
 319  576.3411
 320  580.1888
 321  511.4619
 322  534.9876
 323  485.2789
 324  525.2585
 325  489.8262
 326  398.6094
 327  404.7093
 328  557.0598
 329  552.618
 330  544.8065
 331  587.7947
 332  565.3812
 333  555.577
 334  510.5989
 335  514.7418
 336  472.7793
 337  518.1553
 338  567.3696
 339  588.966
 340  497.522
 341  559.679
 342  587.4459
 343  606.4951
 344  560.992
 345  566.6411
 346  607.524
 347  540.0159
 348  432.0253
 349  479.5066
 350  427.7985
 351  414.6794
 352  592.5985
 353  514.5062
 354  414.6771
 355  427.6428
 356  499.3471
 357  535.9012
 358  614.2904
 359  567.7564
 360  488.0095
 361  543.7792
 362  413.6151
 363  363.4361
 364  471.5179
 365  546.2042
 366  481.0175
 367  432.1273
 368  463.0542
 369  434.4255
 370  537.5568
 371  545.8076
 372  438.4001
 373  494.609
 374  588.6283
 375  498.1823
 376  533.991
 377  577.9955
 378  587.9091
 379  524.4839
 380  569.0208
 381  571.9988
 382  472.7541
 383  552.5547
 384  640.6514
 385  670.7831
 386  666.3151
 387  620.3486
 388  613.851
 389  573.214
 390  579.976
 391  566.5094
 392  617.8057
 393  609.3324
 394  561.8273
 395  460.7427
 396  506.6409
 397  519.2694
 398  463.9354
 399  437.006
 400  622.5289
 401  634.6802
 402  605.0002
 403  590.9976
 404  739.5066
 405  810.4083
 406  920.1981
 407  1116.598
 408  1130.459
 409  966.4148
 410  826.9938
 411  694.4623
 412  566.7883
 413  532.7026
 414  645.4673
 415  701.8428
 416  667.6953
 417  646.945
 418  606.2569
 419  519.4459
 420  664.2294
 421  671.5944
 422  501.1378
 423  536.2032
 424  542.325
 425  586.5251
 426  497.8565
 427  533.4922
 428  605.9808
 429  561.87
 430  533.6638
 431  493.0681
 432  464.5426
 433  476.5711
 434  517.9116
 435  436.3734
 436  418.7016
 437  355.3336
 438  354.0451
 439  437.3596
 440  422.1578
 441  446.7049
 442  511.996
 443  422.3908
 444  347.035
 445  418.9712
 446  415.4616
 447  442.7018
 448  445.417
 449  420.3823
 450  545.8175
 451  386.9906
 452  387.8654
 453  455.0723
 454  364.0187
 455  372.044
 456  511.3306
 457  548.3064
 458  513.957
 459  472.8242
 460  601.529
 461  646.4388
 462  565.1901
 463  535.2175
 464  437.984
 465  472.0919
 466  546.0137
 467  419.7111
 468  360.8796
 469  397.1211
 470  464.3962
 471  499.3719
 472  467.0859
 473  430.9959
 474  388.2417
 475  383.8568
 476  446.4577
 477  576.1218
 478  565.7399
 479  525.8341
 480  443.3194
 481  437.9699
 482  527.4354
 483  503.505
 484  496.7302
 485  519.4059
 486  502.3847
 487  374.8112
 488  459.5541
 489  481.7966
 490  509.3621
 491  561.6643
 492  565.5216
 493  407.7077
 494  327.435
 495  383.6837
 496  515.7462
 497  514.1028
 498  524.5652
 499  525.994
 500  440.4236
 501  498.4858
 502  504.1642
 503  484.9224
 504  472.759
 505  425.5484
 506  458.4647
 507  508.1589
 508  444.734
 509  492.4401
 510  436.2889
 511  556.621
