# Input file       =  1181700809.115506_cleaned.dat
# Candidate        =  PSR_0332+5434
# Telescope        =  AR
# Epoch_topo       =  57921.092489762799
# Epoch_bary       =  N/A
# T_sample         =  0.002
# Data Folded      =  7208960
# Data Avg         =  0.0268401191938393
# Data StdDev      =  0.999900495607701
# Profile Bins     =  512
# Profile Avg      =  377.908613233527 
# Profile StdDev   =  118.647368684353 
# Reduced chi-sqr  =  0.816
# Prob(Noise)      <  0.999   (~0.0 sigma)
# P_topo (ms)      =  714.501305368026  +/- 0.000183
# P'_topo (s/s)    =  -0                +/- 9.83e-11
# P''_topo (s/s^2) =  0                 +/- 4.42e-14
# P_bary (ms)      =  N/A
# P'_bary (s/s)    =  N/A
# P''_bary (s/s^2) =  N/A
# P_orb (s)        =  N/A
# asin(i)/c (s)    =  N/A
# eccentricity     =  N/A
# w (rad)          =  N/A
# T_peri           =  N/A
######################################################
   0  598.9292
   1  597.7747
   2  632.3735
   3  335.9951
   4  283.4926
   5  304.1805
   6  249.6485
   7  357.8398
   8  357.1544
   9  314.945
  10  230.5967
  11  254.6411
  12  333.4991
  13  400.8064
  14  382.8987
  15  388.7738
  16  228.3167
  17  287.1649
  18  289.9154
  19  382.9705
  20  460.0659
  21  424.1942
  22  305.3891
  23  357.569
  24  323.1362
  25  289.8569
  26  278.8619
  27  308.8985
  28  296.7011
  29  372.2675
  30  476.832
  31  442.6336
  32  493.9235
  33  440.4252
  34  333.668
  35  406.7232
  36  410.6668
  37  517.2319
  38  455.5707
  39  390.3065
  40  330.3587
  41  286.0226
  42  288.4468
  43  353.0997
  44  444.4396
  45  415.9243
  46  317.6444
  47  366.5265
  48  428.4368
  49  472.0231
  50  386.8825
  51  344.9936
  52  403.9323
  53  352.1821
  54  348.4142
  55  421.4206
  56  272.7812
  57  337.6369
  58  250.1253
  59  248.415
  60  349.3801
  61  394.1175
  62  421.9047
  63  355.0343
  64  404.7468
  65  433.1793
  66  487.3058
  67  506.3394
  68  330.2746
  69  420.6641
  70  460.434
  71  436.565
  72  362.7938
  73  451.4195
  74  368.9697
  75  255.0947
  76  402.6072
  77  375.8426
  78  355.2367
  79  542.6044
  80  577.9635
  81  472.0884
  82  447.8573
  83  404.5007
  84  362.2111
  85  418.1978
  86  302.2077
  87  276.9568
  88  423.366
  89  399.3296
  90  359.4537
  91  439.554
  92  328.4308
  93  289.9406
  94  369.4851
  95  457.4319
  96  498.2716
  97  530.0427
  98  599.4928
  99  489.2415
 100  459.1351
 101  515.4304
 102  372.4835
 103  346.1121
 104  442.0218
 105  424.7633
 106  481.1221
 107  400.529
 108  503.9243
 109  518.9866
 110  327.1272
 111  326.2565
 112  446.7151
 113  602.8853
 114  465.8189
 115  381.5363
 116  348.936
 117  314.2033
 118  243.3362
 119  410.2181
 120  355.5084
 121  329.3413
 122  383.1334
 123  450.7463
 124  421.6732
 125  242.3098
 126  310.4112
 127  437.3582
 128  374.5244
 129  383.1309
 130  309.6611
 131  320.93
 132  287.1505
 133  283.603
 134  284.4586
 135  303.8716
 136  305.8888
 137  348.9046
 138  333.5554
 139  285.2671
 140  300.9407
 141  353.7209
 142  337.1072
 143  337.9672
 144  351.9783
 145  373.5892
 146  314.4486
 147  277.8073
 148  285.0062
 149  316.9959
 150  461.7115
 151  367.2268
 152  308.6126
 153  301.3522
 154  369.8248
 155  456.9402
 156  480.7828
 157  456.1819
 158  498.5912
 159  421.5956
 160  381.1688
 161  183.9879
 162  221.2853
 163  424.5016
 164  499.9009
 165  346.1512
 166  296.7315
 167  271.2881
 168  244.3004
 169  292.9126
 170  390.0524
 171  418.9327
 172  435.3961
 173  475.5236
 174  429.6056
 175  280.0955
 176  371.4371
 177  363.9327
 178  355.8836
 179  384.4043
 180  458.5935
 181  536.5443
 182  353.213
 183  231.906
 184  327.94
 185  366.6129
 186  382.0657
 187  427.1429
 188  460.9541
 189  431.3326
 190  403.4387
 191  402.6587
 192  382.7852
 193  367.3928
 194  401.5885
 195  410.9648
 196  297.9571
 197  341.4602
 198  329.1662
 199  271.9962
 200  245.5495
 201  381.4274
 202  310.2445
 203  411.8053
 204  415.3767
 205  508.8607
 206  385.1371
 207  463.984
 208  440.7503
 209  428.1301
 210  321.0198
 211  309.6403
 212  305.767
 213  341.5965
 214  432.549
 215  423.8131
 216  233.361
 217  301.3925
 218  385.5967
 219  403.0331
 220  303.0813
 221  268.7252
 222  407.2162
 223  449.9125
 224  498.5148
 225  524.6474
 226  495.7452
 227  516.142
 228  446.9362
 229  365.8269
 230  429.9909
 231  388.1676
 232  392.1477
 233  323.5823
 234  237.0654
 235  276.6576
 236  293.3754
 237  398.8278
 238  388.6635
 239  318.3227
 240  365.2578
 241  425.5051
 242  434.7083
 243  371.1557
 244  345.8822
 245  369.0727
 246  417.251
 247  364.5948
 248  358.8455
 249  305.2825
 250  315.6716
 251  429.1428
 252  446.0931
 253  401.2885
 254  357.1776
 255  335.0476
 256  349.9017
 257  349.372
 258  439.0476
 259  380.1984
 260  417.2743
 261  380.875
 262  373.8652
 263  373.9095
 264  421.0053
 265  381.4613
 266  463.1593
 267  307.2043
 268  283.1817
 269  420.7874
 270  441.053
 271  279.0319
 272  368.1984
 273  354.6274
 274  310.0714
 275  374.2035
 276  380.8027
 277  301.2368
 278  325.4238
 279  411.3898
 280  345.9745
 281  263.8049
 282  192.2923
 283  257.5421
 284  363.2459
 285  298.6357
 286  309.4953
 287  439.1414
 288  403.0327
 289  319.606
 290  305.9241
 291  384.1333
 292  357.3897
 293  310.7607
 294  400.4997
 295  453.8388
 296  331.1929
 297  268.4172
 298  385.1617
 299  371.7881
 300  383.1899
 301  370.4742
 302  387.4295
 303  383.6169
 304  420.1513
 305  427.8404
 306  505.2553
 307  362.4429
 308  354.7554
 309  439.5806
 310  263.4138
 311  224.4433
 312  301.2264
 313  379.4311
 314  307.8538
 315  321.73
 316  417.7951
 317  430.3108
 318  295.4553
 319  372.2655
 320  515.4499
 321  433.2524
 322  371.8282
 323  390.968
 324  343.5002
 325  289.3066
 326  277.6338
 327  359.0167
 328  396.4937
 329  359.0192
 330  395.2935
 331  347.2654
 332  400.7498
 333  341.9977
 334  423.2738
 335  306.6435
 336  279.5475
 337  373.4658
 338  408.7494
 339  420.1811
 340  378.2942
 341  330.916
 342  434.5191
 343  421.6921
 344  420.0463
 345  474.2447
 346  381.6945
 347  343.6952
 348  393.8437
 349  430.6538
 350  485.2549
 351  385.3077
 352  411.7823
 353  488.0475
 354  447.8192
 355  280.089
 356  327.1545
 357  339.8328
 358  323.0154
 359  358.978
 360  360.808
 361  356.5685
 362  368.3629
 363  448.5885
 364  389.6439
 365  410.1474
 366  375.8987
 367  365.0851
 368  421.4234
 369  358.5532
 370  364.8359
 371  458.6089
 372  473.1727
 373  381.8831
 374  426.597
 375  363.9275
 376  296.466
 377  391.1103
 378  511.2632
 379  502.1643
 380  315.624
 381  371.0279
 382  394.1232
 383  413.2585
 384  385.4221
 385  264.3168
 386  184.721
 387  297.9577
 388  373.2085
 389  433.1992
 390  411.3653
 391  293.6655
 392  261.9931
 393  362.5342
 394  269.7554
 395  278.5876
 396  452.6291
 397  411.3162
 398  399.7821
 399  512.1147
 400  457.206
 401  347.7174
 402  388.9942
 403  361.6667
 404  256.1886
 405  229.5101
 406  315.2145
 407  340.5328
 408  266.1415
 409  298.1438
 410  351.1796
 411  388.2563
 412  414.6561
 413  361.896
 414  360.5928
 415  174.0552
 416  258.4829
 417  336.3665
 418  395.291
 419  383.2498
 420  393.7409
 421  248.5055
 422  172.3538
 423  284.0483
 424  380.3236
 425  318.9702
 426  374.4069
 427  360.4666
 428  222.207
 429  223.4616
 430  297.2487
 431  227.1511
 432  381.334
 433  450.6461
 434  416.8542
 435  429.7757
 436  457.1097
 437  370.5624
 438  409.4639
 439  423.8091
 440  374.356
 441  481.0524
 442  555.3448
 443  453.0725
 444  449.9424
 445  405.6617
 446  430.4664
 447  417.6123
 448  353.3809
 449  384.131
 450  470.01
 451  367.426
 452  436.1848
 453  500.932
 454  504.8228
 455  422.9776
 456  418.9214
 457  441.8525
 458  466.3559
 459  435.5213
 460  384.2508
 461  336.6638
 462  328.0066
 463  394.134
 464  400.0731
 465  425.4916
 466  484.652
 467  548.596
 468  483.351
 469  411.4869
 470  363.4832
 471  295.5408
 472  297.7349
 473  408.0513
 474  446.0146
 475  503.8998
 476  457.0755
 477  499.5296
 478  454.7806
 479  396.501
 480  334.2616
 481  320.9571
 482  337.0889
 483  333.7928
 484  330.4455
 485  349.4162
 486  327.1082
 487  254.702
 488  292.2852
 489  328.2664
 490  435.7032
 491  419.9042
 492  446.7194
 493  516.7657
 494  342.1497
 495  328.3695
 496  316.1527
 497  310.1891
 498  334.5866
 499  331.7178
 500  329.9465
 501  322.1803
 502  390.4483
 503  323.8395
 504  386.0889
 505  411.6033
 506  442.4997
 507  475.6968
 508  556.3561
 509  633.1671
 510  644.0434
 511  615.3895
