# Input file       =  1181614677.117078_cleaned.dat
# Candidate        =  PSR_0332+5434
# Telescope        =  AR
# Epoch_topo       =  57920.095591632846
# Epoch_bary       =  N/A
# T_sample         =  0.002
# Data Folded      =  7208960
# Data Avg         =  0.0296443884689436
# Data StdDev      =  1.00001748119436 
# Profile Bins     =  512
# Profile Avg      =  417.33860091415  
# Profile StdDev   =  118.661250097645 
# Reduced chi-sqr  =  0.849
# Prob(Noise)      <  0.994   (~0.0 sigma)
# P_topo (ms)      =  714.502220546245  +/- 0.000233
# P'_topo (s/s)    =  -0                +/- 1.25e-10
# P''_topo (s/s^2) =  0                 +/- 5.62e-14
# P_bary (ms)      =  N/A
# P'_bary (s/s)    =  N/A
# P''_bary (s/s^2) =  N/A
# P_orb (s)        =  N/A
# asin(i)/c (s)    =  N/A
# eccentricity     =  N/A
# w (rad)          =  N/A
# T_peri           =  N/A
######################################################
   0  772.9074
   1  798.8264
   2  705.4751
   3  647.8282
   4  517.0026
   5  510.9436
   6  435.243
   7  462.1711
   8  444.4995
   9  383.5834
  10  427.5678
  11  457.9218
  12  458.2281
  13  428.6313
  14  460.4708
  15  468.055
  16  526.4156
  17  437.0141
  18  363.4827
  19  434.7297
  20  484.0161
  21  450.0982
  22  518.5637
  23  431.1076
  24  399.4577
  25  505.1363
  26  487.3603
  27  449.1231
  28  471.0648
  29  405.061
  30  390.7022
  31  390.3375
  32  507.363
  33  412.6332
  34  340.4949
  35  308.7037
  36  403.9094
  37  466.8707
  38  435.6103
  39  409.0429
  40  384.8581
  41  448.0031
  42  361.6012
  43  372.0902
  44  435.3035
  45  467.7917
  46  454.6421
  47  368.4553
  48  448.4759
  49  500.7341
  50  530.62
  51  465.3154
  52  380.0796
  53  339.7905
  54  402.9141
  55  330.3469
  56  333.6107
  57  409.8699
  58  469.0679
  59  284.5587
  60  252.0802
  61  418.5227
  62  304.5872
  63  332.5885
  64  355.8173
  65  310.5173
  66  363.6491
  67  388.8387
  68  429.9994
  69  459.8322
  70  431.4574
  71  366.2304
  72  362.3257
  73  381.4203
  74  330.09
  75  320.4134
  76  313.6846
  77  385.662
  78  426.5772
  79  428.1072
  80  437.2921
  81  416.7233
  82  436.0143
  83  496.4977
  84  371.7811
  85  379.3137
  86  410.656
  87  422.7325
  88  511.4701
  89  429.4679
  90  451.1318
  91  480.8331
  92  408.0101
  93  446.0566
  94  451.5292
  95  415.1545
  96  340.1621
  97  410.787
  98  409.2807
  99  420.4568
 100  313.5392
 101  340.183
 102  393.071
 103  423.3285
 104  396.9469
 105  412.5923
 106  384.7666
 107  292.6104
 108  304.7004
 109  342.7938
 110  435.5226
 111  432.3166
 112  465.423
 113  425.5952
 114  481.9401
 115  453.7995
 116  432.0898
 117  466.1976
 118  398.2739
 119  309.1871
 120  351.0985
 121  444.7955
 122  384.9286
 123  390.3586
 124  405.1674
 125  399.0338
 126  425.8481
 127  384.3697
 128  366.6122
 129  373.3771
 130  352.2923
 131  352.7531
 132  346.666
 133  229.0465
 134  166.0004
 135  222.4177
 136  292.7823
 137  260.6152
 138  353.3548
 139  432.8598
 140  300.8322
 141  390.8712
 142  312.9101
 143  432.3271
 144  436.1952
 145  336.8333
 146  374.5872
 147  489.7876
 148  534.6281
 149  545.6416
 150  507.4947
 151  500.8806
 152  422.3862
 153  423.8247
 154  437.0415
 155  434.2537
 156  400.1896
 157  498.3633
 158  483.8275
 159  423.601
 160  461.3727
 161  435.3142
 162  330.5082
 163  457.5504
 164  516.4587
 165  350.5077
 166  420.4468
 167  484.8756
 168  459.4622
 169  374.5235
 170  375.8822
 171  457.5586
 172  493.5027
 173  545.7538
 174  411.675
 175  396.6005
 176  502.4427
 177  495.0439
 178  404.9923
 179  500.9137
 180  463.0918
 181  514.3826
 182  464.6011
 183  327.1387
 184  274.0806
 185  375.1453
 186  411.5532
 187  400.7513
 188  361.9611
 189  334.0228
 190  342.223
 191  462.8163
 192  495.9211
 193  483.0969
 194  425.9359
 195  471.6736
 196  516.6804
 197  494.4505
 198  438.2907
 199  463.0132
 200  346.0547
 201  309.813
 202  355.5611
 203  309.4238
 204  380.7556
 205  319.327
 206  412.2862
 207  345.1959
 208  373.3793
 209  325.356
 210  321.9599
 211  440.3073
 212  446.9697
 213  371.7485
 214  300.2157
 215  399.8261
 216  386.4878
 217  454.1649
 218  376.7616
 219  300.7439
 220  302.7083
 221  442.6921
 222  519.1268
 223  451.5821
 224  447.2439
 225  347.9568
 226  381.4917
 227  474.9769
 228  547.0335
 229  532.4138
 230  539.4976
 231  454.604
 232  438.7105
 233  542.7776
 234  528.5805
 235  480.8347
 236  398.1521
 237  446.2038
 238  507.8943
 239  543.6711
 240  510.1789
 241  377.1306
 242  411.7944
 243  353.7682
 244  394.9883
 245  339.9267
 246  279.2368
 247  479.8265
 248  419.8382
 249  387.1868
 250  415.3488
 251  374.4261
 252  363.9471
 253  399.5152
 254  447.4757
 255  434.3269
 256  512.8544
 257  469.9332
 258  422.1915
 259  453.4218
 260  507.6816
 261  439.8426
 262  519.2484
 263  475.8711
 264  232.0414
 265  269.1568
 266  398.2083
 267  410.2309
 268  370.1139
 269  347.4257
 270  347.1237
 271  413.6091
 272  437.7478
 273  453.8311
 274  440.212
 275  520.1728
 276  379.4164
 277  329.8364
 278  303.1515
 279  374.3781
 280  403.8193
 281  476.4056
 282  578.6385
 283  427.1987
 284  368.3883
 285  336.0192
 286  375.6702
 287  413.5222
 288  415.1481
 289  478.0472
 290  596.3255
 291  611.5569
 292  444.9081
 293  397.4261
 294  438.6638
 295  475.5996
 296  584.3395
 297  487.0413
 298  433.9311
 299  406.9075
 300  355.775
 301  315.1808
 302  356.7519
 303  505.6717
 304  469.4839
 305  404.7357
 306  550.3997
 307  498.8358
 308  439.0766
 309  497.3363
 310  469.1693
 311  447.3579
 312  493.7274
 313  564.3368
 314  467.9298
 315  343.4318
 316  304.6752
 317  318.4636
 318  366.3456
 319  416.5969
 320  465.4406
 321  424.5307
 322  457.9329
 323  279.076
 324  242.2463
 325  305.7554
 326  409.4442
 327  319.3613
 328  292.4474
 329  315.2132
 330  354.9303
 331  420.0163
 332  437.197
 333  403.4585
 334  415.2951
 335  399.3638
 336  467.1533
 337  478.1477
 338  638.0791
 339  497.6879
 340  494.9675
 341  510.7707
 342  416.5415
 343  335.1741
 344  470.1362
 345  438.8553
 346  252.4666
 347  357.3685
 348  504.3182
 349  475.7461
 350  378.8262
 351  308.7714
 352  333.2399
 353  444.9238
 354  354.9393
 355  354.011
 356  325.0695
 357  445.9623
 358  382.1702
 359  387.342
 360  360.5938
 361  372.3872
 362  310.5821
 363  445.8822
 364  400.7295
 365  405.7693
 366  382.174
 367  399.4792
 368  439.8333
 369  450.8353
 370  432.5025
 371  434.9775
 372  442.6623
 373  470.0422
 374  443.484
 375  412.9862
 376  294.0652
 377  370.3535
 378  521.7142
 379  448.9164
 380  419.5718
 381  311.5154
 382  420.2057
 383  296.877
 384  395.6682
 385  450.7602
 386  366.6062
 387  410.2451
 388  400.6528
 389  401.0664
 390  356.2657
 391  440.1197
 392  447.2017
 393  364.5963
 394  295.7855
 395  283.1073
 396  378.1523
 397  481.1133
 398  418.3985
 399  475.8711
 400  575.5905
 401  466.9131
 402  457.8103
 403  417.8024
 404  469.0249
 405  409.5605
 406  461.154
 407  566.6429
 408  429.1721
 409  333.3795
 410  358.654
 411  349.2518
 412  274.3397
 413  361.4411
 414  423.992
 415  442.0185
 416  489.6477
 417  461.5097
 418  437.4566
 419  373.1239
 420  508.3754
 421  457.7292
 422  463.9443
 423  415.1093
 424  324.2495
 425  443.5369
 426  285.8224
 427  309.5679
 428  318.1424
 429  338.9226
 430  300.2873
 431  443.0524
 432  335.6596
 433  372.7401
 434  420.9423
 435  466.2234
 436  438.8581
 437  487.642
 438  381.4465
 439  426.1491
 440  395.7648
 441  361.3981
 442  260.8872
 443  213.1179
 444  240.3076
 445  372.9213
 446  485.2318
 447  507.3919
 448  566.4368
 449  600.7496
 450  468.926
 451  403.626
 452  500.0151
 453  568.4362
 454  532.2512
 455  432.2867
 456  407.6043
 457  318.3151
 458  383.7867
 459  462.5186
 460  419.6381
 461  377.9261
 462  370.2878
 463  295.8345
 464  401.616
 465  492.8817
 466  492.7759
 467  455.1098
 468  341.3752
 469  326.5756
 470  461.2693
 471  382.3979
 472  364.1015
 473  332.2162
 474  380.9539
 475  431.1911
 476  491.221
 477  353.3665
 478  403.3903
 479  272.6436
 480  289.5395
 481  426.5433
 482  464.0864
 483  431.2004
 484  308.8409
 485  398.0819
 486  492.1476
 487  500.6268
 488  433.1775
 489  482.7305
 490  344.9218
 491  388.7331
 492  390.3198
 493  381.6862
 494  434.9443
 495  431.3984
 496  520.7951
 497  475.928
 498  502.4705
 499  467.5761
 500  386.6065
 501  337.6299
 502  375.6418
 503  338.0681
 504  417.527
 505  505.761
 506  472.1452
 507  498.4061
 508  551.2876
 509  636.1192
 510  645.9301
 511  691.3104
