# Input file       =  1181356138.126529_cleaned.dat
# Candidate        =  PSR_0332+5434
# Telescope        =  AR
# Epoch_topo       =  57917.103242205194
# Epoch_bary       =  N/A
# T_sample         =  0.002
# Data Folded      =  7208960
# Data Avg         =  0.029673922532865
# Data StdDev      =  1.00001671372656 
# Profile Bins     =  512
# Profile Avg      =  417.790681593864 
# Profile StdDev   =  118.661159030548 
# Reduced chi-sqr  =  0.888
# Prob(Noise)      <  0.968   (~0.0 sigma)
# P_topo (ms)      =  714.504996819267  +/- 0.000262
# P'_topo (s/s)    =  -0                +/- 1.41e-10
# P''_topo (s/s^2) =  0                 +/- 6.33e-14
# P_bary (ms)      =  N/A
# P'_bary (s/s)    =  N/A
# P''_bary (s/s^2) =  N/A
# P_orb (s)        =  N/A
# asin(i)/c (s)    =  N/A
# eccentricity     =  N/A
# w (rad)          =  N/A
# T_peri           =  N/A
######################################################
   0  371.633
   1  326.7278
   2  197.9849
   3  279.0689
   4  371.5838
   5  364.4672
   6  327.9095
   7  385.9201
   8  313.6272
   9  361.9119
  10  307.9724
  11  218.311
  12  390.1051
  13  283.8266
  14  322.5138
  15  386.2079
  16  396.2782
  17  376.1414
  18  338.914
  19  377.1664
  20  500.9909
  21  364.7424
  22  378.0451
  23  482.5505
  24  364.261
  25  439.5855
  26  387.8739
  27  349.2708
  28  478.8103
  29  522.2195
  30  442.7217
  31  495.8321
  32  457.3942
  33  402.6564
  34  453.5636
  35  423.9865
  36  337.1243
  37  429.2736
  38  412.4129
  39  475.2129
  40  396.4944
  41  394.2701
  42  356.5527
  43  353.6732
  44  487.5087
  45  492.9987
  46  441.6696
  47  508.0145
  48  341.7765
  49  355.5738
  50  469.951
  51  423.8689
  52  452.5952
  53  439.4787
  54  489.0301
  55  469.9583
  56  431.2254
  57  510.6602
  58  387.8622
  59  474.2092
  60  511.7711
  61  438.8708
  62  400.3454
  63  354.3889
  64  403.9705
  65  439.73
  66  277.0128
  67  258.1617
  68  359.2594
  69  440.508
  70  389.806
  71  440.1361
  72  425.8725
  73  352.3723
  74  351.8562
  75  426.8589
  76  419.2613
  77  520.2537
  78  494.4927
  79  450.3822
  80  411.0708
  81  294.3739
  82  291.7471
  83  349.0755
  84  441.2526
  85  428.5372
  86  417.6198
  87  442.7472
  88  523.9082
  89  485.3156
  90  538.1714
  91  400.5648
  92  455.409
  93  601.4792
  94  532.8502
  95  566.2269
  96  584.7554
  97  508.4594
  98  392.6613
  99  444.9212
 100  487.9002
 101  498.2183
 102  484.0408
 103  507.4158
 104  454.3942
 105  358.5345
 106  377.1968
 107  453.2982
 108  480.4164
 109  574.2512
 110  504.0506
 111  460.3966
 112  518.8975
 113  422.8562
 114  516.0957
 115  389.1281
 116  369.8606
 117  362.2866
 118  411.0638
 119  386.7817
 120  359.8201
 121  398.904
 122  566.5962
 123  486.5863
 124  468.8369
 125  414.2939
 126  313.8625
 127  435.1014
 128  497.6598
 129  565.1153
 130  561.3118
 131  503.547
 132  478.6291
 133  392.3097
 134  382.826
 135  436.5641
 136  474.2244
 137  420.3028
 138  410.1251
 139  385.6967
 140  368.2069
 141  464.431
 142  453.4001
 143  444.8047
 144  364.7986
 145  408.4116
 146  497.5587
 147  522.2377
 148  347.0037
 149  380.1667
 150  436.981
 151  519.6749
 152  476.1998
 153  480.4698
 154  357.508
 155  388.7888
 156  438.5001
 157  401.6791
 158  330.182
 159  417.1011
 160  411.1004
 161  351.3441
 162  447.4054
 163  416.1527
 164  295.6115
 165  436.6215
 166  425.9312
 167  316.4722
 168  355.8798
 169  537.2733
 170  545.2244
 171  519.3467
 172  447.4316
 173  319.3206
 174  344.6787
 175  335.16
 176  387.1293
 177  361.4386
 178  378.8957
 179  393.8866
 180  519.3052
 181  424.4491
 182  414.3122
 183  545.391
 184  621.252
 185  570.389
 186  438.5075
 187  335.5872
 188  336.5156
 189  390.1537
 190  284.7469
 191  346.2687
 192  391.5814
 193  384.8184
 194  430.1316
 195  512.8779
 196  672.8182
 197  801.5828
 198  782.1196
 199  853.8999
 200  797.5318
 201  728.4609
 202  522.6818
 203  464.9865
 204  541.4617
 205  477.4315
 206  494.6533
 207  527.8662
 208  454.336
 209  424.3046
 210  448.6514
 211  322.4659
 212  356.1412
 213  439.7714
 214  503.0367
 215  510.433
 216  494.7994
 217  416.9739
 218  471.3295
 219  360.9038
 220  343.2496
 221  314.3011
 222  356.5787
 223  371.4185
 224  456.8309
 225  492.8045
 226  364.6203
 227  281.9771
 228  282.9624
 229  336.062
 230  429.9128
 231  511.7171
 232  404.9498
 233  393.2582
 234  376.7011
 235  353.115
 236  419.4816
 237  478.7755
 238  419.3461
 239  413.1149
 240  331.4133
 241  360.4963
 242  469.0743
 243  399.8918
 244  396.2859
 245  386.2261
 246  378.1407
 247  349.8055
 248  303.088
 249  467.4121
 250  431.9421
 251  480.1752
 252  503.2968
 253  366.2484
 254  323.044
 255  363.0718
 256  410.704
 257  491.937
 258  510.5775
 259  486.6832
 260  441.3208
 261  458.606
 262  414.8325
 263  409.8528
 264  348.2586
 265  328.2862
 266  342.8107
 267  464.7773
 268  571.708
 269  515.1122
 270  422.3678
 271  432.5462
 272  338.4371
 273  391.3014
 274  388.9335
 275  374.5584
 276  310.6718
 277  424.2762
 278  388.4997
 279  488.628
 280  341.294
 281  436.449
 282  577.171
 283  494.7451
 284  574.4844
 285  513.2973
 286  456.9148
 287  403.2216
 288  408.4093
 289  440.8482
 290  374.4378
 291  361.7503
 292  390.8754
 293  474.5911
 294  474.4615
 295  464.9211
 296  469.7383
 297  381.2661
 298  409.2296
 299  448.3759
 300  395.7705
 301  312.5233
 302  383.7146
 303  558.6952
 304  468.1027
 305  441.8392
 306  350.8763
 307  369.2733
 308  397.9671
 309  405.1016
 310  399.3282
 311  450.2192
 312  387.1009
 313  351.6452
 314  340.8012
 315  330.2928
 316  418.3713
 317  509.5318
 318  505.4065
 319  542.0687
 320  402.4836
 321  390.4445
 322  334.5863
 323  359.9626
 324  380.482
 325  436.0257
 326  509.5353
 327  487.8267
 328  450.9301
 329  539.1119
 330  448.2003
 331  514.889
 332  526.1898
 333  509.5277
 334  453.3086
 335  481.3686
 336  440.0441
 337  464.5616
 338  405.1161
 339  273.5381
 340  373.1762
 341  362.7139
 342  402.8029
 343  370.0401
 344  465.3835
 345  412.9455
 346  415.0118
 347  509.2168
 348  480.6396
 349  381.0397
 350  436.6172
 351  526.957
 352  457.0591
 353  427.9887
 354  474.3744
 355  394.5084
 356  416.1544
 357  500.648
 358  416.0948
 359  271.0432
 360  326.5244
 361  359.1526
 362  412.744
 363  264.5226
 364  355.1316
 365  476.8634
 366  369.2857
 367  291.8781
 368  392.19
 369  322.7199
 370  345.1273
 371  292.6391
 372  289.948
 373  284.9601
 374  385.0813
 375  428.6905
 376  420.7805
 377  437.1609
 378  309.9336
 379  313.91
 380  447.3585
 381  502.4937
 382  483.311
 383  450.9996
 384  471.9449
 385  349.5738
 386  331.6524
 387  388.8004
 388  415.0312
 389  342.1371
 390  370.8096
 391  343.0511
 392  413.349
 393  299.3906
 394  373.667
 395  393.7744
 396  431.0529
 397  347.753
 398  281.214
 399  347.9322
 400  367.4431
 401  366.2615
 402  432.5424
 403  481.4527
 404  438.1982
 405  447.6403
 406  451.7297
 407  434.7015
 408  300.2962
 409  314.1972
 410  299.1828
 411  341.2849
 412  376.1635
 413  382.821
 414  393.2697
 415  380.4294
 416  345.1898
 417  400.1671
 418  424.2438
 419  437.8767
 420  338.1676
 421  353.1092
 422  326.3833
 423  411.0493
 424  399.0324
 425  347.2361
 426  450.3518
 427  395.2404
 428  400.4011
 429  408.6018
 430  333.0473
 431  339.4055
 432  298.8823
 433  398.1968
 434  511.2626
 435  534.1918
 436  483.9978
 437  366.6527
 438  272.2834
 439  330.6853
 440  322.3724
 441  453.9846
 442  372.4365
 443  281.4713
 444  292.9281
 445  312.3827
 446  310.8893
 447  313.195
 448  386.8123
 449  328.6928
 450  359.4319
 451  431.0801
 452  373.2646
 453  441.4036
 454  388.9937
 455  533.7285
 456  645.0965
 457  485.8132
 458  391.5351
 459  363.0492
 460  385.1053
 461  391.9963
 462  363.8391
 463  340.3352
 464  475.0349
 465  456.7719
 466  438.1694
 467  359.9588
 468  456.9492
 469  491.0028
 470  417.6834
 471  416.9185
 472  479.8754
 473  403.8101
 474  424.4597
 475  425.5848
 476  494.8676
 477  467.3849
 478  386.7913
 479  343.8551
 480  397.7058
 481  375.0799
 482  313.0129
 483  334.8881
 484  450.7253
 485  531.6328
 486  496.4099
 487  444.3867
 488  298.2068
 489  428.5946
 490  482.6098
 491  527.4481
 492  457.6141
 493  406.2784
 494  364.1501
 495  277.9693
 496  430.2596
 497  495.8392
 498  344.5549
 499  359.9266
 500  496.6259
 501  459.4435
 502  434.4111
 503  463.5092
 504  428.6322
 505  455.8391
 506  408.3196
 507  310.5246
 508  283.6867
 509  339.0236
 510  330.3602
 511  360.8971
