# Input file       =  1181442298.112694_cleaned.dat
# Candidate        =  PSR_0332+5434
# Telescope        =  AR
# Epoch_topo       =  57918.100464267292
# Epoch_bary       =  N/A
# T_sample         =  0.002
# Data Folded      =  7208960
# Data Avg         =  0.0188944210160131
# Data StdDev      =  1.00003047693261 
# Profile Bins     =  512
# Profile Avg      =  266.015881096051 
# Profile StdDev   =  118.662792161234 
# Reduced chi-sqr  =  0.986
# Prob(Noise)      <  0.58   (~0.0 sigma)
# P_topo (ms)      =  714.504066777903  +/- 0.000386
# P'_topo (s/s)    =  -0                +/- 2.08e-10
# P''_topo (s/s^2) =  0                 +/- 9.33e-14
# P_bary (ms)      =  N/A
# P'_bary (s/s)    =  N/A
# P''_bary (s/s^2) =  N/A
# P_orb (s)        =  N/A
# asin(i)/c (s)    =  N/A
# eccentricity     =  N/A
# w (rad)          =  N/A
# T_peri           =  N/A
######################################################
   0  719.8024
   1  716.671
   2  599.9232
   3  517.5258
   4  337.6956
   5  246.2585
   6  294.6375
   7  259.1328
   8  200.1405
   9  257.0915
  10  318.7104
  11  344.7573
  12  280.7256
  13  330.1594
  14  278.4724
  15  188.6407
  16  302.1178
  17  293.7312
  18  333.4073
  19  270.3184
  20  275.4107
  21  282.679
  22  176.3548
  23  119.7901
  24  304.3097
  25  328.2484
  26  271.2977
  27  268.0434
  28  233.982
  29  329.3301
  30  255.6824
  31  192.3344
  32  231.4978
  33  173.9192
  34  198.836
  35  192.6301
  36  212.3608
  37  311.6552
  38  300.0802
  39  349.8574
  40  320.4603
  41  132.7045
  42  116.7901
  43  225.1299
  44  208.1893
  45  212.3671
  46  272.5732
  47  314.7434
  48  348.8324
  49  255.8678
  50  261.9714
  51  300.5353
  52  279.977
  53  301.7749
  54  258.1062
  55  250.3611
  56  282.7438
  57  399.5916
  58  280.4892
  59  308.9039
  60  444.272
  61  367.3257
  62  292.2758
  63  186.091
  64  339.7001
  65  322.5345
  66  211.8472
  67  222.7441
  68  284.6518
  69  371.1772
  70  368.1348
  71  283.4733
  72  276.9635
  73  398.0461
  74  324.6585
  75  298.1396
  76  288.5737
  77  234.8061
  78  318.8179
  79  254.2798
  80  213.8304
  81  294.766
  82  336.3667
  83  386.4521
  84  276.6004
  85  342.6746
  86  319.2871
  87  313.8217
  88  263.9122
  89  207.2177
  90  261.418
  91  318.8146
  92  292.9593
  93  308.18
  94  219.0424
  95  172.051
  96  248.5866
  97  229.0928
  98  339.7108
  99  323.7923
 100  213.6239
 101  243.4469
 102  164.0596
 103  227.6031
 104  274.2961
 105  222.7269
 106  145.6931
 107  257.5717
 108  227.794
 109  196.1327
 110  186.2916
 111  129.6217
 112  152.3955
 113  150.2922
 114  215.8481
 115  252.8614
 116  186.4113
 117  276.3225
 118  358.2432
 119  292.6084
 120  244.2924
 121  334.8834
 122  313.6581
 123  321.4089
 124  299.2652
 125  319.5693
 126  292.8464
 127  327.9609
 128  321.0771
 129  255.7011
 130  206.8889
 131  323.7389
 132  273.2452
 133  279.6284
 134  252.169
 135  204.5957
 136  179.1731
 137  190.5655
 138  272.5015
 139  308.0199
 140  374.0818
 141  311.277
 142  274.4655
 143  243.8369
 144  177.0144
 145  165.7547
 146  199.7426
 147  339.5052
 148  324.6685
 149  306.2343
 150  158.2023
 151  158.6613
 152  209.767
 153  276.0548
 154  297.1389
 155  149.3661
 156  194.9757
 157  179.9963
 158  223.5826
 159  296.511
 160  251.4708
 161  332.5976
 162  263.6551
 163  159.4835
 164  173.2176
 165  237.2876
 166  218.3251
 167  90.19422
 168  171.0913
 169  225.8071
 170  185.8509
 171  256.3766
 172  360.2636
 173  285.0143
 174  270.7864
 175  240.3798
 176  275.9118
 177  227.1597
 178  261.2018
 179  262.4754
 180  224.9358
 181  226.2075
 182  218.5142
 183  323.1756
 184  378.9695
 185  351.3109
 186  349.7203
 187  216.2768
 188  165.5565
 189  201.1768
 190  221.2816
 191  169.6488
 192  151.2227
 193  250.5539
 194  220.9621
 195  238.1545
 196  353.5359
 197  219.0677
 198  253.8169
 199  250.7344
 200  251.512
 201  197.2081
 202  117.1178
 203  271.708
 204  371.5571
 205  304.1964
 206  369.2085
 207  258.6496
 208  309.2294
 209  313.4152
 210  278.0208
 211  274.8473
 212  339.86
 213  327.1961
 214  274.0152
 215  236.0275
 216  271.4913
 217  307.641
 218  346.0338
 219  312.9406
 220  242.9178
 221  316.585
 222  356.8141
 223  261.577
 224  194.9478
 225  315.5269
 226  385.2016
 227  332.877
 228  336.9616
 229  279.8889
 230  273.0427
 231  391.7274
 232  330.1996
 233  275.686
 234  269.0096
 235  451.909
 236  131.3331
 237  138.0782
 238  336.1441
 239  354.0206
 240  208.7861
 241  141.2589
 242  331.6901
 243  289.8462
 244  360.4409
 245  428.1917
 246  365.9918
 247  320.7836
 248  276.3937
 249  295.028
 250  285.3242
 251  396.252
 252  282.0304
 253  249.0521
 254  102.9959
 255  300.5536
 256  309.2833
 257  321.7136
 258  267.8071
 259  215.4614
 260  218.2794
 261  236.1284
 262  262.3324
 263  270.6332
 264  166.2555
 265  111.141
 266  83.13551
 267  179.0767
 268  203.7769
 269  305.7565
 270  366.295
 271  222.1725
 272  244.3358
 273  246.2056
 274  253.8752
 275  229.97
 276  239.7187
 277  273.081
 278  290.2283
 279  286.5868
 280  250.0513
 281  271.1758
 282  243.8071
 283  312.2351
 284  372.9714
 285  342.2133
 286  187.3787
 287  171.6505
 288  284.2689
 289  295.4175
 290  291.8557
 291  360.4759
 292  298.8236
 293  198.0748
 294  196.9548
 295  284.6047
 296  69.93983
 297  156.9563
 298  235.5318
 299  245.7746
 300  304.1115
 301  307.1013
 302  319.0007
 303  200.9152
 304  262.546
 305  247.8323
 306  284.0205
 307  311.045
 308  299.4503
 309  156.6596
 310  200.5775
 311  241.7906
 312  256.7166
 313  284.9743
 314  235.7123
 315  295.7859
 316  335.0501
 317  309.1573
 318  237.0672
 319  221.8815
 320  249.1145
 321  87.8434
 322  215.1813
 323  244.5446
 324  117.1904
 325  161.0286
 326  203.4706
 327  319.9013
 328  182.2631
 329  245.6571
 330  306.3159
 331  311.9727
 332  310.9111
 333  243.3649
 334  186.4473
 335  79.57665
 336  155.9361
 337  70.35706
 338  123.2485
 339  197.8792
 340  175.3751
 341  243.8654
 342  315.553
 343  276.9494
 344  207.8049
 345  283.1941
 346  250.4176
 347  188.3578
 348  267.0463
 349  272.7652
 350  204.1118
 351  291.3445
 352  383.2149
 353  400.3696
 354  259.7681
 355  463.361
 356  391.0697
 357  317.8392
 358  238.3579
 359  196.2924
 360  288.2599
 361  261.6499
 362  215.3755
 363  192.5582
 364  92.577
 365  2.787687
 366  195.2985
 367  229.9607
 368  208.2664
 369  228.4817
 370  188.1794
 371  246.7376
 372  180.7949
 373  144.8648
 374  155.8649
 375  275.9809
 376  213.8623
 377  71.47622
 378  198.678
 379  257.0238
 380  258.0529
 381  192.2073
 382  283.5252
 383  376.2594
 384  278.4548
 385  177.523
 386  161.2135
 387  163.7188
 388  129.7777
 389  264.0147
 390  205.4821
 391  275.4979
 392  188.6917
 393  -16.46602
 394  0.1444645
 395  196.79
 396  324.0649
 397  315.2552
 398  360.4543
 399  325.741
 400  326.9624
 401  226.0586
 402  212.5526
 403  214.3551
 404  113.1101
 405  302.1458
 406  186.2209
 407  188.5169
 408  286.4681
 409  253.8394
 410  240.4325
 411  153.3994
 412  192.8144
 413  265.1778
 414  193.0338
 415  251.3522
 416  294.8669
 417  349.2329
 418  309.3655
 419  213.7759
 420  292.876
 421  317.9513
 422  300.5508
 423  307.0286
 424  284.7495
 425  242.3432
 426  330.1055
 427  276.7814
 428  239.8696
 429  197.0087
 430  357.3734
 431  348.0053
 432  284.8623
 433  380.9446
 434  271.7559
 435  323.4087
 436  369.1792
 437  304.5486
 438  256.8546
 439  293.4709
 440  316.003
 441  168.6637
 442  311.9705
 443  356.8212
 444  225.6013
 445  248.3114
 446  438.4652
 447  383.9047
 448  286.8612
 449  190.9086
 450  265.0644
 451  303.1086
 452  232.4686
 453  186.6638
 454  272.6304
 455  302.8206
 456  206.3003
 457  349.6554
 458  331.554
 459  197.8283
 460  196.3317
 461  271.2177
 462  279.3176
 463  310.5924
 464  323.4835
 465  256.572
 466  268.7278
 467  237.6494
 468  260.7045
 469  291.3945
 470  296.5309
 471  275.1862
 472  256.4866
 473  184.7217
 474  136.2719
 475  168.707
 476  140.2699
 477  288.8004
 478  282.9257
 479  246.8963
 480  302.8292
 481  271.6558
 482  209.1377
 483  296.444
 484  329.1661
 485  428.4752
 486  220.6671
 487  225.1677
 488  237.8123
 489  230.0081
 490  345.4287
 491  323.0379
 492  315.4001
 493  330.5095
 494  277.938
 495  349.6053
 496  327.3746
 497  203.3923
 498  380.9776
 499  345.2066
 500  218.4965
 501  169.5922
 502  298.0468
 503  281.1653
 504  222.1187
 505  319.1679
 506  425.7835
 507  491.135
 508  405.2873
 509  544.9734
 510  673.5086
 511  748.124
