# Input file       =  1181385701.112891_cleaned.dat
# Candidate        =  PSR_0332+5434
# Telescope        =  AR
# Epoch_topo       =  57917.445406399202
# Epoch_bary       =  N/A
# T_sample         =  0.002
# Data Folded      =  7340032
# Data Avg         =  0.0290745604028752
# Data StdDev      =  1.00003320574813 
# Profile Bins     =  512
# Profile Avg      =  416.823009360703 
# Profile StdDev   =  119.737012201815 
# Reduced chi-sqr  =  0.928
# Prob(Noise)      <  0.878   (~0.0 sigma)
# P_topo (ms)      =  714.505019067466  +/- 0.0002
# P'_topo (s/s)    =  -0                +/- 1.06e-10
# P''_topo (s/s^2) =  0                 +/- 4.66e-14
# P_bary (ms)      =  N/A
# P'_bary (s/s)    =  N/A
# P''_bary (s/s^2) =  N/A
# P_orb (s)        =  N/A
# asin(i)/c (s)    =  N/A
# eccentricity     =  N/A
# w (rad)          =  N/A
# T_peri           =  N/A
######################################################
   0  761.6004
   1  793.38
   2  706.5703
   3  587.4036
   4  410.7436
   5  252.6449
   6  288.6073
   7  403.5777
   8  457.0032
   9  540.4258
  10  485.1415
  11  533.1919
  12  585.8322
  13  490.3949
  14  394.5667
  15  497.3628
  16  540.2405
  17  494.3494
  18  353.6482
  19  351.3488
  20  412.9137
  21  423.1513
  22  549.9756
  23  464.2608
  24  401.491
  25  372.486
  26  417.611
  27  363.5484
  28  358.9975
  29  406.782
  30  445.3383
  31  393.8899
  32  417.383
  33  373.1867
  34  342.8435
  35  373.4196
  36  467.4063
  37  509.8219
  38  440.609
  39  495.5405
  40  480.1063
  41  391.0561
  42  455.0013
  43  450.8542
  44  449.2808
  45  447.0189
  46  402.8805
  47  443.6366
  48  402.1513
  49  392.4152
  50  465.2145
  51  505.3636
  52  569.418
  53  382.7858
  54  297.5508
  55  372.9605
  56  437.8987
  57  389.1572
  58  277.8445
  59  433.6317
  60  503.0347
  61  518.8679
  62  537.8092
  63  557.1129
  64  566.0921
  65  555.9189
  66  524.5216
  67  583.3296
  68  479.6238
  69  389.6027
  70  402.3091
  71  439.1233
  72  527.216
  73  390.8705
  74  452.7559
  75  477.6438
  76  418.8915
  77  550.7567
  78  550.4945
  79  454.8941
  80  407.4864
  81  390.7235
  82  422.8931
  83  474.3212
  84  482.386
  85  462.3558
  86  431.5667
  87  552.0807
  88  543.2949
  89  398.4738
  90  425.1369
  91  466.5322
  92  449.386
  93  384.7052
  94  505.6387
  95  389.6952
  96  330.4061
  97  423.7919
  98  479.2074
  99  555.986
 100  550.181
 101  421.2397
 102  374.3146
 103  426.4966
 104  459.2545
 105  446.6029
 106  405.4344
 107  408.6408
 108  421.5944
 109  318.6348
 110  384.8311
 111  411.0988
 112  464.4459
 113  534.0577
 114  465.5029
 115  392.0706
 116  449.6045
 117  520.2927
 118  376.7364
 119  317.3981
 120  377.0419
 121  424.5973
 122  410.4931
 123  449.0755
 124  479.3128
 125  398.1221
 126  403.1832
 127  477.111
 128  521.6488
 129  386.1635
 130  394.7101
 131  397.2408
 132  484.3391
 133  435.9652
 134  531.702
 135  558.5571
 136  410.9883
 137  431.3302
 138  435.5808
 139  486.5632
 140  423.9068
 141  442.8834
 142  472.8992
 143  360.1567
 144  404.374
 145  404.4306
 146  438.3947
 147  385.216
 148  428.6598
 149  453.6985
 150  461.2109
 151  338.6766
 152  430.2469
 153  410.9776
 154  449.6554
 155  364.3956
 156  464.8649
 157  490.9436
 158  325.8558
 159  283.0133
 160  433.4113
 161  455.7114
 162  338.0369
 163  405.9008
 164  394.9122
 165  350.9865
 166  328.7273
 167  404.906
 168  411.4068
 169  306.4742
 170  364.4105
 171  502.2041
 172  448.5419
 173  385.9899
 174  326.3446
 175  348.4843
 176  385.4084
 177  260.5285
 178  317.4751
 179  445.6266
 180  489.5535
 181  424.9767
 182  382.1115
 183  468.2164
 184  381.6322
 185  413.4858
 186  536.1941
 187  486.8991
 188  409.6008
 189  359.8816
 190  371.1385
 191  410.8707
 192  324.3112
 193  584.9564
 194  567.617
 195  504.2234
 196  480.976
 197  478.7003
 198  541.78
 199  495.5685
 200  350.6941
 201  225.185
 202  341.109
 203  291.022
 204  339.3299
 205  262.0916
 206  332.2712
 207  363.6904
 208  314.3701
 209  349.1444
 210  338.4344
 211  325.4782
 212  344.7617
 213  398.6786
 214  241.9813
 215  297.0753
 216  372.0698
 217  321.4642
 218  412.0804
 219  423.0831
 220  414.9283
 221  498.4532
 222  461.2829
 223  314.7641
 224  289.9319
 225  296.5622
 226  333.47
 227  351.071
 228  362.2762
 229  387.9315
 230  349.4286
 231  360.2255
 232  339.372
 233  364.6963
 234  383.6518
 235  329.8256
 236  280.6988
 237  400.6518
 238  451.8451
 239  316.7675
 240  269.2534
 241  153.5094
 242  236.3761
 243  384.2099
 244  309.5457
 245  289.0004
 246  338.0583
 247  318.0359
 248  335.8422
 249  387.2978
 250  427.5326
 251  384.4341
 252  312.5202
 253  393.2353
 254  345.8818
 255  299.7295
 256  354.1513
 257  422.6553
 258  390.5237
 259  431.3157
 260  443.5473
 261  361.1311
 262  382.5897
 263  406.5385
 264  361.3173
 265  458.251
 266  377.3805
 267  332.7787
 268  262.4269
 269  262.7675
 270  289.2362
 271  504.943
 272  454.5262
 273  427.0895
 274  311.7029
 275  359.663
 276  497.2515
 277  583.2634
 278  486.5615
 279  390.1201
 280  478.9378
 281  407.7111
 282  455.0366
 283  345.5591
 284  362.3263
 285  404.5594
 286  520.7316
 287  491.4872
 288  495.8253
 289  443.129
 290  336.6307
 291  402.2924
 292  346.2948
 293  277.4942
 294  216.7881
 295  331.3229
 296  335.2285
 297  396.0701
 298  364.348
 299  320.5478
 300  340.3886
 301  345.0488
 302  415.0882
 303  441.6862
 304  452.9712
 305  329.9561
 306  247.9517
 307  297.4986
 308  409.4499
 309  394.6588
 310  507.8613
 311  366.0007
 312  290.2965
 313  431.9653
 314  488.5262
 315  445.0174
 316  396.9426
 317  416.1802
 318  422.7115
 319  454.6387
 320  490.8798
 321  585.7308
 322  516.6504
 323  540.429
 324  476.749
 325  486.8647
 326  503.098
 327  524.5275
 328  628.6191
 329  592.2099
 330  402.5604
 331  416.0003
 332  467.8075
 333  419.261
 334  324.5692
 335  347.6752
 336  382.9708
 337  434.8831
 338  491.0413
 339  546.9192
 340  476.7346
 341  330.6351
 342  247.9947
 343  191.9122
 344  310.2591
 345  513.4035
 346  448.815
 347  402.2385
 348  473.3811
 349  276.6317
 350  286.5129
 351  365.0175
 352  434.8911
 353  299.6729
 354  274.1489
 355  337.491
 356  450.3126
 357  294.9813
 358  336.9885
 359  375.93
 360  477.3241
 361  397.2345
 362  359.8912
 363  546.3466
 364  487.2401
 365  454.4716
 366  450.9522
 367  419.4119
 368  368.1509
 369  358.278
 370  381.8456
 371  411.4731
 372  444.5301
 373  502.4746
 374  488.2728
 375  535.4335
 376  457.0475
 377  466.9904
 378  403.504
 379  365.5509
 380  244.3816
 381  324.456
 382  411.9154
 383  413.3958
 384  398.4723
 385  365.7744
 386  481.5097
 387  438.1655
 388  339.8745
 389  438.1608
 390  417.8828
 391  279.099
 392  343.0182
 393  330.7545
 394  325.6862
 395  338.0139
 396  398.5865
 397  439.88
 398  481.6434
 399  428.9085
 400  432.1375
 401  367.289
 402  346.6028
 403  406.9389
 404  293.3222
 405  376.9783
 406  413.8659
 407  501.5598
 408  353.4133
 409  333.6551
 410  440.7861
 411  513.2103
 412  460.9635
 413  458.733
 414  471.8398
 415  403.6439
 416  414.1084
 417  370.0232
 418  346.1541
 419  436.5663
 420  473.4457
 421  489.2928
 422  437.3426
 423  424.8565
 424  314.8358
 425  363.5408
 426  435.1711
 427  521.9501
 428  446.0607
 429  463.7968
 430  483.4632
 431  589.2213
 432  514.9243
 433  474.1046
 434  503.4623
 435  508.9013
 436  395.7206
 437  337.3576
 438  343.8795
 439  378.8476
 440  451.6682
 441  481.4478
 442  514.2954
 443  536.6432
 444  575.8077
 445  450.5496
 446  387.1639
 447  423.9669
 448  472.3951
 449  505.9368
 450  433.423
 451  313.2302
 452  393.3688
 453  291.1616
 454  342.4117
 455  398.7397
 456  538.7298
 457  485.4288
 458  408.4448
 459  370.86
 460  366.3001
 461  311.5225
 462  338.1319
 463  496.7679
 464  480.66
 465  372.004
 466  531.2591
 467  545.3047
 468  409.0116
 469  349.58
 470  400.6105
 471  357.1883
 472  315.1888
 473  401.5686
 474  300.6311
 475  329.6912
 476  405.2794
 477  423.6599
 478  455.4558
 479  586.7967
 480  348.8455
 481  267.6716
 482  329.3862
 483  392.3401
 484  373.877
 485  352.7881
 486  560.7294
 487  469.8414
 488  379.0408
 489  493.0623
 490  463.6658
 491  429.3863
 492  490.0663
 493  484.4724
 494  304.6086
 495  469.2215
 496  489.1697
 497  504.1842
 498  389.2429
 499  489.6151
 500  429.9109
 501  346.5739
 502  407.6912
 503  441.9179
 504  371.6785
 505  372.066
 506  400.0845
 507  299.1452
 508  461.9655
 509  596.408
 510  645.5513
 511  679.6643
