# Input file       =  1181097647.101202_cleaned.dat
# Candidate        =  PSR_0332+5434
# Telescope        =  AR
# Epoch_topo       =  57914.111447930576
# Epoch_bary       =  N/A
# T_sample         =  0.002
# Data Folded      =  7208960
# Data Avg         =  0.0371640506162913
# Data StdDev      =  0.999965513968967
# Profile Bins     =  512
# Profile Avg      =  523.429354427486 
# Profile StdDev   =  118.655083709512 
# Reduced chi-sqr  =  0.939
# Prob(Noise)      <  0.835   (~0.0 sigma)
# P_topo (ms)      =  714.507806461754  +/- 0.000589
# P'_topo (s/s)    =  -0                +/- 3.17e-10
# P''_topo (s/s^2) =  0                 +/- 1.42e-13
# P_bary (ms)      =  N/A
# P'_bary (s/s)    =  N/A
# P''_bary (s/s^2) =  N/A
# P_orb (s)        =  N/A
# asin(i)/c (s)    =  N/A
# eccentricity     =  N/A
# w (rad)          =  N/A
# T_peri           =  N/A
######################################################
   0  1041.764
   1  867.3098
   2  905.8968
   3  657.7912
   4  533.4203
   5  462.737
   6  511.9161
   7  633.0888
   8  478.9729
   9  501.1916
  10  563.0193
  11  570.2195
  12  607.4388
  13  526.7646
  14  470.4639
  15  530.3942
  16  462.9063
  17  462.1695
  18  542.041
  19  512.8528
  20  487.2083
  21  467.7993
  22  467.4978
  23  484.4669
  24  484.5844
  25  565.5155
  26  424.9037
  27  526.4164
  28  621.502
  29  484.1614
  30  514.4741
  31  560.8898
  32  514.9032
  33  471.7328
  34  547.3445
  35  501.125
  36  523.3188
  37  507.0693
  38  563.7955
  39  566.1766
  40  483.3101
  41  454.0484
  42  473.587
  43  504.7603
  44  480.267
  45  472.3021
  46  499.1428
  47  469.7146
  48  504.3263
  49  541.0939
  50  386.8744
  51  404.0851
  52  463.8743
  53  404.6005
  54  400.9028
  55  374.6524
  56  490.5801
  57  498.796
  58  560.4175
  59  627.9022
  60  511.3409
  61  508.2881
  62  501.944
  63  598.3843
  64  582.5216
  65  513.6715
  66  499.5188
  67  403.7382
  68  543.0139
  69  631.2047
  70  457.4528
  71  479.9971
  72  581.0343
  73  629.0684
  74  527.6917
  75  625.1965
  76  649.7366
  77  649.9985
  78  597.1722
  79  555.4609
  80  527.2408
  81  469.3393
  82  501.5829
  83  581.9791
  84  627.7633
  85  649.6238
  86  625.4888
  87  605.1231
  88  645.2676
  89  613.2383
  90  513.8068
  91  490.1622
  92  490.4966
  93  486.5945
  94  555.9733
  95  546.1938
  96  521.5394
  97  509.8103
  98  528.5844
  99  521.9355
 100  525.0261
 101  577.0178
 102  546.7899
 103  480.2964
 104  470.8874
 105  524.7808
 106  512.5315
 107  439.3893
 108  612.67
 109  660.5428
 110  616.3228
 111  511.1201
 112  539.4746
 113  529.1711
 114  619.2257
 115  635.4313
 116  645.3411
 117  541.4354
 118  486.7631
 119  650.7573
 120  593.0424
 121  565.2867
 122  506.0974
 123  573.1121
 124  660.4166
 125  576.431
 126  560.1989
 127  367.6639
 128  488.7191
 129  497.1196
 130  599.7888
 131  591.9708
 132  635.5955
 133  593.8641
 134  461.9548
 135  490.5914
 136  480.427
 137  469.8039
 138  504.6449
 139  473.7466
 140  498.2114
 141  438.795
 142  507.5307
 143  470.02
 144  507.774
 145  603.6177
 146  513.7112
 147  551.1467
 148  585.065
 149  587.8607
 150  551.6616
 151  633.1068
 152  639.0049
 153  565.4738
 154  556.6625
 155  568.6876
 156  568.4355
 157  564.7456
 158  537.8444
 159  562.5965
 160  581.2377
 161  521.5861
 162  421.5593
 163  655.0424
 164  575.0928
 165  495.6562
 166  559.1126
 167  521.5597
 168  452.8911
 169  484.5751
 170  503.2294
 171  484.8813
 172  501.4778
 173  591.2388
 174  486.3816
 175  513.5165
 176  534.9537
 177  525.605
 178  492.5791
 179  531.1605
 180  624.538
 181  632.0197
 182  535.7219
 183  457.8775
 184  399.1521
 185  549.6221
 186  525.3156
 187  512.8099
 188  610.8879
 189  396.7409
 190  431.8319
 191  513.5037
 192  518.2357
 193  565.5766
 194  475.6907
 195  420.6171
 196  525.6505
 197  553.3574
 198  589.3707
 199  553.5891
 200  574.987
 201  544.7004
 202  479.6111
 203  513.4911
 204  513.7101
 205  511.1422
 206  573.5186
 207  639.5596
 208  450.0733
 209  436.812
 210  503.8556
 211  605.8298
 212  602.1838
 213  473.0785
 214  525.3634
 215  533.6615
 216  514.1612
 217  570.0223
 218  538.1571
 219  467.6267
 220  585.6721
 221  614.3588
 222  585.6401
 223  590.8754
 224  673.8744
 225  630.6704
 226  507.8153
 227  532.8977
 228  613.2397
 229  567.4035
 230  452.917
 231  490.9868
 232  605.6978
 233  505.0505
 234  392.3037
 235  450.6775
 236  543.6718
 237  443.0226
 238  433.4608
 239  452.0705
 240  449.698
 241  438.6481
 242  409.2477
 243  421.0519
 244  501.1637
 245  381.8582
 246  412.265
 247  406.0081
 248  496.1676
 249  549.8887
 250  461.9847
 251  328.4433
 252  511.3224
 253  458.6734
 254  447.9307
 255  463.5756
 256  462.6546
 257  433.0828
 258  355.7274
 259  474.4753
 260  456.925
 261  395.7702
 262  520.0104
 263  496.9396
 264  517.9604
 265  457.2128
 266  500.6248
 267  397.9514
 268  497.3351
 269  615.5797
 270  587.8361
 271  483.3272
 272  499.0862
 273  564.1301
 274  473.4668
 275  426.4083
 276  393.4979
 277  475.1807
 278  535.9363
 279  590.7032
 280  505.3257
 281  523.1383
 282  524.0685
 283  577.2491
 284  474.005
 285  519.3702
 286  509.9387
 287  610.6111
 288  513.3591
 289  487.1592
 290  527.8959
 291  526.311
 292  617.7304
 293  621.083
 294  537.2885
 295  504.7372
 296  514.6292
 297  534.425
 298  457.1786
 299  468.2846
 300  489.4164
 301  470.5125
 302  425.3095
 303  455.6964
 304  534.7707
 305  444.4485
 306  471.5849
 307  528.1448
 308  475.5045
 309  438.621
 310  421.7187
 311  503.775
 312  519.0368
 313  457.0469
 314  459.2739
 315  546.3752
 316  564.6838
 317  496.5488
 318  299.4342
 319  335.4973
 320  502.8265
 321  509.2581
 322  498.8888
 323  558.4598
 324  538.5671
 325  423.2418
 326  347.1492
 327  438.0529
 328  539.4792
 329  508.6432
 330  454.4799
 331  544.1526
 332  568.2087
 333  495.2299
 334  456.3001
 335  490.6416
 336  504.899
 337  461.456
 338  470.6824
 339  467.7496
 340  520.9423
 341  545.7581
 342  547.3253
 343  610.9912
 344  625.2814
 345  528.1924
 346  440.86
 347  530.2049
 348  425.0561
 349  433.9626
 350  379.6156
 351  419.5134
 352  519.7462
 353  470.0777
 354  506.8569
 355  463.1316
 356  508.1266
 357  513.9446
 358  407.7642
 359  509.4571
 360  607.1636
 361  571.6309
 362  500.3949
 363  485.3945
 364  546.7913
 365  587.5034
 366  587.1511
 367  505.0165
 368  547.4838
 369  569.0853
 370  586.6402
 371  462.0403
 372  462.0892
 373  573.2474
 374  591.7896
 375  575.541
 376  676.6342
 377  563.1835
 378  456.083
 379  443.3131
 380  501.0359
 381  586.8455
 382  495.8521
 383  465.5599
 384  478.7653
 385  523.181
 386  559.9189
 387  473.0817
 388  527.476
 389  550.4639
 390  528.1868
 391  484.7339
 392  459.4401
 393  546.4412
 394  600.1458
 395  498.2737
 396  503.9771
 397  504.0616
 398  516.6075
 399  487.9455
 400  457.6906
 401  482.5926
 402  640.9552
 403  622.155
 404  567.3297
 405  466.0726
 406  516.6614
 407  548.3922
 408  503.5443
 409  532.7043
 410  608.9728
 411  671.4643
 412  524.3921
 413  542.6632
 414  581.6738
 415  650.2763
 416  548.2687
 417  435.2199
 418  421.2927
 419  565.201
 420  664.5087
 421  652.4835
 422  640.1844
 423  616.0708
 424  555.9801
 425  530.4714
 426  562.6375
 427  564.6132
 428  505.7915
 429  451.1619
 430  465.9372
 431  397.3641
 432  461.7334
 433  518.1854
 434  444.4675
 435  492.9021
 436  580.4423
 437  633.9211
 438  520.597
 439  539.1306
 440  632.6656
 441  697.1301
 442  540.0082
 443  488.4469
 444  482.4108
 445  539.0302
 446  616.1444
 447  568.3336
 448  487.3411
 449  483.2169
 450  602.0506
 451  674.7497
 452  684.6337
 453  478.8907
 454  430.6118
 455  556.209
 456  594.7336
 457  569.2965
 458  625.1953
 459  681.1931
 460  570.3265
 461  452.9758
 462  438.4004
 463  417.038
 464  490.7223
 465  541.2288
 466  490.3679
 467  404.227
 468  435.4118
 469  458.6436
 470  344.3545
 471  370.9605
 472  497.5814
 473  473.0985
 474  391.1099
 475  507.5982
 476  488.6388
 477  403.8616
 478  378.2565
 479  278.6175
 480  315.7548
 481  385.1272
 482  408.0588
 483  490.4144
 484  478.2017
 485  516.4273
 486  478.7375
 487  531.6891
 488  587.2576
 489  607.2777
 490  482.7341
 491  619.7183
 492  566.6561
 493  612.2327
 494  673.4045
 495  623.6036
 496  539.3866
 497  541.2838
 498  484.8879
 499  383.269
 500  397.7207
 501  489.1425
 502  477.5821
 503  588.1852
 504  675.1125
 505  604.1452
 506  606.8538
 507  583.5927
 508  547.4741
 509  688.7145
 510  893.314
 511  1072.41
