# Input file       =  1181213400.102393_cleaned.dat
# Candidate        =  PSR_0332+5434
# Telescope        =  AR
# Epoch_topo       =  57915.451181740660
# Epoch_bary       =  N/A
# T_sample         =  0.002
# Data Folded      =  7340032
# Data Avg         =  0.0269653897536008
# Data StdDev      =  1.00006568050846 
# Profile Bins     =  512
# Profile Avg      =  386.548742814903 
# Profile StdDev   =  119.740900503475 
# Reduced chi-sqr  =  1.296
# Prob(Noise)      <  6.95e-06   (~4.3 sigma)
# P_topo (ms)      =  714.50688679016   +/- 0.000459
# P'_topo (s/s)    =  -0                +/- 2.42e-10
# P''_topo (s/s^2) =  0                 +/- 1.07e-13
# P_bary (ms)      =  N/A
# P'_bary (s/s)    =  N/A
# P''_bary (s/s^2) =  N/A
# P_orb (s)        =  N/A
# asin(i)/c (s)    =  N/A
# eccentricity     =  N/A
# w (rad)          =  N/A
# T_peri           =  N/A
######################################################
   0  924.4999
   1  921.4537
   2  750.791
   3  596.2166
   4  556.0087
   5  501.9906
   6  450.5232
   7  447.3598
   8  416.4489
   9  313.4351
  10  389.1174
  11  479.5021
  12  450.8667
  13  456.9949
  14  428.9218
  15  449.2466
  16  494.0084
  17  394.9343
  18  272.1938
  19  381.1637
  20  357.2556
  21  505.9544
  22  581.8157
  23  408.9577
  24  339.2827
  25  349.2927
  26  458.4813
  27  374.1821
  28  380.5331
  29  370.0482
  30  247.3604
  31  329.1556
  32  458.0106
  33  481.4
  34  457.8211
  35  467.5245
  36  502.8062
  37  381.1434
  38  261.8853
  39  311.5062
  40  414.006
  41  384.3104
  42  476.8875
  43  351.1078
  44  382.6881
  45  427.2466
  46  366.7674
  47  431.944
  48  438.2296
  49  494.8082
  50  532.5344
  51  429.4775
  52  445.7917
  53  374.8675
  54  351.0574
  55  337.8401
  56  378.1358
  57  331.6408
  58  309.2551
  59  447.824
  60  430.0242
  61  382.9723
  62  441.8845
  63  368.3996
  64  229.9141
  65  234.2261
  66  296.9265
  67  393.9846
  68  322.4824
  69  283.3188
  70  471.7387
  71  327.004
  72  245.3703
  73  278.1011
  74  354.9409
  75  422.4026
  76  451.5677
  77  464.1728
  78  327.1552
  79  359.3612
  80  450.7899
  81  379.532
  82  415.2452
  83  451.5912
  84  604.9263
  85  420.8367
  86  386.2822
  87  408.6004
  88  481.4425
  89  387.8396
  90  438.2495
  91  450.9821
  92  573.725
  93  452.4206
  94  381.8474
  95  467.5598
  96  407.3271
  97  375.553
  98  347.167
  99  401.3654
 100  427.2691
 101  454.242
 102  357.7115
 103  305.786
 104  275.4539
 105  361.6671
 106  320.277
 107  192.9901
 108  269.4867
 109  289.5447
 110  395.2679
 111  390.8695
 112  410.7697
 113  534.6913
 114  378.0586
 115  206.0788
 116  225.2153
 117  428.5174
 118  373.353
 119  429.0526
 120  341.7915
 121  387.1107
 122  438.4727
 123  476.8696
 124  337.992
 125  257.8699
 126  389.1229
 127  315.5177
 128  305.9466
 129  343.7672
 130  348.9369
 131  360.7849
 132  348.867
 133  419.1631
 134  476.4402
 135  496.5091
 136  518.0399
 137  466.2647
 138  489.2182
 139  402.5358
 140  386.8857
 141  523.1504
 142  463.9839
 143  424.917
 144  441.5711
 145  344.4211
 146  358.3817
 147  339.5674
 148  341.9723
 149  281.2205
 150  281.5612
 151  385.4324
 152  366.4782
 153  263.5957
 154  251.3883
 155  268.166
 156  297.7059
 157  144.463
 158  118.0751
 159  276.341
 160  239.8735
 161  326.0578
 162  302.1729
 163  295.8806
 164  309.3254
 165  291.6969
 166  227.3079
 167  325.484
 168  426.4781
 169  293.7424
 170  234.0054
 171  256.7572
 172  295.6243
 173  283.4789
 174  283.9642
 175  319.7264
 176  294.1187
 177  246.5614
 178  209.1935
 179  210.5614
 180  251.0373
 181  302.2666
 182  192.9932
 183  350.4021
 184  383.9322
 185  292.82
 186  243.8257
 187  255.6139
 188  391.3597
 189  407.5568
 190  336.4162
 191  401.3743
 192  448.1733
 193  497.4061
 194  375.4111
 195  290.5599
 196  305.0117
 197  373.5532
 198  279.3716
 199  273.8663
 200  206.5061
 201  294.0008
 202  259.3796
 203  182.8204
 204  206.3061
 205  286.4905
 206  264.6321
 207  264.3315
 208  250.8707
 209  233.2363
 210  318.8175
 211  267.4754
 212  379.0488
 213  390.4528
 214  330.0973
 215  386.8219
 216  423.8239
 217  376.0995
 218  403.5594
 219  381.5668
 220  407.164
 221  436.3631
 222  375.7034
 223  408.3083
 224  397.0306
 225  339.9717
 226  372.7233
 227  370.5682
 228  459.7585
 229  474.0219
 230  477.2782
 231  409.3855
 232  415.4681
 233  403.5918
 234  240.2714
 235  242.7793
 236  290.4378
 237  396.6261
 238  370.6042
 239  446.2803
 240  407.2874
 241  229.157
 242  262.7616
 243  326.1841
 244  362.2671
 245  351.1259
 246  331.2598
 247  296.546
 248  272.8689
 249  288.6465
 250  343.2793
 251  382.4922
 252  348.2854
 253  244.2975
 254  274.8277
 255  348.9022
 256  319.9545
 257  370.3948
 258  389.9433
 259  315.3521
 260  337.1532
 261  292.1396
 262  279.61
 263  329.21
 264  410.6972
 265  386.9976
 266  200.5853
 267  316.0017
 268  355.8026
 269  375.135
 270  488.0067
 271  352.0875
 272  315.6002
 273  427.9833
 274  348.4955
 275  369.3161
 276  444.2055
 277  478.0951
 278  379.7567
 279  328.5511
 280  344.1296
 281  259.8889
 282  179.6533
 283  415.0312
 284  362.2551
 285  308.4432
 286  332.6042
 287  273.8034
 288  430.024
 289  438.2879
 290  393.2001
 291  349.4332
 292  342.186
 293  354.2826
 294  331.5324
 295  299.5148
 296  316.6964
 297  421.0376
 298  400.2314
 299  405.9871
 300  403.3409
 301  450.8094
 302  391.4578
 303  345.8818
 304  439.361
 305  413.7628
 306  344.6573
 307  392.7716
 308  404.1438
 309  328.0141
 310  313.5322
 311  295.4881
 312  265.9073
 313  270.1471
 314  203.0776
 315  256.0239
 316  359.3043
 317  317.7716
 318  267.1806
 319  344.1622
 320  344.8006
 321  446.6497
 322  415.3282
 323  413.2943
 324  428.4769
 325  354.7777
 326  255.2848
 327  405.4644
 328  336.6573
 329  339.1844
 330  339.7492
 331  290.2362
 332  315.4206
 333  340.3123
 334  370.6143
 335  349.6429
 336  309.7529
 337  315.4112
 338  425.0469
 339  404.1371
 340  382.3062
 341  459.534
 342  465.6696
 343  482.7136
 344  417.9569
 345  372.9016
 346  413.173
 347  448.6444
 348  404.5086
 349  441.6072
 350  484.6357
 351  554.5598
 352  486.0976
 353  484.4783
 354  560.748
 355  481.517
 356  473.3779
 357  421.3078
 358  382.9825
 359  494.662
 360  571.5409
 361  535.5477
 362  520.2136
 363  421.0849
 364  265.147
 365  244.1582
 366  389.7814
 367  443.5701
 368  448.3438
 369  533.9313
 370  489.0049
 371  464.3581
 372  431.5545
 373  452.1702
 374  532.7562
 375  468.0726
 376  161.236
 377  344.7379
 378  495.2415
 379  462.1144
 380  382.3261
 381  400.9263
 382  465.8045
 383  466.5056
 384  425.7678
 385  330.489
 386  364.9902
 387  442.831
 388  452.2013
 389  450.45
 390  537.0933
 391  488.2933
 392  396.2652
 393  536.3348
 394  542.4036
 395  457.3443
 396  388.4239
 397  491.4806
 398  414.1019
 399  530.1488
 400  576.8748
 401  602.0174
 402  444.7599
 403  383.1828
 404  482.0719
 405  513.9954
 406  486.5393
 407  477.2595
 408  507.8975
 409  422.7593
 410  361.3701
 411  318.9317
 412  325.8698
 413  339.4724
 414  229.3937
 415  323.8518
 416  468.0486
 417  437.3782
 418  465.5807
 419  452.5627
 420  419.9453
 421  389.8715
 422  355.8056
 423  334.2165
 424  286.3605
 425  245.424
 426  255.3403
 427  412.3098
 428  401.2283
 429  370.6119
 430  364.0104
 431  404.9503
 432  387.4819
 433  427.0986
 434  467.5701
 435  404.234
 436  519.4854
 437  469.0101
 438  389.8094
 439  398.6844
 440  451.7883
 441  440.9273
 442  510.6921
 443  490.1628
 444  410.1935
 445  520.3117
 446  428.7628
 447  493.2035
 448  481.6899
 449  542.3153
 450  525.9279
 451  380.6788
 452  315.0291
 453  257.9935
 454  174.6373
 455  338.9813
 456  446.5601
 457  344.9074
 458  379.405
 459  387.0778
 460  351.4957
 461  281.379
 462  176.2972
 463  266.2448
 464  317.1473
 465  383.291
 466  241.1117
 467  359.6629
 468  398.0236
 469  269.6186
 470  398.1673
 471  455.6824
 472  445.2422
 473  546.2056
 474  509.5969
 475  336.0672
 476  387.117
 477  403.2861
 478  346.9568
 479  477.7089
 480  431.2211
 481  431.4019
 482  451.4651
 483  524.0873
 484  470.1616
 485  463.1774
 486  377.0613
 487  341.885
 488  392.5855
 489  444.6992
 490  441.4832
 491  499.1634
 492  500.1019
 493  376.6195
 494  556.8779
 495  391.1172
 496  296.2616
 497  371.2722
 498  439.3279
 499  286.2783
 500  338.1375
 501  395.5473
 502  437.0868
 503  409.8768
 504  541.1622
 505  552.4991
 506  505.9109
 507  433.9924
 508  421.6035
 509  770.7458
 510  821.249
 511  757.2521
