# Input file       =  1181299537.125484_cleaned.dat
# Candidate        =  PSR_0332+5434
# Telescope        =  AR
# Epoch_topo       =  57916.448138026433
# Epoch_bary       =  N/A
# T_sample         =  0.002
# Data Folded      =  7340032
# Data Avg         =  0.0122642288043545
# Data StdDev      =  1.00005272845129 
# Profile Bins     =  512
# Profile Avg      =  175.858136640674 
# Profile StdDev   =  119.739349714343 
# Reduced chi-sqr  =  0.946
# Prob(Noise)      <  0.805   (~0.0 sigma)
# P_topo (ms)      =  714.505950792828  +/- 0.000368
# P'_topo (s/s)    =  -0                +/- 1.94e-10
# P''_topo (s/s^2) =  0                 +/- 8.58e-14
# P_bary (ms)      =  N/A
# P'_bary (s/s)    =  N/A
# P''_bary (s/s^2) =  N/A
# P_orb (s)        =  N/A
# asin(i)/c (s)    =  N/A
# eccentricity     =  N/A
# w (rad)          =  N/A
# T_peri           =  N/A
######################################################
   0  457.63
   1  566.9904
   2  501.1087
   3  414.4419
   4  312.5042
   5  214.4917
   6  183.8895
   7  148.7945
   8  145.6817
   9  168.3508
  10  183.0204
  11  169.1197
  12  260.8666
  13  270.5904
  14  234.4043
  15  244.7242
  16  288.282
  17  268.0238
  18  239.0448
  19  253.7513
  20  329.6986
  21  236.8044
  22  114.3336
  23  102.1955
  24  151.8533
  25  44.68994
  26  3.110241
  27  106.0221
  28  148.376
  29  30.18052
  30  1.842834
  31  102.5984
  32  190.1482
  33  178.9501
  34  64.37006
  35  144.5018
  36  253.1161
  37  218.6367
  38  192.6398
  39  2.926236
  40  77.67627
  41  89.23361
  42  149.1012
  43  69.26644
  44  66.28752
  45  244.3451
  46  166.0623
  47  -6.77463
  48  96.70268
  49  143.8123
  50  77.69822
  51  -26.89657
  52  95.94857
  53  222.8051
  54  182.5978
  55  91.80242
  56  105.4705
  57  98.33865
  58  21.44615
  59  51.11861
  60  161.3478
  61  234.8363
  62  236.2071
  63  285.7278
  64  303.8416
  65  175.4235
  66  152.4398
  67  133.0326
  68  181.0025
  69  308.5731
  70  118.3411
  71  143.1351
  72  239.1474
  73  246.6743
  74  274.9047
  75  205.5121
  76  188.5608
  77  300.4163
  78  291.2947
  79  236.1653
  80  150.3694
  81  111.4304
  82  110.0497
  83  62.82436
  84  118.6786
  85  46.93554
  86  182.1033
  87  269.7587
  88  274.9637
  89  164.5976
  90  56.6811
  91  221.3364
  92  247.3192
  93  95.64788
  94  13.7661
  95  100.5092
  96  154.2276
  97  190.9655
  98  114.1955
  99  159.9602
 100  138.0347
 101  124.8572
 102  122.7195
 103  178.2899
 104  180.4838
 105  122.1376
 106  124.4349
 107  104.2356
 108  162.3534
 109  63.1768
 110  175.7583
 111  180.0408
 112  38.05455
 113  82.39384
 114  140.483
 115  101.035
 116  54.88446
 117  59.30975
 118  63.38776
 119  80.67397
 120  148.5469
 121  29.33445
 122  19.86796
 123  117.745
 124  196.2274
 125  210.7411
 126  293.4908
 127  286.8567
 128  119.619
 129  100.1284
 130  235.3478
 131  259.6981
 132  239.4234
 133  197.8338
 134  231.3587
 135  212.6598
 136  158.3008
 137  252.1307
 138  202.2885
 139  122.5453
 140  302.021
 141  340.3999
 142  217.8066
 143  254.0265
 144  244.9135
 145  180.9695
 146  149.687
 147  263.1044
 148  179.8889
 149  227.6819
 150  361.026
 151  281.9188
 152  198.7596
 153  225.1408
 154  210.1167
 155  178.1019
 156  260.6111
 157  224.3091
 158  203.3316
 159  175.9233
 160  175.8159
 161  231.7383
 162  189.14
 163  235.029
 164  146.2779
 165  68.74254
 166  128.6869
 167  93.89431
 168  60.18235
 169  53.92484
 170  137.5424
 171  175.7528
 172  211.4875
 173  290.4675
 174  397.5641
 175  222.7038
 176  208.4751
 177  300.6135
 178  350.8903
 179  319.872
 180  281.7676
 181  322.0827
 182  191.2127
 183  141.506
 184  148.6451
 185  73.80305
 186  156.5461
 187  129.4254
 188  103.1237
 189  119.9632
 190  140.645
 191  179.3795
 192  161.0228
 193  87.71957
 194  98.11391
 195  113.1557
 196  143.4402
 197  189.5239
 198  164.8262
 199  101.877
 200  117.3877
 201  175.4723
 202  86.47692
 203  87.02759
 204  170.6646
 205  143.6527
 206  39.38357
 207  27.44367
 208  37.12848
 209  160.5934
 210  86.54971
 211  193.3344
 212  245.3586
 213  149.0976
 214  24.96685
 215  72.464
 216  102.5329
 217  98.90125
 218  229.221
 219  286.9137
 220  239.9505
 221  187.7373
 222  173.1234
 223  144.8738
 224  178.9731
 225  98.43222
 226  71.20741
 227  185.8284
 228  191.5996
 229  179.033
 230  267.8282
 231  243.2521
 232  188.7162
 233  203.3326
 234  285.5968
 235  222.573
 236  95.40742
 237  49.34919
 238  135.8654
 239  103.6131
 240  111.7797
 241  124.5552
 242  146.6223
 243  117.7282
 244  51.45776
 245  -19.44543
 246  29.76529
 247  74.74836
 248  -8.117023
 249  62.88174
 250  129.3323
 251  125.6301
 252  163.9176
 253  92.21398
 254  147.5285
 255  143.215
 256  147.5399
 257  67.54451
 258  106.5785
 259  144.622
 260  146.367
 261  204.6254
 262  263.114
 263  237.4015
 264  100.6903
 265  79.99326
 266  202.4803
 267  191.9627
 268  152.5519
 269  262.0374
 270  327.2428
 271  150.3876
 272  175.5943
 273  213.2302
 274  97.37457
 275  87.35939
 276  169.7279
 277  210.166
 278  140.9139
 279  40.13808
 280  33.19058
 281  -2.876271
 282  145.4206
 283  164.3305
 284  63.57138
 285  119.0975
 286  200.9393
 287  175.227
 288  145.0036
 289  171.366
 290  94.38754
 291  118.8206
 292  229.7825
 293  286.9814
 294  167.0457
 295  201.8456
 296  311.1755
 297  264.7915
 298  153.2401
 299  127.2668
 300  218.4469
 301  302.7805
 302  276.7105
 303  194.6334
 304  236.26
 305  209.4594
 306  255.6243
 307  186.9186
 308  186.7934
 309  158.1281
 310  177.0572
 311  230.2254
 312  254.6634
 313  285.8344
 314  270.0154
 315  197.06
 316  209.5058
 317  227.8536
 318  151.6555
 319  22.39155
 320  109.7991
 321  109.6094
 322  151.7195
 323  155.3995
 324  123.4904
 325  164.3681
 326  70.7003
 327  118.2031
 328  70.68761
 329  2.333701
 330  135.2623
 331  189.871
 332  357.7357
 333  210.9151
 334  259.3919
 335  350.0396
 336  161.0396
 337  305.978
 338  274.6297
 339  191.4281
 340  180.981
 341  219.9311
 342  104.8916
 343  80.90408
 344  185.1546
 345  193.5992
 346  73.95747
 347  86.99719
 348  74.59899
 349  198.0623
 350  285.8372
 351  168.6141
 352  150.6767
 353  73.20316
 354  111.2672
 355  129.4023
 356  172.4247
 357  358.2142
 358  268.4589
 359  289.7933
 360  187.5596
 361  162.4928
 362  204.9053
 363  13.84484
 364  156.3624
 365  238.3912
 366  227.6208
 367  204.4635
 368  114.8389
 369  153.4636
 370  240.5404
 371  245.7956
 372  161.1227
 373  119.8568
 374  155.4887
 375  125.2563
 376  217.4406
 377  220.4419
 378  160.4234
 379  245.6715
 380  294.7227
 381  299.2165
 382  268.6025
 383  253.8218
 384  182.8932
 385  142.0673
 386  157.3899
 387  158.2382
 388  246.2535
 389  307.0416
 390  380.336
 391  284.6208
 392  188.699
 393  314.3428
 394  425.8134
 395  228.7988
 396  260.3441
 397  153.7382
 398  182.6927
 399  170.8902
 400  143.889
 401  272.0221
 402  167.902
 403  118.0081
 404  233.6219
 405  198.4163
 406  131.7481
 407  35.3005
 408  121.4392
 409  238.7393
 410  272.3804
 411  264.2124
 412  209.9175
 413  98.72435
 414  111.1932
 415  211.1279
 416  252.8369
 417  279.5519
 418  243.8209
 419  240.9332
 420  267.4898
 421  166.7228
 422  147.9036
 423  263.6167
 424  258.1161
 425  134.6097
 426  120.6174
 427  78.19381
 428  25.72511
 429  121.1628
 430  133.3105
 431  107.7681
 432  120.3216
 433  173.9631
 434  101.0295
 435  -78.14326
 436  87.04771
 437  115.8607
 438  132.3683
 439  82.63371
 440  91.18772
 441  202.7725
 442  209.4459
 443  128.6818
 444  102.0367
 445  244.3348
 446  217.7862
 447  179.9604
 448  283.6055
 449  206.2522
 450  306.5557
 451  230.3529
 452  177.2943
 453  96.98994
 454  102.4279
 455  152.5788
 456  156.1319
 457  245.7756
 458  155.6259
 459  145.61
 460  306.4842
 461  291.7782
 462  256.3652
 463  116.9319
 464  64.92912
 465  99.51741
 466  221.1949
 467  197.3159
 468  203.7214
 469  165.8236
 470  175.5597
 471  124.9069
 472  123.9011
 473  99.36641
 474  210.9662
 475  216.0008
 476  194.8944
 477  217.9685
 478  241.1093
 479  216.0252
 480  255.4964
 481  196.4261
 482  174.3228
 483  126.6139
 484  169.879
 485  158.6944
 486  180.243
 487  308.6102
 488  243.3595
 489  184.5779
 490  237.1483
 491  191.7522
 492  155.2021
 493  204.4888
 494  188.3724
 495  197.2244
 496  257.6481
 497  231.0817
 498  201.446
 499  152.4127
 500  139.6826
 501  231.4039
 502  159.6655
 503  235.6752
 504  198.9837
 505  235.1615
 506  212.9772
 507  160.9334
 508  249.728
 509  304.9056
 510  393.9858
 511  443.1138
