# Input file       =  1181385701.112891_cleaned.dat
# Candidate        =  PSR_0332+5434
# Telescope        =  AR
# Epoch_topo       =  57917.445406399202
# Epoch_bary       =  N/A
# T_sample         =  0.002
# Data Folded      =  7340032
# Data Avg         =  0.0290745604028752
# Data StdDev      =  1.00003320574813 
# Profile Bins     =  512
# Profile Avg      =  416.823009411298 
# Profile StdDev   =  119.737012201815 
# Reduced chi-sqr  =  0.931
# Prob(Noise)      <  0.868   (~0.0 sigma)
# P_topo (ms)      =  714.505019070197  +/- 0.000201
# P'_topo (s/s)    =  -0                +/- 1.06e-10
# P''_topo (s/s^2) =  0                 +/- 4.67e-14
# P_bary (ms)      =  N/A
# P'_bary (s/s)    =  N/A
# P''_bary (s/s^2) =  N/A
# P_orb (s)        =  N/A
# asin(i)/c (s)    =  N/A
# eccentricity     =  N/A
# w (rad)          =  N/A
# T_peri           =  N/A
######################################################
   0  726.7836
   1  774.5475
   2  773.0755
   3  652.5802
   4  520.4731
   5  326.6747
   6  237.4504
   7  359.9433
   8  411.4177
   9  507.7674
  10  524.6689
  11  482.1615
  12  587.4446
  13  535.0799
  14  454.3005
  15  394.8398
  16  560.0263
  17  515.6447
  18  468.5986
  19  305.9688
  20  396.4501
  21  385.8616
  22  488.0964
  23  539.4632
  24  425.873
  25  392.9007
  26  382.6152
  27  397.8179
  28  357.3026
  29  364.4601
  30  460.0146
  31  400.1998
  32  412.6994
  33  399.298
  34  347.238
  35  350.3046
  36  406.2641
  37  517.0736
  38  471.1655
  39  448.101
  40  522.7963
  41  422.5777
  42  421.2094
  43  452.7469
  44  455.153
  45  437.5367
  46  440.345
  47  394.6422
  48  459.1281
  49  354.8475
  50  449.1506
  51  457.867
  52  572.5993
  53  499.3369
  54  315.3935
  55  324.4624
  56  399.292
  57  456.5621
  58  319.8769
  59  319.7016
  60  475.4882
  61  513.5872
  62  527.555
  63  559.7983
  64  537.1018
  65  582.7546
  66  514.7717
  67  564.7366
  68  545.3434
  69  442.399
  70  395.9381
  71  409.4371
  72  484.581
  73  478.0513
  74  386.3106
  75  489.8774
  76  432.5704
  77  461.5868
  78  598.2148
  79  490.0207
  80  442.9834
  81  379.1366
  82  401.5289
  83  446.013
  84  489.0712
  85  491.0681
  86  429.2361
  87  478.4178
  88  560.806
  89  486.6339
  90  399.0027
  91  451.4967
  92  476.3698
  93  395.8516
  94  425.7258
  95  486.8994
  96  326.5827
  97  379.433
  98  459.6614
  99  487.232
 100  597.4721
 101  474.8708
 102  399.6169
 103  378.8342
 104  460.6421
 105  451.6913
 106  439.0657
 107  383.3565
 108  440.4254
 109  374.732
 110  319.5198
 111  427.7554
 112  400.3889
 113  514.6282
 114  508.3736
 115  432.1133
 116  406.384
 117  501.079
 118  471.315
 119  313.5336
 120  340.5153
 121  407.9446
 122  422.7047
 123  421.0199
 124  478.3575
 125  443.4555
 126  392.2202
 127  427.1219
 128  522.853
 129  454.6958
 130  366.7988
 131  378.9024
 132  447.0876
 133  478.4034
 134  454.8169
 135  575.9851
 136  484.3667
 137  415.539
 138  429.1039
 139  461.9785
 140  464.7403
 141  408.4988
 142  484.133
 143  422.6084
 144  371.2429
 145  407.2401
 146  417.8604
 147  413.8937
 148  401.5039
 149  435.8736
 150  467.765
 151  413.6616
 152  357.3134
 153  448.1981
 154  397.6166
 155  434.0078
 156  376.3785
 157  522.3108
 158  420.7716
 159  277.9573
 160  336.5015
 161  479.7903
 162  394.0647
 163  354.378
 164  422.0027
 165  374.8995
 166  339.2608
 167  353.5086
 168  423.5468
 169  357.3136
 170  298.5105
 171  434.4074
 172  526.4315
 173  386.78
 174  392.5319
 175  292.4713
 176  393.3407
 177  324.1445
 178  245.6892
 179  391.9842
 180  478.3661
 181  461.4792
 182  393.1041
 183  416.5627
 184  466.9188
 185  357.0256
 186  487.8846
 187  518.5975
 188  451.3112
 189  386.9633
 190  350.7028
 191  417.1207
 192  339.5158
 193  419.5368
 194  618.3132
 195  530.4248
 196  489.7348
 197  478.7082
 198  501.4464
 199  547.0398
 200  428.9413
 201  281.8164
 202  268.0613
 203  341.2213
 204  296.6058
 205  320.2558
 206  265.0916
 207  372.5028
 208  343.4688
 209  316.1053
 210  354.973
 211  318.9821
 212  338.1934
 213  378.9279
 214  352.2115
 215  212.3171
 216  369.8881
 217  330.7145
 218  349.8585
 219  437.6297
 220  407.3707
 221  458.0774
 222  493.1635
 223  396.2679
 224  278.1936
 225  309.6582
 226  301.7613
 227  355.1228
 228  339.7894
 229  388.5607
 230  371.7402
 231  348.4548
 232  360.8764
 233  333.9248
 234  386.9706
 235  366.5769
 236  284.6937
 237  313.0189
 238  465.3553
 239  380.527
 240  312.8204
 241  194.236
 242  190.8271
 243  287.7199
 244  396.3989
 245  254.9253
 246  325.7863
 247  332.0753
 248  322.6568
 249  351.246
 250  424.5259
 251  402.643
 252  357.3145
 253  328.6352
 254  395.0014
 255  306.049
 256  319.0649
 257  410.9055
 258  398.9311
 259  398.4595
 260  450.2669
 261  407.2079
 262  356.9841
 263  395.4268
 264  385.6055
 265  413.3789
 266  428.937
 267  363.1363
 268  268.0873
 269  300.6142
 270  225.8415
 271  408.2447
 272  498.1409
 273  442.8161
 274  389.9395
 275  297.4915
 276  416.5149
 277  542.3868
 278  571.2773
 279  409.1484
 280  441.5077
 281  437.3797
 282  444.7539
 283  405.4706
 284  349.4495
 285  363.6054
 286  470.9121
 287  522.7072
 288  477.4458
 289  500.0158
 290  365.8145
 291  380.299
 292  360.4742
 293  352.8724
 294  214.8038
 295  264.7241
 296  347.7009
 297  336.7531
 298  427.9109
 299  313.6368
 300  333.2964
 301  327.0346
 302  395.481
 303  424.884
 304  470.8281
 305  384.4904
 306  294.307
 307  243.0345
 308  362.9229
 309  401.5023
 310  440.9547
 311  490.7654
 312  292.6973
 313  337.6514
 314  470.368
 315  474.8807
 316  423.3997
 317  402.0936
 318  413.728
 319  432.1594
 320  470.3087
 321  534.5202
 322  573.4937
 323  511.6116
 324  528.7294
 325  453.9505
 326  514.8394
 327  502.2234
 328  558.405
 329  646.7618
 330  494.7464
 331  404.7613
 332  445.6956
 333  463.5202
 334  355.0662
 335  322.8141
 336  363.4256
 337  407.0263
 338  465.3432
 339  523.6366
 340  542.5358
 341  394.1512
 342  294.4883
 343  209.7812
 344  216.5736
 345  418.2109
 346  511.9771
 347  406.1527
 348  450.4971
 349  403.9087
 350  238.6503
 351  320.089
 352  423.3455
 353  374.7921
 354  280.7283
 355  271.7844
 356  411.2841
 357  384.5762
 358  291.2997
 359  380.4095
 360  404.8882
 361  490.1982
 362  318.7477
 363  461.1899
 364  545.0046
 365  453.549
 366  468.6788
 367  433.5183
 368  392.1934
 369  350.9483
 370  362.5047
 371  412.0305
 372  414.002
 373  480.8306
 374  491.4071
 375  504.551
 376  512.642
 377  447.5136
 378  447.0844
 379  383.4039
 380  318.2489
 381  249.6462
 382  398.2175
 383  395.9924
 384  430.7239
 385  351.5031
 386  425.7938
 387  485.7117
 388  382.8625
 389  365.3269
 390  460.2352
 391  344.4536
 392  299.9253
 393  344.7792
 394  326.6428
 395  313.3553
 396  361.4735
 397  430.4318
 398  450.9022
 399  485.8607
 400  395.882
 401  439.2796
 402  320.3559
 403  406.4215
 404  342.1259
 405  318.2559
 406  401.766
 407  455.2175
 408  463.9576
 409  296.7096
 410  398.4713
 411  469.4449
 412  517.8671
 413  418.4047
 414  485.8029
 415  430.836
 416  417.8668
 417  406.2375
 418  356.886
 419  370.4179
 420  457.9321
 421  478.5452
 422  479.1817
 423  433.0388
 424  384.9449
 425  299.6041
 426  410.3003
 427  467.775
 428  502.9331
 429  431.1237
 430  487.9662
 431  527.5427
 432  595.3652
 433  453.34
 434  506.0038
 435  491.2972
 436  484.8599
 437  345.5536
 438  341.9022
 439  349.7351
 440  416.7142
 441  461.8225
 442  516.7349
 443  496.7876
 444  580.861
 445  518.2538
 446  412.1693
 447  400.2742
 448  449.9055
 449  485.7546
 450  499.3261
 451  345.858
 452  367.8212
 453  350.6288
 454  283.5736
 455  370.4279
 456  456.594
 457  558.5153
 458  419.2374
 459  402.2946
 460  355.7092
 461  365.5234
 462  289.7744
 463  415.2426
 464  518.8816
 465  423.8977
 466  403.2304
 467  578.4699
 468  476.1125
 469  380.5696
 470  368.3009
 471  414.9714
 472  291.5011
 473  395.5947
 474  333.8517
 475  312.6242
 476  359.8307
 477  420.6857
 478  411.004
 479  536.4714
 480  512.9536
 481  281.3216
 482  286.3529
 483  370.4375
 484  398.6362
 485  334.6683
 486  440.0371
 487  565.9869
 488  384.2335
 489  434.8589
 490  504.3091
 491  439.6631
 492  435.3698
 493  528.4634
 494  378.1853
 495  377.2842
 496  486.285
 497  510.4822
 498  434.6805
 499  437.5498
 500  475.1023
 501  389.674
 502  337.0598
 503  458.95
 504  416.857
 505  350.9932
 506  404.5956
 507  341.5658
 508  345.475
 509  537.4004
 510  616.9782
 511  655.9701
