# Input file       =  1181213400.102393_cleaned.dat
# Candidate        =  PSR_0332+5434
# Telescope        =  AR
# Epoch_topo       =  57915.451181740660
# Epoch_bary       =  N/A
# T_sample         =  0.002
# Data Folded      =  7340032
# Data Avg         =  0.0269653897536008
# Data StdDev      =  1.00006568050846 
# Profile Bins     =  512
# Profile Avg      =  386.54871464179  
# Profile StdDev   =  119.740900503475 
# Reduced chi-sqr  =  1.300
# Prob(Noise)      <  5.36e-06   (~4.4 sigma)
# P_topo (ms)      =  714.506887868539  +/- 0.00046
# P'_topo (s/s)    =  -0                +/- 2.43e-10
# P''_topo (s/s^2) =  0                 +/- 1.07e-13
# P_bary (ms)      =  N/A
# P'_bary (s/s)    =  N/A
# P''_bary (s/s^2) =  N/A
# P_orb (s)        =  N/A
# asin(i)/c (s)    =  N/A
# eccentricity     =  N/A
# w (rad)          =  N/A
# T_peri           =  N/A
######################################################
   0  460.3203
   1  442.0972
   2  438.3517
   3  484.4631
   4  446.4198
   5  275.4784
   6  361.1134
   7  350.5704
   8  451.4709
   9  596.6661
  10  465.0062
  11  341.0441
  12  338.4067
  13  415.8025
  14  424.8744
  15  346.6859
  16  406.5073
  17  273.782
  18  283.6719
  19  425.3369
  20  480.2084
  21  465.9771
  22  449.4687
  23  516.0512
  24  424.6248
  25  294.4266
  26  267.3567
  27  408.269
  28  373.9726
  29  472.5295
  30  380.327
  31  366.5709
  32  427.2637
  33  376.4186
  34  402.0634
  35  456.8022
  36  448.8094
  37  552.0148
  38  445.6818
  39  452.2003
  40  389.2979
  41  350.0187
  42  348.8303
  43  368.1575
  44  356.1684
  45  293.8471
  46  406.8131
  47  461.7682
  48  371.942
  49  429.7685
  50  408.0914
  51  265.1146
  52  212.1574
  53  283.193
  54  353.7918
  55  382.3532
  56  256.6184
  57  444.4268
  58  380.0188
  59  251.6312
  60  261.2933
  61  326.902
  62  400.1539
  63  450.4276
  64  461.9805
  65  384.3718
  66  317.531
  67  460.3681
  68  379.7131
  69  406.3761
  70  420.2619
  71  585.9579
  72  481.7008
  73  380.0957
  74  399.3249
  75  476.2117
  76  411.4117
  77  404.0928
  78  445.0485
  79  545.3613
  80  510.5251
  81  385.8141
  82  439.2881
  83  444.9387
  84  367.7339
  85  367.2962
  86  369.2187
  87  426.0327
  88  469.5614
  89  366.6478
  90  329.1218
  91  262.9013
  92  351.9248
  93  338.7379
  94  225.4218
  95  227.3646
  96  283.1992
  97  371.5077
  98  404.3847
  99  386.9136
 100  511.9609
 101  455.4331
 102  232.1476
 103  197.1016
 104  384.1229
 105  382.0767
 106  421.9023
 107  361.9244
 108  374.9904
 109  413.3762
 110  483.7899
 111  381.6219
 112  268.5983
 113  345.7523
 114  369.8727
 115  275.5774
 116  345.2943
 117  337.558
 118  370.8947
 119  342.3075
 120  404.6536
 121  456.3382
 122  488.2751
 123  523.7288
 124  462.0893
 125  496.5776
 126  433.6907
 127  363.9869
 128  511.2976
 129  477.8163
 130  440.8484
 131  421.9731
 132  395.2177
 133  322.6461
 134  371.0956
 135  328.0352
 136  313.764
 137  251.3134
 138  373.2209
 139  377.2674
 140  287.1638
 141  247.0401
 142  262.5681
 143  302.3995
 144  198.3223
 145  90.00666
 146  243.5396
 147  248.9931
 148  292.9933
 149  324.8116
 150  293.8019
 151  299.0348
 152  308.5002
 153  244.0924
 154  275.9477
 155  429.9557
 156  327.1788
 157  238.1845
 158  248.7285
 159  301.0804
 160  275.6332
 161  286.2739
 162  300.6855
 163  322.4291
 164  244.8104
 165  221.7341
 166  214.0866
 167  230.3509
 168  303.0546
 169  211.6916
 170  291.0495
 171  416.2955
 172  298.107
 173  265.6591
 174  218.0896
 175  374.3348
 176  410.7857
 177  345.9503
 178  375.2787
 179  434.812
 180  494.6358
 181  426.1282
 182  303.2555
 183  284.6417
 184  368.285
 185  307.4939
 186  282.7046
 187  216.9409
 188  261.8777
 189  274.4126
 190  209.3998
 191  179.2615
 192  278.0245
 193  275.2587
 194  256.4873
 195  275.7091
 196  208.8622
 197  315.1331
 198  268.6424
 199  340.7371
 200  413.514
 201  319.3592
 202  374.6912
 203  421.0175
 204  403.297
 205  385.3056
 206  385.8286
 207  394.0253
 208  444.7707
 209  379.3919
 210  397.3473
 211  405.8098
 212  349.1306
 213  370.6888
 214  360.1584
 215  452.1429
 216  455.5075
 217  496.9095
 218  416.7618
 219  414.4475
 220  415.5379
 221  277.7886
 222  236.8911
 223  273.248
 224  366.7818
 225  387.3961
 226  423.7762
 227  432.8621
 228  266.5392
 229  232.284
 230  324.4854
 231  354.9143
 232  354.6957
 233  337.1107
 234  305.6067
 235  278.0746
 236  281.395
 237  336.1467
 238  370.0461
 239  376.4341
 240  264.9926
 241  246.6757
 242  343.9693
 243  307.8527
 244  367.0965
 245  393.4045
 246  344.1216
 247  314.8774
 248  317.6537
 249  270.3111
 250  305.1366
 251  388.0585
 252  419.281
 253  243.1125
 254  248.4824
 255  385.5812
 256  329.4627
 257  494.2694
 258  390.5033
 259  306.4579
 260  397.379
 261  397.5958
 262  324.736
 263  444.0401
 264  466.6896
 265  422.6329
 266  331.463
 267  335.2372
 268  317.012
 269  152.2004
 270  353.247
 271  410.2971
 272  283.939
 273  362.1666
 274  261.3975
 275  386.6652
 276  457.1798
 277  403.6745
 278  360.5464
 279  336.3639
 280  364.3719
 281  327.7822
 282  321.6664
 283  289.1461
 284  390.9437
 285  416.2972
 286  405.6749
 287  401.9442
 288  443.685
 289  406.6106
 290  342.5224
 291  420.7384
 292  437.2042
 293  346.6972
 294  382.6193
 295  403.7651
 296  360.1231
 297  300.081
 298  313.9146
 299  264.7403
 300  277.6888
 301  216.6899
 302  230.8577
 303  340.7675
 304  341.4581
 305  256.9588
 306  335.018
 307  333.1103
 308  433.5628
 309  417.8777
 310  416.6148
 311  429.4727
 312  390.1515
 313  267.298
 314  344.7098
 315  381.5236
 316  309.9667
 317  356.6275
 318  295.1261
 319  312.8594
 320  338.1692
 321  377.1121
 322  351.0537
 323  313.2589
 324  299.9983
 325  397.6958
 326  412.3546
 327  385.1855
 328  432.8385
 329  482.2513
 330  479.7254
 331  437.4981
 332  379.7067
 333  379.2117
 334  472.6422
 335  394.7954
 336  446.9753
 337  450.5259
 338  555.1568
 339  505.085
 340  455.5864
 341  574.6223
 342  483.1882
 343  493.6655
 344  422.0957
 345  396.835
 346  432.1633
 347  592.1248
 348  518.9078
 349  546.9883
 350  457.7545
 351  301.6725
 352  218.5921
 353  347.5823
 354  437.6518
 355  454.6791
 356  510.0464
 357  515.0853
 358  473.5605
 359  434.5417
 360  441.3609
 361  494.8374
 362  541.2798
 363  218.0192
 364  256.4798
 365  488.6731
 366  475.7209
 367  394.4309
 368  390.3519
 369  454.886
 370  456.3445
 371  458.039
 372  344.8678
 373  350.9295
 374  419.2432
 375  465.7589
 376  424.6456
 377  525.1404
 378  521.2224
 379  403.4603
 380  489.1057
 381  555.6782
 382  492.3976
 383  377.9832
 384  479.1698
 385  433.9774
 386  486.4654
 387  569.1105
 388  603.5532
 389  499.8192
 390  375.2094
 391  458.9615
 392  507.2564
 393  501.242
 394  476.3553
 395  513.1422
 396  441.8159
 397  373.8028
 398  332.491
 399  308.4818
 400  348.3435
 401  262.5022
 402  260.4646
 403  464.0122
 404  436.625
 405  462.4474
 406  464.0558
 407  430.0309
 408  387.0528
 409  374.866
 410  336.2297
 411  309.7531
 412  248.6372
 413  236.7357
 414  379.6382
 415  400.3193
 416  391.0328
 417  350.2842
 418  398.0314
 419  396.4048
 420  397.2242
 421  482.4863
 422  401.776
 423  492.0042
 424  505.0718
 425  400.9731
 426  390.6256
 427  432.9389
 428  448.653
 429  482.4658
 430  518.0542
 431  413.3984
 432  497.0404
 433  457.6797
 434  465.1465
 435  485.5166
 436  526.4492
 437  545.2202
 438  439.1541
 439  313.7054
 440  280.7221
 441  184.1992
 442  272.6859
 443  442.1834
 444  363.5248
 445  366.132
 446  390.4885
 447  376.9708
 448  305.0364
 449  183.4386
 450  229.3996
 451  310.9833
 452  379.9016
 453  292.7204
 454  283.0064
 455  438.0875
 456  254.1106
 457  370.681
 458  453.9846
 459  451.6353
 460  506.9792
 461  552.23
 462  366.7472
 463  343.8136
 464  433.2222
 465  337.8733
 466  461.761
 467  436.1221
 468  438.9233
 469  427.3806
 470  522.7839
 471  473.5373
 472  481.2122
 473  384.5117
 474  367.4236
 475  350.0401
 476  459.6519
 477  423.2617
 478  479.1356
 479  528.7454
 480  378.1808
 481  514.7991
 482  452.629
 483  308.9298
 484  339.4517
 485  455.9777
 486  325.348
 487  306.3279
 488  378.0664
 489  437.1866
 490  391.8011
 491  518.2803
 492  551.0483
 493  531.7683
 494  447.9287
 495  396.6579
 496  668.003
 497  849.7842
 498  753.2196
 499  873.3527
 500  956.0844
 501  793.8864
 502  640.2502
 503  547.8339
 504  523.9074
 505  459.4596
 506  435.1224
 507  456.1878
 508  321.1819
 509  359.5315
 510  465.7846
 511  455.9085
