# Input file       =  1181041046.106092_cleaned.dat
# Candidate        =  PSR_0332+5434
# Telescope        =  AR
# Epoch_topo       =  57913.456343820508
# Epoch_bary       =  N/A
# T_sample         =  0.002
# Data Folded      =  7340032
# Data Avg         =  0.0261047809108713
# Data StdDev      =  1.00006916968922 
# Profile Bins     =  512
# Profile Avg      =  374.223093277613 
# Profile StdDev   =  119.741318273682 
# Reduced chi-sqr  =  1.283
# Prob(Noise)      <  1.48e-05   (~4.2 sigma)
# P_topo (ms)      =  714.50877048469   +/- 0.000278
# P'_topo (s/s)    =  -0                +/- 1.47e-10
# P''_topo (s/s^2) =  0                 +/- 6.47e-14
# P_bary (ms)      =  N/A
# P'_bary (s/s)    =  N/A
# P''_bary (s/s^2) =  N/A
# P_orb (s)        =  N/A
# asin(i)/c (s)    =  N/A
# eccentricity     =  N/A
# w (rad)          =  N/A
# T_peri           =  N/A
######################################################
   0  323.7407
   1  286.4227
   2  270.6075
   3  278.3269
   4  283.3403
   5  260.2379
   6  250.3428
   7  393.0055
   8  370.0939
   9  290.3125
  10  374.6794
  11  566.2292
  12  550.0684
  13  336.7809
  14  268.8077
  15  382.5413
  16  373.3768
  17  336.5172
  18  292.7369
  19  314.1326
  20  344.5956
  21  357.8279
  22  355.8155
  23  414.9852
  24  348.1678
  25  392.1782
  26  382.86
  27  308.7044
  28  425.2314
  29  348.4338
  30  442.145
  31  390.4679
  32  433.9097
  33  378.6487
  34  424.7097
  35  444.7155
  36  353.7661
  37  233.1932
  38  219.8236
  39  355.4733
  40  397.209
  41  391.5642
  42  444.2678
  43  433.1906
  44  423.7587
  45  524.7645
  46  437.6616
  47  453.0568
  48  476.2251
  49  457.8783
  50  415.6561
  51  482.5247
  52  496.7024
  53  449.5827
  54  468.3607
  55  397.2068
  56  418.8185
  57  476.3478
  58  309.4438
  59  269.0341
  60  422.8304
  61  378.1077
  62  340.7236
  63  322.6752
  64  326.968
  65  262.8231
  66  345.6129
  67  294.1156
  68  191.8753
  69  188.5529
  70  314.6456
  71  335.7121
  72  345.3639
  73  369.8587
  74  322.682
  75  357.3734
  76  276.4745
  77  390.6632
  78  420.8186
  79  331.9837
  80  336.1045
  81  341.4738
  82  465.0375
  83  377.755
  84  293.5457
  85  352.0795
  86  355.9409
  87  266.4674
  88  298.2976
  89  215.0714
  90  209.0215
  91  301.1659
  92  325.7578
  93  297.4578
  94  251.1991
  95  207.8758
  96  219.6098
  97  190.9966
  98  320.7141
  99  429.739
 100  365.6404
 101  351.8601
 102  332.623
 103  275.6319
 104  382.6504
 105  373.3961
 106  328.0586
 107  360.5248
 108  391.7813
 109  328.2058
 110  347.096
 111  378.6629
 112  290.8385
 113  313.8891
 114  401.8804
 115  397.6841
 116  328.4986
 117  367.2547
 118  367.7944
 119  266.0115
 120  245.6013
 121  350.2881
 122  393.4122
 123  304.1213
 124  346.8718
 125  254.8734
 126  231.621
 127  308.3957
 128  309.8365
 129  349.192
 130  275.8391
 131  392.1167
 132  473.7869
 133  427.6801
 134  360.8429
 135  456.3403
 136  305.0853
 137  269.4837
 138  364.7074
 139  379.8747
 140  377.4618
 141  222.2506
 142  231.0899
 143  268.7758
 144  138.6079
 145  313.8301
 146  362.8002
 147  288.6781
 148  301.4569
 149  347.0255
 150  302.1962
 151  332.3246
 152  467.6215
 153  491.1219
 154  417.0109
 155  230.7221
 156  389.0595
 157  370.0318
 158  332.1404
 159  505.6983
 160  444.1559
 161  426.1562
 162  299.755
 163  307.5216
 164  359.9055
 165  294.7342
 166  194.5674
 167  323.8146
 168  418.0559
 169  503.6141
 170  413.413
 171  502.5543
 172  456.968
 173  457.1391
 174  334.321
 175  326.2109
 176  318.7311
 177  273.2908
 178  346.7593
 179  388.2567
 180  282.7681
 181  350.6531
 182  308.1879
 183  340.3647
 184  434.0957
 185  268.4745
 186  298.7892
 187  333.6442
 188  442.3757
 189  500.9004
 190  376.1998
 191  277.9414
 192  302.5347
 193  209.5049
 194  329.7177
 195  288.1854
 196  403.6905
 197  353.5421
 198  355.7102
 199  353.6671
 200  350.5673
 201  407.5519
 202  331.2063
 203  410.5143
 204  443.0291
 205  329.2354
 206  370.1006
 207  416.3174
 208  307.7521
 209  371.3022
 210  357.9693
 211  367.3119
 212  400.6951
 213  440.9662
 214  522.0886
 215  426.4471
 216  361.4883
 217  476.0041
 218  463.8271
 219  387.8165
 220  349.196
 221  341.7321
 222  246.636
 223  241.9008
 224  402.9919
 225  393.7259
 226  394.1918
 227  426.8828
 228  402.1648
 229  240.7258
 230  364.0033
 231  419.6387
 232  306.7806
 233  352.2928
 234  343.9186
 235  372.1855
 236  258.6262
 237  334.7272
 238  321.8206
 239  281.5688
 240  332.5022
 241  221.2237
 242  313.612
 243  362.7953
 244  434.7618
 245  380.7263
 246  214.4821
 247  334.9612
 248  303.3635
 249  305.3301
 250  327.622
 251  326.443
 252  297.7029
 253  513.0135
 254  508.5291
 255  376.4644
 256  375.4062
 257  343.8481
 258  412.9296
 259  401.4635
 260  431.4496
 261  445.6504
 262  536.3418
 263  544.7709
 264  404.4481
 265  280.9332
 266  192.4287
 267  241.7991
 268  327.4159
 269  404.9562
 270  512.7498
 271  501.0801
 272  334.2225
 273  359.0245
 274  474.1134
 275  524.6451
 276  351.7273
 277  393.5714
 278  466.7683
 279  377.2866
 280  508.3962
 281  510.7523
 282  309.5155
 283  248.345
 284  287.9814
 285  383.9368
 286  367.6584
 287  347.3504
 288  531.5994
 289  797.4338
 290  751.2282
 291  826.6041
 292  912.83
 293  895.2282
 294  785.4002
 295  595.2023
 296  542.1709
 297  490.5228
 298  477.1577
 299  483.5206
 300  369.8557
 301  383.955
 302  437.3326
 303  519.1845
 304  470.1459
 305  431.7077
 306  433.8388
 307  633.7812
 308  609.2891
 309  454.8882
 310  467.5247
 311  578.1093
 312  474.8203
 313  365.1219
 314  354.672
 315  258.1624
 316  277.5583
 317  421.8014
 318  384.1696
 319  340.9533
 320  398.4179
 321  508.8024
 322  446.7974
 323  420.1047
 324  397.4658
 325  311.1039
 326  364.8821
 327  339.7232
 328  352.7613
 329  361.5301
 330  333.5513
 331  406.9499
 332  382.6099
 333  345.7803
 334  233.1252
 335  243.832
 336  356.5067
 337  377.7851
 338  458.4116
 339  458.5556
 340  448.3817
 341  504.0341
 342  410.2895
 343  536.0072
 344  579.9789
 345  522.7767
 346  594.7341
 347  438.2532
 348  416.5804
 349  478.3922
 350  505.1005
 351  481.0029
 352  383.7948
 353  347.2437
 354  357.048
 355  395.2563
 356  349.6087
 357  340.5764
 358  312.0604
 359  381.9387
 360  368.0404
 361  364.5728
 362  290.9925
 363  207.7778
 364  263.0693
 365  386.6368
 366  417.6821
 367  373.762
 368  319.8112
 369  195.9062
 370  344.7834
 371  399.1554
 372  450.2692
 373  371.0664
 374  349.9054
 375  459.8149
 376  496.0808
 377  460.2032
 378  348.9975
 379  392.7246
 380  454.2421
 381  420.1917
 382  449.253
 383  467.4742
 384  551.6029
 385  438.6678
 386  413.5483
 387  445.1385
 388  435.6063
 389  512.6599
 390  482.9641
 391  547.9542
 392  539.5873
 393  342.2522
 394  550.9124
 395  544.9156
 396  580.4108
 397  565.7576
 398  352.8882
 399  397.771
 400  324.324
 401  424.0137
 402  389.556
 403  209.7858
 404  346.3623
 405  401.2303
 406  457.0644
 407  444.9221
 408  298.1992
 409  327.5094
 410  330.3286
 411  260.6615
 412  273.7605
 413  325.2513
 414  263.1232
 415  334.4943
 416  368.37
 417  310.2343
 418  331.9875
 419  232.6667
 420  217.1751
 421  272.8418
 422  381.6123
 423  272.1049
 424  163.4443
 425  242.2902
 426  386.5157
 427  349.4655
 428  308.7196
 429  346.3271
 430  401.2164
 431  358.3138
 432  246.6587
 433  281.0021
 434  426.6452
 435  330.8069
 436  377.9097
 437  390.5187
 438  401.3004
 439  267.9324
 440  320.0807
 441  332.997
 442  209.6263
 443  298.3805
 444  462.4275
 445  433.6034
 446  384.5582
 447  336.9896
 448  482.2523
 449  348.7609
 450  290.8906
 451  224.909
 452  231.8004
 453  321.0176
 454  224.1227
 455  363.643
 456  363.4118
 457  204.781
 458  172.4263
 459  399.764
 460  334.44
 461  373.9919
 462  428.963
 463  387.7172
 464  297.2632
 465  289.5187
 466  341.4346
 467  356.307
 468  383.5799
 469  346.2739
 470  292.7299
 471  344.2286
 472  417.1766
 473  314.4178
 474  336.2967
 475  419.2745
 476  458.3465
 477  521.8904
 478  569.3654
 479  533.4122
 480  418.9176
 481  449.597
 482  464.6273
 483  381.7826
 484  367.7923
 485  415.7093
 486  304.7421
 487  386.1348
 488  328.9772
 489  379.248
 490  339.7432
 491  215.4389
 492  242.3129
 493  258.1663
 494  294.1998
 495  309.7375
 496  439.462
 497  443.9608
 498  410.6599
 499  473.4897
 500  389.0005
 501  369.1768
 502  284.6168
 503  357.7052
 504  411.8678
 505  346.4366
 506  352.6922
 507  381.512
 508  202.0118
 509  435.7773
 510  419.4841
 511  393.4435
