# Input file       =  1181112274.121032_cleaned.dat
# Candidate        =  PSR_0332+5434
# Telescope        =  AR
# Epoch_topo       =  57914.280742141571
# Epoch_bary       =  N/A
# T_sample         =  0.002
# Data Folded      =  7340032
# Data Avg         =  0.0257218676856748
# Data StdDev      =  1.00004760457018 
# Profile Bins     =  512
# Profile Avg      =  368.692740818313 
# Profile StdDev   =  119.738736216499 
# Reduced chi-sqr  =  1.139
# Prob(Noise)      <  0.0157   (~2.2 sigma)
# P_topo (ms)      =  714.507655765846  +/- 0.000463
# P'_topo (s/s)    =  -0                +/- 2.44e-10
# P''_topo (s/s^2) =  0                 +/- 1.08e-13
# P_bary (ms)      =  N/A
# P'_bary (s/s)    =  N/A
# P''_bary (s/s^2) =  N/A
# P_orb (s)        =  N/A
# asin(i)/c (s)    =  N/A
# eccentricity     =  N/A
# w (rad)          =  N/A
# T_peri           =  N/A
######################################################
   0  879.8904
   1  725.1936
   2  656.6838
   3  631.7994
   4  413.3222
   5  322.3751
   6  348.3749
   7  298.2753
   8  325.8297
   9  276.6921
  10  229.5285
  11  284.377
  12  410.905
  13  427.6869
  14  387.471
  15  369.4912
  16  453.4184
  17  452.4888
  18  517.347
  19  421.2792
  20  419.1155
  21  280.9564
  22  306.2309
  23  278.9554
  24  261.6082
  25  268.2569
  26  339.8169
  27  468.0146
  28  392.2366
  29  259.9391
  30  289.4896
  31  273.0764
  32  300.646
  33  294.9402
  34  409.7338
  35  346.3162
  36  331.0244
  37  367.465
  38  422.6767
  39  364.809
  40  377.468
  41  382.3001
  42  317.5587
  43  226.3279
  44  254.2411
  45  282.4984
  46  206.1056
  47  177.3845
  48  329.0469
  49  415.2101
  50  305.2079
  51  373.2064
  52  373.7054
  53  351.5456
  54  426.5453
  55  383.7741
  56  427.3265
  57  466.71
  58  384.5221
  59  449.6967
  60  321.9128
  61  438.263
  62  381.4762
  63  405.1493
  64  449.6346
  65  411.4309
  66  482.7291
  67  412.6086
  68  365.8006
  69  332.0289
  70  419.2765
  71  418.3758
  72  365.2287
  73  430.65
  74  335.9607
  75  261.9125
  76  246.0023
  77  385.8945
  78  448.6337
  79  346.4899
  80  414.8037
  81  380.9431
  82  455.1746
  83  411.7607
  84  412.1287
  85  395.6515
  86  410.592
  87  416.3874
  88  495.6801
  89  472.8987
  90  378.8109
  91  569.5891
  92  557.9166
  93  377.9851
  94  403.3547
  95  423.3525
  96  455.7252
  97  371.0597
  98  358.7047
  99  298.1569
 100  396.5327
 101  436.8695
 102  387.0985
 103  333.6558
 104  326.0776
 105  298.7952
 106  396.3597
 107  420.1723
 108  434.6633
 109  288.4477
 110  301.5759
 111  353.1673
 112  519.5553
 113  528.8498
 114  423.5661
 115  358.0689
 116  456.2655
 117  448.2953
 118  404.5202
 119  367.4839
 120  408.4731
 121  486.0599
 122  536.1006
 123  404.3911
 124  400.5672
 125  500.1747
 126  353.236
 127  218.0896
 128  306.0005
 129  405.218
 130  446.3954
 131  452.3668
 132  482.6736
 133  492.1283
 134  398.5251
 135  431.6316
 136  463.5277
 137  531.0325
 138  405.9397
 139  455.0605
 140  584.4266
 141  561.3882
 142  559.9797
 143  602.6057
 144  566.4189
 145  489.4246
 146  404.5305
 147  413.225
 148  392.559
 149  544.3321
 150  567.5181
 151  561.7347
 152  482.6608
 153  464.3811
 154  377.4507
 155  394.2966
 156  387.1961
 157  389.9032
 158  367.0298
 159  382.402
 160  483.757
 161  422.893
 162  346.0193
 163  344.8789
 164  348.4137
 165  402.8344
 166  351.1228
 167  396.5788
 168  492.703
 169  419.7296
 170  462.7754
 171  419.378
 172  264.8156
 173  282.2146
 174  382.0364
 175  377.2455
 176  386.6049
 177  273.3451
 178  292.6133
 179  351.2332
 180  305.233
 181  360.5147
 182  310.5686
 183  421.1543
 184  453.6729
 185  386.9832
 186  356.0087
 187  377.1044
 188  340.1406
 189  441.8399
 190  525.2101
 191  371.7837
 192  298.4066
 193  305.9764
 194  231.5031
 195  327.7898
 196  514.5017
 197  472.9017
 198  494.5096
 199  459.1967
 200  455.0113
 201  324.0526
 202  451.0846
 203  469.9686
 204  475.687
 205  375.1284
 206  235.5992
 207  301.5305
 208  418.1432
 209  454.3425
 210  432.3158
 211  410.3925
 212  318.2162
 213  276.0363
 214  233.3834
 215  320.7134
 216  260.4133
 217  308.4373
 218  210.5384
 219  323.1845
 220  373.9039
 221  264.0896
 222  293.7949
 223  430.9698
 224  407.0231
 225  346.5224
 226  337.7832
 227  343.6278
 228  256.1658
 229  268.2403
 230  271.1818
 231  348.0906
 232  361.9461
 233  322.9787
 234  368.0195
 235  367.0178
 236  310.9202
 237  370.9213
 238  391.7853
 239  398.376
 240  420.7906
 241  229.183
 242  293.8295
 243  274.4986
 244  291.9199
 245  454.7408
 246  357.4733
 247  427.4091
 248  466.2971
 249  412.0665
 250  346.2009
 251  427.2738
 252  482.1646
 253  245.4581
 254  231.4953
 255  250.7615
 256  339.1351
 257  364.8857
 258  284.6718
 259  282.8656
 260  321.145
 261  334.6934
 262  376.3057
 263  277.809
 264  240.1335
 265  262.1132
 266  232.5971
 267  325.8036
 268  374.1379
 269  322.5994
 270  249.2977
 271  158.5789
 272  205.8838
 273  366.89
 274  385.6913
 275  361.6346
 276  313.0188
 277  319.159
 278  351.4753
 279  315.0811
 280  370.0985
 281  510.9165
 282  428.1005
 283  346.4041
 284  423.0681
 285  302.5502
 286  350.6414
 287  359.7947
 288  337.6537
 289  386.7108
 290  423.1506
 291  302.0534
 292  290.02
 293  314.1373
 294  336.9424
 295  335.6028
 296  357.0336
 297  369.0023
 298  304.9428
 299  396.1503
 300  349.0089
 301  414.8358
 302  393.8393
 303  510.2981
 304  489.6977
 305  456.9179
 306  435.2327
 307  389.0472
 308  370.8407
 309  284.9552
 310  310.3861
 311  304.3032
 312  353.2312
 313  454.4566
 314  325.1763
 315  282.9725
 316  289.6593
 317  335.2545
 318  375.6789
 319  286.031
 320  333.4857
 321  354.1412
 322  397.3042
 323  328.9611
 324  207.3259
 325  278.1436
 326  317.7866
 327  220.9396
 328  144.9184
 329  222.8127
 330  229.8263
 331  256.6586
 332  369.7025
 333  240.3076
 334  139.6633
 335  303.2476
 336  305.0265
 337  283.9759
 338  331.0056
 339  378.1135
 340  347.1902
 341  303.8168
 342  269.684
 343  356.4828
 344  427.061
 345  348.7417
 346  324.2544
 347  218.1479
 348  226.1647
 349  298.1372
 350  369.4357
 351  431.0126
 352  358.8114
 353  270.7152
 354  206.544
 355  209.49
 356  237.173
 357  178.6172
 358  247.8574
 359  399.5981
 360  275.9702
 361  331.3657
 362  276.0892
 363  262.0894
 364  442.3717
 365  371.5954
 366  292.2901
 367  288.3263
 368  238.6521
 369  222.9115
 370  262.0365
 371  378.9437
 372  450.6493
 373  400.1655
 374  443.1708
 375  435.9165
 376  288.932
 377  265.0406
 378  367.6662
 379  315.7863
 380  390.9473
 381  358.2872
 382  360.8261
 383  343.3524
 384  346.4263
 385  380.8745
 386  456.0759
 387  475.785
 388  499.1778
 389  321.6617
 390  284.084
 391  327.3363
 392  297.3405
 393  382.8427
 394  476.3509
 395  425.5314
 396  354.1936
 397  381.2909
 398  204.5862
 399  246.0809
 400  213.0299
 401  240.8186
 402  333.9883
 403  389.0269
 404  274.6479
 405  338.7163
 406  294.1147
 407  242.7729
 408  380.5644
 409  326.8098
 410  346.9083
 411  250.7741
 412  343.5487
 413  305.847
 414  291.8874
 415  354.4126
 416  369.1836
 417  343.181
 418  405.3656
 419  415.1988
 420  363.0337
 421  404.9188
 422  401.129
 423  369.3221
 424  393.0245
 425  289.4865
 426  297.6002
 427  405.3736
 428  425.7249
 429  390.2161
 430  340.4963
 431  287.4906
 432  380.4784
 433  419.5906
 434  374.6069
 435  467.735
 436  469.213
 437  440.6342
 438  407.3141
 439  386.9506
 440  394.1633
 441  429.3619
 442  382.3965
 443  404.855
 444  281.962
 445  289.6709
 446  343.9243
 447  410.5775
 448  360.6359
 449  241.4889
 450  281.1085
 451  275.4898
 452  248.7795
 453  316.8648
 454  437.2802
 455  446.5283
 456  320.3271
 457  307.6877
 458  360.7777
 459  378.1452
 460  317.3038
 461  462.9826
 462  393.539
 463  255.9248
 464  203.0039
 465  373.5559
 466  312.5474
 467  259.007
 468  227.9247
 469  326.8829
 470  318.213
 471  241.8088
 472  246.4156
 473  258.4176
 474  293.1963
 475  310.7714
 476  253.3677
 477  334.0255
 478  299.3986
 479  315.0429
 480  459.7554
 481  477.1868
 482  352.2224
 483  339.0336
 484  371.9709
 485  377.5909
 486  355.0232
 487  340.2391
 488  444.0919
 489  535.3474
 490  455.3001
 491  363.7341
 492  330.0912
 493  475.6572
 494  566.8643
 495  427.1085
 496  419.0699
 497  365.5815
 498  430.3078
 499  505.8654
 500  422.6392
 501  399.4728
 502  495.4748
 503  588.6302
 504  516.8788
 505  441.8427
 506  427.671
 507  451.0082
 508  449.0066
 509  643.7949
 510  743.1477
 511  846.2581
