# Input file       =  1181442298.112694_cleaned.dat
# Candidate        =  PSR_0332+5434
# Telescope        =  AR
# Epoch_topo       =  57918.100464267292
# Epoch_bary       =  N/A
# T_sample         =  0.002
# Data Folded      =  7208960
# Data Avg         =  0.0188944210160131
# Data StdDev      =  1.00003047693261 
# Profile Bins     =  512
# Profile Avg      =  266.015867784494 
# Profile StdDev   =  118.662792161234 
# Reduced chi-sqr  =  0.992
# Prob(Noise)      <  0.541   (~0.0 sigma)
# P_topo (ms)      =  714.504068021121  +/- 0.000391
# P'_topo (s/s)    =  -0                +/- 2.1e-10
# P''_topo (s/s^2) =  0                 +/- 9.45e-14
# P_bary (ms)      =  N/A
# P'_bary (s/s)    =  N/A
# P''_bary (s/s^2) =  N/A
# P_orb (s)        =  N/A
# asin(i)/c (s)    =  N/A
# eccentricity     =  N/A
# w (rad)          =  N/A
# T_peri           =  N/A
######################################################
   0  249.9337
   1  306.8849
   2  306.96
   3  232.0673
   4  151.1315
   5  258.755
   6  229.3158
   7  282.5113
   8  249.1107
   9  265.8121
  10  331.0637
  11  326.4345
  12  266.2217
  13  202.9062
  14  268.6792
  15  172.8378
  16  103.5973
  17  286.5633
  18  142.9706
  19  152.4834
  20  167.1441
  21  285.3165
  22  244.6747
  23  179.9568
  24  297.043
  25  322.5718
  26  323.1217
  27  273.7484
  28  220.3513
  29  102.0702
  30  124.3026
  31  118.9772
  32  67.00074
  33  190.3548
  34  174.6812
  35  218.1272
  36  274.9855
  37  330.0746
  38  221.8072
  39  250.9228
  40  263.3504
  41  214.6135
  42  193.3598
  43  317.6815
  44  209.9835
  45  251.6334
  46  330.0791
  47  431.5258
  48  305.0253
  49  354.7719
  50  463.0945
  51  324.6469
  52  292.606
  53  192.5811
  54  249.464
  55  279.1338
  56  250.0887
  57  192.5674
  58  179.9912
  59  0.04671042
  60  95.77918
  61  255.409
  62  183.7739
  63  246.146
  64  181.5192
  65  232.474
  66  218.0371
  67  144.2443
  68  151.5913
  69  212.5422
  70  289.0495
  71  99.24815
  72  130.5854
  73  239.7853
  74  265.7496
  75  222.4211
  76  215.3787
  77  355.8275
  78  338.751
  79  224.1477
  80  138.7062
  81  181.8471
  82  112.3759
  83  223.1142
  84  246.823
  85  218.4203
  86  273.5577
  87  68.07547
  88  -24.51106
  89  75.86216
  90  294.591
  91  311.9078
  92  342.4824
  93  347.1678
  94  326.0074
  95  291.484
  96  190.0469
  97  244.1861
  98  126.8949
  99  217.4261
 100  269.6931
 101  144.1077
 102  244.9579
 103  293.0905
 104  235.6833
 105  216.1617
 106  121.5812
 107  272.3987
 108  207.8871
 109  235.1635
 110  264.8649
 111  321.3649
 112  352.9192
 113  238.7671
 114  249.9047
 115  319.4971
 116  309.7299
 117  299.9697
 118  311.19
 119  247.5794
 120  276.272
 121  328.6074
 122  244.5226
 123  219.2352
 124  258.4589
 125  379.4575
 126  288.8154
 127  349.2994
 128  339.8343
 129  269.4886
 130  375.3169
 131  332.1927
 132  284.021
 133  236.802
 134  346.1681
 135  217.1248
 136  216.7979
 137  374.4375
 138  281.5568
 139  207.2308
 140  357.5425
 141  450.0116
 142  323.986
 143  231.1976
 144  201.9784
 145  315.2709
 146  271.4138
 147  196.8026
 148  212.3817
 149  312.8258
 150  244.0756
 151  265.7971
 152  377.019
 153  251.5196
 154  173.4727
 155  238.7723
 156  295.6229
 157  273.9897
 158  350.5033
 159  269.6961
 160  275.4651
 161  240.0358
 162  250.5188
 163  269.1883
 164  303.1442
 165  282.5434
 166  266.3103
 167  241.4092
 168  134.5347
 169  177.5398
 170  135.8073
 171  206.7224
 172  311.0181
 173  236.2061
 174  282.2106
 175  297.6551
 176  217.496
 177  251.6358
 178  302.8152
 179  421.4757
 180  319.1404
 181  207.966
 182  231.1441
 183  226.8117
 184  283.5465
 185  354.3705
 186  306.3183
 187  340.1461
 188  293.8946
 189  306.7272
 190  370.0748
 191  237.838
 192  279.5049
 193  404.1765
 194  271.9091
 195  170.2158
 196  230.6903
 197  315.602
 198  233.5523
 199  258.1954
 200  367.5346
 201  474.4528
 202  467.6683
 203  431.861
 204  638.5168
 205  719.02
 206  726.8585
 207  729.6951
 208  661.3491
 209  564.6025
 210  430.2258
 211  255.1645
 212  262.3784
 213  312.6586
 214  211.4396
 215  227.6342
 216  286.2558
 217  349.5563
 218  304.7807
 219  292.077
 220  334.529
 221  205.0442
 222  243.6649
 223  298.0312
 224  314.9246
 225  301.9897
 226  267.2774
 227  297.4096
 228  252.895
 229  109.353
 230  202.6398
 231  337.9685
 232  298.1577
 233  269.4994
 234  250.9444
 235  274.1024
 236  316.1766
 237  205.1384
 238  215.6064
 239  205.6226
 240  180.9026
 241  206.9175
 242  184.0539
 243  276.4113
 244  290.7422
 245  343.3891
 246  341.2051
 247  243.1559
 248  66.41193
 249  188.1111
 250  235.6563
 251  205.9653
 252  236.8139
 253  294.7224
 254  329.3648
 255  326.405
 256  223.2509
 257  309.8705
 258  281.0867
 259  290.2402
 260  280.9426
 261  238.6379
 262  247.9231
 263  368.7303
 264  354.7575
 265  262.4973
 266  393.4317
 267  430.5687
 268  319.1154
 269  232.733
 270  234.6766
 271  372.0439
 272  259.8146
 273  205.7536
 274  247.8781
 275  313.604
 276  393.868
 277  323.626
 278  274.4695
 279  332.9605
 280  394.0621
 281  283.7016
 282  309.6019
 283  247.7546
 284  264.9245
 285  316.3014
 286  203.8081
 287  262.0779
 288  306.5439
 289  386.1104
 290  319.3795
 291  304.0296
 292  344.8997
 293  316.4688
 294  289.7328
 295  222.6796
 296  212.9466
 297  312.9647
 298  305.3718
 299  306.6013
 300  265.516
 301  183.6382
 302  204.1979
 303  261.5036
 304  251.7774
 305  380.9012
 306  245.3174
 307  236.4583
 308  198.0217
 309  177.3242
 310  270.8197
 311  266.2874
 312  159.8366
 313  195.7617
 314  254.5508
 315  211.5723
 316  198.1651
 317  154.5573
 318  138.7551
 319  153.1234
 320  160.4902
 321  267.2597
 322  193.7219
 323  228.7483
 324  320.446
 325  352.8793
 326  230.9902
 327  314.8733
 328  311.273
 329  344.15
 330  288.6175
 331  327.322
 332  296.6358
 333  299.4582
 334  338.1981
 335  296.4333
 336  206.9675
 337  270.1013
 338  314.4532
 339  258.4284
 340  290.746
 341  193.8544
 342  225.7127
 343  135.045
 344  274.028
 345  258.1972
 346  379.191
 347  325.5542
 348  290.8948
 349  264.2523
 350  225.0594
 351  147.8364
 352  178.6833
 353  262.3717
 354  364.3171
 355  307.2728
 356  241.3861
 357  113.4638
 358  198.3472
 359  238.658
 360  326.5895
 361  220.5065
 362  146.6214
 363  192.7019
 364  188.1824
 365  282.5706
 366  258.1357
 367  296.3254
 368  303.8717
 369  227.4701
 370  133.5621
 371  223.8982
 372  242.3875
 373  141.4109
 374  112.5381
 375  204.1895
 376  218.3182
 377  190.4979
 378  347.6623
 379  304.8052
 380  290.0103
 381  237.9471
 382  266.9958
 383  237.5357
 384  247.3048
 385  275.2047
 386  244.7275
 387  225.3791
 388  211.8771
 389  280.2794
 390  361.2521
 391  369.5058
 392  347.8299
 393  296.7339
 394  167.5871
 395  179.3127
 396  213.9588
 397  195.1507
 398  142.6086
 399  207.3465
 400  253.2101
 401  205.3547
 402  321.8864
 403  290.0472
 404  224.3216
 405  262.4521
 406  245.8405
 407  231.6669
 408  138.6501
 409  169.7941
 410  366.4756
 411  332.802
 412  335.4613
 413  324.8272
 414  250.6501
 415  330.0078
 416  296.1003
 417  259.1668
 418  314.4681
 419  344.1093
 420  296.2003
 421  253.9934
 422  248.9548
 423  296.4987
 424  308.6846
 425  363.6654
 426  234.8658
 427  307.2254
 428  326.4803
 429  337.7239
 430  194.2112
 431  258.1017
 432  370.7289
 433  371.3125
 434  305.2878
 435  326.2764
 436  245.8846
 437  344.196
 438  382.8187
 439  294.6555
 440  245.6443
 441  376.8517
 442  345.6764
 443  33.59898
 444  293.2627
 445  326.7404
 446  333.8275
 447  102.8202
 448  260.7567
 449  333.7543
 450  280.5167
 451  445.4677
 452  380.0763
 453  357.0177
 454  273.2888
 455  294.785
 456  276.1123
 457  358.027
 458  340.0392
 459  265.2049
 460  161.6425
 461  170.5934
 462  357.6024
 463  293.7706
 464  321.5948
 465  229.247
 466  201.6497
 467  247.9592
 468  229.6462
 469  288.6163
 470  208.6304
 471  141.8553
 472  77.81541
 473  140.6517
 474  191.742
 475  235.4302
 476  368.2135
 477  289.5123
 478  218.4075
 479  267.5385
 480  237.8323
 481  256.1137
 482  212.5622
 483  263.5935
 484  280.7958
 485  296.4954
 486  263.7937
 487  264.2826
 488  263.6874
 489  263.4738
 490  347.7322
 491  381.013
 492  249.977
 493  169.2193
 494  208.8347
 495  327.212
 496  265.049
 497  350.7603
 498  321.1354
 499  263.7639
 500  150.6083
 501  284.2901
 502  174.8024
 503  75.22617
 504  225.0243
 505  225.1438
 506  276.5109
 507  309.0684
 508  323.5785
 509  260.5827
 510  220.5008
 511  264.014
