# Input file       =  1181356138.126529_cleaned.dat
# Candidate        =  PSR_0332+5434
# Telescope        =  AR
# Epoch_topo       =  57917.103242205194
# Epoch_bary       =  N/A
# T_sample         =  0.002
# Data Folded      =  7208960
# Data Avg         =  0.029673922532865
# Data StdDev      =  1.00001671372656 
# Profile Bins     =  512
# Profile Avg      =  417.790695626259 
# Profile StdDev   =  118.661159030548 
# Reduced chi-sqr  =  0.888
# Prob(Noise)      <  0.968   (~0.0 sigma)
# P_topo (ms)      =  714.504995616867  +/- 0.000262
# P'_topo (s/s)    =  -0                +/- 1.41e-10
# P''_topo (s/s^2) =  0                 +/- 6.33e-14
# P_bary (ms)      =  N/A
# P'_bary (s/s)    =  N/A
# P''_bary (s/s^2) =  N/A
# P_orb (s)        =  N/A
# asin(i)/c (s)    =  N/A
# eccentricity     =  N/A
# w (rad)          =  N/A
# T_peri           =  N/A
######################################################
   0  854.4945
   1  798.1906
   2  728.2336
   3  522.6113
   4  465.8003
   5  541.4846
   6  477.032
   7  494.6992
   8  527.6811
   9  454.292
  10  424.5466
  11  448.9468
  12  322.2586
  13  356.1736
  14  439.7511
  15  502.4416
  16  510.8043
  17  494.7762
  18  417.432
  19  470.5783
  20  361.8507
  21  342.7381
  22  314.7174
  23  356.5718
  24  370.6259
  25  457.0016
  26  492.6458
  27  365.398
  28  282.4643
  29  282.3943
  30  335.9671
  31  429.5894
  32  511.1057
  33  406.3983
  34  392.782
  35  376.9382
  36  352.4914
  37  420.0388
  38  478.8862
  39  418.7576
  40  413.5327
  41  331.8587
  42  360.6536
  43  468.5609
  44  399.3671
  45  396.0895
  46  386.5089
  47  378.595
  48  350.5534
  49  302.2238
  50  467.1521
  51  432.299
  52  479.8341
  53  503.3773
  54  366.3516
  55  323.0268
  56  362.6953
  57  410.8414
  58  491.788
  59  510.0677
  60  486.9075
  61  441.5457
  62  459.1647
  63  414.5043
  64  409.9521
  65  348.1103
  66  328.3532
  67  343.3122
  68  464.4
  69  571.327
  70  516.1079
  71  422.1406
  72  432.8394
  73  338.0728
  74  391.4191
  75  388.7329
  76  374.5793
  77  309.4963
  78  424.8164
  79  388.4157
  80  488.5005
  81  341.675
  82  435.7016
  83  577.3012
  84  494.9073
  85  574.4145
  86  513.3748
  87  457.5264
  88  403.0748
  89  408.2569
  90  440.2213
  91  374.8712
  92  362.0934
  93  390.1651
  94  474.1725
  95  474.3088
  96  465.6584
  97  469.3908
  98  381.9259
  99  409.7921
 100  448.4956
 101  395.961
 102  312.6218
 103  382.5753
 104  558.9689
 105  468.4633
 106  441.4958
 107  351.5609
 108  369.3273
 109  397.8218
 110  403.4175
 111  400.1695
 112  450.0365
 113  387.5708
 114  351.38
 115  341.4895
 116  330.381
 117  417.752
 118  509.5159
 119  505.8085
 120  541.9415
 121  403.0194
 122  390.0658
 123  334.9971
 124  359.5197
 125  381.2508
 126  435.55
 127  509.0033
 128  488.1783
 129  450.5781
 130  538.662
 131  448.5636
 132  515.032
 133  526.5425
 134  508.8562
 135  453.5544
 136  481.3691
 137  440.4052
 138  465.0052
 139  404.8928
 140  272.9593
 141  373.494
 142  362.7873
 143  402.709
 144  370.5399
 145  464.7704
 146  412.6127
 147  414.9151
 148  509.5408
 149  481.351
 150  381.143
 151  436.01
 152  526.9171
 153  457.3014
 154  427.5395
 155  474.7527
 156  395.0371
 157  415.4257
 158  500.4387
 159  416.9363
 160  270.1194
 161  327.1448
 162  359.1181
 163  412.8766
 164  264.6277
 165  354.3597
 166  477.0067
 167  370.2994
 168  290.8385
 169  392.5497
 170  323.2304
 171  344.7932
 172  292.1727
 173  289.9996
 174  285.1179
 175  384.8979
 176  428.2948
 177  420.6162
 178  437.4992
 179  310.0781
 180  313.5508
 181  447.0487
 182  503.0338
 183  483.3837
 184  450.3894
 185  472.4058
 186  350.1627
 187  330.8413
 188  388.9308
 189  415.4299
 190  341.8211
 191  370.9738
 192  343.4379
 193  413.044
 194  299.8718
 195  373.2841
 196  393.136
 197  431.352
 198  348.2724
 199  282.2146
 200  347.2399
 201  367.1904
 202  366.4139
 203  432.4743
 204  481.4564
 205  437.5927
 206  447.5258
 207  452.0507
 208  434.8167
 209  300.8107
 210  313.443
 211  299.7408
 212  341.1142
 213  375.7819
 214  382.516
 215  394.0036
 216  380.4874
 217  345.3391
 218  399.8754
 219  423.7979
 220  437.5573
 221  338.7788
 222  353.1147
 223  325.9088
 224  411.6365
 225  399.1259
 226  346.6847
 227  450.3596
 228  395.0587
 229  400.4986
 230  409.0845
 231  333.416
 232  339.7566
 233  299.1493
 234  397.5467
 235  510.562
 236  533.7677
 237  484.4739
 238  366.4339
 239  272.3633
 240  330.9885
 241  322.3836
 242  453.7198
 243  373.1474
 244  281.5641
 245  292.9215
 246  312.1155
 247  310.567
 248  313.2282
 249  387.1868
 250  329.2036
 251  359.4003
 252  430.6484
 253  373.1946
 254  441.5256
 255  388.3418
 256  532.7658
 257  645.985
 258  485.9836
 259  391.0453
 260  363.45
 261  385.5123
 262  391.4985
 263  364.2431
 264  339.8953
 265  475.1391
 266  456.3979
 267  438.6155
 268  360.14
 269  457.1198
 270  490.566
 271  418.1796
 272  416.2669
 273  480.2983
 274  404.0519
 275  423.8994
 276  425.2826
 277  495.0583
 278  467.494
 279  387.0588
 280  343.9379
 281  398.0133
 282  375.9087
 283  312.5167
 284  334.6071
 285  449.5195
 286  531.7433
 287  496.6879
 288  444.4194
 289  298.6002
 290  427.6983
 291  483.7469
 292  526.7756
 293  458.2369
 294  405.5119
 295  364.8383
 296  277.8387
 297  430.027
 298  496.045
 299  345.453
 300  358.4427
 301  496.5257
 302  459.9279
 303  434.2021
 304  463.1652
 305  429.1174
 306  455.8233
 307  409.13
 308  310.9011
 309  283.087
 310  338.8912
 311  329.8973
 312  361.8748
 313  371.114
 314  326.6768
 315  199.2045
 316  278.2781
 317  371.2096
 318  365.0766
 319  327.1474
 320  385.2912
 321  314.5143
 322  362.0099
 323  308.3238
 324  217.8573
 325  390.5089
 326  283.7801
 327  321.6856
 328  386.4597
 329  396.1325
 330  376.4006
 331  339.6124
 332  376.5402
 333  501.4732
 334  365.1357
 335  377.0276
 336  482.9602
 337  364.3327
 338  438.7527
 339  388.0238
 340  349.7252
 341  477.929
 342  521.9607
 343  444.0826
 344  495.2517
 345  457.3265
 346  402.4091
 347  454.2472
 348  424.0539
 349  336.5862
 350  429.0879
 351  412.1259
 352  476.0653
 353  396.0975
 354  394.4992
 355  356.6695
 356  354.0572
 357  486.95
 358  493.1565
 359  441.7731
 360  507.9231
 361  342.0723
 362  355.2308
 363  469.9737
 364  423.7606
 365  452.6873
 366  439.0783
 367  489.3047
 368  470.3357
 369  430.7781
 370  510.4915
 371  387.805
 372  474.1853
 373  512.3162
 374  439.1285
 375  400.1653
 376  353.6786
 377  404.177
 378  439.8509
 379  278.0267
 380  257.5653
 381  359.1946
 382  439.8154
 383  390.0059
 384  440.1265
 385  426.1593
 386  352.2721
 387  351.4855
 388  426.9438
 389  419.5419
 390  519.972
 391  494.7134
 392  450.1932
 393  411.2865
 394  294.9288
 395  291.0087
 396  348.5624
 397  442.1754
 398  428.437
 399  417.4984
 400  442.5512
 401  523.8053
 402  485.2372
 403  538.7711
 404  400.6744
 405  454.8215
 406  601.3868
 407  532.6302
 408  565.7127
 409  585.3477
 410  508.9443
 411  392.6814
 412  444.3252
 413  488.2048
 414  498.3086
 415  484.1897
 416  506.8458
 417  455.5035
 418  358.8063
 419  376.4889
 420  453.4594
 421  480.4987
 422  573.1849
 423  504.741
 424  460.2126
 425  519.4507
 426  422.4333
 427  516.661
 428  389.2249
 429  369.6678
 430  361.9299
 431  411.3539
 432  386.6062
 433  359.9034
 434  398.834
 435  566.1689
 436  486.9468
 437  467.952
 438  415.2661
 439  314.0609
 440  434.371
 441  498.0485
 442  564.7815
 443  561.391
 444  503.2586
 445  479.301
 446  392.6054
 447  382.7539
 448  436.0984
 449  474.0765
 450  420.2215
 451  410.3681
 452  386.288
 453  367.8236
 454  464.577
 455  452.782
 456  444.6396
 457  364.7457
 458  408.2567
 459  497.9594
 460  522.0311
 461  347.399
 462  380.1674
 463  436.7134
 464  519.8729
 465  476.028
 466  480.7945
 467  357.8477
 468  388.5247
 469  438.292
 470  401.7863
 471  330.767
 472  416.2742
 473  411.828
 474  351.3642
 475  446.8293
 476  416.4059
 477  295.5089
 478  437.1475
 479  425.859
 480  317.0723
 481  355.0055
 482  536.4078
 483  545.8687
 484  518.835
 485  448.1616
 486  319.4012
 487  344.092
 488  336.2703
 489  387.2518
 490  361.0697
 491  378.0247
 492  394.1052
 493  519.1462
 494  424.6487
 495  413.8094
 496  545.0976
 497  621.6126
 498  570.5817
 499  438.8388
 500  335.9486
 501  337.3287
 502  389.4382
 503  285.3726
 504  345.7277
 505  391.7068
 506  384.2865
 507  429.8256
 508  512.1669
 509  672.5634
 510  801.8506
 511  781.4522
