# Input file       =  1181629295.118561_cleaned.dat
# Candidate        =  PSR_0332+5434
# Telescope        =  AR
# Epoch_topo       =  57920.264781464830
# Epoch_bary       =  N/A
# T_sample         =  0.002
# Data Folded      =  7340032
# Data Avg         =  0.0357574589043251
# Data StdDev      =  0.999926325815209
# Profile Bins     =  512
# Profile Avg      =  513.03116205295  
# Profile StdDev   =  119.724215142918 
# Reduced chi-sqr  =  1.127
# Prob(Noise)      <  0.0246   (~2.0 sigma)
# P_topo (ms)      =  714.502076363638  +/- 0.000252
# P'_topo (s/s)    =  -0                +/- 1.33e-10
# P''_topo (s/s^2) =  0                 +/- 5.88e-14
# P_bary (ms)      =  N/A
# P'_bary (s/s)    =  N/A
# P''_bary (s/s^2) =  N/A
# P_orb (s)        =  N/A
# asin(i)/c (s)    =  N/A
# eccentricity     =  N/A
# w (rad)          =  N/A
# T_peri           =  N/A
######################################################
   0  530.0526
   1  354.3183
   2  265.0149
   3  443.5201
   4  520.3993
   5  449.5121
   6  387.7561
   7  404.0202
   8  368.1787
   9  396.8354
  10  526.4213
  11  508.347
  12  395.0269
  13  334.7165
  14  339.2388
  15  363.1543
  16  442.592
  17  457.6511
  18  444.8763
  19  420.7925
  20  317.9305
  21  418.5652
  22  476.9319
  23  270.8455
  24  354.7614
  25  513.2411
  26  585.0336
  27  491.8893
  28  457.3912
  29  508.135
  30  404.2068
  31  437.0504
  32  366.0168
  33  538.7274
  34  445.2973
  35  470.3007
  36  500.2638
  37  543.3806
  38  536.2435
  39  501.5318
  40  507.6456
  41  496.9556
  42  435.0979
  43  381.3975
  44  466.8391
  45  394.2075
  46  310.3143
  47  345.5507
  48  433.1442
  49  394.1469
  50  421.9036
  51  409.0487
  52  420.9784
  53  444.4752
  54  336.0651
  55  369.2058
  56  426.4134
  57  587.8856
  58  562.6208
  59  474.9999
  60  492.3468
  61  499.6334
  62  506.0531
  63  455.5745
  64  467.4435
  65  458.092
  66  531.437
  67  462.6967
  68  410.6069
  69  536.1827
  70  609.5336
  71  542.9409
  72  567.7939
  73  534.2726
  74  571.3126
  75  644.3954
  76  667.4138
  77  525.7935
  78  430.7493
  79  511.9261
  80  544.8859
  81  601.4019
  82  632.5493
  83  534.0554
  84  517.1895
  85  499.9615
  86  484.0999
  87  453.8636
  88  462.2785
  89  589.5079
  90  472.7372
  91  474.2278
  92  498.9456
  93  632.9351
  94  590.2673
  95  540.9357
  96  494.6963
  97  536.6872
  98  400.6671
  99  473.4491
 100  527.6471
 101  467.4942
 102  546.1346
 103  541.843
 104  581.6962
 105  543.1484
 106  478.9011
 107  605.1792
 108  595.1727
 109  651.5045
 110  607.5732
 111  612.08
 112  558.291
 113  575.8228
 114  530.6232
 115  603.8701
 116  519.2316
 117  620.4252
 118  619.3888
 119  594.2481
 120  521.0804
 121  455.9374
 122  456.5021
 123  548.7135
 124  509.9362
 125  482.9524
 126  487.692
 127  602.1979
 128  598.653
 129  527.4109
 130  621.2699
 131  515.7863
 132  488.977
 133  542.2556
 134  533.3843
 135  642.6677
 136  557.3716
 137  558.5245
 138  637.607
 139  587.6477
 140  621.1525
 141  668.1146
 142  530.1135
 143  488.2324
 144  471.6078
 145  513.5841
 146  498.1862
 147  419.8731
 148  364.9467
 149  496.9677
 150  600.6776
 151  607.8828
 152  583.8157
 153  590.977
 154  578.9776
 155  614.9249
 156  585.8678
 157  557.6945
 158  686.6019
 159  552.4059
 160  471.9544
 161  466.7785
 162  472.9614
 163  370.2235
 164  441.9858
 165  459.6229
 166  376.223
 167  550.9102
 168  473.3983
 169  406.6711
 170  441.0273
 171  658.348
 172  982.4726
 173  1051.581
 174  967.4188
 175  829.4091
 176  664.8181
 177  526.0337
 178  499.9832
 179  558.7785
 180  525.6504
 181  511.3019
 182  526.7254
 183  529.1937
 184  489.7281
 185  452.2183
 186  468.5636
 187  496.7752
 188  555.3666
 189  603.771
 190  529.7402
 191  673.7148
 192  560.0996
 193  511.417
 194  574.7578
 195  708.4667
 196  643.3788
 197  579.2087
 198  486.5559
 199  603.9891
 200  449.8423
 201  515.3903
 202  501.244
 203  494.6364
 204  596.2361
 205  580.7155
 206  626.8381
 207  538.2856
 208  551.3065
 209  614.5738
 210  561.6074
 211  493.6231
 212  593.6617
 213  503.3618
 214  380.643
 215  465.5309
 216  461.7587
 217  496.873
 218  501.7128
 219  513.8044
 220  526.7549
 221  509.8356
 222  413.6901
 223  442.6816
 224  617.6207
 225  619.8525
 226  554.9549
 227  408.2276
 228  486.9984
 229  476.4024
 230  443.752
 231  450.2061
 232  319.5468
 233  377.4535
 234  517.3658
 235  473.0074
 236  458.9696
 237  506.8638
 238  467.9878
 239  512.2782
 240  468.1744
 241  496.0396
 242  543.3868
 243  586.9597
 244  474.2085
 245  458.2486
 246  581.0933
 247  635.0912
 248  571.8554
 249  517.1618
 250  534.3445
 251  509.2688
 252  505.8813
 253  566.3474
 254  549.8264
 255  442.7694
 256  526.0507
 257  527.4451
 258  388.1057
 259  336.3926
 260  481.5961
 261  612.8183
 262  603.655
 263  569.702
 264  485.2683
 265  466.3874
 266  508.6706
 267  539.6913
 268  461.8375
 269  525.3768
 270  682.3346
 271  430.4521
 272  419.2816
 273  604.0208
 274  595.9499
 275  411.8606
 276  331.9765
 277  446.6869
 278  563.0737
 279  607.067
 280  577.8076
 281  533.6041
 282  451.4514
 283  547.0059
 284  635.9324
 285  619.1707
 286  610.0888
 287  541.6945
 288  553.4641
 289  504.2993
 290  535.5729
 291  623.2493
 292  653.2263
 293  552.2622
 294  577.6267
 295  602.3835
 296  657.838
 297  590.6166
 298  549.2744
 299  437.2045
 300  417.578
 301  476.905
 302  504.7412
 303  465.7595
 304  506.4257
 305  530.4772
 306  582.1163
 307  517.0345
 308  513.2996
 309  406.1033
 310  337.0864
 311  396.1062
 312  382.2997
 313  411.0166
 314  320.0139
 315  456.423
 316  463.4398
 317  473.2972
 318  547.0765
 319  593.5262
 320  457.4073
 321  528.6965
 322  562.9412
 323  533.3153
 324  484.764
 325  472.316
 326  423.9437
 327  566.2406
 328  689.7096
 329  572.9708
 330  555.9058
 331  610.9833
 332  582.2769
 333  661.6929
 334  611.2621
 335  503.472
 336  407.001
 337  483.2733
 338  461.0453
 339  338.463
 340  382.7017
 341  430.3983
 342  395.3581
 343  425.1384
 344  559.1729
 345  421.2096
 346  420.7662
 347  487.0859
 348  560.0714
 349  496.2538
 350  469.589
 351  520.5793
 352  466.4436
 353  361.0642
 354  397.3506
 355  381.0105
 356  552.8788
 357  573.7275
 358  504.7684
 359  479.7
 360  538.8237
 361  436.9371
 362  493.0648
 363  615.3915
 364  535.153
 365  438.0188
 366  578.2213
 367  613.0373
 368  649.5738
 369  648.503
 370  558.0745
 371  711.0598
 372  599.7032
 373  551.4626
 374  600.7708
 375  690.3279
 376  659.468
 377  587.4007
 378  525.5226
 379  615.9084
 380  445.6224
 381  487.4846
 382  599.6338
 383  522.024
 384  493.68
 385  514.5511
 386  488.0115
 387  460.8128
 388  473.3427
 389  559.383
 390  446.242
 391  457.1028
 392  496.0366
 393  517.6043
 394  580.3993
 395  493.4019
 396  478.6753
 397  464.3798
 398  474.916
 399  509.5084
 400  499.5784
 401  372.7858
 402  301.8553
 403  392.7245
 404  405.492
 405  498.4893
 406  481.9071
 407  396.265
 408  350.0873
 409  358.0157
 410  468.5143
 411  575.0892
 412  594.9678
 413  571.8159
 414  620.0697
 415  619.9277
 416  662.6158
 417  673.1144
 418  639.0208
 419  546.7939
 420  562.8893
 421  483.4259
 422  515.2619
 423  570.0081
 424  593.1963
 425  561.971
 426  558.6728
 427  512.423
 428  568.9402
 429  487.2596
 430  514.7806
 431  454.2636
 432  488.998
 433  456.3928
 434  562.9584
 435  475.3395
 436  405.6817
 437  496.0771
 438  476.3587
 439  407.3465
 440  508.5313
 441  590.7382
 442  568.0707
 443  511.9579
 444  580.8318
 445  486.2012
 446  449.2377
 447  497.5218
 448  558.2933
 449  445.5357
 450  551.4957
 451  520.4327
 452  443.656
 453  467.9647
 454  648.5906
 455  534.3885
 456  526.243
 457  542.3304
 458  616.2684
 459  596.1163
 460  507.8416
 461  340.8051
 462  415.4534
 463  447.4724
 464  494.7502
 465  521.9694
 466  513.936
 467  492.6788
 468  480.9598
 469  445.5954
 470  495.4023
 471  555.7971
 472  495.1385
 473  493.1964
 474  491.9917
 475  478.3118
 476  329.4664
 477  264.8374
 478  333.6068
 479  295.7312
 480  342.5282
 481  463.2063
 482  572.1516
 483  498.1302
 484  461.5673
 485  546.053
 486  620.7202
 487  603.8682
 488  645.9611
 489  628.9575
 490  659.6684
 491  524.3438
 492  531.6989
 493  492.4295
 494  518.7327
 495  537.791
 496  630.1539
 497  530.9974
 498  511.7717
 499  601.4156
 500  754.4786
 501  711.1266
 502  559.959
 503  510.0303
 504  530.3158
 505  485.958
 506  603.6481
 507  510.0411
 508  421.186
 509  435.3204
 510  398.2173
 511  498.3957
