# Input file       =  1181270019.127795_cleaned.dat
# Candidate        =  PSR_0332+5434
# Telescope        =  AR
# Epoch_topo       =  57916.106494534666
# Epoch_bary       =  N/A
# T_sample         =  0.002
# Data Folded      =  7143424
# Data Avg         =  0.0267051252506387
# Data StdDev      =  1.00006985168448 
# Profile Bins     =  512
# Profile Avg      =  372.628265017416 
# Profile StdDev   =  118.126835263961 
# Reduced chi-sqr  =  0.990
# Prob(Noise)      <  0.558   (~0.0 sigma)
# P_topo (ms)      =  714.50592758059   +/- 0.000154
# P'_topo (s/s)    =  -0                +/- 8.33e-11
# P''_topo (s/s^2) =  0                 +/- 3.78e-14
# P_bary (ms)      =  N/A
# P'_bary (s/s)    =  N/A
# P''_bary (s/s^2) =  N/A
# P_orb (s)        =  N/A
# asin(i)/c (s)    =  N/A
# eccentricity     =  N/A
# w (rad)          =  N/A
# T_peri           =  N/A
######################################################
   0  860.493
   1  971.0186
   2  841.9255
   3  621.395
   4  478.9581
   5  385.4631
   6  389.2542
   7  335.4896
   8  278.5269
   9  381.2751
  10  439.066
  11  380.8142
  12  270.1276
  13  348.575
  14  542.6458
  15  435.5393
  16  367.9473
  17  467.6723
  18  351.0715
  19  372.0641
  20  297.1432
  21  392.6611
  22  414.1999
  23  303.6403
  24  269.6094
  25  285.4365
  26  335.6825
  27  420.4198
  28  429.5048
  29  394.564
  30  474.4939
  31  342.5439
  32  310.3575
  33  251.9413
  34  400.6868
  35  449.7163
  36  439.1674
  37  333.7408
  38  395.9081
  39  416.7392
  40  375.3424
  41  382.4159
  42  418.8185
  43  390.3764
  44  421.088
  45  402.6349
  46  465.7794
  47  363.9095
  48  422.5241
  49  429.252
  50  408.4827
  51  354.6228
  52  377.2881
  53  393.3442
  54  508.0563
  55  409.4922
  56  437.3474
  57  387.0241
  58  376.5476
  59  517.562
  60  382.3846
  61  259.7009
  62  252.5346
  63  344.2893
  64  274.8185
  65  313.4742
  66  348.0675
  67  309.7892
  68  360.3218
  69  408.9183
  70  421.5442
  71  372.0061
  72  394.0681
  73  326.2426
  74  339.4803
  75  415.2371
  76  357.139
  77  323.3102
  78  442.0762
  79  402.6046
  80  384.8158
  81  315.3219
  82  359.7347
  83  328.8924
  84  275.0961
  85  316.7614
  86  277.0279
  87  391.9216
  88  386.8377
  89  315.445
  90  452.8379
  91  306.0114
  92  365.4427
  93  433.4406
  94  231.9823
  95  285.7611
  96  388.6615
  97  282.3532
  98  381.1798
  99  311.3965
 100  441.2642
 101  474.725
 102  374.7953
 103  382.888
 104  215.4498
 105  262.8859
 106  345.8636
 107  346.3817
 108  341.6426
 109  287.4118
 110  304.1034
 111  403.1437
 112  418.0848
 113  267.1228
 114  323.6461
 115  316.1735
 116  458.1258
 117  490.1298
 118  434.1304
 119  369.5245
 120  370.2961
 121  488.4059
 122  438.1402
 123  356.8676
 124  430.4226
 125  410.5383
 126  431.8912
 127  487.11
 128  491.851
 129  373.3109
 130  359.5032
 131  336.9131
 132  317.6458
 133  265.6407
 134  389.7675
 135  448.2974
 136  342.7518
 137  387.5088
 138  346.0461
 139  284.5963
 140  344.1495
 141  427.6946
 142  402.8219
 143  368.136
 144  390.001
 145  262.1449
 146  413.3443
 147  435.086
 148  412.2675
 149  386.0194
 150  381.1951
 151  411.5709
 152  383.2552
 153  295.3173
 154  313.0927
 155  383.319
 156  347.2477
 157  352.881
 158  330.9645
 159  275.9232
 160  255.9834
 161  322.4067
 162  263.6117
 163  367.0867
 164  387.797
 165  316.3727
 166  304.9172
 167  172.0473
 168  195.3251
 169  316.6569
 170  315.5395
 171  289.8934
 172  386.1355
 173  391.5032
 174  340.1627
 175  188.0878
 176  353.7047
 177  382.1115
 178  307.6201
 179  297.6958
 180  309.0362
 181  354.7104
 182  391.1519
 183  372.0139
 184  259.0301
 185  278.4994
 186  397.6416
 187  419.0071
 188  296.3521
 189  324.3985
 190  314.17
 191  361.1313
 192  317.828
 193  323.1852
 194  429.0293
 195  431.8308
 196  482.4995
 197  393.9046
 198  261.5917
 199  327.4965
 200  392.0133
 201  376.2929
 202  313.9698
 203  322.8179
 204  339.5002
 205  274.0393
 206  281.104
 207  339.9894
 208  313.9586
 209  280.0198
 210  237.9969
 211  168.0402
 212  204.3755
 213  299.2879
 214  351.2816
 215  421.6779
 216  333.658
 217  309.0459
 218  266.26
 219  254.2108
 220  333.2582
 221  354.3184
 222  368.1858
 223  339.6248
 224  247.0107
 225  237.0769
 226  308.2232
 227  295.9908
 228  249.2688
 229  252.6062
 230  340.6563
 231  322.2485
 232  339.8385
 233  372.7598
 234  321.8677
 235  252.6172
 236  336.6401
 237  299.8712
 238  259.1394
 239  275.2212
 240  457.2929
 241  367.8826
 242  310.149
 243  383.7968
 244  345.982
 245  431.0635
 246  396.5219
 247  333.4666
 248  405.1925
 249  305.0703
 250  390.5206
 251  481.5847
 252  412.8383
 253  353.3668
 254  406.7777
 255  500.5392
 256  472.1816
 257  329.6517
 258  380.2148
 259  478.5967
 260  449.2377
 261  345.5774
 262  399.3271
 263  424.3177
 264  447.4549
 265  487.1302
 266  392.0711
 267  392.5822
 268  301.2751
 269  220.4981
 270  419.7979
 271  266.0923
 272  363.8152
 273  374.1149
 274  407.238
 275  405.3487
 276  413.7492
 277  382.3287
 278  312.1915
 279  379.898
 280  399.6706
 281  384.233
 282  362.1332
 283  375.6699
 284  300.6586
 285  389.8626
 286  435.4934
 287  370.1028
 288  343.4873
 289  335.6884
 290  324.2952
 291  393.4062
 292  487.8122
 293  388.3757
 294  466.0065
 295  521.1378
 296  556.7142
 297  569.4418
 298  435.7985
 299  463.5208
 300  520.7171
 301  474.4499
 302  441.177
 303  307.2026
 304  310.4799
 305  264.6386
 306  384.0171
 307  511.1147
 308  393.2921
 309  302.9473
 310  218.7909
 311  300.829
 312  363.2217
 313  398.6634
 314  409.1217
 315  532.3347
 316  408.7231
 317  333.0743
 318  413.7901
 319  347.1019
 320  306.7103
 321  460.9904
 322  416.0847
 323  283.7803
 324  289.3095
 325  283.1196
 326  411.5424
 327  559.6771
 328  511.5945
 329  355.9271
 330  216.0712
 331  291.9955
 332  328.8389
 333  387.1289
 334  455.9615
 335  417.8687
 336  467.2888
 337  424.3361
 338  301.8091
 339  274.7653
 340  378.326
 341  432.6554
 342  408.1339
 343  379.0058
 344  450.9824
 345  352.08
 346  365.0713
 347  383.4809
 348  441.0309
 349  527.2527
 350  294.7801
 351  299.8828
 352  313.9115
 353  298.6093
 354  297.2685
 355  303.4101
 356  379.7462
 357  413.846
 358  420.1248
 359  420.368
 360  411.2881
 361  446.5868
 362  432.2875
 363  380.8221
 364  423.2451
 365  389.1181
 366  226.827
 367  266.3027
 368  281.4304
 369  351.161
 370  294.8741
 371  276.9754
 372  265.3672
 373  326.6537
 374  525.4215
 375  512.9424
 376  308.3759
 377  293.4833
 378  357.7621
 379  416.5811
 380  319.7142
 381  367.0327
 382  363.98
 383  353.4941
 384  344.6682
 385  263.8068
 386  224.8141
 387  287.5639
 388  298.2896
 389  244.5268
 390  351.4004
 391  348.7781
 392  359.3182
 393  403.0403
 394  398.878
 395  353.8738
 396  335.6234
 397  317.6093
 398  391.7354
 399  371.1578
 400  334.0216
 401  440.0615
 402  423.7897
 403  343.4065
 404  386.3928
 405  333.3322
 406  297.0717
 407  256.3732
 408  425.5245
 409  434.4333
 410  332.9004
 411  338.1589
 412  540.2776
 413  546.8947
 414  421.5215
 415  328.5646
 416  373.3463
 417  411.2538
 418  418.7313
 419  359.8596
 420  432.4235
 421  407.4527
 422  454.3167
 423  357.3016
 424  413.9678
 425  307.6014
 426  264.1342
 427  434.2463
 428  317.3637
 429  358.6087
 430  441.3045
 431  345.8576
 432  313.9417
 433  367.9237
 434  330.9257
 435  465.1562
 436  385.6672
 437  389.9063
 438  275.5312
 439  271.8832
 440  427.702
 441  480.3586
 442  403.6663
 443  406.3126
 444  527.0096
 445  484.6325
 446  320.7542
 447  237.6628
 448  313.0602
 449  327.3084
 450  437.7505
 451  360.8702
 452  279.5604
 453  335.7917
 454  354.704
 455  396.4797
 456  402.8882
 457  299.4638
 458  370.8617
 459  330.0726
 460  287.2914
 461  262.3062
 462  322.6188
 463  314.4494
 464  330.1628
 465  365.4806
 466  498.3738
 467  398.9209
 468  384.1639
 469  421.1331
 470  392.5461
 471  354.3742
 472  408.1867
 473  422.3611
 474  465.6958
 475  414.382
 476  380.0649
 477  345.1648
 478  239.5452
 479  242.7697
 480  315.0233
 481  330.4839
 482  434.3329
 483  422.8305
 484  226.1239
 485  313.5555
 486  384.9817
 487  379.3976
 488  410.9869
 489  388.0221
 490  415.0922
 491  469.7811
 492  541.8236
 493  442.3295
 494  385.1352
 495  389.2691
 496  366.5273
 497  443.2407
 498  453.2307
 499  565.563
 500  521.5435
 501  369.0843
 502  385.193
 503  375.8912
 504  362.0251
 505  401.8831
 506  508.5645
 507  547.7829
 508  532.7241
 509  507.4733
 510  628.3928
 511  706.6681
