# Input file       =  1181456923.122051_cleaned.dat
# Candidate        =  PSR_0332+5434
# Telescope        =  AR
# Epoch_topo       =  57918.269735208924
# Epoch_bary       =  N/A
# T_sample         =  0.002
# Data Folded      =  7340032
# Data Avg         =  0.0186201177031286
# Data StdDev      =  1.00009824381454 
# Profile Bins     =  512
# Profile Avg      =  266.714224814096 
# Profile StdDev   =  119.744799406986 
# Reduced chi-sqr  =  1.343
# Prob(Noise)      <  3.29e-07   (~5.0 sigma)
# P_topo (ms)      =  714.503918760694  +/- 0.000266
# P'_topo (s/s)    =  -0                +/- 1.4e-10
# P''_topo (s/s^2) =  0                 +/- 6.19e-14
# P_bary (ms)      =  N/A
# P'_bary (s/s)    =  N/A
# P''_bary (s/s^2) =  N/A
# P_orb (s)        =  N/A
# asin(i)/c (s)    =  N/A
# eccentricity     =  N/A
# w (rad)          =  N/A
# T_peri           =  N/A
######################################################
   0  799.2204
   1  851.5744
   2  770.4337
   3  554.9601
   4  615.4069
   5  594.0809
   6  488.8605
   7  440.6767
   8  388.1766
   9  383.7104
  10  438.3854
  11  303.057
  12  439.24
  13  412.681
  14  319.6365
  15  448.6794
  16  414.3798
  17  343.3915
  18  365.8051
  19  244.8805
  20  234.9328
  21  320.5461
  22  307.2299
  23  194.6858
  24  266.3779
  25  358.0082
  26  317.7289
  27  207.0912
  28  169.8801
  29  244.159
  30  395.3571
  31  394.7379
  32  291.4815
  33  280.4082
  34  244.0058
  35  359.8495
  36  290.6488
  37  310.9198
  38  285.8317
  39  26.91309
  40  181.1329
  41  248.8161
  42  256.0858
  43  242.4915
  44  324.1854
  45  216.1521
  46  146.7246
  47  122.8053
  48  100.0666
  49  190.2617
  50  221.8059
  51  337.1913
  52  245.4796
  53  218.1348
  54  173.7756
  55  212.8784
  56  190.6763
  57  130.0399
  58  203.5201
  59  275.0024
  60  223.1613
  61  141.2097
  62  195.5341
  63  83.55698
  64  140.4777
  65  261.24
  66  281.3451
  67  294.7343
  68  205.6
  69  175.6461
  70  162.8106
  71  204.3922
  72  233.4622
  73  200.8171
  74  212.8564
  75  220.4508
  76  192.0844
  77  277.6573
  78  314.8102
  79  212.2899
  80  242.4319
  81  255.0077
  82  193.024
  83  184.517
  84  294.3535
  85  308.2069
  86  327.4901
  87  281.1406
  88  197.2438
  89  144.8711
  90  92.15771
  91  167.9165
  92  259.6385
  93  267.8427
  94  344.9975
  95  315.8521
  96  244.6651
  97  161.9604
  98  180.1395
  99  154.1849
 100  135.1208
 101  179.39
 102  129.042
 103  224.4802
 104  148.5248
 105  182.3709
 106  194.8097
 107  214.104
 108  38.36606
 109  -1.460618
 110  294.6159
 111  350.4376
 112  286.3322
 113  276.0275
 114  222.0316
 115  223.9334
 116  94.9905
 117  206.755
 118  191.7824
 119  153.6332
 120  338.907
 121  339.8895
 122  163.5552
 123  144.3688
 124  175.4187
 125  214.5395
 126  172.7229
 127  276.4472
 128  314.5646
 129  255.607
 130  310.8791
 131  331.9585
 132  396.837
 133  377.5518
 134  306.0996
 135  258.2981
 136  265.7003
 137  365.1251
 138  328.3997
 139  237.2396
 140  353.2505
 141  364.2549
 142  292.9678
 143  127.4302
 144  197.1034
 145  366.2354
 146  301.038
 147  248.1224
 148  238.0706
 149  252.2289
 150  162.606
 151  302.0139
 152  432.2553
 153  336.2178
 154  331.7505
 155  406.5893
 156  288.9167
 157  228.4434
 158  276.3542
 159  308.3357
 160  301.2296
 161  275.5393
 162  192.6449
 163  100.4843
 164  213.639
 165  373.2683
 166  172.6795
 167  167.6027
 168  181.3228
 169  305.7372
 170  269.3175
 171  117.8983
 172  237.8977
 173  290.935
 174  378.8219
 175  222.9022
 176  315.0049
 177  357.2973
 178  239.8854
 179  205.1743
 180  321.2625
 181  399.204
 182  260.6023
 183  237.7366
 184  323.4829
 185  286.8643
 186  249.0783
 187  263.4475
 188  275.7761
 189  179.3792
 190  196.2583
 191  288.1434
 192  270.5542
 193  244.6515
 194  323.3123
 195  171.4735
 196  142.9322
 197  123.8907
 198  191.4451
 199  185.4621
 200  150.0499
 201  234.7844
 202  132.2498
 203  184.524
 204  196.1379
 205  182.0375
 206  350.3484
 207  174.1551
 208  217.9284
 209  344.6749
 210  313.9467
 211  441.1565
 212  291.7092
 213  182.476
 214  178.3974
 215  210.7587
 216  271.5691
 217  356.6026
 218  199.0466
 219  136.9463
 220  160.3979
 221  207.0118
 222  308.3338
 223  321.1203
 224  198.9918
 225  205.8894
 226  262.8918
 227  384.1753
 228  260.047
 229  146.4807
 230  138.4677
 231  153.443
 232  271.5848
 233  283.9129
 234  156.8482
 235  202.6651
 236  234.029
 237  217.6584
 238  253.5392
 239  139.9789
 240  159.0711
 241  252.3356
 242  195.6931
 243  171.7829
 244  169.331
 245  195.4888
 246  269.4308
 247  250.9401
 248  188.7253
 249  188.9904
 250  268.5193
 251  314.4723
 252  250.0097
 253  265.5932
 254  207.8617
 255  124.091
 256  232.4781
 257  188.7265
 258  210.1571
 259  295.8952
 260  333.5496
 261  273.8736
 262  164.7997
 263  330.0635
 264  430.2732
 265  349.5133
 266  247.7654
 267  305.529
 268  305.1441
 269  312.5399
 270  311.8763
 271  327.3022
 272  319.6336
 273  288.7597
 274  351.152
 275  219.0083
 276  157.6491
 277  179.3049
 278  280.8247
 279  265.9688
 280  272.917
 281  303.4637
 282  244.1653
 283  215.7499
 284  308.6513
 285  343.2599
 286  248.1405
 287  220.3179
 288  254.6858
 289  274.5832
 290  281.993
 291  250.372
 292  188.5935
 293  249.9539
 294  263.0525
 295  244.0933
 296  177.1882
 297  204.0493
 298  244.4483
 299  198.6504
 300  180.7948
 301  371.1976
 302  342.7492
 303  322.5393
 304  217.8494
 305  181.862
 306  199.1701
 307  156.5824
 308  221.1543
 309  171.9818
 310  270.1909
 311  253.6554
 312  217.1631
 313  301.3674
 314  241.2397
 315  355.3964
 316  299.3605
 317  251.7488
 318  375.2347
 319  348.1862
 320  267.1781
 321  197.2169
 322  163.2209
 323  233.2965
 324  196.1795
 325  182.3146
 326  85.91347
 327  189.4828
 328  400.6938
 329  338.5648
 330  349.9703
 331  395.763
 332  309.5745
 333  364.5374
 334  273.3771
 335  386.465
 336  412.9566
 337  376.7913
 338  290.031
 339  319.613
 340  258.8006
 341  354.4986
 342  384.129
 343  258.4435
 344  252.9193
 345  342.7384
 346  391.9765
 347  333.092
 348  349.2229
 349  383.0967
 350  224.4965
 351  218.6152
 352  179.3875
 353  168.5936
 354  258.8098
 355  267.8819
 356  313.7538
 357  174.9631
 358  186.0555
 359  156.7527
 360  203.9418
 361  321.9802
 362  248.4213
 363  251.933
 364  258.9565
 365  387.1489
 366  319.1586
 367  307.4195
 368  182.4791
 369  249.0814
 370  182.3847
 371  54.0825
 372  38.80101
 373  140.4167
 374  194.2527
 375  263.3379
 376  335.9146
 377  157.0244
 378  55.67646
 379  199.8392
 380  312.2227
 381  216.5321
 382  251.7086
 383  240.4334
 384  271.4257
 385  292.4142
 386  290.1171
 387  229.7477
 388  172.3302
 389  117.8311
 390  178.5518
 391  261.4041
 392  211.764
 393  258.7822
 394  241.0893
 395  342.6044
 396  172.4687
 397  208.7016
 398  351.5112
 399  280.2119
 400  202.1015
 401  318.2201
 402  256.0548
 403  367.4389
 404  421.6307
 405  289.5125
 406  209.7432
 407  249.5428
 408  260.3258
 409  191.7826
 410  201.4615
 411  238.6531
 412  205.1264
 413  242.4784
 414  326.8908
 415  258.5833
 416  154.5222
 417  244.0516
 418  251.6546
 419  275.3713
 420  211.8215
 421  124.2143
 422  226.522
 423  233.0739
 424  156.7121
 425  63.35223
 426  150.4092
 427  267.7665
 428  184.8127
 429  209.8966
 430  283.5262
 431  299.1519
 432  146.8838
 433  201.3265
 434  323.7257
 435  236.085
 436  247.0405
 437  366.1376
 438  359.05
 439  252.229
 440  217.7732
 441  190.8667
 442  364.0192
 443  269.6422
 444  293.1255
 445  262.2495
 446  228.4217
 447  281.1551
 448  202.4608
 449  218.8858
 450  375.0027
 451  317.6812
 452  278.2849
 453  292.688
 454  210.4478
 455  224.2945
 456  207.6608
 457  186.8207
 458  122.0796
 459  123.8165
 460  248.7362
 461  396.3983
 462  310.0344
 463  384.3094
 464  275.5092
 465  268.9621
 466  333.295
 467  287.7716
 468  336.8671
 469  428.3493
 470  301.0677
 471  248.5549
 472  220.0999
 473  308.2036
 474  339.244
 475  394.253
 476  345.7124
 477  317.2765
 478  289.6428
 479  337.666
 480  386.2242
 481  290.4611
 482  376.2139
 483  528.1587
 484  436.0367
 485  331.0599
 486  268.2245
 487  394.0083
 488  506.1874
 489  435.5556
 490  271.1603
 491  309.1992
 492  313.546
 493  319.2572
 494  278.6965
 495  398.9182
 496  519.9733
 497  408.7022
 498  310.6775
 499  152.7739
 500  178.4212
 501  162.6437
 502  317.2562
 503  414.9377
 504  443.5652
 505  449.6732
 506  430.2408
 507  434.6647
 508  390.7884
 509  521.655
 510  653.9525
 511  657.4683
