# Input file       =  1181127197.108836_cleaned.dat
# Candidate        =  PSR_0332+5434
# Telescope        =  AR
# Epoch_topo       =  57914.453461907826
# Epoch_bary       =  N/A
# T_sample         =  0.002
# Data Folded      =  7340032
# Data Avg         =  0.0247750561155478
# Data StdDev      =  1.00006709198541 
# Profile Bins     =  512
# Profile Avg      =  355.060981936012 
# Profile StdDev   =  119.741069503896 
# Reduced chi-sqr  =  1.028
# Prob(Noise)      <  0.32   (~0.5 sigma)
# P_topo (ms)      =  714.507825714994  +/- 0.000394
# P'_topo (s/s)    =  -0                +/- 2.08e-10
# P''_topo (s/s^2) =  0                 +/- 9.19e-14
# P_bary (ms)      =  N/A
# P'_bary (s/s)    =  N/A
# P''_bary (s/s^2) =  N/A
# P_orb (s)        =  N/A
# asin(i)/c (s)    =  N/A
# eccentricity     =  N/A
# w (rad)          =  N/A
# T_peri           =  N/A
######################################################
   0  787.4011
   1  731.3134
   2  739.9509
   3  634.4858
   4  453.4266
   5  293.5963
   6  314.6997
   7  316.2587
   8  439.6087
   9  494.0686
  10  487.5118
  11  412.2859
  12  419.4437
  13  328.0339
  14  262.6873
  15  276.3009
  16  351.5026
  17  289.0261
  18  267.5029
  19  326.5839
  20  463.6212
  21  305.703
  22  251.7084
  23  204.327
  24  219.8344
  25  367.0173
  26  280.7531
  27  330.4781
  28  382.5293
  29  302.1542
  30  326.9915
  31  423.2424
  32  400.5397
  33  389.3297
  34  391.068
  35  323.6417
  36  360.0196
  37  349.7277
  38  424.359
  39  367.6129
  40  269.5106
  41  299.8969
  42  316.5934
  43  382.3664
  44  394.8077
  45  276.8372
  46  237.1359
  47  297.9897
  48  389.1126
  49  446.4198
  50  548.3973
  51  327.0527
  52  216.8724
  53  247.329
  54  306.3788
  55  401.5707
  56  452.0208
  57  343.2603
  58  288.4271
  59  282.7926
  60  226.8629
  61  339.9464
  62  328.0977
  63  269.7159
  64  321.7802
  65  265.4537
  66  299.6214
  67  352.0707
  68  390.8377
  69  282.2403
  70  349.8263
  71  273.2171
  72  353.2016
  73  300.618
  74  276.6651
  75  318.3091
  76  356.3944
  77  382.775
  78  361.4944
  79  390.6588
  80  379.9337
  81  300.8232
  82  235.3601
  83  288.0547
  84  381.1735
  85  372.9679
  86  318.8447
  87  340.2493
  88  494.4852
  89  427.461
  90  344.426
  91  373.3981
  92  430.4354
  93  457.8827
  94  439.9992
  95  367.1197
  96  317.569
  97  268.6367
  98  313.5987
  99  355.361
 100  228.8696
 101  255.8958
 102  234.4312
 103  313.3742
 104  337.6416
 105  275.3209
 106  380.0616
 107  326.3479
 108  302.3491
 109  280.5607
 110  262.4244
 111  252.0334
 112  177.5748
 113  407.2831
 114  420.3907
 115  260.7337
 116  298.4871
 117  421.7227
 118  390.7552
 119  424.993
 120  334.0281
 121  292.0563
 122  181.5632
 123  350.2871
 124  470.9865
 125  332.5568
 126  311.9272
 127  254.1032
 128  368.2937
 129  356.6155
 130  372.4197
 131  504.7462
 132  494.6064
 133  449.3811
 134  429.4885
 135  408.2631
 136  331.452
 137  279.7918
 138  270.5643
 139  241.1808
 140  180.6599
 141  283.1015
 142  270.0284
 143  240.4933
 144  376.8459
 145  309.9835
 146  286.034
 147  215.5017
 148  226.3385
 149  490.8055
 150  491.5285
 151  395.3056
 152  191.6092
 153  200.3696
 154  266.4838
 155  249.1508
 156  280.8221
 157  307.3202
 158  390.5183
 159  394.9365
 160  325.4503
 161  350.3915
 162  442.2048
 163  379.8906
 164  300.0266
 165  359.2007
 166  369.8251
 167  393.4763
 168  321.9702
 169  298.0247
 170  274.9557
 171  268.5558
 172  215.555
 173  338.6142
 174  373.132
 175  155.55
 176  164.8313
 177  323.9659
 178  266.4544
 179  241.1817
 180  169.2904
 181  236.0655
 182  367.5984
 183  261.977
 184  396.86
 185  348.7201
 186  323.3516
 187  334.672
 188  320.2914
 189  385.6674
 190  391.2252
 191  459.2657
 192  392.91
 193  340.6635
 194  311.8119
 195  270.6821
 196  285.196
 197  199.1892
 198  181.3764
 199  313.916
 200  449.423
 201  408.3019
 202  327.0476
 203  275.9212
 204  254.7343
 205  254.0407
 206  271.8349
 207  332.2591
 208  222.4529
 209  253.4804
 210  353.9639
 211  369.36
 212  291.3391
 213  326.8423
 214  412.7671
 215  268.2467
 216  186.2129
 217  489.1326
 218  449.8112
 219  320.7848
 220  293.8368
 221  370.4957
 222  341.4754
 223  449.416
 224  478.6305
 225  384.874
 226  353.9376
 227  440.4931
 228  367.3666
 229  318.5346
 230  357.9333
 231  352.7332
 232  295.9186
 233  314.5732
 234  321.9011
 235  392.8912
 236  370.6374
 237  460.5005
 238  457.807
 239  421.0329
 240  403.0218
 241  360.1307
 242  451.2329
 243  464.6428
 244  380.0045
 245  299.1945
 246  276.3969
 247  334.0696
 248  422.9204
 249  444.8777
 250  433.8773
 251  407.4311
 252  554.5377
 253  463.9236
 254  415.3909
 255  392.7736
 256  407.0721
 257  423.2822
 258  417.5778
 259  479.1759
 260  470.8481
 261  506.2796
 262  513.2605
 263  470.5649
 264  430.6209
 265  360.4635
 266  451.1259
 267  459.2848
 268  475.6999
 269  368.8852
 270  356.7833
 271  260.9994
 272  226.6683
 273  376.1082
 274  347.9087
 275  399.8241
 276  488.168
 277  451.8453
 278  447.9645
 279  294.78
 280  330.1042
 281  249.5994
 282  214.655
 283  335.8317
 284  340.7758
 285  335.2401
 286  315.2987
 287  428.766
 288  340.0228
 289  326.0056
 290  396.0168
 291  341.3752
 292  373.7195
 293  452.729
 294  353.9647
 295  289.009
 296  276.5844
 297  317.997
 298  376.718
 299  364.4375
 300  397.9706
 301  438.332
 302  462.8637
 303  313.5123
 304  338.9705
 305  482.1228
 306  489.6855
 307  321.7762
 308  302.7328
 309  311.8275
 310  295.7501
 311  287.9332
 312  167.5605
 313  314.0655
 314  460.8214
 315  542.0886
 316  487.6263
 317  421.1599
 318  342.3033
 319  445.0869
 320  429.4453
 321  477.6439
 322  469.4159
 323  417.8846
 324  453.6564
 325  458.4861
 326  543.1835
 327  468.938
 328  364.4059
 329  435.9724
 330  437.5708
 331  440.6183
 332  530.2202
 333  468.8235
 334  340.9496
 335  381.7137
 336  304.9671
 337  384.4811
 338  416.0866
 339  383.684
 340  399.9346
 341  407.2137
 342  342.7133
 343  230.5962
 344  306.7098
 345  339.4818
 346  255.1877
 347  398.7749
 348  388.9027
 349  336.9867
 350  364.8995
 351  308.8166
 352  364.8703
 353  336.3877
 354  181.452
 355  320.5137
 356  481.6926
 357  526.5973
 358  461.8999
 359  325.7943
 360  391.3366
 361  300.7665
 362  427.6497
 363  399.2175
 364  350.3891
 365  351.0298
 366  357.7894
 367  336.8877
 368  352.6294
 369  338.2954
 370  334.4048
 371  418.7604
 372  496.8518
 373  423.6567
 374  383.8196
 375  281.3434
 376  340.9814
 377  268.9312
 378  294.7563
 379  362.9709
 380  330.8445
 381  377.6809
 382  358.2898
 383  251.4845
 384  268.0574
 385  386.4223
 386  397.2152
 387  295.9146
 388  345.1182
 389  389.6269
 390  249.9901
 391  206.7953
 392  323.9271
 393  377.4169
 394  454.5452
 395  284.4436
 396  316.8522
 397  345.6529
 398  328.4582
 399  339.182
 400  336.4524
 401  427.75
 402  425.5382
 403  400.3822
 404  485.7328
 405  368.794
 406  359.9584
 407  350.2903
 408  312.2863
 409  296.5054
 410  368.1168
 411  340.1639
 412  375.9698
 413  320.8039
 414  412.4432
 415  442.3861
 416  413.9795
 417  381.9383
 418  358.9239
 419  381.7471
 420  291.3831
 421  293.3801
 422  273.2369
 423  345.6604
 424  316.9153
 425  311.9108
 426  314.8927
 427  387.693
 428  231.2378
 429  290.2039
 430  328.9073
 431  352.5998
 432  330.6691
 433  368.0271
 434  334.9266
 435  321.2316
 436  371.5814
 437  340.347
 438  275.9493
 439  273.0049
 440  214.4953
 441  195.2904
 442  204.9469
 443  262.7361
 444  201.949
 445  290.6266
 446  270.5826
 447  168.8971
 448  156.8848
 449  219.718
 450  220.1279
 451  273.9972
 452  233.468
 453  313.7507
 454  436.1724
 455  351.6019
 456  271.8073
 457  257.902
 458  256.6601
 459  309.5534
 460  335.2302
 461  321.8981
 462  416.1577
 463  477.0324
 464  501.8004
 465  336.1279
 466  302.2132
 467  375.6803
 468  398.6679
 469  338.3784
 470  323.0477
 471  313.0408
 472  245.2899
 473  301.4865
 474  401.3714
 475  381.6262
 476  437.9453
 477  498.5961
 478  459.0727
 479  440.6824
 480  501.6317
 481  479.9228
 482  360.6289
 483  419.9505
 484  476.2737
 485  535.1195
 486  423.2349
 487  295.2178
 488  297.474
 489  393.2657
 490  458.402
 491  465.8769
 492  465.7395
 493  364.5809
 494  291.4395
 495  329.4594
 496  288.2682
 497  280.5049
 498  394.0783
 499  405.6665
 500  366.4146
 501  416.7749
 502  367.4137
 503  367.9033
 504  469.4423
 505  389.7993
 506  321.488
 507  390.95
 508  355.8402
 509  397.4443
 510  561.1273
 511  815.8248
