# Input file       =  1181284629.109167_cleaned.dat
# Candidate        =  PSR_0332+5434
# Telescope        =  AR
# Epoch_topo       =  57916.275591541285
# Epoch_bary       =  N/A
# T_sample         =  0.002
# Data Folded      =  7340032
# Data Avg         =  0.0270619617859309
# Data StdDev      =  1.00002808448777 
# Profile Bins     =  512
# Profile Avg      =  387.592330023065 
# Profile StdDev   =  119.736399017762 
# Reduced chi-sqr  =  1.195
# Prob(Noise)      <  0.00154   (~3.0 sigma)
# P_topo (ms)      =  714.505779118987  +/- 0.000219
# P'_topo (s/s)    =  -0                +/- 1.16e-10
# P''_topo (s/s^2) =  0                 +/- 5.1e-14
# P_bary (ms)      =  N/A
# P'_bary (s/s)    =  N/A
# P''_bary (s/s^2) =  N/A
# P_orb (s)        =  N/A
# asin(i)/c (s)    =  N/A
# eccentricity     =  N/A
# w (rad)          =  N/A
# T_peri           =  N/A
######################################################
   0  848.4684
   1  813.2506
   2  836.2675
   3  683.0745
   4  424.9616
   5  328.6579
   6  386.2252
   7  396.8142
   8  277.1955
   9  340.7009
  10  391.9189
  11  302.0152
  12  413.1692
  13  553.6077
  14  500.8073
  15  419.1807
  16  314.6667
  17  450.2202
  18  427.8975
  19  453.4417
  20  450.0786
  21  256.2314
  22  263.5298
  23  383.6971
  24  428.5228
  25  459.1589
  26  446.9457
  27  378.5641
  28  411.0393
  29  376.5536
  30  189.2812
  31  251.1029
  32  283.5084
  33  474.6777
  34  521.2142
  35  433.0133
  36  450.3159
  37  495.4335
  38  466.591
  39  422.6449
  40  433.7459
  41  408.4991
  42  338.8083
  43  409.4053
  44  403.4294
  45  442.1243
  46  340.7478
  47  284.3487
  48  235.2277
  49  347.3084
  50  292.6704
  51  347.041
  52  383.9474
  53  414.1385
  54  411.884
  55  334.8459
  56  259.4043
  57  201.7761
  58  226.295
  59  279.2697
  60  341.4125
  61  364.9801
  62  336.6417
  63  412.1742
  64  434.9921
  65  415.2112
  66  388.4397
  67  350.7496
  68  336.3599
  69  273.8857
  70  322.2906
  71  214.725
  72  240.5027
  73  305.9465
  74  363.5079
  75  353.1519
  76  349.4023
  77  436.1242
  78  451.0871
  79  508.749
  80  412.59
  81  397.7029
  82  377.2904
  83  361.882
  84  342.8173
  85  396.8907
  86  405.7533
  87  448.9888
  88  439.4054
  89  535.0563
  90  530.5425
  91  403.8331
  92  302.3815
  93  237.0571
  94  427.0972
  95  479.2205
  96  404.0537
  97  321.4191
  98  326.095
  99  375.7601
 100  394.4954
 101  478.449
 102  492.8217
 103  448.9642
 104  382.2852
 105  326.8337
 106  390.8592
 107  476.2372
 108  334.9791
 109  313.467
 110  364.8764
 111  418.6848
 112  293.8658
 113  275.8454
 114  374.0747
 115  341.7119
 116  318.6138
 117  327.8306
 118  169.2786
 119  336.6346
 120  279.4973
 121  226.7698
 122  273.1817
 123  364.6835
 124  387.6982
 125  331.769
 126  368.248
 127  433.4062
 128  402.3712
 129  351.7884
 130  425.7359
 131  330.882
 132  265.7021
 133  406.6424
 134  388.1549
 135  309.4104
 136  268.4049
 137  368.5045
 138  349.6808
 139  340.21
 140  404.1375
 141  537.1611
 142  401.6101
 143  403.668
 144  407.7819
 145  377.0947
 146  426.8047
 147  394.4385
 148  370.5815
 149  321.9621
 150  264.0434
 151  257.5134
 152  357.8163
 153  380.777
 154  401.1663
 155  409.3456
 156  292.175
 157  275.3342
 158  267.7682
 159  362.4593
 160  335.8036
 161  232.4202
 162  285.4932
 163  350.6895
 164  373.5953
 165  489.2532
 166  507.5777
 167  418.9987
 168  307.703
 169  323.7525
 170  302.6074
 171  258.9205
 172  253.5852
 173  396.3429
 174  443.0051
 175  357.8917
 176  382.9278
 177  229.7639
 178  227.5199
 179  281.2729
 180  237.7241
 181  273.8667
 182  273.9772
 183  346.3966
 184  349.3437
 185  367.8855
 186  315.9658
 187  410.2852
 188  383.9163
 189  463.2185
 190  464.2304
 191  444.3851
 192  500.4975
 193  506.6299
 194  493.3163
 195  395.907
 196  414.6941
 197  493.4427
 198  430.9069
 199  527.5397
 200  453.0939
 201  444.2127
 202  444.6171
 203  441.3751
 204  449.0105
 205  368.2003
 206  345.7649
 207  328.0626
 208  344.0176
 209  235.7027
 210  255.0966
 211  314.6082
 212  294.1019
 213  225.8842
 214  297.8067
 215  293.2902
 216  291.085
 217  257.1496
 218  291.9286
 219  341.3281
 220  284.771
 221  430.2195
 222  335.9809
 223  222.9862
 224  160.7242
 225  265.6759
 226  514.1344
 227  405.8711
 228  393.7588
 229  322.4385
 230  245.354
 231  323.5148
 232  247.7663
 233  325.8027
 234  383.0547
 235  402.3889
 236  559.5582
 237  389.1665
 238  385.2189
 239  349.2378
 240  412.134
 241  425.8081
 242  447.4038
 243  410.7887
 244  353.323
 245  358.9489
 246  340.7422
 247  375.7897
 248  366.7478
 249  429.4753
 250  300.7498
 251  415.9936
 252  409.4131
 253  408.3022
 254  328.0482
 255  464.0827
 256  449.5044
 257  484.9138
 258  484.1279
 259  370.8933
 260  356.403
 261  326.8375
 262  335.1072
 263  331.5066
 264  274.5244
 265  355.3881
 266  452.6968
 267  466.1283
 268  371.8285
 269  317.1924
 270  448.4725
 271  418.5411
 272  457.3979
 273  505.5679
 274  490.3318
 275  489.9805
 276  495.0939
 277  525.6445
 278  417.1566
 279  371.2329
 280  323.6965
 281  288.0928
 282  413.8844
 283  392.8672
 284  307.4237
 285  304.9457
 286  361.36
 287  291.9324
 288  283.9015
 289  434.2992
 290  537.278
 291  551.4937
 292  429.377
 293  350.0262
 294  435.7403
 295  586.2924
 296  548.9188
 297  406.6147
 298  295.1268
 299  366.8821
 300  384.0016
 301  404.113
 302  416.9865
 303  374.6187
 304  344.8211
 305  386.9196
 306  444.6797
 307  409.887
 308  345.0295
 309  315.037
 310  441.0877
 311  386.3966
 312  372.6707
 313  481.5448
 314  435.2994
 315  380.2388
 316  423.788
 317  347.9905
 318  473.3174
 319  416.1608
 320  334.8537
 321  373.7829
 322  325.1991
 323  298.0102
 324  333.955
 325  343.7582
 326  397.4119
 327  478.7542
 328  539.0535
 329  421.5067
 330  454.4454
 331  405.194
 332  396.2042
 333  500.2623
 334  485.3453
 335  428.6849
 336  392.3395
 337  466.6671
 338  404.739
 339  477.361
 340  382.7188
 341  447.1669
 342  425.1457
 343  263.6202
 344  339.8994
 345  302.391
 346  415.517
 347  342.5918
 348  393.3605
 349  440.5495
 350  420.9355
 351  355.8541
 352  429.5564
 353  385.1503
 354  322.6113
 355  414.8314
 356  435.8676
 357  415.7137
 358  318.087
 359  306.4614
 360  316.0894
 361  350.604
 362  348.6936
 363  263.7038
 364  325.6606
 365  377.2566
 366  399.5161
 367  396.67
 368  481.1364
 369  387.8817
 370  297.907
 371  324.3031
 372  363.7852
 373  390.6299
 374  448.9068
 375  318.301
 376  258.915
 377  385.3966
 378  232.0794
 379  218.9808
 380  388.0752
 381  361.4092
 382  391.1171
 383  406.8828
 384  429.535
 385  368.9451
 386  348.0145
 387  262.3592
 388  300.5265
 389  339.5214
 390  339.1792
 391  308.5973
 392  319.605
 393  346.2683
 394  422.3613
 395  495.5425
 396  427.7461
 397  383.6281
 398  341.1822
 399  367.9586
 400  289.93
 401  249.9315
 402  382.9155
 403  493.6895
 404  447.1125
 405  370.7755
 406  317.9184
 407  293.0887
 408  225.1514
 409  381.8479
 410  359.3425
 411  296.8546
 412  381.4481
 413  361.3075
 414  422.6012
 415  390.0651
 416  231.7291
 417  167.351
 418  266.9472
 419  344.3101
 420  499.0415
 421  646.5011
 422  560.085
 423  397.5219
 424  381.4062
 425  285.9362
 426  371.7021
 427  387.8393
 428  405.6272
 429  310.705
 430  354.6287
 431  482.8527
 432  392.6453
 433  329.3324
 434  382.1441
 435  374.4801
 436  254.0108
 437  393.5634
 438  357.0758
 439  449.8706
 440  526.2991
 441  563.7448
 442  596.2217
 443  451.6443
 444  348.2492
 445  319.9651
 446  421.3257
 447  461.0255
 448  408.6075
 449  640.7204
 450  525.6494
 451  456.3594
 452  452.2347
 453  398.1625
 454  324.2827
 455  350.2382
 456  587.7664
 457  467.1947
 458  359.0694
 459  396.9014
 460  491.1005
 461  528.3469
 462  442.9665
 463  417.7157
 464  468.5453
 465  603.5129
 466  444.2413
 467  338.9541
 468  354.4964
 469  444.9266
 470  386.2534
 471  355.0066
 472  541.9009
 473  499.5928
 474  414.3762
 475  286.4124
 476  293.6554
 477  346.3571
 478  371.0669
 479  396.9474
 480  359.9101
 481  385.7026
 482  384.5186
 483  352.2198
 484  386.4306
 485  260.3377
 486  410.7723
 487  425.1261
 488  410.761
 489  571.9147
 490  531.5877
 491  492.1798
 492  445.289
 493  391.9625
 494  419.3566
 495  426.6671
 496  365.9147
 497  368.0687
 498  442.4592
 499  502.5818
 500  445.8517
 501  412.6151
 502  297.5171
 503  388.7937
 504  356.833
 505  471.7602
 506  537.9229
 507  473.8329
 508  544.6021
 509  711.299
 510  910.7597
 511  908.8709
