# Input file       =  1181442298.112694_cleaned.dat
# Candidate        =  PSR_0332+5434
# Telescope        =  AR
# Epoch_topo       =  57918.100464267292
# Epoch_bary       =  N/A
# T_sample         =  0.002
# Data Folded      =  7208960
# Data Avg         =  0.0188944210160131
# Data StdDev      =  1.00003047693261 
# Profile Bins     =  512
# Profile Avg      =  266.015881052287 
# Profile StdDev   =  118.662792161234 
# Reduced chi-sqr  =  0.994
# Prob(Noise)      <  0.53   (~0.0 sigma)
# P_topo (ms)      =  714.504066830493  +/- 0.00039
# P'_topo (s/s)    =  -0                +/- 2.09e-10
# P''_topo (s/s^2) =  0                 +/- 9.41e-14
# P_bary (ms)      =  N/A
# P'_bary (s/s)    =  N/A
# P''_bary (s/s^2) =  N/A
# P_orb (s)        =  N/A
# asin(i)/c (s)    =  N/A
# eccentricity     =  N/A
# w (rad)          =  N/A
# T_peri           =  N/A
######################################################
   0  733.6943
   1  726.8149
   2  669.2966
   3  569.8322
   4  443.9292
   5  260.404
   6  258.9937
   7  314.262
   8  216.6947
   9  223.9015
  10  280.0084
  11  345.7369
  12  312.9477
  13  286.282
  14  339.1571
  15  212.1568
  16  235.2787
  17  300.0225
  18  310.9975
  19  309.011
  20  265.3177
  21  296.1814
  22  259.0582
  23  111.4515
  24  191.2752
  25  338.8636
  26  299.8482
  27  272.0715
  28  255.0523
  29  267.3224
  30  317.8484
  31  208.5016
  32  210.775
  33  210.9937
  34  179.9423
  35  211.8803
  36  183.9722
  37  268.1685
  38  290.4161
  39  339.6028
  40  342.458
  41  254.4334
  42  69.74603
  43  180.1026
  44  239.7264
  45  204.3338
  46  231.2015
  47  291.3613
  48  327.529
  49  332.6946
  50  223.1043
  51  307.5184
  52  280.8123
  53  289.062
  54  285.1694
  55  237.427
  56  247.5016
  57  358.0467
  58  365.1389
  59  260.8664
  60  384.5941
  61  435.7502
  62  320.8831
  63  241.4636
  64  223.586
  65  376.8614
  66  267.1548
  67  202.6232
  68  244.459
  69  308.766
  70  393.4538
  71  331.9583
  72  273.2962
  73  321.1284
  74  401.1663
  75  283.9068
  76  311.3196
  77  250.3451
  78  258.851
  79  321.2831
  80  210.937
  81  255.1583
  82  301.1287
  83  383.8794
  84  327.3354
  85  296.6646
  86  346.2109
  87  319.3973
  88  294.0289
  89  225.5586
  90  207.1067
  91  307.3883
  92  309.8227
  93  305.3351
  94  270.886
  95  189.3887
  96  197.3422
  97  265.1129
  98  242.3334
  99  381.2138
 100  251.8137
 101  235.7903
 102  206.796
 103  169.3943
 104  269.1662
 105  267.1905
 106  167.8682
 107  187.6273
 108  256.6795
 109  214.0892
 110  202.045
 111  156.2387
 112  135.2206
 113  153.7906
 114  153.9559
 115  265.1563
 116  199.424
 117  221.0799
 118  313.8588
 119  357.8918
 120  237.1103
 121  307.0011
 122  315.8523
 123  341.9695
 124  290.2595
 125  323.8789
 126  299.4057
 127  296.4315
 128  340.0975
 129  302.7673
 130  210.194
 131  260.7521
 132  318.317
 133  257.5915
 134  292.2306
 135  196.697
 136  227.373
 137  133.9879
 138  266.2796
 139  257.0874
 140  375.4968
 141  332.0449
 142  291.8416
 143  265.3606
 144  230.1459
 145  154.1072
 146  176.444
 147  250.3844
 148  363.6092
 149  304.001
 150  253.2164
 151  116.655
 152  195.3282
 153  233.8276
 154  320.7013
 155  233.8822
 156  140.3751
 157  196.7394
 158  184.9476
 159  276.0093
 160  264.3362
 161  285.97
 162  314.1529
 163  234.9921
 164  133.0691
 165  217.1769
 166  241.6099
 167  150.4259
 168  107.3668
 169  197.9548
 170  220.367
 171  189.6257
 172  339.8117
 173  311.3081
 174  291.1706
 175  242.426
 176  258.9456
 177  243.59
 178  244.5364
 179  275.506
 180  247.1955
 181  225.7809
 182  212.5449
 183  272.6768
 184  352.9974
 185  374.6995
 186  346.8992
 187  307.8682
 188  168.7277
 189  174.2606
 190  215.9358
 191  199.8396
 192  145.6375
 193  198.4999
 194  253.7833
 195  205.8609
 196  314.2997
 197  302.7402
 198  216.8066
 199  262.991
 200  246.0177
 201  235.7096
 202  145.9057
 203  157.8205
 204  356.4486
 205  341.6671
 206  329.7192
 207  331.7517
 208  245.2493
 209  324.9531
 210  304.1721
 211  259.2559
 212  313.1824
 213  341.9091
 214  302.4227
 215  256.5807
 216  248.1443
 217  293.4363
 218  305.3036
 219  364.9947
 220  240.1207
 221  301.0355
 222  327.0454
 223  344.3451
 224  194.9799
 225  249.7041
 226  366.9763
 227  376.2583
 228  302.2506
 229  330.5714
 230  248.1777
 231  337.584
 232  386.6811
 233  295.9812
 234  248.5419
 235  361.7058
 236  371.2751
 237  33.19516
 238  275.598
 239  327.4527
 240  342.6684
 241  111.4475
 242  243.1992
 243  337.5467
 244  277.0066
 245  436.9099
 246  385.1761
 247  362.4341
 248  275.3382
 249  295.166
 250  276.1622
 251  347.1972
 252  351.0236
 253  264.8127
 254  175.094
 255  152.583
 256  359.0535
 257  292.5714
 258  326.5373
 259  233.2044
 260  202.366
 261  245.6262
 262  228.4268
 263  287.4357
 264  217.2822
 265  142.3847
 266  78.70538
 267  133.6698
 268  195.9341
 269  230.0239
 270  359.207
 271  300.6141
 272  214.7994
 273  269.133
 274  239.9787
 275  254.4603
 276  211.3559
 277  261.8073
 278  279.6574
 279  296.995
 280  266.2274
 281  262.8853
 282  263.6204
 283  260.0609
 284  343.6813
 285  382.9992
 286  263.749
 287  167.1285
 288  199.6932
 289  325.851
 290  265.9594
 291  344.7728
 292  330.322
 293  268.4791
 294  150.2941
 295  279.3568
 296  190.3237
 297  64.99902
 298  223.6011
 299  224.4874
 300  270.8806
 301  309.2659
 302  322.0078
 303  271.1038
 304  214.2813
 305  268.2142
 306  246.9072
 307  305.3399
 308  305.9882
 309  242.4677
 310  145.7862
 311  256.8884
 312  229.0211
 313  283.0927
 314  251.7761
 315  262.5557
 316  326.5033
 317  325.5738
 318  274.462
 319  202.991
 320  262.8428
 321  187.6465
 322  93.65972
 323  284.2045
 324  152.048
 325  150.6187
 326  164.377
 327  271.5924
 328  259.5778
 329  174.9308
 330  291.5905
 331  321.144
 332  324.7173
 333  279.7835
 334  225.173
 335  108.0905
 336  118.8321
 337  123.0966
 338  63.71828
 339  184.5066
 340  179.1695
 341  210.9475
 342  270.962
 343  334.1907
 344  227.4393
 345  243.79
 346  264.6436
 347  221.8407
 348  187.0039
 349  317.9753
 350  216.7176
 351  241.8077
 352  325.019
 353  427.7096
 354  317.5329
 355  337.6516
 356  470.7029
 357  329.4017
 358  298.3489
 359  193.9959
 360  244.1587
 361  283.6984
 362  251.2426
 363  191.2528
 364  189.4541
 365  6.506446
 366  83.795
 367  246.17
 368  187.3214
 369  246.2729
 370  188.8656
 371  224.4619
 372  225.634
 373  144.499
 374  150.7089
 375  201.6662
 376  296.037
 377  110.9397
 378  117.7383
 379  238.0907
 380  266.1804
 381  225.2794
 382  210.5318
 383  350.8246
 384  346.2952
 385  225.7171
 386  142.6319
 387  181.8002
 388  116.7671
 389  209.2359
 390  253.7636
 391  210.5437
 392  280.3764
 393  85.39495
 394  -25.01427
 395  58.97869
 396  285.2831
 397  315.2272
 398  338.3833
 399  350.4146
 400  323.6646
 401  298.5833
 402  193.365
 403  243.5207
 404  134.78
 405  202.5648
 406  280.5085
 407  142.313
 408  239.4173
 409  293.1118
 410  238.0936
 411  223.2799
 412  118.3717
 413  267.5049
 414  215.8832
 415  227.0913
 416  262.358
 417  316.1334
 418  355.5236
 419  246.8175
 420  242.5226
 421  316.4425
 422  311.9408
 423  300.1729
 424  311.6426
 425  253.0699
 426  266.7256
 427  332.382
 428  249.0242
 429  223.4903
 430  244.4895
 431  381.9103
 432  294.6685
 433  342.6063
 434  348.6757
 435  263.8231
 436  371.5202
 437  337.4119
 438  288.0696
 439  235.0081
 440  342.4408
 441  228.4747
 442  205.2686
 443  374.0877
 444  290.7165
 445  207.9636
 446  339.8406
 447  452.3077
 448  333.7162
 449  239.6777
 450  193.8257
 451  310.1912
 452  278.3051
 453  201.6255
 454  207.5652
 455  307.7631
 456  250.7337
 457  256.2962
 458  381.3992
 459  257.902
 460  174.6114
 461  232.7315
 462  296.8687
 463  271.8206
 464  349.3112
 465  270.0022
 466  276.4352
 467  245.3375
 468  247.4269
 469  266.6125
 470  302.5705
 471  284.0405
 472  265.0761
 473  248.5723
 474  137.8209
 475  174.6432
 476  137.7572
 477  198.4904
 478  310.3676
 479  241.9186
 480  274.8183
 481  299.7992
 482  224.4891
 483  244.5276
 484  299.7284
 485  411.3889
 486  338.7826
 487  205.3083
 488  229.4995
 489  229.904
 490  274.4338
 491  358.4032
 492  304.5295
 493  337.2241
 494  296.0244
 495  306.2836
 496  370.4875
 497  247.7792
 498  265.2653
 499  408.2361
 500  278.3914
 501  172.9671
 502  225.2916
 503  313.2329
 504  239.9931
 505  253.4576
 506  358.9952
 507  467.9718
 508  475.2382
 509  418.3124
 510  632.3899
 511  711.9888
