# Input file       =  1181270019.127795_cleaned.dat
# Candidate        =  PSR_0332+5434
# Telescope        =  AR
# Epoch_topo       =  57916.106494534666
# Epoch_bary       =  N/A
# T_sample         =  0.002
# Data Folded      =  7143424
# Data Avg         =  0.0267051252506387
# Data StdDev      =  1.00006985168448 
# Profile Bins     =  512
# Profile Avg      =  372.628266099284 
# Profile StdDev   =  118.126835263961 
# Reduced chi-sqr  =  0.992
# Prob(Noise)      <  0.541   (~0.0 sigma)
# P_topo (ms)      =  714.505928759828  +/- 0.000154
# P'_topo (s/s)    =  -0                +/- 8.33e-11
# P''_topo (s/s^2) =  0                 +/- 3.78e-14
# P_bary (ms)      =  N/A
# P'_bary (s/s)    =  N/A
# P''_bary (s/s^2) =  N/A
# P_orb (s)        =  N/A
# asin(i)/c (s)    =  N/A
# eccentricity     =  N/A
# w (rad)          =  N/A
# T_peri           =  N/A
######################################################
   0  416.7948
   1  342.1307
   2  332.0878
   3  455.4439
   4  396.1805
   5  380.3303
   6  314.4232
   7  362.6722
   8  316.1681
   9  276.1141
  10  315.2886
  11  277.7353
  12  410.4526
  13  367.6832
  14  333.3108
  15  449.2411
  16  293.8486
  17  380.3405
  18  424.9321
  19  206.8268
  20  322.2324
  21  370.5708
  22  286.8428
  23  381.9171
  24  314.855
  25  460.2614
  26  459.0836
  27  373.4566
  28  375.0776
  29  199.8214
  30  282.0548
  31  340.8384
  32  351.9523
  33  335.6526
  34  284.9943
  35  310.4788
  36  413.956
  37  407.5071
  38  260.2208
  39  334.4807
  40  317.7774
  41  468.0283
  42  481.9431
  43  432.352
  44  369.2413
  45  375.6404
  46  495.5406
  47  422.5887
  48  365.7174
  49  429.4248
  50  408.6611
  51  435.1067
  52  498.7191
  53  476.6578
  54  370.7907
  55  353.2644
  56  342.2987
  57  300.2465
  58  279.1854
  59  400.3315
  60  449.5088
  61  324.558
  62  405.2625
  63  331.541
  64  290.1235
  65  348.8117
  66  434.0227
  67  388.4361
  68  374.9523
  69  379.8295
  70  267.4508
  71  427.7831
  72  424.8349
  73  414.1521
  74  378.2272
  75  386.8317
  76  415.9481
  77  372.8013
  78  294.8057
  79  318.5211
  80  381.3419
  81  345.972
  82  349.7504
  83  331.2458
  84  269.837
  85  258.0934
  86  326.1578
  87  258.2862
  88  387.1675
  89  374.0932
  90  314.6543
  91  292.9258
  92  161.4067
  93  213.0185
  94  322.6624
  95  309.5882
  96  296.033
  97  392.6104
  98  393.091
  99  318.7294
 100  192.8754
 101  366.1411
 102  380.7179
 103  299.6189
 104  305.132
 105  308.2259
 106  364.9899
 107  389.7361
 108  361.8643
 109  248.6985
 110  291.3374
 111  405.7592
 112  413.9929
 113  287.4084
 114  323.3181
 115  318.5444
 116  358.6906
 117  314.533
 118  337.0076
 119  429.4054
 120  439.7412
 121  475.5674
 122  382.7255
 123  253.0788
 124  350.4041
 125  385.337
 126  374.9952
 127  308.3904
 128  328.933
 129  328.6518
 130  273.3568
 131  285.3637
 132  343.7561
 133  310.822
 134  272.6309
 135  237.8745
 136  152.9407
 137  224.7449
 138  300.5329
 139  360.0497
 140  421.3903
 141  324.1749
 142  306.2663
 143  266.6166
 144  247.0016
 145  349.0829
 146  353.1147
 147  370.6578
 148  333.2974
 149  238.7038
 150  243.4011
 151  310.456
 152  288.0884
 153  250.9734
 154  258.4429
 155  346.568
 156  315.8237
 157  351.88
 158  368.425
 159  314.4147
 160  251.3634
 161  345.3666
 162  289.7885
 163  256.2743
 164  291.4579
 165  465.3766
 166  348.2978
 167  312.9669
 168  388.9828
 169  346.062
 170  448.7543
 171  369.6823
 172  350.6608
 173  391.1334
 174  309.4622
 175  402.1762
 176  483.3609
 177  399.3267
 178  360.4081
 179  411.4935
 180  512.0309
 181  456.2947
 182  318.9174
 183  400.9042
 184  475.2377
 185  446.7603
 186  328.9197
 187  415.3822
 188  414.9453
 189  470.8505
 190  465.7936
 191  394.3285
 192  389.3331
 193  278.8044
 194  242.5269
 195  417.0608
 196  263.8912
 197  371.0785
 198  380.1201
 199  406.3353
 200  399.7254
 201  416.2423
 202  373.4214
 203  315.5927
 204  382.4824
 205  401.3336
 206  374.0251
 207  367.4358
 208  369.0959
 209  307.848
 210  399.9636
 211  434.3055
 212  358.6085
 213  343.6156
 214  330.4281
 215  329.1852
 216  408.4845
 217  484.7462
 218  385.9649
 219  476.3051
 220  524.5336
 221  563.7239
 222  555.1749
 223  430.6151
 224  469.5471
 225  522.2931
 226  469.2175
 227  432.4193
 228  299.7324
 229  306.2615
 230  263.4439
 231  413.3237
 232  506.8578
 233  378.1095
 234  291.1058
 235  225.0679
 236  300.7106
 237  376.9477
 238  393.6235
 239  428.9949
 240  522.0771
 241  396.3779
 242  334.3437
 243  423.5771
 244  324.8503
 245  326.8434
 246  463.4464
 247  403.8674
 248  273.4437
 249  292.1197
 250  285.331
 251  438.0912
 252  563.4744
 253  500.6781
 254  331.998
 255  216.0551
 256  299.6895
 257  331.5497
 258  392.6764
 259  462.0962
 260  414.0688
 261  470.7336
 262  414.4135
 263  298.17
 264  273.1276
 265  394.4138
 266  425.2915
 267  410.1922
 268  379.7559
 269  446.096
 270  353.9815
 271  366.2059
 272  387.7281
 273  450.9195
 274  515.8036
 275  274.228
 276  311.5045
 277  304.7769
 278  308.0187
 279  294.4758
 280  307.6909
 281  386.4572
 282  414.2967
 283  426.2608
 284  410.5689
 285  416.5804
 286  443.6194
 287  431.0958
 288  381.2304
 289  431.3457
 290  368.117
 291  221.0518
 292  268.3948
 293  290.9354
 294  350.4493
 295  288.732
 296  276.9548
 297  262.9349
 298  351.3446
 299  534.9423
 300  494.4041
 301  293.5636
 302  302.3291
 303  362.9569
 304  413.2499
 305  315.5264
 306  372.1688
 307  364.3262
 308  345.7135
 309  345.2343
 310  261.3874
 311  218.2618
 312  305.3048
 313  283.4435
 314  253.5775
 315  349.4675
 316  351.8806
 317  359.2312
 318  408.1671
 319  394.7637
 320  350.5461
 321  336.9634
 322  320.3359
 323  401.9231
 324  350.6853
 325  351.045
 326  446.3664
 327  406.0972
 328  350.4939
 329  382.9832
 330  326.9849
 331  285.0532
 332  272.9059
 333  440.6214
 334  422.2714
 335  324.0928
 336  359.0698
 337  554.5016
 338  533.5257
 339  405.6292
 340  328.9275
 341  386.7026
 342  405.8043
 343  418.7081
 344  357.4807
 345  440.2388
 346  406.7953
 347  451.1662
 348  351.334
 349  415.544
 350  290.3544
 351  280.7242
 352  442.2642
 353  293.4223
 354  385.6441
 355  433.4836
 356  337.9225
 357  321.4437
 358  359.1602
 359  345.7163
 360  466.0322
 361  383.4554
 362  377.9845
 363  265.7455
 364  282.3307
 365  446.9826
 366  473.2729
 367  397.232
 368  411.5642
 369  535.3793
 370  469.049
 371  299.0159
 372  248.7903
 373  316.7641
 374  334.4285
 375  441.8817
 376  347.0854
 377  280.4659
 378  344.8368
 379  353.7981
 380  409.7357
 381  380.6944
 382  303.9005
 383  373.2722
 384  326.4689
 385  278.2588
 386  270.3303
 387  322.8689
 388  313.7821
 389  328.0539
 390  378.9189
 391  503.7552
 392  391.614
 393  388.5172
 394  423.2396
 395  379.559
 396  361.2874
 397  411.6106
 398  426.9978
 399  461.0208
 400  415.8019
 401  370.9805
 402  344.2069
 403  221.415
 404  258.9409
 405  309.2713
 406  346.0211
 407  441.103
 408  404.3882
 409  210.9766
 410  334.0308
 411  379.9784
 412  392.5204
 413  404.9178
 414  386.7522
 415  426.7937
 416  477.3056
 417  542.2619
 418  417.5998
 419  400.098
 420  375.1972
 421  381.2059
 422  437.079
 423  470.3324
 424  571.583
 425  496.9091
 426  366.4788
 427  388.8653
 428  375.0931
 429  353.4149
 430  419.6526
 431  515.1706
 432  554.4536
 433  515.566
 434  521.1998
 435  641.6755
 436  720.4869
 437  883.2429
 438  962.0328
 439  822.7859
 440  590.5464
 441  476.6921
 442  375.7265
 443  390.3907
 444  323.021
 445  281.4957
 446  398.0365
 447  441.847
 448  366.0071
 449  259.0023
 450  378.5039
 451  543.5959
 452  416.4763
 453  379.7755
 454  462.7929
 455  345.4376
 456  369.6115
 457  296.7899
 458  401.7814
 459  403.5676
 460  292.9095
 461  273.4126
 462  288.6149
 463  349.1546
 464  419.1331
 465  427.4099
 466  404.4029
 467  469.8118
 468  328.4471
 469  310.4391
 470  248.166
 471  422.2814
 472  447.6047
 473  436.2809
 474  320.4435
 475  415.0759
 476  404.3408
 477  379.1749
 478  385.2497
 479  415.9677
 480  389.5882
 481  423.574
 482  410.8047
 483  453.711
 484  363.0072
 485  428.0267
 486  428.7307
 487  397.6281
 488  360.5135
 489  376.3772
 490  411.9497
 491  498.4252
 492  409.6674
 493  434.9086
 494  381.938
 495  384.563
 496  519.5767
 497  368.1812
 498  243.2393
 499  269.9549
 500  334.3049
 501  275.4971
 502  325.4433
 503  342.0548
 504  314.4651
 505  358.559
 506  416.5365
 507  415.8025
 508  381.4933
 509  389.7881
 510  315.746
 511  349.1025
