# Input file       =  1181284629.109167_cleaned.dat
# Candidate        =  PSR_0332+5434
# Telescope        =  AR
# Epoch_topo       =  57916.275591541285
# Epoch_bary       =  N/A
# T_sample         =  0.002
# Data Folded      =  7340032
# Data Avg         =  0.0270619617859309
# Data StdDev      =  1.00002808448777 
# Profile Bins     =  512
# Profile Avg      =  387.592330019057 
# Profile StdDev   =  119.736399017762 
# Reduced chi-sqr  =  1.190
# Prob(Noise)      <  0.00193   (~2.9 sigma)
# P_topo (ms)      =  714.50577924612   +/- 0.000233
# P'_topo (s/s)    =  -0                +/- 1.23e-10
# P''_topo (s/s^2) =  0                 +/- 5.43e-14
# P_bary (ms)      =  N/A
# P'_bary (s/s)    =  N/A
# P''_bary (s/s^2) =  N/A
# P_orb (s)        =  N/A
# asin(i)/c (s)    =  N/A
# eccentricity     =  N/A
# w (rad)          =  N/A
# T_peri           =  N/A
######################################################
   0  878.937
   1  827.6377
   2  819.5249
   3  812.3433
   4  543.3528
   5  369.2516
   6  325.3484
   7  431.7723
   8  332.8485
   9  279.5628
  10  387.1438
  11  348.1878
  12  311.689
  13  513.8389
  14  527.1431
  15  482.3582
  16  347.5586
  17  370.7915
  18  475.0365
  19  413.2865
  20  488.9833
  21  357.6481
  22  226.7467
  23  326.5141
  24  404.0662
  25  438.9454
  26  465.1073
  27  425.2831
  28  379.1104
  29  417.5663
  30  273.4209
  31  206.3253
  32  273.2168
  33  335.599
  34  524.0886
  35  492.0017
  36  421.226
  37  495.7211
  38  472.6545
  39  444.3584
  40  428.9745
  41  429.7985
  42  372.6495
  43  355.1
  44  414.4757
  45  420.9036
  46  413.6459
  47  306.1544
  48  260.5398
  49  275.4302
  50  339.2736
  51  296.3409
  52  363.3913
  53  415.4004
  54  409.8626
  55  393.5064
  56  289.0424
  57  227.0346
  58  197.681
  59  252.1783
  60  312.1208
  61  361.3066
  62  345.8409
  63  350.9723
  64  443.8133
  65  431.1111
  66  396.2659
  67  365.1478
  68  358.091
  69  300.3052
  70  316.0604
  71  263.8654
  72  221.3263
  73  254.4136
  74  343.8647
  75  356.769
  76  340.3206
  77  390.1781
  78  439.2446
  79  480.531
  80  488.4367
  81  392.369
  82  393.8558
  83  372.7949
  84  349.6639
  85  368.5817
  86  411.8193
  87  409.1956
  88  446.6876
  89  471.908
  90  554.133
  91  492.0141
  92  339.9419
  93  258.3706
  94  295.3643
  95  486.8659
  96  455.7444
  97  352.7535
  98  314.2939
  99  346.0262
 100  385.9408
 101  434.4614
 102  486.9262
 103  485.4015
 104  399.9585
 105  384.1789
 106  307.8651
 107  479.1218
 108  401.2023
 109  315.5516
 110  326.5146
 111  400.6974
 112  378.9571
 113  246.5993
 114  335.4939
 115  370.319
 116  317.4777
 117  349.6217
 118  233.9595
 119  229.2577
 120  360.4775
 121  221.0934
 122  263.6752
 123  280.1462
 124  425.325
 125  326.1215
 126  367.1235
 127  373.6687
 128  466.5232
 129  330.8157
 130  412.84
 131  386.2216
 132  284.8041
 133  318.2239
 134  422.063
 135  354.0964
 136  281.1207
 137  307.1736
 138  378.8987
 139  335.5043
 140  337.9933
 141  496.3822
 142  472.4324
 143  395.8309
 144  415.3482
 145  389.6299
 146  398.4852
 147  423.8451
 148  376.8215
 149  361.926
 150  290.6993
 151  242.2184
 152  304.2556
 153  379.2643
 154  382.3868
 155  418.7651
 156  358.6536
 157  273.954
 158  264.2428
 159  305.5321
 160  380.0471
 161  278.8431
 162  234.4393
 163  339.6781
 164  348.4381
 165  425.9123
 166  495.1445
 167  499.231
 168  352.108
 169  305.4148
 170  325.9319
 171  272.1556
 172  246.2228
 173  295.4688
 174  450.6437
 175  396.0209
 176  379.8521
 177  329.2388
 178  198.6452
 179  259.9096
 180  262.6876
 181  253.7168
 182  272.4342
 183  295.9247
 184  354.7329
 185  359.5736
 186  343.5704
 187  363.2893
 188  407.073
 189  410.5337
 190  479.0259
 191  442.6342
 192  476.1718
 193  480.607
 194  528.4914
 195  440.036
 196  388.8694
 197  465.6188
 198  454.9406
 199  483.9894
 200  498.2422
 201  436.5796
 202  447.9622
 203  430.7944
 204  474.2398
 205  404.1897
 206  366.2199
 207  319.4177
 208  344.4598
 209  290.7905
 210  232.6226
 211  282.3738
 212  328.7455
 213  248.1296
 214  250.3592
 215  303.9924
 216  288.0712
 217  289.7383
 218  250.4957
 219  336.3806
 220  308.0786
 221  338.3958
 222  441.8008
 223  240.624
 224  212.3948
 225  150.7144
 226  424.0132
 227  482.6696
 228  381.0413
 229  372.8089
 230  279.5126
 231  272.466
 232  309.5011
 233  245.4252
 234  376.7657
 235  370.1078
 236  490.1146
 237  497.3014
 238  373.2137
 239  361.3137
 240  370.0986
 241  421.3968
 242  444.2093
 243  444.9985
 244  378.6684
 245  365.9978
 246  329.7783
 247  372.1816
 248  352.0292
 249  412.6886
 250  379.7148
 251  325.0153
 252  436.7486
 253  400.1506
 254  366.0297
 255  368.589
 256  484.5031
 257  452.8299
 258  501.8217
 259  436.4837
 260  352.4598
 261  356.5345
 262  316.7659
 263  344.3961
 264  299.3168
 265  285.4533
 266  422.9008
 267  441.8803
 268  458.3727
 269  309.4188
 270  373.304
 271  477.9626
 272  390.4992
 273  524.7498
 274  475.7724
 275  515.9138
 276  466.1182
 277  519.5277
 278  477.1809
 279  388.7806
 280  371.4167
 281  265.4561
 282  358.7989
 283  413.6192
 284  368.4065
 285  287.763
 286  330.5374
 287  355.101
 288  253.5821
 289  345.929
 290  489.5949
 291  541.269
 292  527.0318
 293  362.228
 294  373.3317
 295  517.3177
 296  591.6245
 297  497.6538
 298  337.8626
 299  311.202
 300  400.6165
 301  352.2573
 302  451.3664
 303  373.4166
 304  385.5942
 305  320.5477
 306  427.7668
 307  443.7451
 308  397.1509
 309  307.707
 310  368.5778
 311  434.4967
 312  361.9496
 313  415.77
 314  489.0769
 315  388.2589
 316  419.955
 317  381.7033
 318  393.8164
 319  463.7149
 320  361.4317
 321  352.6613
 322  364.8979
 323  302.4218
 324  321.0827
 325  336.5031
 326  363.1238
 327  428.8143
 328  510.4257
 329  508.7152
 330  414.2716
 331  455.6854
 332  380.6974
 333  428.57
 334  512.6295
 335  459.747
 336  402.8518
 337  434.7012
 338  423.7109
 339  450.4306
 340  435.3116
 341  396.1109
 342  459.0811
 343  338.2268
 344  299.8108
 345  321.251
 346  353.5802
 347  398.5839
 348  351.5654
 349  426.2884
 350  434.951
 351  399.7166
 352  357.218
 353  449.6178
 354  329.9734
 355  367.6594
 356  428.8429
 357  420.2434
 358  371.5309
 359  294.8722
 360  330.5681
 361  323.3897
 362  376.9577
 363  293.5486
 364  284.5936
 365  329.1656
 366  435.0464
 367  359.576
 368  459.8855
 369  440.3934
 370  341.5042
 371  293.6887
 372  357.854
 373  358.5071
 374  443.3576
 375  415.0095
 376  258.985
 377  309.4326
 378  341.3761
 379  180.2867
 380  302.8939
 381  395.233
 382  361.6099
 383  406.3582
 384  416.2342
 385  415.0928
 386  361.5057
 387  301.698
 388  267.5092
 389  311.6592
 390  360.2504
 391  318.5836
 392  302.7971
 393  336.4406
 394  358.3344
 395  484.3511
 396  462.4735
 397  422.3503
 398  342.901
 399  352.879
 400  361.5983
 401  232.2008
 402  327.1095
 403  418.7475
 404  515.2659
 405  392.0372
 406  342.2162
 407  308.6134
 408  243.7449
 409  286.989
 410  406.8974
 411  313.4604
 412  322.6556
 413  387.8304
 414  380.213
 415  437.3694
 416  329.1134
 417  174.5503
 418  208.0955
 419  290.5579
 420  407.6033
 421  565.3529
 422  653.3772
 423  458.4949
 424  398.808
 425  336.9674
 426  320.3376
 427  386.1077
 428  391.29
 429  368.314
 430  306.5313
 431  423.9344
 432  473.4765
 433  332.1626
 434  351.9214
 435  410.3719
 436  288.8498
 437  314.2111
 438  394.8628
 439  378.5487
 440  501.0923
 441  532.2772
 442  593.201
 443  540.807
 444  391.5595
 445  335.6811
 446  342.793
 447  465.7581
 448  411.4396
 449  504.7237
 450  636.7215
 451  461.5152
 452  462.7759
 453  439.6025
 454  366.9539
 455  300.3829
 456  461.9637
 457  567.0396
 458  399.622
 459  365.2453
 460  440.8268
 461  529.158
 462  486.6348
 463  426.8668
 464  423.7931
 465  544.6958
 466  557.8794
 467  370.3215
 468  342.4003
 469  391.0036
 470  454.1406
 471  334.5609
 472  426.6824
 473  569.9775
 474  442.5791
 475  367.8835
 476  255.4633
 477  329.0885
 478  360.8469
 479  393.7994
 480  383.4615
 481  364.6285
 482  395.3958
 483  346.2016
 484  390.9937
 485  323.2528
 486  300.378
 487  440.6861
 488  396.6426
 489  478.2979
 490  594.6067
 491  509.8994
 492  471.7371
 493  422.951
 494  369.8021
 495  452.0409
 496  404.8897
 497  341.4998
 498  409.2479
 499  462.0245
 500  495.9211
 501  421.1762
 502  347.0039
 503  332.8593
 504  383.471
 505  400.9051
 506  524.8359
 507  508.0426
 508  492.5495
 509  594.719
 510  813.8624
 511  938.8246
