# Input file       =  1181614677.117078_cleaned.dat
# Candidate        =  PSR_0332+5434
# Telescope        =  AR
# Epoch_topo       =  57920.095591632846
# Epoch_bary       =  N/A
# T_sample         =  0.002
# Data Folded      =  7208960
# Data Avg         =  0.0296443884689436
# Data StdDev      =  1.00001748119436 
# Profile Bins     =  512
# Profile Avg      =  417.338599344079 
# Profile StdDev   =  118.661250097645 
# Reduced chi-sqr  =  0.849
# Prob(Noise)      <  0.994   (~0.0 sigma)
# P_topo (ms)      =  714.502221769769  +/- 0.000233
# P'_topo (s/s)    =  -0                +/- 1.25e-10
# P''_topo (s/s^2) =  0                 +/- 5.63e-14
# P_bary (ms)      =  N/A
# P'_bary (s/s)    =  N/A
# P''_bary (s/s^2) =  N/A
# P_orb (s)        =  N/A
# asin(i)/c (s)    =  N/A
# eccentricity     =  N/A
# w (rad)          =  N/A
# T_peri           =  N/A
######################################################
   0  472.6527
   1  626.5357
   2  530.5424
   3  478.4195
   4  516.1755
   5  433.5831
   6  337.4972
   7  452.4543
   8  456.0114
   9  271.7983
  10  321.6192
  11  501.8628
  12  477.9788
  13  393.2616
  14  310.672
  15  321.3508
  16  442.7895
  17  369.2823
  18  352.9993
  19  325.0093
  20  434.351
  21  386.0393
  22  386.6356
  23  361.6641
  24  381.2423
  25  312.2155
  26  425.9631
  27  418.4476
  28  397.8343
  29  394.2419
  30  387.3574
  31  439.5117
  32  450.9267
  33  428.8199
  34  440.1926
  35  431.1815
  36  476.511
  37  441.1757
  38  433.3974
  39  293.7469
  40  350.2456
  41  511.447
  42  454.6609
  43  441.732
  44  302.6706
  45  425.566
  46  296.4702
  47  384.7177
  48  450.4149
  49  377.6134
  50  396.0905
  51  410.6856
  52  397.4399
  53  360.5847
  54  420.4527
  55  467.6102
  56  366.6197
  57  307.5432
  58  278.4536
  59  358.8021
  60  477.4501
  61  423.0422
  62  458.4382
  63  578.3309
  64  480.0893
  65  464.3031
  66  415.7065
  67  466.2126
  68  416.0042
  69  440.7582
  70  563.599
  71  457.4401
  72  334.5976
  73  354.7729
  74  353.5688
  75  277.8945
  76  345.0158
  77  420.8069
  78  444.7448
  79  485.2505
  80  466.321
  81  445.161
  82  370.7824
  83  496.8071
  84  473.6447
  85  448.4138
  86  442.7332
  87  300.6478
  88  457.6744
  89  296.4042
  90  305.811
  91  309.3861
  92  348.9742
  93  290.2516
  94  437.4482
  95  348.2626
  96  354.8201
  97  419.8055
  98  465.7973
  99  441.3033
 100  478.8666
 101  393.5594
 102  419.9611
 103  404.7302
 104  364.6618
 105  280.814
 106  220.6703
 107  223.5813
 108  357.3654
 109  470.4883
 110  504.1545
 111  567.0152
 112  593.2455
 113  502.8174
 114  391.2977
 115  488.0868
 116  561.2643
 117  548.1724
 118  432.4731
 119  424.6646
 120  314.4062
 121  376.1772
 122  453.827
 123  436.6451
 124  368.2193
 125  382.5111
 126  299.8503
 127  382.02
 128  486.3655
 129  495.5058
 130  465.3771
 131  356.2755
 132  306.3036
 133  460.2939
 134  391.9514
 135  371.006
 136  323.2216
 137  380.2943
 138  419.1318
 139  493.9321
 140  366.7619
 141  400.7857
 142  295.6376
 143  263.6823
 144  424.7186
 145  459.8864
 146  443.2661
 147  316.0492
 148  376.1071
 149  485.8902
 150  508.3251
 151  435.6462
 152  482.959
 153  361.9588
 154  375.5625
 155  396.6682
 156  375.3362
 157  434.3822
 158  429.9218
 159  503.7643
 160  483.1605
 161  496.4508
 162  481.4823
 163  398.1345
 164  335.7401
 165  377.0573
 166  338.8093
 167  400.5319
 168  502.0152
 169  472.3772
 170  498.7148
 171  540.1682
 172  625.2627
 173  644.5483
 174  678.4603
 175  770.8532
 176  800.361
 177  723.9767
 178  652.6773
 179  531.7068
 180  515.0837
 181  443.6226
 182  452.9628
 183  448.8752
 184  383.5326
 185  425.3752
 186  450.0631
 187  462.9384
 188  434.0998
 189  454.4223
 190  468.6847
 191  521.8712
 192  456.5567
 193  360.924
 194  417.1694
 195  488.61
 196  445.1158
 197  517.2526
 198  453.3332
 199  386.4824
 200  501.6783
 201  490.9641
 202  450.0276
 203  464.742
 204  420.133
 205  393.9759
 206  383.4044
 207  495.8146
 208  431.2752
 209  343.981
 210  308.2884
 211  387.9348
 212  468.6797
 213  434.7985
 214  420.0974
 215  374.3229
 216  451.7463
 217  370.3941
 218  363.2237
 219  422.759
 220  471.4171
 221  462.2749
 222  368.6757
 223  438.1634
 224  495.1746
 225  536.7924
 226  471.493
 227  396.7515
 228  331.7055
 229  406.3195
 230  338.8175
 231  325.5937
 232  396.5639
 233  470.9106
 234  314.9248
 235  233.8027
 236  416.0042
 237  314.3241
 238  329.3932
 239  348.9521
 240  323.2457
 241  349.7896
 242  388.4554
 243  422.6937
 244  455.9481
 245  445.333
 246  366.9922
 247  361.5653
 248  379.7969
 249  336.4508
 250  322.7933
 251  309.7057
 252  376.3008
 253  421.5567
 254  427.588
 255  444.0927
 256  413.9359
 257  435.0838
 258  493.5485
 259  391.2809
 260  363.5161
 261  417.3728
 262  408.5883
 263  514.1868
 264  443.5115
 265  433.7281
 266  485.7776
 267  410.9453
 268  442.0957
 269  456.2563
 270  420.8689
 271  341.0627
 272  396.9816
 273  414.7749
 274  424.8238
 275  326.3943
 276  327.8117
 277  388.5142
 278  428.9052
 279  396.8944
 280  409.7672
 281  394.1196
 282  300.9358
 283  299.7003
 284  332.9874
 285  424.3433
 286  435.494
 287  464.2558
 288  426.1212
 289  477.5571
 290  455.2643
 291  439.3397
 292  453.9107
 293  418.4471
 294  317.7628
 295  332.6756
 296  443.2791
 297  392.5977
 298  387.0589
 299  410.8411
 300  399.472
 301  422.412
 302  388.4374
 303  367.5236
 304  369.8239
 305  357.5152
 306  346.0302
 307  356.6324
 308  242.0865
 309  177.4077
 310  200.6409
 311  302.5749
 312  258.0134
 313  327.8563
 314  441.1898
 315  298.5642
 316  389.6323
 317  318.6983
 318  411.003
 319  455.5932
 320  340.7064
 321  366.7675
 322  477.3923
 323  523.6608
 324  547.1143
 325  513.0923
 326  505.988
 327  428.7552
 328  424.5659
 329  441.0635
 330  437.9752
 331  396.9027
 332  488.1437
 333  493.9106
 334  422.1049
 335  452.9111
 336  449.4905
 337  329.7278
 338  439.084
 339  526.6733
 340  369.9476
 341  396.0898
 342  479.879
 343  472.6497
 344  379.9666
 345  369.1036
 346  452.6937
 347  484.8365
 348  543.5567
 349  437.326
 350  389.8192
 351  485.3457
 352  508.2619
 353  406.9185
 354  488.57
 355  471.0825
 356  506.7871
 357  474.3219
 358  343.8655
 359  272.3017
 360  360.0822
 361  412.6174
 362  400.0572
 363  375.0663
 364  330.9961
 365  343.6953
 366  435.3293
 367  504.6136
 368  476.5895
 369  439.7708
 370  456.9351
 371  518.2554
 372  502.2718
 373  438.6672
 374  460.4096
 375  367.7029
 376  294.8516
 377  362.0652
 378  304.5374
 379  392.276
 380  312.2756
 381  415.1852
 382  351.1046
 383  359.8591
 384  341.3325
 385  306.4853
 386  436.4571
 387  451.0143
 388  385.3063
 389  296.7139
 390  395.5408
 391  377.0167
 392  457.0415
 393  384.8206
 394  314.8952
 395  289.5343
 396  432.1764
 397  504.7781
 398  461.7935
 399  447.3261
 400  365.9727
 401  373.9442
 402  456.5099
 403  547.165
 404  528.9112
 405  540.1218
 406  470.8733
 407  430.0014
 408  536.342
 409  533.9205
 410  489.5679
 411  408.1639
 412  429.929
 413  505.2683
 414  538.9825
 415  523.0425
 416  382.1728
 417  409.4856
 418  358.2048
 419  385.7492
 420  363.7885
 421  260.3136
 422  464.3241
 423  440.6242
 424  377.0278
 425  419.2085
 426  383.6057
 427  359.97
 428  401.6804
 429  438.6281
 430  439.5278
 431  496.1939
 432  485.2231
 433  417.2376
 434  443.9621
 435  513.6108
 436  439.1981
 437  508.1043
 438  503.7823
 439  251.6623
 440  247.8535
 441  386.2757
 442  412.7641
 443  381.2616
 444  345.1806
 445  348.3976
 446  398.3584
 447  436.9634
 448  455.4698
 449  438.2811
 450  518.311
 451  404.6594
 452  319.2931
 453  314.2958
 454  355.8793
 455  408.7179
 456  452.3232
 457  584.2039
 458  449.7026
 459  370.2329
 460  340.7795
 461  363.6303
 462  410.7106
 463  410.9869
 464  466.5947
 465  584.4954
 466  621.8885
 467  470.4023
 468  389.6234
 469  435.0464
 470  466.097
 471  570.872
 472  512.1665
 473  434.3534
 474  412.1738
 475  364.0482
 476  316.8971
 477  349.2086
 478  482.2748
 479  496.725
 480  388.9573
 481  538.5916
 482  518.2596
 483  438.8218
 484  486.9101
 485  477.2425
 486  444.2407
 487  479.1487
 488  566.4658
 489  492.16
 490  345.7592
 491  313.1754
 492  302.9195
 493  366.8318
 494  406.3823
 495  475.6484
 496  413.1011
 497  464.782
 498  298.5092
 499  244.1671
 500  291.9865
 501  410.4598
 502  324.0834
 503  299.032
 504  303.2975
 505  356.5199
 506  402.0971
 507  444.6002
 508  405.8437
 509  417.2448
 510  397.243
 511  453.426
