# Input file       =  1181370785.111264_cleaned.dat
# Candidate        =  PSR_0332+5434
# Telescope        =  AR
# Epoch_topo       =  57917.272767491479
# Epoch_bary       =  N/A
# T_sample         =  0.002
# Data Folded      =  7340032
# Data Avg         =  0.014959803051729
# Data StdDev      =  0.999971741117867
# Profile Bins     =  512
# Profile Avg      =  214.450538334038 
# Profile StdDev   =  119.729652855004 
# Reduced chi-sqr  =  1.234
# Prob(Noise)      <  0.000229   (~3.5 sigma)
# P_topo (ms)      =  714.504848189291  +/- 0.000393
# P'_topo (s/s)    =  -0                +/- 2.07e-10
# P''_topo (s/s^2) =  0                 +/- 9.15e-14
# P_bary (ms)      =  N/A
# P'_bary (s/s)    =  N/A
# P''_bary (s/s^2) =  N/A
# P_orb (s)        =  N/A
# asin(i)/c (s)    =  N/A
# eccentricity     =  N/A
# w (rad)          =  N/A
# T_peri           =  N/A
######################################################
   0  152.4515
   1  190.4249
   2  135.0501
   3  106.0868
   4  98.77029
   5  117.4707
   6  281.3864
   7  329.8358
   8  273.8566
   9  175.8659
  10  223.125
  11  213.0334
  12  261.4258
  13  283.9721
  14  227.5829
  15  159.164
  16  203.7221
  17  152.6622
  18  146.9204
  19  148.5583
  20  53.75139
  21  -15.65904
  22  134.6868
  23  184.5002
  24  126.6128
  25  160.8662
  26  86.60765
  27  29.9158
  28  68.20865
  29  98.66094
  30  119.666
  31  240.501
  32  187.2391
  33  113.5317
  34  65.86904
  35  216.533
  36  214.7076
  37  221.8134
  38  190.3126
  39  133.5119
  40  160.7475
  41  167.1236
  42  9.615093
  43  -52.63589
  44  133.6145
  45  223.3646
  46  281.8356
  47  269.4767
  48  155.9562
  49  108.4891
  50  207.2464
  51  191.7709
  52  142.4827
  53  154.7184
  54  160.8549
  55  296.0628
  56  288.3752
  57  265.4872
  58  258.2789
  59  243.8497
  60  193.1775
  61  205.3723
  62  173.0757
  63  327.2672
  64  234.0103
  65  181.2706
  66  220.5638
  67  207.6408
  68  229.6113
  69  153.2457
  70  220.1764
  71  234.2834
  72  288.4358
  73  201.317
  74  196.585
  75  205.7984
  76  39.23964
  77  55.53657
  78  216.854
  79  222.9805
  80  167.8091
  81  143.0516
  82  145.2514
  83  175.8171
  84  137.5961
  85  124.4123
  86  201.8201
  87  289.9338
  88  312.6276
  89  333.6584
  90  299.1966
  91  310.3297
  92  343.4907
  93  244.0623
  94  279.4893
  95  167.2418
  96  63.57061
  97  247.4207
  98  298.7769
  99  309.416
 100  280.3051
 101  159.2823
 102  214.7354
 103  337.3851
 104  320.236
 105  282.2398
 106  265.3167
 107  197.6738
 108  285.0642
 109  295.2291
 110  83.38017
 111  106.2093
 112  185.5766
 113  135.3865
 114  82.21872
 115  149.4358
 116  104.8785
 117  169.198
 118  313.1419
 119  258.9651
 120  190.2766
 121  245.9912
 122  168.6714
 123  128.4112
 124  221.1387
 125  243.6642
 126  176.0446
 127  76.41705
 128  72.04604
 129  185.3353
 130  160.6437
 131  120.0947
 132  162.6621
 133  185.7462
 134  151.506
 135  71.33935
 136  161.3919
 137  198.4409
 138  125.4221
 139  196.3884
 140  142.5698
 141  124.3286
 142  113.7395
 143  266.3856
 144  180.2482
 145  52.52986
 146  162.7339
 147  164.6774
 148  163.2115
 149  199.3053
 150  213.4354
 151  190.6969
 152  230.4162
 153  177.655
 154  134.9055
 155  96.79449
 156  208.4907
 157  176.4808
 158  224.5652
 159  241.9093
 160  162.4667
 161  67.98029
 162  158.7585
 163  172.3968
 164  181.5514
 165  275.0461
 166  358.7174
 167  365.7548
 168  384.7297
 169  291.8283
 170  281.2264
 171  317.4094
 172  287.9831
 173  226.0408
 174  169.9983
 175  148.6008
 176  160.4645
 177  193.0502
 178  170.5008
 179  247.9255
 180  242.0581
 181  289.4014
 182  227.931
 183  162.1447
 184  239.2037
 185  152.2135
 186  115.6865
 187  234.1285
 188  265.0611
 189  204.5871
 190  118.9358
 191  151.6335
 192  254.8504
 193  141.6045
 194  189.8226
 195  211.7578
 196  80.91388
 197  143.7059
 198  94.9292
 199  139.5052
 200  38.96212
 201  55.91302
 202  113.0949
 203  86.87332
 204  146.1096
 205  96.9007
 206  122.2293
 207  326.8276
 208  311.1868
 209  288.9307
 210  262.6035
 211  181.129
 212  196.4337
 213  224.3649
 214  261.6682
 215  240.0579
 216  195.7867
 217  284.5267
 218  221.2469
 219  61.55143
 220  109.4931
 221  211.2105
 222  277.3017
 223  277.2494
 224  204.4849
 225  115.3624
 226  208.4523
 227  276.2274
 228  158.1671
 229  195.0862
 230  323.395
 231  207.041
 232  237.4373
 233  232.2623
 234  131.7141
 235  245.7745
 236  288.3434
 237  185.2117
 238  204.4527
 239  289.1492
 240  332.584
 241  292.8037
 242  244.8095
 243  283.4728
 244  259.0394
 245  293.5403
 246  311.0836
 247  195.8473
 248  191.4601
 249  274.7781
 250  326.6542
 251  262.0257
 252  265.3546
 253  80.79502
 254  148.1678
 255  232.0051
 256  233.5278
 257  307.9649
 258  209.9096
 259  307.3759
 260  380.1171
 261  331.7441
 262  304.2609
 263  314.2817
 264  348.284
 265  321.646
 266  371.9806
 267  329.8582
 268  265.8901
 269  326.7356
 270  356.5138
 271  212.3891
 272  232.2564
 273  219.1969
 274  113.6999
 275  206.0365
 276  259.0821
 277  345.7003
 278  157.0532
 279  206.3935
 280  148.1921
 281  151.2087
 282  48.72425
 283  108.6787
 284  263.6154
 285  311.0782
 286  236.9873
 287  278.4187
 288  150.6596
 289  167.6798
 290  239.8254
 291  223.4009
 292  215.1297
 293  176.9328
 294  256.96
 295  226.4084
 296  54.90482
 297  124.8398
 298  271.9262
 299  260.6
 300  301.0623
 301  157.2928
 302  120.0112
 303  145.4722
 304  250.7353
 305  381.2564
 306  255.7732
 307  153.673
 308  181.6062
 309  337.8788
 310  279.2173
 311  276.9347
 312  275.8232
 313  298.2844
 314  238.8482
 315  296.3408
 316  260.1647
 317  287.1036
 318  239.1895
 319  226.4896
 320  236.2567
 321  201.4238
 322  136.897
 323  251.9562
 324  290.2222
 325  238.046
 326  204.6286
 327  304.4321
 328  275.7325
 329  219.522
 330  217.7124
 331  275.3545
 332  253.6791
 333  262.0601
 334  320.1909
 335  310.8471
 336  258.6617
 337  98.88727
 338  179.1512
 339  247.6372
 340  296.0189
 341  205.5865
 342  259.6192
 343  212.1988
 344  121.864
 345  338.5273
 346  380.4363
 347  335.535
 348  324.0454
 349  352.4363
 350  281.8312
 351  198.1915
 352  195.6945
 353  163.789
 354  163.6226
 355  157.2526
 356  210.4055
 357  273.3149
 358  307.7901
 359  152.446
 360  215.1251
 361  235.7094
 362  273.8348
 363  181.5984
 364  264.5321
 365  332.5468
 366  251.792
 367  218.6329
 368  -14.92951
 369  17.6443
 370  150.9068
 371  240.1825
 372  227.2846
 373  213.4205
 374  204.6928
 375  58.98314
 376  7.947424
 377  110.3088
 378  143.735
 379  174.6289
 380  41.01297
 381  176.4821
 382  247.3095
 383  179.5176
 384  172.555
 385  221.6669
 386  312.1173
 387  300.1235
 388  213.8429
 389  148.4775
 390  183.8349
 391  94.1384
 392  123.3931
 393  184.2355
 394  194.1062
 395  196.8938
 396  43.86189
 397  134.6511
 398  89.3686
 399  129.0324
 400  208.7162
 401  213.9523
 402  230.1127
 403  174.5446
 404  122.9613
 405  270.8568
 406  255.1641
 407  110.7946
 408  174.9974
 409  320.0755
 410  372.281
 411  154.6734
 412  181.5708
 413  280.197
 414  287.0882
 415  282.1729
 416  329.6133
 417  347.8912
 418  235.1643
 419  241.5474
 420  187.6256
 421  315.7364
 422  260.4759
 423  376.3512
 424  424.8865
 425  353.2021
 426  366.6273
 427  423.612
 428  323.1024
 429  280.3644
 430  289.0784
 431  416.3047
 432  245.5247
 433  285.5444
 434  263.0977
 435  184.3687
 436  229.0781
 437  159.4415
 438  250.3665
 439  245.0676
 440  162.6331
 441  273.2778
 442  334.0348
 443  269.0901
 444  263.7224
 445  278.1531
 446  249.3075
 447  172.1911
 448  216.4543
 449  189.5407
 450  246.6844
 451  124.3519
 452  214.5812
 453  199.2498
 454  295.5219
 455  379.9449
 456  380.706
 457  374.407
 458  473.6019
 459  579.7003
 460  639.015
 461  682.1562
 462  612.1333
 463  695.5939
 464  608.2321
 465  493.627
 466  479.7397
 467  260.5209
 468  251.422
 469  161.023
 470  263.0317
 471  306.7443
 472  279.7187
 473  94.69261
 474  229.5324
 475  296.3629
 476  299.2532
 477  203.6958
 478  133.3305
 479  66.12708
 480  155.0321
 481  191.2461
 482  258.3224
 483  109.9297
 484  2.910294
 485  80.51227
 486  163.7997
 487  220.7216
 488  187.2334
 489  99.78791
 490  97.15047
 491  124.0698
 492  80.19216
 493  190.2366
 494  85.81849
 495  64.91038
 496  176.8114
 497  114.8932
 498  130.2814
 499  156.855
 500  248.6612
 501  136.4091
 502  167.1853
 503  85.12777
 504  68.90253
 505  86.26146
 506  184.927
 507  130.7704
 508  81.02716
 509  79.77525
 510  144.2854
 511  51.92496
