# Input file       =  1181356138.126529_cleaned.dat
# Candidate        =  PSR_0332+5434
# Telescope        =  AR
# Epoch_topo       =  57917.103242205194
# Epoch_bary       =  N/A
# T_sample         =  0.002
# Data Folded      =  7208960
# Data Avg         =  0.029673922532865
# Data StdDev      =  1.00001671372656 
# Profile Bins     =  512
# Profile Avg      =  417.79069567483  
# Profile StdDev   =  118.661159030548 
# Reduced chi-sqr  =  0.878
# Prob(Noise)      <  0.978   (~0.0 sigma)
# P_topo (ms)      =  714.504995604524  +/- 0.000263
# P'_topo (s/s)    =  -0                +/- 1.41e-10
# P''_topo (s/s^2) =  0                 +/- 6.34e-14
# P_bary (ms)      =  N/A
# P'_bary (s/s)    =  N/A
# P''_bary (s/s^2) =  N/A
# P_orb (s)        =  N/A
# asin(i)/c (s)    =  N/A
# eccentricity     =  N/A
# w (rad)          =  N/A
# T_peri           =  N/A
######################################################
   0  831.0514
   1  769.3452
   2  615.6535
   3  459.2083
   4  511.8247
   5  518.5709
   6  460.9411
   7  543.0864
   8  490.6698
   9  422.2976
  10  431.9033
  11  395.6656
  12  309.1033
  13  422.1668
  14  454.4287
  15  533.3943
  16  499.9543
  17  463.6451
  18  435.2078
  19  435.1277
  20  327.3061
  21  316.7081
  22  355.6098
  23  346.8521
  24  427.2769
  25  471.2323
  26  444.5439
  27  294.3698
  28  292.8873
  29  287.9266
  30  399.7161
  31  484.2336
  32  470.6764
  33  381.1047
  34  398.0552
  35  346.2341
  36  383.6927
  37  464.2585
  38  454.72
  39  419.6064
  40  359.9113
  41  322.3011
  42  439.1979
  43  425.4246
  44  396.8465
  45  379.7567
  46  398.6412
  47  369.0391
  48  325.4414
  49  374.6203
  50  490.8181
  51  414.1992
  52  520.9581
  53  421.5427
  54  321.3202
  55  348.7381
  56  379.6182
  57  478.2049
  58  483.6091
  59  529.7318
  60  425.1449
  61  478.8835
  62  419.4549
  63  424.8717
  64  372.0695
  65  327.7711
  66  346.1914
  67  393.2346
  68  547.603
  69  548.5424
  70  440.5151
  71  434.7769
  72  369.0701
  73  366.3877
  74  387.6237
  75  414.4837
  76  307.0508
  77  400.256
  78  377.2764
  79  465.5114
  80  412.0265
  81  355.6711
  82  550.0895
  83  521.52
  84  533.7802
  85  561.0066
  86  470.6877
  87  426.8003
  88  385.2447
  89  445.0201
  90  392.9346
  91  377.7144
  92  349.8967
  93  459.4197
  94  484.8217
  95  461.5588
  96  480.6719
  97  411.2439
  98  381.3657
  99  452.4175
 100  429.55
 101  341.6226
 102  314.0457
 103  506.8976
 104  516.7586
 105  443.5522
 106  399.2976
 107  343.5925
 108  393.996
 109  395.0119
 110  407.4667
 111  438.9908
 112  425.2521
 113  351.6159
 114  345.8694
 115  332.4001
 116  371.1761
 117  487.1071
 118  506.0817
 119  532.4565
 120  472.8444
 121  370.9386
 122  373.1438
 123  325.6724
 124  388.9519
 125  386.3845
 126  499.0058
 127  510.2419
 128  451.9477
 129  499.7891
 130  495.6189
 131  459.2944
 132  545.8841
 133  507.527
 134  486.3337
 135  464.849
 136  465.5366
 137  457.3695
 138  442.7828
 139  320.9391
 140  293.4978
 141  386.9916
 142  382.73
 143  383.5088
 144  421.717
 145  453.8372
 146  394.6672
 147  479.2453
 148  503.3854
 149  409.8529
 150  394.6735
 151  492.6116
 152  515.4943
 153  407.7647
 154  475.9873
 155  433.0701
 156  382.1803
 157  469.1272
 158  489.0715
 159  308.1222
 160  309.8672
 161  331.3032
 162  404.5287
 163  337.8813
 164  265.649
 165  471.4081
 166  422.0058
 167  302.8301
 168  355.8741
 169  353.8778
 170  337.8319
 171  304.4531
 172  306.1256
 173  250.3688
 174  360.3544
 175  399.8947
 176  448.9895
 177  426.3061
 178  385.292
 179  270.2861
 180  395.6789
 181  477.258
 182  514.8584
 183  447.2416
 184  482.4651
 185  418.6657
 186  317.5268
 187  356.75
 188  417.4358
 189  370.6847
 190  350.5795
 191  352.032
 192  390.5066
 193  354.8508
 194  323.3076
 195  388.9605
 196  417.9601
 197  400.7129
 198  307.9775
 199  299.3628
 200  382.6641
 201  346.9512
 202  407.1057
 203  454.5433
 204  472.0228
 205  422.6504
 206  462.1918
 207  448.7956
 208  358.5651
 209  294.7017
 210  332.1902
 211  301.5097
 212  372.1305
 213  368.9662
 214  392.1768
 215  393.309
 216  348.7566
 217  369.5688
 218  425.485
 219  436.6272
 220  379.9946
 221  340.2435
 222  342.6451
 223  349.8439
 224  441.0984
 225  325.2515
 226  433.9046
 227  423.2371
 228  405.1504
 229  404.7107
 230  366.3622
 231  309.2758
 232  334.8712
 233  325.4026
 234  491.9631
 235  514.0493
 236  524.5206
 237  410.725
 238  300.3555
 239  308.7832
 240  311.0882
 241  402.5791
 242  430.5922
 243  321.8935
 244  268.5818
 245  317.3871
 246  306.0565
 247  309.1874
 248  358.4239
 249  365.157
 250  319.2018
 251  415.5954
 252  402.33
 253  396.1591
 254  433.1923
 255  431.0585
 256  648.2437
 257  549.0489
 258  425.7459
 259  363.1916
 260  372.3452
 261  379.7269
 262  391.942
 263  329.3776
 264  429.9865
 265  475.1182
 266  449.1216
 267  387.5842
 268  398.425
 269  497.6092
 270  459.5356
 271  402.0303
 272  464.1854
 273  433.5859
 274  408.1939
 275  415.2856
 276  478.4517
 277  483.5263
 278  449.1797
 279  329.1357
 280  380.9427
 281  384.8159
 282  338.2325
 283  301.9081
 284  396.8254
 285  511.524
 286  515.7155
 287  486.3162
 288  348.6445
 289  345.3334
 290  486.5568
 291  494.8268
 292  522.7579
 293  399.8644
 294  417.6128
 295  272.6209
 296  362.6086
 297  481.5998
 298  436.5443
 299  298.6686
 300  469.554
 301  480.8118
 302  442.8445
 303  436.4692
 304  457.8751
 305  430.9411
 306  448.0805
 307  347.5595
 308  283.9056
 309  315.8614
 310  336.328
 311  335.8422
 312  379.0193
 313  360.6181
 314  241.4203
 315  230.6311
 316  331.381
 317  387.2825
 318  310.7008
 319  385.4531
 320  349.0183
 321  327.9474
 322  372.2141
 323  205.5013
 324  334.0146
 325  340.9966
 326  290.7734
 327  354.8077
 328  404.0216
 329  370.25
 330  378.0898
 331  320.9265
 332  474.8953
 333  430.1447
 334  340.3746
 335  462.8415
 336  425.2196
 337  374.282
 338  450.8182
 339  322.0927
 340  436.8285
 341  515.8225
 342  487.6121
 343  458.9561
 344  507.3088
 345  389.4414
 346  434.8162
 347  449.6779
 348  354.5289
 349  389.3414
 350  414.6683
 351  455.0749
 352  448.8053
 353  377.1266
 354  393.2334
 355  325.8898
 356  434.257
 357  507.6088
 358  451.446
 359  486.8943
 360  434.6076
 361  313.9337
 362  434.9907
 363  449.0652
 364  430.3143
 365  451.8358
 366  455.4201
 367  510.1754
 368  418.1355
 369  492.8793
 370  441.6544
 371  404.5392
 372  524.7398
 373  458.534
 374  417.635
 375  369.8985
 376  375.2457
 377  449.5477
 378  345.4471
 379  249.861
 380  307.5168
 381  427.9331
 382  414.1327
 383  401.4248
 384  453.578
 385  375.9469
 386  341.4825
 387  394.02
 388  420.2257
 389  478.0659
 390  515.9839
 391  477.9055
 392  415.1891
 393  358.5129
 394  273.4743
 395  325.267
 396  420.4674
 397  431.997
 398  426.0641
 399  399.7825
 400  499.4477
 401  499.3796
 402  534.7052
 403  452.7045
 404  410.7529
 405  547.5246
 406  586.65
 407  526.0114
 408  589.9099
 409  560.5584
 410  426.414
 411  420.285
 412  465.8133
 413  487.6999
 414  492.9165
 415  490.7245
 416  503.1588
 417  394.4637
 418  352.7056
 419  435.4448
 420  455.6754
 421  529.1022
 422  560.1881
 423  443.7181
 424  525.3235
 425  447.7961
 426  492.6137
 427  439.77
 428  371.6254
 429  342.1961
 430  412.0477
 431  394.7297
 432  387.703
 433  339.3037
 434  506.0735
 435  556.2167
 436  446.2994
 437  472.7605
 438  321.088
 439  379.76
 440  474.9137
 441  537.1487
 442  580.9229
 443  529.4019
 444  490.4051
 445  425.8664
 446  370.2133
 447  416.1519
 448  470.7028
 449  449.6457
 450  399.7528
 451  411.1821
 452  345.6029
 453  428.7447
 454  468.68
 455  454.8963
 456  408.0403
 457  359.9881
 458  470.789
 459  514.6584
 460  429.8708
 461  329.1629
 462  443.1918
 463  486.0087
 464  499.6301
 465  482.7195
 466  415.5005
 467  358.1431
 468  413.0512
 469  446.1741
 470  347.1602
 471  373.4897
 472  422.3209
 473  370.47
 474  382.4695
 475  480.9637
 476  308.5431
 477  368.2555
 478  443.0864
 479  359.4946
 480  322.6511
 481  467.5136
 482  568.0252
 483  519.3555
 484  483.0735
 485  382.4839
 486  305.2127
 487  371.4218
 488  358.2923
 489  373.705
 490  366.4801
 491  368.2475
 492  476.6744
 493  480.1596
 494  382.9097
 495  489.0145
 496  596.7204
 497  615.1525
 498  507.1242
 499  367.918
 500  326.1286
 501  367.8672
 502  330.9507
 503  290.8358
 504  397.2801
 505  385.0361
 506  407.91
 507  480.1243
 508  575.7429
 509  776.257
 510  777.2465
 511  831.7295
