# Input file       =  1181198473.10547_cleaned.dat
# Candidate        =  PSR_0332+5434
# Telescope        =  AR
# Epoch_topo       =  57915.278415572568
# Epoch_bary       =  N/A
# T_sample         =  0.002
# Data Folded      =  7340032
# Data Avg         =  0.0297696347621457
# Data StdDev      =  1.00000571681125 
# Profile Bins     =  512
# Profile Avg      =  426.72880224857  
# Profile StdDev   =  119.733720867936 
# Reduced chi-sqr  =  1.264
# Prob(Noise)      <  4.57e-05   (~3.9 sigma)
# P_topo (ms)      =  714.506715567262  +/- 0.00025
# P'_topo (s/s)    =  -0                +/- 1.32e-10
# P''_topo (s/s^2) =  0                 +/- 5.83e-14
# P_bary (ms)      =  N/A
# P'_bary (s/s)    =  N/A
# P''_bary (s/s^2) =  N/A
# P_orb (s)        =  N/A
# asin(i)/c (s)    =  N/A
# eccentricity     =  N/A
# w (rad)          =  N/A
# T_peri           =  N/A
######################################################
   0  983.4632
   1  947.7637
   2  682.7958
   3  484.1128
   4  414.0186
   5  453.4971
   6  349.9132
   7  283.5312
   8  357.1078
   9  320.1633
  10  470.4288
  11  504.2107
  12  447.1463
  13  387.2038
  14  434.6215
  15  474.6228
  16  385.3198
  17  397.21
  18  423.7233
  19  328.3211
  20  303.0388
  21  334.0702
  22  466.734
  23  513.1895
  24  390.4958
  25  354.2057
  26  354.7363
  27  409.1418
  28  472.3679
  29  490.0791
  30  458.9099
  31  485.5477
  32  505.8452
  33  504.0308
  34  474.5519
  35  520.5811
  36  449.3225
  37  394.0033
  38  375.9771
  39  339.4214
  40  445.8531
  41  416.7877
  42  440.9412
  43  408.4525
  44  416.4776
  45  403.3604
  46  374.0613
  47  398.2843
  48  343.8083
  49  315.7065
  50  285.9392
  51  295.7308
  52  240.7315
  53  254.2139
  54  223.0255
  55  267.9895
  56  397.055
  57  427.7029
  58  457.2514
  59  398.6212
  60  361.9022
  61  462.5837
  62  375.7833
  63  339.8025
  64  395.0941
  65  455.7904
  66  464.1434
  67  405.6104
  68  461.3453
  69  367.5011
  70  330.4124
  71  338.0515
  72  377.526
  73  442.7109
  74  497.2183
  75  487.5273
  76  396.1635
  77  395.3268
  78  342.6577
  79  355.3462
  80  406.9958
  81  452.9589
  82  331.2497
  83  352.4955
  84  331.5002
  85  344.731
  86  413.9631
  87  415.8592
  88  399.2198
  89  365.0416
  90  351.6277
  91  291.6416
  92  343.5391
  93  172.0978
  94  161.8207
  95  261.7438
  96  254.1307
  97  266.9204
  98  309.7177
  99  416.155
 100  348.6939
 101  369.9083
 102  407.5861
 103  352.5426
 104  290.928
 105  207.9042
 106  279.883
 107  292.6692
 108  211.8916
 109  243.7176
 110  313.9259
 111  292.526
 112  407.8916
 113  532.0468
 114  398.8778
 115  316.7053
 116  328.0979
 117  389.2178
 118  429.4723
 119  407.9843
 120  478.7202
 121  512.7034
 122  377.5899
 123  280.4023
 124  270.5156
 125  391.4866
 126  431.9575
 127  367.0682
 128  281.1273
 129  334.9088
 130  354.5867
 131  436.2672
 132  400.1609
 133  267.2016
 134  291.1745
 135  270.3839
 136  255.2044
 137  307.2557
 138  346.2568
 139  335.8231
 140  376.5983
 141  274.3745
 142  287.7108
 143  298.6653
 144  361.2512
 145  270.2298
 146  291.864
 147  334.9294
 148  335.5982
 149  271.54
 150  294.4281
 151  358.4845
 152  434.6337
 153  396.6103
 154  425.5717
 155  418.3136
 156  490.4302
 157  437.8774
 158  406.2026
 159  404.2534
 160  352.4477
 161  363.6094
 162  406.1454
 163  544.1734
 164  447.3536
 165  316.1248
 166  423.118
 167  391.69
 168  420.3948
 169  431.6183
 170  515.4194
 171  601.4295
 172  405.029
 173  315.0354
 174  517.5387
 175  544.6908
 176  410.8731
 177  442.9057
 178  408.6837
 179  420.0708
 180  377.6188
 181  314.056
 182  432.6637
 183  421.5572
 184  361.56
 185  391.2888
 186  520.3236
 187  454.6665
 188  414.6819
 189  508.4508
 190  485.6231
 191  520.6366
 192  538.0878
 193  378.2666
 194  380.8417
 195  369.0497
 196  382.8861
 197  362.6577
 198  431.6394
 199  578.1545
 200  495.4288
 201  334.6663
 202  438.4791
 203  550.0612
 204  481.7506
 205  491.2485
 206  527.6891
 207  505.7356
 208  446.2022
 209  391.3036
 210  402.4316
 211  467.8397
 212  547.2098
 213  577.0642
 214  596.6838
 215  483.6933
 216  480.6819
 217  502.9765
 218  502.8781
 219  547.3398
 220  563.4515
 221  479.1629
 222  334.1523
 223  349.7509
 224  364.3889
 225  304.9838
 226  348.3264
 227  381.7919
 228  447.6448
 229  458.9324
 230  463.2747
 231  296.4516
 232  347.2853
 233  437.8766
 234  252.4877
 235  300.3145
 236  408.6429
 237  399.777
 238  359.3832
 239  407.1744
 240  415.9944
 241  387.7901
 242  480.1293
 243  568.2826
 244  484.2972
 245  521.8798
 246  580.5602
 247  529.0984
 248  509.5297
 249  603.7394
 250  528.5432
 251  527.9778
 252  481.6635
 253  467.8005
 254  539.8697
 255  461.2022
 256  334.5719
 257  364.7436
 258  472.606
 259  492.2472
 260  491.6434
 261  464.5251
 262  516.4625
 263  547.9885
 264  501.7398
 265  513.3737
 266  639.6181
 267  499.362
 268  421.3918
 269  411.2374
 270  479.7706
 271  533.1314
 272  463.7159
 273  432.5977
 274  443.987
 275  476.5192
 276  540.1149
 277  501.0129
 278  430.6376
 279  396.2606
 280  372.1368
 281  409.8265
 282  519.0656
 283  540.9594
 284  504.0649
 285  492.319
 286  445.3354
 287  468.0205
 288  446.253
 289  355.7142
 290  471.8312
 291  504.4975
 292  552.0892
 293  609.8481
 294  609.7953
 295  608.1046
 296  571.5516
 297  507.587
 298  500.9605
 299  434.54
 300  325.5485
 301  392.114
 302  478.5442
 303  434.6582
 304  429.4193
 305  408.9338
 306  426.2735
 307  309.9055
 308  269.3909
 309  244.0207
 310  351.4233
 311  407.4816
 312  359.802
 313  435.2621
 314  496.3886
 315  451.7327
 316  374.8649
 317  343.4157
 318  355.8941
 319  398.6179
 320  325.9434
 321  272.8906
 322  232.164
 323  468.3168
 324  533.2509
 325  336.6313
 326  427.776
 327  450.6415
 328  372.7606
 329  350.4488
 330  418.6916
 331  545.3965
 332  564.7022
 333  425.3241
 334  342.2615
 335  483.6609
 336  642.4218
 337  641.4041
 338  591.3527
 339  484.9391
 340  433.5783
 341  391.1048
 342  358.4562
 343  421.8533
 344  600.0662
 345  585.1559
 346  423.0223
 347  420.904
 348  521.2327
 349  460.9939
 350  399.3954
 351  292.0906
 352  457.31
 353  563.4078
 354  411.8488
 355  413.603
 356  507.5675
 357  528.7269
 358  403.3728
 359  426.2429
 360  408.0109
 361  474.1024
 362  450.9092
 363  402.9631
 364  454.5955
 365  567.8757
 366  448.0749
 367  374.6638
 368  527.0075
 369  523.0909
 370  544.8047
 371  599.8447
 372  452.2917
 373  366.1505
 374  463.8654
 375  470.5063
 376  530.4104
 377  482.9163
 378  362.7262
 379  397.8149
 380  470.5504
 381  470.4251
 382  384.2492
 383  451.2507
 384  431.0909
 385  562.2322
 386  617.5298
 387  410.8886
 388  345.3165
 389  481.3175
 390  539.1923
 391  440.4281
 392  406.0713
 393  363.831
 394  281.0282
 395  424.9143
 396  431.9672
 397  378.2954
 398  339.3377
 399  390.7679
 400  399.3497
 401  515.236
 402  517.1063
 403  488.655
 404  479.7326
 405  423.9229
 406  381.9404
 407  345.5238
 408  534.7051
 409  433.0131
 410  348.5869
 411  420.8359
 412  551.6466
 413  485.1482
 414  371.1005
 415  351.3003
 416  398.2095
 417  338.4964
 418  361.0275
 419  454.5396
 420  553.6333
 421  579.8816
 422  500.1953
 423  533.999
 424  426.9039
 425  402.353
 426  393.1176
 427  423.6562
 428  450.2481
 429  456.4048
 430  290.1305
 431  400.7782
 432  363.2139
 433  359.0581
 434  319.4476
 435  311.459
 436  489.9964
 437  516.4325
 438  379.5035
 439  396.7166
 440  327.671
 441  373.5988
 442  381.3018
 443  421.3124
 444  415.7847
 445  473.5477
 446  429.7958
 447  422.9834
 448  436.8696
 449  327.3277
 450  303.3661
 451  443.9153
 452  524.6896
 453  374.0153
 454  371.0609
 455  420.9234
 456  466.9454
 457  415.5884
 458  566.1629
 459  588.3929
 460  539.6899
 461  437.5722
 462  497.1667
 463  502.0365
 464  351.5786
 465  326.7158
 466  371.1163
 467  380.0127
 468  374.8648
 469  384.188
 470  344.0106
 471  411.1372
 472  439.5167
 473  527.9743
 474  518.7307
 475  555.6966
 476  541.9923
 477  563.4317
 478  412.3867
 479  388.0674
 480  418.5152
 481  467.0627
 482  330.9218
 483  412.4866
 484  449.1694
 485  341.1692
 486  321.2855
 487  411.1499
 488  415.1236
 489  447.192
 490  430.6772
 491  494.2809
 492  398.4591
 493  364.6657
 494  446.8213
 495  386.5123
 496  505.2422
 497  518.7427
 498  365.1052
 499  267.9491
 500  426.7943
 501  494.7782
 502  550.1697
 503  564.8942
 504  478.484
 505  453.3528
 506  482.8514
 507  515.7943
 508  603.7051
 509  768.1397
 510  843.8914
 511  883.5501
