# Input file       =  1181183852.10865_cleaned.dat
# Candidate        =  PSR_0332+5434
# Telescope        =  AR
# Epoch_topo       =  57915.109191072341
# Epoch_bary       =  N/A
# T_sample         =  0.002
# Data Folded      =  7143424
# Data Avg         =  0.0286019501727496
# Data StdDev      =  1.00005592969384 
# Profile Bins     =  512
# Profile Avg      =  399.073320921332 
# Profile StdDev   =  118.125190818134 
# Reduced chi-sqr  =  0.979
# Prob(Noise)      <  0.627   (~0.0 sigma)
# P_topo (ms)      =  714.506864615475  +/- 0.00039
# P'_topo (s/s)    =  -0                +/- 2.11e-10
# P''_topo (s/s^2) =  0                 +/- 9.58e-14
# P_bary (ms)      =  N/A
# P'_bary (s/s)    =  N/A
# P''_bary (s/s^2) =  N/A
# P_orb (s)        =  N/A
# asin(i)/c (s)    =  N/A
# eccentricity     =  N/A
# w (rad)          =  N/A
# T_peri           =  N/A
######################################################
   0  802.7651
   1  888.4713
   2  833.177
   3  710.3286
   4  510.6001
   5  548.4878
   6  498.2188
   7  503.0328
   8  451.842
   9  492.4726
  10  404.8193
  11  386.9973
  12  445.8091
  13  558.9813
  14  488.4103
  15  509.712
  16  466.1439
  17  405.4578
  18  535.7759
  19  561.4785
  20  516.6442
  21  483.3799
  22  389.2908
  23  321.5433
  24  455.6156
  25  466.5882
  26  489.3344
  27  459.5833
  28  443.9308
  29  446.1772
  30  465.3571
  31  546.4456
  32  358.4249
  33  276.1376
  34  464.301
  35  480.2826
  36  472.1123
  37  460.5731
  38  359.0623
  39  429.8242
  40  476.0963
  41  397.9748
  42  432.4149
  43  564.9386
  44  502.2726
  45  470.6099
  46  489.322
  47  432.5305
  48  267.9438
  49  266.6077
  50  362.5665
  51  454.0042
  52  319.3062
  53  331.6736
  54  372.2667
  55  336.0176
  56  340.7834
  57  368.7712
  58  385.7821
  59  171.7855
  60  343.4456
  61  372.0909
  62  451.1814
  63  428.6894
  64  442.6963
  65  368.5121
  66  377.5811
  67  440.305
  68  440.4839
  69  489.7782
  70  420.7966
  71  426.2964
  72  367.6451
  73  313.9011
  74  240.8836
  75  294.5322
  76  388.7236
  77  419.5095
  78  438.6151
  79  451.4005
  80  379.9543
  81  372.8762
  82  396.6764
  83  382.1719
  84  342.3432
  85  469.6976
  86  432.7659
  87  338.6693
  88  329.5622
  89  345.5757
  90  271.1046
  91  308.1517
  92  423.4556
  93  540.7997
  94  404.8186
  95  331.871
  96  370.1596
  97  418.1563
  98  422.2826
  99  489.5312
 100  484.5503
 101  450.0917
 102  440.2323
 103  403.2855
 104  411.7811
 105  427.7649
 106  391.5896
 107  483.7399
 108  478.8107
 109  415.6651
 110  445.5639
 111  477.9673
 112  426.511
 113  341.495
 114  386.8106
 115  440.5953
 116  393.379
 117  409.4236
 118  393.0585
 119  350.9282
 120  393.5104
 121  352.6462
 122  470.1659
 123  397.9793
 124  277.2123
 125  338.3969
 126  392.1786
 127  429.1584
 128  461.2064
 129  397.6227
 130  351.7952
 131  324.9976
 132  404.5004
 133  411.8456
 134  429.594
 135  406.3929
 136  324.4392
 137  314.9826
 138  367.5101
 139  362.892
 140  399.3469
 141  411.6731
 142  464.3904
 143  487.6739
 144  306.7036
 145  324.9859
 146  335.6704
 147  362.1826
 148  304.3796
 149  354.5555
 150  350.4857
 151  439.4222
 152  412.838
 153  373.3828
 154  426.4359
 155  441.0689
 156  401.8801
 157  350.0668
 158  313.3251
 159  377.1569
 160  491.4782
 161  471.61
 162  447.8414
 163  473.8802
 164  459.762
 165  367.1584
 166  349.5529
 167  473.7905
 168  494.3494
 169  530.0582
 170  425.4142
 171  404.0215
 172  443.1658
 173  511.458
 174  430.0197
 175  364.0657
 176  453.7143
 177  543.3775
 178  572.9882
 179  426.8108
 180  437.1265
 181  471.4282
 182  371.6542
 183  354.597
 184  402.9342
 185  295.9812
 186  318.6904
 187  358.8607
 188  371.7212
 189  351.5264
 190  301.8534
 191  199.9175
 192  122.9273
 193  266.9872
 194  357.3053
 195  358.1731
 196  457.1112
 197  441.7301
 198  390.4723
 199  339.0354
 200  364.6701
 201  305.4373
 202  406.9516
 203  453.5549
 204  409.5729
 205  487.9837
 206  265.1141
 207  363.7087
 208  353.5586
 209  399.0632
 210  370.5493
 211  441.3805
 212  418.6579
 213  327.6477
 214  191.5796
 215  306.3412
 216  465.1135
 217  383.884
 218  338.7769
 219  413.2494
 220  217.585
 221  328.7517
 222  298.3064
 223  304.7623
 224  331.6886
 225  325.0173
 226  290.0693
 227  427.611
 228  480.4881
 229  314.8341
 230  263.2929
 231  274.9465
 232  320.6927
 233  426.2039
 234  399.4083
 235  330.5528
 236  368.8125
 237  333.8995
 238  257.929
 239  372.5711
 240  500.7976
 241  460.5557
 242  393.3096
 243  446.5274
 244  443.7665
 245  436.2153
 246  518.9844
 247  425.8736
 248  343.2892
 249  328.5019
 250  341.4673
 251  346.5186
 252  368.8239
 253  343.7213
 254  406.2733
 255  473.0446
 256  432.6569
 257  401.6681
 258  445.7529
 259  418.8206
 260  480.7219
 261  582.7039
 262  488.8104
 263  406.7782
 264  484.5561
 265  408.3241
 266  310.4793
 267  348.9177
 268  472.0657
 269  422.9294
 270  430.17
 271  463.0908
 272  445.4613
 273  404.5083
 274  409.8873
 275  294.4321
 276  371.4467
 277  313.0236
 278  323.2391
 279  334.0613
 280  273.713
 281  287.369
 282  243.1936
 283  385.0929
 284  433.7637
 285  522.3766
 286  373.0876
 287  360.2586
 288  233.0589
 289  334.9664
 290  347.4637
 291  348.0857
 292  398.0344
 293  430.3986
 294  469.28
 295  429.6862
 296  311.395
 297  334.2804
 298  337.2912
 299  358.8362
 300  390.4473
 301  399.1895
 302  416.0041
 303  433.6194
 304  371.4666
 305  394.8433
 306  415.778
 307  360.289
 308  333.8566
 309  377.5279
 310  272.4268
 311  274.2671
 312  315.4252
 313  478.302
 314  480.1929
 315  487.4718
 316  500.2417
 317  429.4518
 318  482.0765
 319  507.0506
 320  548.9936
 321  433.2255
 322  436.3728
 323  310.482
 324  260.0789
 325  402.8832
 326  371.3079
 327  472.4728
 328  484.981
 329  453.3259
 330  427.7062
 331  507.296
 332  618.1934
 333  461.9025
 334  430.5794
 335  440.1667
 336  447.2446
 337  506.8416
 338  362.0408
 339  289.0739
 340  367.8665
 341  475.2221
 342  502.4786
 343  384.7262
 344  296.7481
 345  338.8402
 346  408.5771
 347  451.9003
 348  411.9733
 349  514.4233
 350  411.2624
 351  422.5355
 352  388.6091
 353  447.5156
 354  342.351
 355  358.6729
 356  292.9352
 357  365.4115
 358  412.5459
 359  427.9742
 360  393.0908
 361  306.2723
 362  369.8816
 363  279.7362
 364  277.1479
 365  337.0643
 366  392.8435
 367  353.7596
 368  467.312
 369  415.3104
 370  304.7776
 371  265.3986
 372  433.1518
 373  388.5543
 374  254.7392
 375  335.7892
 376  450.1048
 377  499.5439
 378  482.1868
 379  335.0125
 380  402.5561
 381  412.3987
 382  361.4038
 383  340.9441
 384  314.6652
 385  359.7243
 386  377.2626
 387  505.9211
 388  464.6536
 389  414.5489
 390  349.2702
 391  392.95
 392  435.894
 393  418.5212
 394  339.2805
 395  253.5388
 396  421.1419
 397  440.3575
 398  509.2815
 399  529.4713
 400  413.6506
 401  428.4124
 402  369.0853
 403  334.0796
 404  367.968
 405  399.2385
 406  353.3898
 407  390.4951
 408  370.007
 409  383.4946
 410  549.4912
 411  458.2122
 412  444.0522
 413  375.2365
 414  370.0882
 415  293.6624
 416  312.7591
 417  338.3318
 418  390.3721
 419  293.1029
 420  254.4631
 421  245.5717
 422  293.897
 423  403.9661
 424  524.8335
 425  333.5745
 426  348.2809
 427  301.5401
 428  305.6942
 429  318.973
 430  371.0338
 431  438.8893
 432  487.5668
 433  327.6644
 434  234.6795
 435  175.8037
 436  170.3264
 437  383.2887
 438  430.6257
 439  405.8853
 440  335.2183
 441  273.9467
 442  406.7231
 443  353.4348
 444  380.6855
 445  353.7115
 446  392.3549
 447  335.5885
 448  349.914
 449  360.2054
 450  389.1504
 451  410.8887
 452  367.2331
 453  377.1465
 454  396.7433
 455  402.0237
 456  409.7724
 457  526.4379
 458  532.1088
 459  396.5926
 460  330.6892
 461  346.3441
 462  364.5564
 463  399.6868
 464  446.7412
 465  485.8785
 466  410.2449
 467  428.8203
 468  432.1415
 469  417.366
 470  502.6705
 471  430.9341
 472  471.0318
 473  385.1476
 474  286.688
 475  228.0753
 476  329.2188
 477  449.1096
 478  404.0127
 479  330.3467
 480  370.8356
 481  498.3648
 482  381.2934
 483  367.6277
 484  369.0106
 485  418.2216
 486  359.5972
 487  245.8798
 488  245.9339
 489  469.3091
 490  560.3406
 491  440.1583
 492  392.8844
 493  336.4543
 494  377.2085
 495  339.4849
 496  247.957
 497  384.6309
 498  464.9046
 499  397.0869
 500  385.8926
 501  474.3616
 502  413.4402
 503  369.643
 504  384.1586
 505  344.6379
 506  360.8821
 507  444.9062
 508  530.9426
 509  611.8655
 510  605.908
 511  675.8993
