# Input file       =  1181183852.10865_cleaned.dat
# Candidate        =  PSR_0332+5434
# Telescope        =  AR
# Epoch_topo       =  57915.109191072341
# Epoch_bary       =  N/A
# T_sample         =  0.002
# Data Folded      =  7143424
# Data Avg         =  0.0286019501727496
# Data StdDev      =  1.00005592969384 
# Profile Bins     =  512
# Profile Avg      =  399.07331929575  
# Profile StdDev   =  118.125190818134 
# Reduced chi-sqr  =  0.979
# Prob(Noise)      <  0.626   (~0.0 sigma)
# P_topo (ms)      =  714.506865893689  +/- 0.000384
# P'_topo (s/s)    =  -0                +/- 2.08e-10
# P''_topo (s/s^2) =  0                 +/- 9.45e-14
# P_bary (ms)      =  N/A
# P'_bary (s/s)    =  N/A
# P''_bary (s/s^2) =  N/A
# P_orb (s)        =  N/A
# asin(i)/c (s)    =  N/A
# eccentricity     =  N/A
# w (rad)          =  N/A
# T_peri           =  N/A
######################################################
   0  228.9019
   1  339.5983
   2  387.7697
   3  425.0755
   4  499.0005
   5  463.0648
   6  435.4335
   7  455.6543
   8  590.7621
   9  570.5415
  10  388.691
  11  473.0612
  12  403.0513
  13  511.0701
  14  438.8037
  15  303.2082
  16  314.8364
  17  433.0652
  18  510.8377
  19  441.6998
  20  321.3539
  21  308.4092
  22  370.5037
  23  470.9672
  24  390.1241
  25  507.9946
  26  440.6463
  27  428.4336
  28  389.5836
  29  424.0445
  30  406.6203
  31  329.145
  32  334.3445
  33  308.1988
  34  409.1642
  35  424.3271
  36  413.5624
  37  345.8594
  38  329.7211
  39  342.6964
  40  237.3998
  41  314.8212
  42  388.1614
  43  360.0072
  44  410.8637
  45  468.4079
  46  351.4827
  47  259.8699
  48  352.9847
  49  444.187
  50  283.724
  51  276.7871
  52  415.4533
  53  481.0092
  54  525.6462
  55  372.7452
  56  363.7657
  57  415.8291
  58  390.0441
  59  343.2199
  60  332.3614
  61  337.1864
  62  361.3104
  63  440.8716
  64  503.6944
  65  430.4817
  66  374.7396
  67  364.5098
  68  434.8193
  69  415.5295
  70  394.9038
  71  259.5272
  72  347.5464
  73  462.0899
  74  445.914
  75  555.5974
  76  450.2873
  77  427.265
  78  411.9333
  79  315.6862
  80  367.618
  81  369.9871
  82  388.6988
  83  349.4171
  84  403.6064
  85  348.4425
  86  506.5679
  87  502.819
  88  449.9525
  89  398.7181
  90  377.8479
  91  337.7914
  92  276.7119
  93  332.8701
  94  357.0773
  95  361.0195
  96  250.9572
  97  260.6156
  98  264.2101
  99  341.9528
 100  510.7835
 101  404.6393
 102  336.0119
 103  326.3633
 104  307.118
 105  298.8674
 106  352.3674
 107  403.806
 108  489.3228
 109  416.1656
 110  248.5763
 111  208.0915
 112  141.5969
 113  286.2604
 114  447.4113
 115  397.7758
 116  397.4977
 117  249.093
 118  377.5537
 119  387.5341
 120  365.7674
 121  365.0264
 122  354.1578
 123  389.4999
 124  307.248
 125  377.8227
 126  363.2532
 127  425.8026
 128  370.574
 129  369.7478
 130  372.6471
 131  424.4744
 132  384.0818
 133  473.3681
 134  559.8322
 135  450.7516
 136  354.9557
 137  333.3718
 138  349.8369
 139  380.1838
 140  419.7131
 141  485.6642
 142  452.7518
 143  403.6358
 144  447.591
 145  405.92
 146  481.5359
 147  455.9027
 148  454.1451
 149  440.7295
 150  332.4309
 151  231.0135
 152  266.0061
 153  397.4238
 154  456.847
 155  350.2669
 156  343.42
 157  457.9689
 158  439.1944
 159  357.6465
 160  373.7777
 161  392.6956
 162  397.0476
 163  298.4456
 164  209.8873
 165  377.9155
 166  546.7697
 167  504.9354
 168  401.3667
 169  359.5886
 170  348.2061
 171  377.9626
 172  272.4413
 173  305.4032
 174  453.2751
 175  433.5564
 176  373.4892
 177  426.1155
 178  477.5081
 179  354.9481
 180  398.383
 181  352.0621
 182  332.5366
 183  429.4827
 184  471.0876
 185  602.3922
 186  583.5015
 187  650.3113
 188  740.8788
 189  875.7484
 190  864.1998
 191  777.1079
 192  588.5599
 193  503.3582
 194  544.1023
 195  490.6625
 196  482.367
 197  467.268
 198  449.8733
 199  387.174
 200  404.2347
 201  514.6131
 202  540.254
 203  484.6803
 204  514.5198
 205  413.7695
 206  456.2288
 207  575.713
 208  536.8748
 209  485.4343
 210  458.7835
 211  309.6387
 212  419.1324
 213  458.1705
 214  493.676
 215  459.3007
 216  448.062
 217  443.9462
 218  449.434
 219  531.8452
 220  471.3208
 221  253.8985
 222  387.0388
 223  499.524
 224  441.2204
 225  496.8661
 226  393.8905
 227  385.2251
 228  475.7071
 229  419.0184
 230  407.888
 231  511.5974
 232  558.017
 233  466.8555
 234  471.5952
 235  483.0366
 236  332.9435
 237  256.812
 238  310.7845
 239  427.4954
 240  383.4788
 241  301.344
 242  366.7712
 243  351.8627
 244  335.4522
 245  353.9845
 246  405.4414
 247  249.7878
 248  238.9881
 249  393.7198
 250  406.3802
 251  444.0224
 252  436.1381
 253  395.3179
 254  362.6159
 255  417.8422
 256  444.501
 257  480.1407
 258  450.7853
 259  425.5489
 260  392.2549
 261  338.1857
 262  259.1867
 263  272.6456
 264  330.7754
 265  429.8586
 266  424.893
 267  462.6151
 268  423.972
 269  334.1716
 270  415.5627
 271  370.7279
 272  370.3736
 273  384.2885
 274  496.89
 275  352.217
 276  345.0722
 277  328.0526
 278  313.9552
 279  268.7479
 280  368.8019
 281  509.1088
 282  476.132
 283  342.5078
 284  358.362
 285  393.7279
 286  425.1958
 287  449.5345
 288  508.8804
 289  455.4207
 290  452.3531
 291  410.3778
 292  405.6727
 293  425.7267
 294  399.0619
 295  444.7464
 296  493.7084
 297  434.6986
 298  419.3088
 299  478.8969
 300  460.3393
 301  385.1582
 302  340.5733
 303  426.1357
 304  415.1093
 305  387.5341
 306  429.7563
 307  342.8299
 308  386.5787
 309  361.5891
 310  410.157
 311  464.0924
 312  311.7858
 313  287.5857
 314  394.3786
 315  392.7221
 316  476.8693
 317  406.507
 318  388.3086
 319  303.1221
 320  396.0937
 321  399.9214
 322  434.8599
 323  426.7411
 324  359.9634
 325  296.7941
 326  351.9644
 327  365.6544
 328  373.2969
 329  419.4521
 330  420.048
 331  513.3179
 332  382.4724
 333  301.0206
 334  328.9346
 335  370.5418
 336  301.6329
 337  347.0236
 338  339.7208
 339  400.6958
 340  447.6404
 341  360.9162
 342  414.6603
 343  422.6767
 344  438.2216
 345  379.5797
 346  324.6174
 347  328.1381
 348  449.4801
 349  488.2785
 350  468.0013
 351  447.5172
 352  479.4203
 353  406.4896
 354  337.2549
 355  429.4884
 356  485.4825
 357  527.9043
 358  464.0013
 359  405.4833
 360  409.6845
 361  505.8915
 362  476.4191
 363  393.9976
 364  391.9609
 365  510.8784
 366  576.3524
 367  489.4932
 368  409.6595
 369  467.5489
 370  422.1589
 371  321.8208
 372  417.7533
 373  351.437
 374  298.0978
 375  336.1158
 376  361.3791
 377  371.305
 378  330.6397
 379  258.2059
 380  127.8669
 381  194.25
 382  329.6037
 383  364.2461
 384  393.0903
 385  490.2511
 386  387.8319
 387  374.6912
 388  343.5173
 389  330.269
 390  348.6187
 391  457.0052
 392  413.0927
 393  471.8538
 394  353.9225
 395  294.3338
 396  382.6661
 397  373.6871
 398  382.7175
 399  400.6502
 400  443.9702
 401  381.5934
 402  228.7938
 403  226.8537
 404  412.8609
 405  460.1997
 406  319.4421
 407  420.4696
 408  293.729
 409  235.1594
 410  350.9543
 411  283.652
 412  337.312
 413  333.6997
 414  290.3034
 415  352.1716
 416  489.253
 417  393.0813
 418  249.7901
 419  280.2841
 420  288.0529
 421  392.9062
 422  420.7396
 423  355.6605
 424  328.83
 425  386.1179
 426  266.1571
 427  319.3407
 428  454.8552
 429  503.3385
 430  398.4689
 431  412.9775
 432  464.9011
 433  418.9482
 434  502.8551
 435  466.3412
 436  383.9489
 437  313.5479
 438  347.259
 439  322.4822
 440  376.1814
 441  349.272
 442  373.9797
 443  447.2075
 444  460.1262
 445  411.403
 446  433.2924
 447  437.2908
 448  425.9688
 449  546.884
 450  561.3818
 451  400.5921
 452  468.3929
 453  459.5633
 454  346.5829
 455  311.269
 456  413.3224
 457  468.0589
 458  402.8076
 459  454.5333
 460  472.6417
 461  394.6323
 462  444.9881
 463  320.7595
 464  342.4601
 465  342.5653
 466  301.7366
 467  349.8371
 468  304.5198
 469  280.2372
 470  245.967
 471  315.4165
 472  424.0156
 473  486.8288
 474  455.4097
 475  341.1089
 476  315.4373
 477  243.2767
 478  384.9141
 479  314.6068
 480  398.3076
 481  413.231
 482  451.8138
 483  465.9138
 484  343.674
 485  322.5378
 486  331.5191
 487  356.3866
 488  372.762
 489  400.393
 490  404.3411
 491  439.3969
 492  395.5394
 493  376.9922
 494  404.7162
 495  410.792
 496  318.091
 497  375.6706
 498  310.2092
 499  262.0376
 500  286.0731
 501  412.6043
 502  492.3541
 503  474.375
 504  511.6194
 505  456.8541
 506  441.6183
 507  493.6401
 508  538.6144
 509  505.4536
 510  424.2823
 511  396.8071
