# Input file       =  1181041046.106092_cleaned.dat
# Candidate        =  PSR_0332+5434
# Telescope        =  AR
# Epoch_topo       =  57913.456343820508
# Epoch_bary       =  N/A
# T_sample         =  0.002
# Data Folded      =  7340032
# Data Avg         =  0.0261047809108713
# Data StdDev      =  1.00006916968922 
# Profile Bins     =  512
# Profile Avg      =  374.223070471743 
# Profile StdDev   =  119.741318273682 
# Reduced chi-sqr  =  1.285
# Prob(Noise)      <  1.33e-05   (~4.2 sigma)
# P_topo (ms)      =  714.508769474077  +/- 0.000276
# P'_topo (s/s)    =  -0                +/- 1.45e-10
# P''_topo (s/s^2) =  0                 +/- 6.42e-14
# P_bary (ms)      =  N/A
# P'_bary (s/s)    =  N/A
# P''_bary (s/s^2) =  N/A
# P_orb (s)        =  N/A
# asin(i)/c (s)    =  N/A
# eccentricity     =  N/A
# w (rad)          =  N/A
# T_peri           =  N/A
######################################################
   0  903.3884
   1  871.1567
   2  689.0987
   3  573.4337
   4  506.5556
   5  486.7638
   6  478.198
   7  445.5382
   8  349.0043
   9  412.8453
  10  486.3013
  11  510.5278
  12  440.6203
  13  417.4352
  14  511.4379
  15  689.9293
  16  511.2299
  17  446.174
  18  506.2383
  19  575.1413
  20  391.4051
  21  368.802
  22  315.8957
  23  233.4811
  24  353.3615
  25  433.7884
  26  345.9344
  27  356.4006
  28  460.805
  29  478.3013
  30  443.236
  31  394.4081
  32  374.472
  33  320.7021
  34  380.1436
  35  328.5304
  36  362.4454
  37  339.4685
  38  377.3556
  39  388.8217
  40  388.0481
  41  280.4523
  42  223.6762
  43  294.2608
  44  373.357
  45  401.1324
  46  498.9098
  47  414.9414
  48  509.6697
  49  433.9785
  50  436.8467
  51  596.0267
  52  541.9351
  53  561.1539
  54  547.1671
  55  386.0314
  56  454.5091
  57  509.2878
  58  487.0967
  59  451.5992
  60  341.0374
  61  365.7297
  62  371.1133
  63  385.3886
  64  329.1876
  65  337.3327
  66  319.4759
  67  407.0205
  68  353.824
  69  348.6786
  70  245.0654
  71  210.3556
  72  326.3569
  73  419.172
  74  388.9684
  75  360.8869
  76  260.4418
  77  228.2384
  78  396.1565
  79  404.2908
  80  438.3742
  81  336.053
  82  381.4794
  83  517.9355
  84  474.4861
  85  424.9432
  86  336.5645
  87  437.7093
  88  436.6613
  89  426.7427
  90  449.1743
  91  516.601
  92  520.8857
  93  410.3861
  94  432.5255
  95  439.6389
  96  460.371
  97  510.6826
  98  493.9409
  99  580.3462
 100  443.1689
 101  404.3636
 102  587.4966
 103  513.8179
 104  627.5995
 105  452.2939
 106  361.6749
 107  373.4254
 108  333.7637
 109  467.5974
 110  273.6487
 111  262.1165
 112  380.8345
 113  421.0827
 114  467.8242
 115  383.544
 116  293.6566
 117  354.2156
 118  278.8059
 119  259.1787
 120  304.2076
 121  297.6674
 122  275.7033
 123  379.0498
 124  333.7419
 125  321.2324
 126  292.9522
 127  220.4684
 128  223.013
 129  333.0629
 130  350.3469
 131  208.087
 132  176.829
 133  311.8226
 134  418.6073
 135  305.821
 136  321.1413
 137  354.217
 138  403.6927
 139  308.4254
 140  238.9285
 141  357.7102
 142  405.9532
 143  324.9427
 144  396.7422
 145  397.8548
 146  345.0176
 147  272.0693
 148  352.8503
 149  282.8383
 150  205.7176
 151  391.803
 152  461.8101
 153  412.2022
 154  340.3529
 155  405.4713
 156  455.918
 157  301.6905
 158  280.53
 159  186.6793
 160  301.5402
 161  267.8029
 162  279.5945
 163  381.5063
 164  318.1381
 165  127.3818
 166  304.7306
 167  382.7307
 168  334.2108
 169  405.7822
 170  424.1021
 171  344.2637
 172  279.5428
 173  320.139
 174  350.1366
 175  355.8233
 176  380.1237
 177  309.1647
 178  304.6869
 179  394.1607
 180  366.0258
 181  312.9858
 182  335.644
 183  474.8127
 184  456.3052
 185  579.2412
 186  562.5037
 187  492.2329
 188  410.7984
 189  473.1795
 190  433.1989
 191  344.1512
 192  410.6935
 193  359.918
 194  336.4535
 195  370.1258
 196  332.046
 197  384.9249
 198  271.5161
 199  224.738
 200  245.2504
 201  287.3007
 202  293.2649
 203  354.1804
 204  470.4275
 205  401.887
 206  459.0388
 207  432.9319
 208  383.2048
 209  313.3085
 210  315.9155
 211  394.7118
 212  407.3383
 213  323.2044
 214  395.5089
 215  277.9099
 216  285.0203
 217  453.3569
 218  419.4661
 219  351.7325
 220  316.8824
 221  269.5039
 222  278.9218
 223  283.2157
 224  270.764
 225  235.3021
 226  301.7094
 227  420.742
 228  315.6225
 229  305.6779
 230  464.5531
 231  596.2464
 232  465.3949
 233  263.5208
 234  318.3967
 235  389.3576
 236  363.6836
 237  302.2884
 238  306.0171
 239  336.1073
 240  360.8601
 241  346.3961
 242  378.4146
 243  403.5333
 244  342.7218
 245  427.4647
 246  309.3174
 247  363.5689
 248  396.261
 249  390.9076
 250  445.602
 251  386.575
 252  434.1766
 253  356.6973
 254  466.1278
 255  400.9883
 256  306.7998
 257  197.8596
 258  271.7026
 259  407.4553
 260  379.5712
 261  420.0096
 262  433.9343
 263  416.5769
 264  486.9607
 265  470.2061
 266  447.829
 267  455.7816
 268  490.6962
 269  432.2343
 270  421.4973
 271  534.6063
 272  453.2405
 273  471.9479
 274  427.2131
 275  389.5134
 276  461.5788
 277  407.607
 278  275.0318
 279  330.874
 280  451.8987
 281  318.2126
 282  346.9358
 283  331.7289
 284  298.2946
 285  285.27
 286  339.3584
 287  234.0713
 288  184.3828
 289  233.5472
 290  358.5094
 291  316.4905
 292  360.7737
 293  353.8578
 294  324.3724
 295  340.7277
 296  281.0525
 297  455.7898
 298  363.3391
 299  338.2302
 300  329.1858
 301  402.211
 302  439.8631
 303  333.9539
 304  299.6974
 305  386.6489
 306  304.1342
 307  256.2161
 308  298.3265
 309  170.4136
 310  277.4106
 311  328.0242
 312  305.1407
 313  283.8305
 314  196.3287
 315  242.6006
 316  173.3015
 317  250.5539
 318  378.6876
 319  428.4292
 320  336.4595
 321  365.9182
 322  281.0499
 323  335.1136
 324  393.3804
 325  342.9037
 326  335.9458
 327  361.185
 328  393.0431
 329  286.5932
 330  404.0626
 331  342.1086
 332  279.7444
 333  369.2842
 334  401.604
 335  370.3138
 336  330.1126
 337  386.6516
 338  339.9453
 339  220.6485
 340  285.5017
 341  384.0605
 342  355.8705
 343  321.6326
 344  323.0661
 345  208.396
 346  277.0743
 347  294.2246
 348  351.7915
 349  300.4609
 350  327.0021
 351  439.8993
 352  470.2896
 353  389.3534
 354  396.2804
 355  431.8391
 356  230.9253
 357  330.517
 358  363.0491
 359  391.8814
 360  319.0548
 361  176.5295
 362  300.2675
 363  183.1013
 364  213.6535
 365  349.4262
 366  331.6874
 367  278.915
 368  325.0166
 369  347.5909
 370  265.5595
 371  415.0277
 372  479.7181
 373  498.2564
 374  312.9918
 375  264.3397
 376  430.6506
 377  299.5491
 378  424.8214
 379  497.5449
 380  430.507
 381  384.5223
 382  279.7251
 383  344.6531
 384  343.5185
 385  231.9257
 386  230.2375
 387  385.2082
 388  451.527
 389  488.7598
 390  418.911
 391  525.193
 392  421.4303
 393  442.4504
 394  286.1411
 395  352.5381
 396  278.3018
 397  293.6559
 398  396.1077
 399  338.5356
 400  303.6671
 401  338.3264
 402  294.9991
 403  401.318
 404  370.4543
 405  261.933
 406  319.1672
 407  373.2389
 408  478.1892
 409  469.3369
 410  314.2023
 411  289.8307
 412  248.7067
 413  259.958
 414  313.1683
 415  345.0799
 416  399.4434
 417  350.8244
 418  346.7657
 419  347.5901
 420  379.1775
 421  383.2317
 422  348.5407
 423  446.3806
 424  397.1523
 425  300.6495
 426  435.2111
 427  363.4647
 428  316.7847
 429  379.7928
 430  342.1606
 431  394.0757
 432  410.4266
 433  477.3037
 434  510.0328
 435  360.7926
 436  425.3409
 437  477.2951
 438  433.7772
 439  350.8338
 440  368.7441
 441  309.1411
 442  208.2006
 443  331.5179
 444  404.996
 445  390.2369
 446  376.7645
 447  461.5545
 448  313.4218
 449  272.3753
 450  431.8925
 451  347.1523
 452  337.3447
 453  323.9438
 454  387.6017
 455  290.4956
 456  308.3269
 457  333.8698
 458  309.2065
 459  287.3837
 460  299.8385
 461  234.277
 462  346.2952
 463  387.6865
 464  445.136
 465  284.7281
 466  249.5963
 467  361.1085
 468  278.3755
 469  335.4962
 470  308.7542
 471  313.2955
 472  368.4486
 473  562.9316
 474  438.5851
 475  367.8547
 476  374.8593
 477  351.4617
 478  433.7773
 479  384.1318
 480  453.9194
 481  464.3854
 482  573.2283
 483  476.8561
 484  355.8882
 485  214.9426
 486  198.3405
 487  290.0663
 488  354.8274
 489  458.2096
 490  548.8412
 491  415.9959
 492  329.7936
 493  385.1985
 494  541.8662
 495  431.4532
 496  349.853
 497  450.8003
 498  431.5026
 499  414.1361
 500  551.0273
 501  411.7119
 502  257.0718
 503  245.8152
 504  337.6361
 505  398.3945
 506  362.8502
 507  386.9572
 508  672.1898
 509  792.4162
 510  754.7355
 511  886.7111
