# Input file       =  1181127197.108836_cleaned.dat
# Candidate        =  PSR_0332+5434
# Telescope        =  AR
# Epoch_topo       =  57914.453461907826
# Epoch_bary       =  N/A
# T_sample         =  0.002
# Data Folded      =  7340032
# Data Avg         =  0.0247750561155478
# Data StdDev      =  1.00006709198541 
# Profile Bins     =  512
# Profile Avg      =  355.060981907343 
# Profile StdDev   =  119.741069503896 
# Reduced chi-sqr  =  1.041
# Prob(Noise)      <  0.255   (~0.7 sigma)
# P_topo (ms)      =  714.507825791733  +/- 0.000402
# P'_topo (s/s)    =  -0                +/- 2.12e-10
# P''_topo (s/s^2) =  0                 +/- 9.37e-14
# P_bary (ms)      =  N/A
# P'_bary (s/s)    =  N/A
# P''_bary (s/s^2) =  N/A
# P_orb (s)        =  N/A
# asin(i)/c (s)    =  N/A
# eccentricity     =  N/A
# w (rad)          =  N/A
# T_peri           =  N/A
######################################################
   0  743.0214
   1  746.5855
   2  699.8992
   3  540.1775
   4  335.4676
   5  311.9385
   6  293.2968
   7  389.8709
   8  467.0619
   9  513.6064
  10  428.2853
  11  430.3085
  12  366.6595
  13  304.8047
  14  239.984
  15  343.2308
  16  300.3048
  17  284.237
  18  272.1059
  19  436.6064
  20  377.0263
  21  259.1311
  22  229.5777
  23  201.862
  24  320.9375
  25  325.1112
  26  284.8449
  27  375.4804
  28  344.375
  29  292.0885
  30  387.7243
  31  428.6063
  32  370.2101
  33  412.8227
  34  331.4384
  35  355.6285
  36  347.4454
  37  391.4331
  38  423.0635
  39  288.0182
  40  295.3578
  41  292.4364
  42  352.8199
  43  398.283
  44  349.3578
  45  232.9375
  46  252.8875
  47  358.5482
  48  397.103
  49  547.5167
  50  434.0718
  51  229.3354
  52  229.0219
  53  290.0946
  54  357.9384
  55  452.4912
  56  388.1475
  57  298.9285
  58  290.9748
  59  252.274
  60  277.2898
  61  363.1228
  62  275.9124
  63  302.3032
  64  300.9019
  65  265.0961
  66  326.0419
  67  395.7006
  68  324.9633
  69  308.6902
  70  306.9709
  71  308.5893
  72  363.8016
  73  267.6971
  74  297.6992
  75  324.1589
  76  376.0448
  77  376.5062
  78  368.5448
  79  398.691
  80  340.4218
  81  247.0799
  82  260.6879
  83  335.451
  84  404.8206
  85  342.8067
  86  297.8508
  87  422.9255
  88  494.5798
  89  365.5803
  90  353.0247
  91  406.3773
  92  438.8725
  93  476.6413
  94  383.0607
  95  365.8577
  96  270.7451
  97  283.889
  98  352.081
  99  284.9748
 100  229.5225
 101  249.4926
 102  264.6107
 103  359.0082
 104  303.0555
 105  313.172
 106  367.6746
 107  277.896
 108  318.4767
 109  251.3533
 110  283.4217
 111  174.6483
 112  295.1638
 113  464.4392
 114  320.262
 115  258.7254
 116  370.1863
 117  421.7581
 118  399.0852
 119  389.0496
 120  306.444
 121  228.1917
 122  241.9523
 123  464.536
 124  406.6188
 125  298.0221
 126  284.6342
 127  275.7922
 128  415.7039
 129  310.0947
 130  487.4523
 131  483.2815
 132  477.97
 133  436.5384
 134  434.5468
 135  378.7845
 136  280.3919
 137  273.0028
 138  245.8595
 139  204.5307
 140  225.0023
 141  309.4299
 142  228.6228
 143  316.3979
 144  360.6251
 145  276.2251
 146  280.979
 147  164.3761
 148  385.6221
 149  505.319
 150  460.5089
 151  278.4202
 152  170.8986
 153  258.0768
 154  250.0684
 155  272.2849
 156  285.4154
 157  362.9057
 158  402.9989
 159  351.8338
 160  317.2947
 161  405.2278
 162  429.6885
 163  311.0594
 164  340.503
 165  363.211
 166  404.7575
 167  341.8214
 168  314.4351
 169  273.0676
 170  278.0705
 171  243.7858
 172  242.7638
 173  405.9872
 174  242.3136
 175  113.8359
 176  279.492
 177  310.0451
 178  251.6676
 179  197.8258
 180  169.2433
 181  345.236
 182  305.2709
 183  320.8823
 184  403.9671
 185  311.7302
 186  363.6118
 187  295.177
 188  369.7951
 189  369.3223
 190  435.7455
 191  443.0308
 192  357.7142
 193  319.3747
 194  290.385
 195  273.3293
 196  262.4882
 197  143.1908
 198  258.9809
 199  383.0004
 200  481.4323
 201  317.9292
 202  342.2357
 203  211.6159
 204  300.9822
 205  215.1703
 206  337.5208
 207  269.3755
 208  215.4828
 209  321.7084
 210  377.4302
 211  324.5452
 212  275.7569
 213  405.5577
 214  353.9751
 215  182.3763
 216  345.0493
 217  532.9167
 218  345.3892
 219  282.5595
 220  333.2873
 221  366.1222
 222  390.6976
 223  489.5552
 224  436.0696
 225  330.6327
 226  423.3901
 227  400.4516
 228  345.7384
 229  329.1748
 230  360.4376
 231  330.9832
 232  286.9513
 233  320.869
 234  350.1883
 235  395.0404
 236  411.3558
 237  488.3487
 238  418.6327
 239  418.8296
 240  371.2078
 241  402.4158
 242  488.3248
 243  409.7426
 244  324.4584
 245  275.1267
 246  309.0863
 247  385.633
 248  443.2739
 249  444.6897
 250  401.5085
 251  486.2038
 252  539.3193
 253  417.1042
 254  415.6353
 255  380.6615
 256  426.3481
 257  407.4195
 258  445.0904
 259  486.3279
 260  486.5909
 261  520.5576
 262  489.945
 263  452.1337
 264  375.9839
 265  427.8991
 266  432.2295
 267  502.774
 268  385.5762
 269  387.4368
 270  301.829
 271  222.7134
 272  302.2944
 273  383.5151
 274  359.0803
 275  457.9577
 276  481.1913
 277  434.3518
 278  376.0054
 279  282.9844
 280  329.4669
 281  194.092
 282  292.9022
 283  341.2928
 284  345.8004
 285  294.9355
 286  396.9083
 287  400.9547
 288  305.3192
 289  381.17
 290  358.0985
 291  332.1965
 292  434.6194
 293  409.1718
 294  309.5227
 295  270.7831
 296  281.8621
 297  380.6383
 298  362.2822
 299  388.0968
 300  413.8383
 301  464.3702
 302  397.601
 303  292.6571
 304  429.9622
 305  510.1275
 306  403.4884
 307  264.2318
 308  333.2014
 309  283.783
 310  324.9535
 311  214.4736
 312  215.209
 313  420.0047
 314  503.3783
 315  539.4733
 316  427.0002
 317  371.2932
 318  390.5302
 319  456.8358
 320  445.7079
 321  485.8611
 322  430.0555
 323  444.5282
 324  440.8342
 325  522.1745
 326  510.7925
 327  393.2727
 328  386.8419
 329  461.596
 330  416.7674
 331  500.3275
 332  514.1227
 333  388.5869
 334  354.1068
 335  358.7808
 336  308.6211
 337  432.8321
 338  393.3627
 339  389.212
 340  412.6759
 341  370.8839
 342  287.7153
 343  239.166
 344  363.7299
 345  260.255
 346  334.3956
 347  428.0672
 348  331.0207
 349  366.8283
 350  325.0884
 351  331.0194
 352  400.2046
 353  211.1226
 354  235.692
 355  420.4272
 356  523.8622
 357  504.4393
 358  369.4792
 359  346.8459
 360  367.5814
 361  323.7332
 362  479.8585
 363  328.1908
 364  367.231
 365  350.6418
 366  350.3013
 367  345.8304
 368  346.8996
 369  315.5225
 370  375.9283
 371  478.8948
 372  465.8608
 373  403.9119
 374  311.1176
 375  325.7638
 376  298.6343
 377  271.2733
 378  336.6825
 379  349.841
 380  353.0993
 381  379.5185
 382  291.8372
 383  252.7999
 384  335.0581
 385  428.3698
 386  312.6493
 387  306.4405
 388  372.9542
 389  354.2831
 390  165.333
 391  310.407
 392  313.3105
 393  477.953
 394  346.541
 395  281.0669
 396  345.1156
 397  323.6744
 398  349.9323
 399  324.551
 400  386.1108
 401  449.3656
 402  399.6468
 403  453.3472
 404  439.1714
 405  335.2588
 406  360.2419
 407  339.7917
 408  268.7223
 409  359.3788
 410  332.6384
 411  376.6808
 412  334.6455
 413  374.9864
 414  439.9887
 415  430.6237
 416  400.4685
 417  336.5245
 418  407.9996
 419  315.2551
 420  297.806
 421  273.8637
 422  302.401
 423  364.0349
 424  288.2419
 425  311.4744
 426  360.3448
 427  315.6769
 428  225.578
 429  341.1347
 430  341.7743
 431  341.581
 432  346.0652
 433  358.0526
 434  317.9955
 435  345.6629
 436  389.2589
 437  267.2119
 438  306.446
 439  212.011
 440  217.1113
 441  174.252
 442  270.8169
 443  204.3335
 444  268.7262
 445  283.437
 446  226.3641
 447  133.3557
 448  205.8225
 449  207.8862
 450  255.638
 451  250.5472
 452  263.3855
 453  388.9957
 454  428.8322
 455  275.0718
 456  275.5659
 457  254.1802
 458  278.5609
 459  330.6518
 460  320.7955
 461  368.7288
 462  466.6764
 463  494.3365
 464  415.6506
 465  284.6827
 466  338.832
 467  410.8051
 468  351.4758
 469  332.356
 470  325.3022
 471  277.3656
 472  239.7774
 473  378.0319
 474  395.9054
 475  400.4088
 476  481.0732
 477  473.6826
 478  452.4944
 479  475.4406
 480  517.5952
 481  379.5346
 482  386.7165
 483  455.3625
 484  532.0248
 485  488.0281
 486  340.3728
 487  286.0158
 488  329.925
 489  439.7155
 490  447.367
 491  477.8719
 492  429.3304
 493  320.3741
 494  301.1055
 495  329.0622
 496  250.529
 497  346.2718
 498  434.7675
 499  357.9932
 500  403.6763
 501  391.5288
 502  354.1794
 503  428.2345
 504  445.1335
 505  335.1974
 506  350.7563
 507  402.7503
 508  340.5967
 509  484.2206
 510  694.3514
 511  840.0521
