# Input file       =  1181370785.111264_cleaned.dat
# Candidate        =  PSR_0332+5434
# Telescope        =  AR
# Epoch_topo       =  57917.272767491479
# Epoch_bary       =  N/A
# T_sample         =  0.002
# Data Folded      =  7340032
# Data Avg         =  0.014959803051729
# Data StdDev      =  0.999971741117867
# Profile Bins     =  512
# Profile Avg      =  214.450495894105 
# Profile StdDev   =  119.729652855004 
# Reduced chi-sqr  =  1.227
# Prob(Noise)      <  0.000329   (~3.4 sigma)
# P_topo (ms)      =  714.504846947387  +/- 0.000397
# P'_topo (s/s)    =  -0                +/- 2.1e-10
# P''_topo (s/s^2) =  0                 +/- 9.26e-14
# P_bary (ms)      =  N/A
# P'_bary (s/s)    =  N/A
# P''_bary (s/s^2) =  N/A
# P_orb (s)        =  N/A
# asin(i)/c (s)    =  N/A
# eccentricity     =  N/A
# w (rad)          =  N/A
# T_peri           =  N/A
######################################################
   0  651.1338
   1  650.3267
   2  687.6802
   3  534.1043
   4  506.5934
   5  378.9449
   6  239.0157
   7  203.7621
   8  195.2786
   9  301.6281
  10  303.6052
  11  205.2596
  12  111.0337
  13  288.7774
  14  289.5111
  15  281.6423
  16  156.7073
  17  113.4294
  18  74.04188
  19  196.5457
  20  211.2497
  21  218.1897
  22  25.93734
  23  28.42862
  24  117.4243
  25  209.5836
  26  199.4681
  27  161.8237
  28  80.86819
  29  126.1691
  30  102.8377
  31  121.0909
  32  177.0061
  33  32.64381
  34  128.354
  35  156.054
  36  109.4717
  37  123.0335
  38  214.48
  39  211.5513
  40  143.0102
  41  152.8573
  42  69.45769
  43  69.10018
  44  122.2941
  45  174.1944
  46  105.2581
  47  64.63181
  48  117.2273
  49  115.629
  50  53.08588
  51  223.8528
  52  142.8286
  53  141.7179
  54  86.61193
  55  113.7073
  56  157.231
  57  337.8791
  58  295.1228
  59  242.5881
  60  171.0531
  61  238.5096
  62  210.4865
  63  304.8139
  64  249.0612
  65  186.9075
  66  179.939
  67  195.8872
  68  150.593
  69  132.4724
  70  140.4145
  71  -22.71872
  72  48.028
  73  170.5681
  74  159.083
  75  142.4335
  76  144.0232
  77  54.0298
  78  32.96749
  79  96.34518
  80  92.83395
  81  172.2548
  82  235.1999
  83  153.7452
  84  76.83448
  85  134.7375
  86  214.4433
  87  229.2536
  88  207.9292
  89  172.2656
  90  114.3035
  91  183.0923
  92  98.04959
  93  -36.25966
  94  15.09501
  95  203.6733
  96  230.6079
  97  302.2597
  98  218.7185
  99  120.0132
 100  134.3907
 101  247.4669
 102  142.1629
 103  168.2225
 104  128.1647
 105  223.4341
 106  316.8271
 107  261.9196
 108  262.7557
 109  263.1829
 110  213.4476
 111  212.0232
 112  163.1169
 113  251.1582
 114  314.6718
 115  184.4758
 116  195.2081
 117  218.3379
 118  230.8463
 119  203.0943
 120  162.1264
 121  220.7074
 122  265.2803
 123  253.2869
 124  193.7197
 125  212.1068
 126  151.2861
 127  4.214807
 128  136.0454
 129  228.9745
 130  202.5806
 131  147.0652
 132  148.9657
 133  170.1459
 134  162.3622
 135  126.03
 136  126.2254
 137  258.3872
 138  299.191
 139  330.6739
 140  325.6154
 141  285.3713
 142  344.418
 143  281.0214
 144  259.4413
 145  268.8122
 146  92.86627
 147  129.2721
 148  279.0406
 149  306.4873
 150  305.9762
 151  227.444
 152  157.227
 153  284.7991
 154  343.2057
 155  284.278
 156  291.1516
 157  230.1295
 158  216.7996
 159  329.4603
 160  200.3686
 161  71.22626
 162  132.6338
 163  194.3631
 164  76.67679
 165  122.0584
 166  141.2709
 167  94.17863
 168  257.9048
 169  311.4872
 170  226.2587
 171  193.3891
 172  242.5755
 173  117.045
 174  168.601
 175  248.6218
 176  221.485
 177  138.8628
 178  37.79281
 179  140.6523
 180  189.3975
 181  126.6325
 182  127.8655
 183  173.2375
 184  202.2185
 185  102.5287
 186  80.24818
 187  209.8097
 188  144.8466
 189  175.8829
 190  166.4562
 191  142.0501
 192  95.69365
 193  188.9557
 194  259.0259
 195  100.4504
 196  87.11427
 197  183.2844
 198  145.9309
 199  186.145
 200  204.4983
 201  209.7378
 202  194.6342
 203  223.065
 204  167.0944
 205  103.5742
 206  140.5065
 207  212.7462
 208  167.7493
 209  260.7314
 210  206.4301
 211  123.8708
 212  86.84249
 213  184.2077
 214  165.2588
 215  216.5732
 216  312.2003
 217  352.4716
 218  389.5817
 219  341.8625
 220  280.4484
 221  296.1522
 222  325.5945
 223  258.8257
 224  182.8462
 225  173.8709
 226  139.5736
 227  199.1042
 228  153.3302
 229  210.9752
 230  238.5263
 231  279.5838
 232  270.045
 233  190.7502
 234  180.6247
 235  242.093
 236  107.599
 237  156.677
 238  274.4024
 239  233.534
 240  173.5159
 241  92.73441
 242  225.9559
 243  215.7061
 244  135.3271
 245  219.9241
 246  143.5793
 247  101.5563
 248  126.986
 249  127.2275
 250  89.78453
 251  31.04381
 252  89.49238
 253  116.3226
 254  105.0634
 255  152.6815
 256  53.75444
 257  234.6614
 258  326.3207
 259  300.5488
 260  282.5975
 261  216.1461
 262  186.8934
 263  203.536
 264  247.5968
 265  270.2126
 266  196.2447
 267  239.1653
 268  281.8681
 269  148.4818
 270  63.54718
 271  134.2552
 272  258.0391
 273  268.2029
 274  285.2635
 275  140.6099
 276  141.5044
 277  246.3148
 278  245.8282
 279  127.4882
 280  275.5175
 281  293.1088
 282  204.7186
 283  262.1091
 284  165.3927
 285  159.0942
 286  293.2756
 287  243.1565
 288  168.0269
 289  257.3439
 290  312.3543
 291  329.2992
 292  247.9377
 293  259.8383
 294  292.6142
 295  256.7564
 296  322.2435
 297  249.8095
 298  185.4008
 299  211.9535
 300  321.8357
 301  284.889
 302  276.2939
 303  201.4107
 304  67.49065
 305  219.5105
 306  202.9091
 307  289.5877
 308  255.0647
 309  248.4382
 310  349.1874
 311  364.2681
 312  318.6277
 313  291.1614
 314  346.523
 315  319.7712
 316  343.9833
 317  365.8846
 318  304.9359
 319  271.4906
 320  365.1581
 321  291.1477
 322  210.3249
 323  237.7852
 324  158.1932
 325  146.8945
 326  224.7315
 327  336.9093
 328  243.6698
 329  185.318
 330  165.6437
 331  182.3472
 332  76.67808
 333  71.77798
 334  161.3456
 335  314.6508
 336  279.2078
 337  237.4424
 338  243.6019
 339  127.7421
 340  212.3237
 341  251.0509
 342  206.9113
 343  222.2329
 344  157.9341
 345  308.8062
 346  115.2648
 347  82.81732
 348  185.6379
 349  283.3684
 350  272.9984
 351  258.0008
 352  116.9746
 353  124.1368
 354  186.1726
 355  318.5761
 356  364.1535
 357  176.2301
 358  138.9835
 359  273.7928
 360  321.4339
 361  274.6486
 362  271.4626
 363  296.815
 364  271.6433
 365  267.2672
 366  274.3404
 367  286.764
 368  245.0213
 369  239.8283
 370  210.8522
 371  247.1248
 372  154.3524
 373  172.3913
 374  295.2738
 375  266.7358
 376  218.1356
 377  230.6925
 378  311.2175
 379  238.8767
 380  219.0128
 381  248.688
 382  267.0099
 383  263.1487
 384  285.2515
 385  325.1736
 386  298.8193
 387  175.7538
 388  110.677
 389  207.6689
 390  289.5033
 391  254.0907
 392  226.6879
 393  259.2089
 394  156.0452
 395  184.9193
 396  401.02
 397  348.8545
 398  317.1082
 399  355.2895
 400  315.0054
 401  252.9133
 402  176.2485
 403  202.7684
 404  146.0243
 405  160.0424
 406  185.8026
 407  227.9533
 408  329.2743
 409  201.6853
 410  183.8003
 411  219.1505
 412  280.6701
 413  216.5463
 414  194.7775
 415  323.5822
 416  284.628
 417  261.6309
 418  113.5222
 419  -32.70057
 420  71.39792
 421  207.2898
 422  256.1347
 423  206.6108
 424  230.849
 425  146.2036
 426  10.69422
 427  48.24962
 428  121.3672
 429  169.1803
 430  121.0364
 431  52.44462
 432  259.2296
 433  205.6489
 434  172.6474
 435  188.1885
 436  262.9143
 437  321.2976
 438  281.4872
 439  150.1064
 440  172.0807
 441  139.0998
 442  88.78506
 443  166.1788
 444  178.0443
 445  229.0829
 446  117.1859
 447  77.97207
 448  122.305
 449  82.54144
 450  180.6035
 451  206.1878
 452  223.2112
 453  225.3512
 454  132.4024
 455  179.7012
 456  302.6979
 457  169.0053
 458  118.6974
 459  225.2852
 460  391.1558
 461  288.6573
 462  121.5263
 463  232.6214
 464  286.0283
 465  300.0073
 466  284.1725
 467  368.6825
 468  285.7208
 469  235.5559
 470  206.3196
 471  235.7354
 472  302.6752
 473  281.0107
 474  424.9712
 475  399.6046
 476  341.4853
 477  402.0381
 478  408.194
 479  283.8812
 480  276.3268
 481  356.9175
 482  355.4637
 483  219.7631
 484  320.0927
 485  203.6494
 486  224.4025
 487  189.6114
 488  176.8213
 489  276.3002
 490  173.619
 491  212.459
 492  324.4448
 493  306.5676
 494  265.0299
 495  251.0843
 496  283.7675
 497  202.569
 498  197.2751
 499  201.5145
 500  227.508
 501  193.986
 502  150.0732
 503  214.5368
 504  219.5139
 505  358.7369
 506  365.2362
 507  391.4737
 508  397.8194
 509  533.1259
 510  591.6678
 511  672.1513
