# Input file       =  1181456923.122051_cleaned.dat
# Candidate        =  PSR_0332+5434
# Telescope        =  AR
# Epoch_topo       =  57918.269735208924
# Epoch_bary       =  N/A
# T_sample         =  0.002
# Data Folded      =  7340032
# Data Avg         =  0.0186201177031286
# Data StdDev      =  1.00009824381454 
# Profile Bins     =  512
# Profile Avg      =  266.714223622463 
# Profile StdDev   =  119.744799406986 
# Reduced chi-sqr  =  1.335
# Prob(Noise)      <  5.56e-07   (~4.9 sigma)
# P_topo (ms)      =  714.503919842219  +/- 0.000261
# P'_topo (s/s)    =  -0                +/- 1.38e-10
# P''_topo (s/s^2) =  0                 +/- 6.08e-14
# P_bary (ms)      =  N/A
# P'_bary (s/s)    =  N/A
# P''_bary (s/s^2) =  N/A
# P_orb (s)        =  N/A
# asin(i)/c (s)    =  N/A
# eccentricity     =  N/A
# w (rad)          =  N/A
# T_peri           =  N/A
######################################################
   0  224.8003
   1  309.7722
   2  302.5055
   3  268.4689
   4  243.0894
   5  281.0662
   6  213.2884
   7  171.2559
   8  280.1912
   9  277.9271
  10  240.153
  11  305.3742
  12  235.9276
  13  130.0126
  14  133.3774
  15  151.228
  16  213.0063
  17  142.4923
  18  222.3227
  19  170.1662
  20  138.1421
  21  217.8414
  22  155.3555
  23  318.3628
  24  257.519
  25  154.8416
  26  346.108
  27  301.468
  28  401.6151
  29  353.9151
  30  208.9367
  31  176.0829
  32  196.0492
  33  238.0133
  34  367.6868
  35  258.2225
  36  138.7542
  37  143.5153
  38  183.183
  39  268.3211
  40  345.674
  41  226.1129
  42  205.6006
  43  238.3844
  44  343.8097
  45  327.9115
  46  161.5489
  47  144.8281
  48  141.6678
  49  213.2997
  50  325.3045
  51  169.308
  52  189.3411
  53  230.7427
  54  223.0475
  55  246.4718
  56  180.5641
  57  125.9177
  58  248.0265
  59  229.1084
  60  160.4505
  61  179.778
  62  164.0262
  63  257.2035
  64  260.7382
  65  208.8112
  66  175.4661
  67  247.8827
  68  307.2738
  69  276.2579
  70  238.0955
  71  264.544
  72  111.9235
  73  223.3801
  74  183.5065
  75  217.472
  76  253.8934
  77  340.4539
  78  300.0265
  79  181.2951
  80  253.5625
  81  437.1522
  82  381.7342
  83  264.8297
  84  274.5817
  85  308.898
  86  310.2712
  87  305.816
  88  339.4188
  89  319.4584
  90  295.0547
  91  322.8399
  92  275.6676
  93  156.26
  94  173.9382
  95  248.5759
  96  299.5387
  97  243.169
  98  306.8017
  99  251.3218
 100  225.457
 101  260.563
 102  374.9973
 103  266.343
 104  221.1795
 105  246.3201
 106  259.2189
 107  296.064
 108  248.2504
 109  214.7608
 110  215.9927
 111  276.96
 112  250.6496
 113  205.941
 114  169.1724
 115  255.7355
 116  206.2075
 117  171.5341
 118  306.6075
 119  376.0955
 120  331.2265
 121  257.3117
 122  174.7177
 123  201.528
 124  169.1668
 125  204.6295
 126  174.5464
 127  235.1577
 128  275.6844
 129  212.8315
 130  293.831
 131  247.4668
 132  316.6626
 133  337.5461
 134  242.6455
 135  329.6682
 136  385.0192
 137  275.3156
 138  242.6061
 139  146.2097
 140  232.6109
 141  201.3793
 142  187.8962
 143  127.3586
 144  98.84996
 145  374.4194
 146  361.7401
 147  336.0394
 148  390.0517
 149  334.4005
 150  346.9341
 151  306.9109
 152  328.3503
 153  428.5027
 154  396.3387
 155  298.9315
 156  328.0258
 157  268.3969
 158  306.4566
 159  406.3735
 160  286.5956
 161  251.0845
 162  290.6969
 163  407.2982
 164  337.3712
 165  341.7378
 166  379.8451
 167  296.1041
 168  201.799
 169  192.8531
 170  160.37
 171  226.6147
 172  281.8734
 173  303.184
 174  228.4441
 175  160.5284
 176  174.746
 177  168.3472
 178  281.8934
 179  305.3625
 180  222.6184
 181  255.8197
 182  354.4566
 183  357.1821
 184  307.1248
 185  223.8806
 186  209.1321
 187  226.1543
 188  89.86861
 189  19.51551
 190  126.0009
 191  175.9979
 192  238.2237
 193  316.8549
 194  234.9213
 195  55.52568
 196  145.0033
 197  298.6406
 198  253.0882
 199  222.09
 200  244.0567
 201  253.8745
 202  289.7026
 203  304.6078
 204  246.5477
 205  198.2099
 206  133.2595
 207  150.2896
 208  242.128
 209  227.9469
 210  244.1105
 211  224.4279
 212  329.3259
 213  245.1633
 214  159.9573
 215  319.5825
 216  326.302
 217  184.4566
 218  303.4218
 219  274.4489
 220  312.6253
 221  429.7997
 222  347.7443
 223  216.7082
 224  222.3024
 225  278.5798
 226  208.4269
 227  188.4203
 228  229.5763
 229  222.4616
 230  215.3627
 231  310.2945
 232  298.8017
 233  169.6467
 234  204.634
 235  269.9118
 236  245.0837
 237  270.6037
 238  114.8772
 239  204.6722
 240  234.6384
 241  194.6843
 242  72.76224
 243  108.392
 244  241.8257
 245  218.9169
 246  181.3329
 247  271.4043
 248  313.7694
 249  202.7186
 250  152.7291
 251  307.6453
 252  265.9317
 253  222.216
 254  335.4368
 255  378.4427
 256  278.0414
 257  238.5283
 258  157.7715
 259  336.2037
 260  291.7962
 261  313.6213
 262  252.7678
 263  239.936
 264  244.3014
 265  263.9207
 266  180.0477
 267  338.6689
 268  352.9597
 269  277.4404
 270  307.4152
 271  215.7168
 272  223.9172
 273  218.0879
 274  186.1849
 275  145.475
 276  104.2448
 277  198.5925
 278  381.3503
 279  320.7442
 280  368.1319
 281  319.6266
 282  260.7846
 283  316.8403
 284  312.0803
 285  289.2387
 286  422.3762
 287  354.3008
 288  259.7514
 289  217.0508
 290  273.4084
 291  326.4079
 292  393.9794
 293  355.7291
 294  330.4208
 295  284.5566
 296  324.5408
 297  372.4586
 298  338.1971
 299  313.0541
 300  511.1026
 301  485.2268
 302  350.2254
 303  286.8189
 304  335.3825
 305  484.2976
 306  477.1913
 307  291.1678
 308  304.411
 309  308.8404
 310  333.1811
 311  288.2197
 312  334.086
 313  507.0686
 314  438.9706
 315  360.9864
 316  182.8302
 317  174.0477
 318  149.4782
 319  257.0025
 320  395.5337
 321  448.9513
 322  438.0744
 323  447.7871
 324  430.0193
 325  408.1289
 326  444.7921
 327  647.6388
 328  640.0814
 329  761.4924
 330  828.4677
 331  821.3381
 332  607.4987
 333  582.8398
 334  627.8522
 335  516.6815
 336  447.5252
 337  414.6966
 338  358.2332
 339  452.4611
 340  327.0851
 341  384.8128
 342  461.3925
 343  317.3125
 344  406.4648
 345  437.3506
 346  352.4535
 347  372.8303
 348  284.1874
 349  225.8509
 350  290.377
 351  331.3661
 352  225.2129
 353  219.5682
 354  352.3174
 355  348.8107
 356  228.2186
 357  189.3474
 358  185.7899
 359  366.6529
 360  399.1132
 361  321.4977
 362  284.2066
 363  249.8584
 364  324.6109
 365  330.3558
 366  283.0226
 367  329.2809
 368  84.11753
 369  110.4756
 370  249.3291
 371  254.9229
 372  239.6398
 373  299.5253
 374  286.7902
 375  117.3663
 376  165.3626
 377  68.24367
 378  192.9496
 379  183.3685
 380  322.5208
 381  279.0976
 382  230.2988
 383  174.0816
 384  195.9846
 385  211.6796
 386  141.2037
 387  183.1387
 388  250.8518
 389  262.1757
 390  141.714
 391  191.0968
 392  117.6521
 393  92.04501
 394  235.9577
 395  273.2386
 396  296.867
 397  226.4464
 398  183.419
 399  173.8914
 400  196.0698
 401  226.7545
 402  215.9242
 403  198.7544
 404  212.2614
 405  207.7623
 406  230.191
 407  323.1686
 408  239.2943
 409  223.6241
 410  268.4619
 411  231.869
 412  149.7339
 413  279.6631
 414  300.4106
 415  319.1841
 416  310.3118
 417  213.8285
 418  168.1605
 419  88.87587
 420  134.5932
 421  252.0809
 422  254.5105
 423  330.7963
 424  319.4659
 425  294.2133
 426  162.2603
 427  190.6692
 428  156.0265
 429  142.507
 430  168.4205
 431  139.1041
 432  191.2931
 433  181.7648
 434  153.2871
 435  186.8719
 436  230.9364
 437  114.9525
 438  -42.85289
 439  202.5688
 440  365.1581
 441  302.6769
 442  283.512
 443  238.851
 444  229.6768
 445  131.2732
 446  143.101
 447  227.6542
 448  123.455
 449  277.5889
 450  394.7967
 451  209.0576
 452  139.5527
 453  147.4156
 454  226.5002
 455  157.6361
 456  264.5544
 457  299.7048
 458  283.6987
 459  275.1902
 460  330.4653
 461  374.452
 462  391.4337
 463  340.6573
 464  262.6594
 465  258.8345
 466  314.8727
 467  368.4391
 468  245.2579
 469  322.0964
 470  369.4929
 471  340.0126
 472  157.9167
 473  142.5409
 474  333.3626
 475  349.4202
 476  251.2073
 477  225.8754
 478  255.3316
 479  185.1687
 480  234.1544
 481  429.5998
 482  362.0709
 483  316.9624
 484  393.1671
 485  348.4587
 486  217.8863
 487  266.7703
 488  306.0002
 489  303.3505
 490  284.0034
 491  228.2914
 492  110.8538
 493  154.2588
 494  358.1995
 495  255.6247
 496  142.7815
 497  173.7508
 498  248.9082
 499  316.3351
 500  150.1524
 501  193.0517
 502  291.4052
 503  355.5336
 504  278.153
 505  237.9823
 506  377.8683
 507  287.0081
 508  206.3088
 509  270.2193
 510  377.4911
 511  312.4275
