# Input file       =  1181127197.108836_cleaned.dat
# Candidate        =  PSR_0332+5434
# Telescope        =  AR
# Epoch_topo       =  57914.453461907826
# Epoch_bary       =  N/A
# T_sample         =  0.002
# Data Folded      =  7340032
# Data Avg         =  0.0247750561155478
# Data StdDev      =  1.00006709198541 
# Profile Bins     =  512
# Profile Avg      =  355.060965366412 
# Profile StdDev   =  119.741069503896 
# Reduced chi-sqr  =  1.028
# Prob(Noise)      <  0.32   (~0.5 sigma)
# P_topo (ms)      =  714.507827041089  +/- 0.000395
# P'_topo (s/s)    =  -0                +/- 2.08e-10
# P''_topo (s/s^2) =  0                 +/- 9.2e-14
# P_bary (ms)      =  N/A
# P'_bary (s/s)    =  N/A
# P''_bary (s/s^2) =  N/A
# P_orb (s)        =  N/A
# asin(i)/c (s)    =  N/A
# eccentricity     =  N/A
# w (rad)          =  N/A
# T_peri           =  N/A
######################################################
   0  331.0794
   1  279.4417
   2  270.2271
   3  241.17
   4  181.1057
   5  283.7112
   6  268.9713
   7  240.5201
   8  378.6758
   9  309.0045
  10  286.1298
  11  214.3281
  12  228.3585
  13  491.8439
  14  491.4748
  15  393.7465
  16  190.4452
  17  200.9128
  18  265.9234
  19  250.0591
  20  280.2329
  21  308.3528
  22  391.4651
  23  394.1774
  24  324.7053
  25  351.2473
  26  441.9702
  27  378.7934
  28  301.106
  29  358.6378
  30  370.3564
  31  392.7325
  32  321.5911
  33  297.6071
  34  274.8429
  35  268.5345
  36  216.4893
  37  340.2843
  38  372.0236
  39  154.3584
  40  165.7543
  41  323.898
  42  265.4646
  43  240.505
  44  169.4188
  45  237.34
  46  368.0042
  47  261.1132
  48  398.1335
  49  347.9985
  50  324.0562
  51  333.8739
  52  320.8039
  53  385.2505
  54  392.2664
  55  459.8702
  56  392.3287
  57  340.0645
  58  311.7437
  59  271.3857
  60  285.0154
  61  198.3363
  62  181.6853
  63  314.555
  64  450.2935
  65  407.4692
  66  326.9972
  67  275.0713
  68  254.6763
  69  253.1399
  70  273.1825
  71  332.214
  72  221.4109
  73  254.1217
  74  355.0637
  75  368.1567
  76  291.2158
  77  327.2265
  78  412.9613
  79  266.5169
  80  187.0562
  81  491.2682
  82  449.0296
  83  320.7219
  84  294.3023
  85  370.7743
  86  340.5636
  87  450.1298
  88  478.3506
  89  383.7524
  90  354.5732
  91  439.876
  92  367.9847
  93  318.2643
  94  357.9583
  95  352.019
  96  296.1853
  97  314.5503
  98  322.1564
  99  393.2427
 100  369.9821
 101  461.4105
 102  457.0172
 103  421.6667
 104  402.7795
 105  360.2333
 106  452.2254
 107  463.8424
 108  379.3123
 109  298.8677
 110  275.9612
 111  335.4245
 112  425.0129
 113  443.4615
 114  432.8964
 115  407.8335
 116  555.2424
 117  462.7326
 118  415.0599
 119  392.5141
 120  407.5706
 121  423.6235
 122  418.1618
 123  479.0904
 124  470.4785
 125  506.7661
 126  512.8504
 127  470.6971
 128  430.5963
 129  360.632
 130  450.5052
 131  459.6089
 132  475.1828
 133  368.6522
 134  355.6902
 135  261.3495
 136  227.314
 137  377.5701
 138  347.625
 139  399.7571
 140  488.9368
 141  451.4748
 142  447.7679
 143  294.5931
 144  329.998
 145  248.2714
 146  215.5009
 147  336.1506
 148  340.2887
 149  334.7614
 150  316.2535
 151  428.567
 152  339.3763
 153  327.1814
 154  396.0679
 155  340.5248
 156  374.7699
 157  452.0865
 158  353.9091
 159  288.4051
 160  276.803
 161  318.6145
 162  376.7804
 163  363.1955
 164  399.0376
 165  439.6053
 166  461.2258
 167  313.0457
 168  340.1666
 169  482.7092
 170  489.2541
 171  320.0472
 172  303.5922
 173  310.8786
 174  296.1248
 175  287.645
 176  168.5593
 177  315.4572
 178  460.6616
 179  541.6815
 180  487.3643
 181  420.6784
 182  341.3381
 183  446.0019
 184  429.2559
 185  477.7765
 186  469.3844
 187  417.7587
 188  453.5131
 189  459.9576
 190  543.0157
 191  468.7509
 192  364.4129
 193  435.7669
 194  436.6612
 195  441.7056
 196  530.8687
 197  466.993
 198  340.2919
 199  382.679
 200  304.7321
 201  385.2151
 202  415.9579
 203  383.836
 204  399.7705
 205  407.0252
 206  341.6761
 207  230.212
 208  308.499
 209  337.6284
 210  256.3445
 211  399.5478
 212  388.7351
 213  336.4055
 214  364.6682
 215  308.7709
 216  366.4279
 217  334.9572
 218  180.9401
 219  321.8073
 220  482.7723
 221  526.7883
 222  460.8304
 223  325.1653
 224  391.7278
 225  299.8904
 226  429.4801
 227  397.1462
 228  351.1898
 229  350.669
 230  358.1074
 231  336.8823
 232  353.0201
 233  337.8824
 234  334.5567
 235  418.8246
 236  497.3011
 237  424.1583
 238  382.6587
 239  282.0166
 240  340.4081
 241  268.919
 242  295.4857
 243  362.8664
 244  330.692
 245  377.3785
 246  357.4288
 247  251.5962
 248  268.2793
 249  387.3186
 250  396.9049
 251  294.3873
 252  345.961
 253  390.5341
 254  247.8819
 255  208.013
 256  323.9033
 257  377.6587
 258  453.6236
 259  284.9839
 260  317.6387
 261  344.8919
 262  328.8149
 263  338.4223
 264  338.0987
 265  428.1497
 266  425.8593
 267  399.547
 268  485.3694
 269  367.899
 270  360.1401
 271  350.2295
 272  312.6594
 273  297.5296
 274  366.5452
 275  340.6668
 276  375.7776
 277  320.8593
 278  412.8238
 279  442.9147
 280  412.6193
 281  380.5554
 282  360.6156
 283  381.8255
 284  292.4272
 285  292.6291
 286  273.0719
 287  345.1664
 288  317.2636
 289  312.4058
 290  315.2533
 291  387.5427
 292  229.7852
 293  290.7391
 294  329.574
 295  352.8734
 296  330.6528
 297  367.7593
 298  334.5461
 299  321.7299
 300  372.0864
 301  340.0437
 302  275.9085
 303  271.6709
 304  214.9205
 305  195.0079
 306  206.0021
 307  262.109
 308  202.0868
 309  290.4644
 310  270.6889
 311  168.3695
 312  156.8302
 313  219.2397
 314  220.7938
 315  274.0971
 316  234.2955
 317  314.4264
 318  436.1273
 319  349.8178
 320  272.8305
 321  258.2103
 322  256.4794
 323  308.5669
 324  335.1786
 325  322.4407
 326  417.8229
 327  477.5808
 328  500.4343
 329  335.1547
 330  303.0175
 331  376.1024
 332  397.7138
 333  338.767
 334  322.2822
 335  312.0851
 336  246.1434
 337  302.6898
 338  401.0475
 339  382.2065
 340  438.5379
 341  498.2939
 342  458.9623
 343  441.1684
 344  501.1091
 345  478.9997
 346  362.5154
 347  419.1738
 348  476.8447
 349  534.6925
 350  421.9266
 351  295.3037
 352  297.148
 353  393.5636
 354  457.8749
 355  467.3813
 356  465.5651
 357  364.2326
 358  290.6021
 359  330.3718
 360  286.8739
 361  281.6572
 362  394.6845
 363  405.1048
 364  366.3618
 365  417.0877
 366  367.558
 367  368.3108
 368  468.683
 369  389.4781
 370  321.4433
 371  391.1974
 372  355.8078
 373  398.2407
 374  562.4235
 375  817.6502
 376  785.3317
 377  731.6151
 378  740.7056
 379  633.0332
 380  451.7165
 381  293.5345
 382  314.757
 383  316.6778
 384  440.6007
 385  494.7755
 386  486.9851
 387  411.8731
 388  419.5386
 389  326.9169
 390  262.2146
 391  277.3285
 392  351.694
 393  288.4844
 394  268.3521
 395  327.0563
 396  462.9599
 397  304.093
 398  252.0221
 399  203.8455
 400  220.0454
 401  368.0894
 402  279.5434
 403  330.6251
 404  383.0014
 405  302.0453
 406  326.6239
 407  423.628
 408  401.0264
 409  389.6574
 410  390.254
 411  323.3227
 412  360.0948
 413  350.1424
 414  424.5662
 415  366.8932
 416  269.6526
 417  300.5681
 418  316.6414
 419  381.6867
 420  395.0797
 421  275.9045
 422  237.4737
 423  298.875
 424  389.2696
 425  447.1888
 426  548.2761
 427  324.591
 428  217.1957
 429  247.8966
 430  307.0231
 431  402.6269
 432  451.8943
 433  342.2204
 434  288.082
 435  282.3493
 436  226.8676
 437  340.7974
 438  327.1532
 439  269.7067
 440  322.3757
 441  265.7664
 442  300.1866
 443  352.2126
 444  390.0235
 445  281.6915
 446  350.0164
 447  273.8109
 448  353.1119
 449  300.1523
 450  277.1373
 451  319.1991
 452  356.2367
 453  382.9502
 454  360.7948
 455  390.8018
 456  379.985
 457  299.8694
 458  235.911
 459  288.2987
 460  381.5381
 461  372.6612
 462  318.9311
 463  340.733
 464  494.7806
 465  427.5206
 466  343.494
 467  374.2019
 468  430.6702
 469  457.8303
 470  439.046
 471  367.3022
 472  317.2873
 473  267.7083
 474  313.1912
 475  355.64
 476  228.7236
 477  256.5105
 478  233.9854
 479  313.997
 480  337.6565
 481  275.0847
 482  380.116
 483  326.0584
 484  302.3393
 485  280.1883
 486  262.57
 487  251.8238
 488  178.294
 489  408.2708
 490  419.6147
 491  261.3253
 492  298.2281
 493  422.3954
 494  390.032
 495  425.5124
 496  332.9725
 497  292.2302
 498  181.4813
 499  352.1082
 500  469.6584
 501  331.3056
 502  312.5984
 503  253.9531
 504  369.6813
 505  354.2697
 506  374.1666
 507  505.0262
 508  494.3823
 509  448.5493
 510  430.153
 511  407.9791
