# Input file       =  1181456923.122051_cleaned.dat
# Candidate        =  PSR_0332+5434
# Telescope        =  AR
# Epoch_topo       =  57918.269735208924
# Epoch_bary       =  N/A
# T_sample         =  0.002
# Data Folded      =  7340032
# Data Avg         =  0.0186201177031286
# Data StdDev      =  1.00009824381454 
# Profile Bins     =  512
# Profile Avg      =  266.714224816452 
# Profile StdDev   =  119.744799406986 
# Reduced chi-sqr  =  1.334
# Prob(Noise)      <  5.94e-07   (~4.9 sigma)
# P_topo (ms)      =  714.503918632711  +/- 0.000261
# P'_topo (s/s)    =  -0                +/- 1.38e-10
# P''_topo (s/s^2) =  0                 +/- 6.08e-14
# P_bary (ms)      =  N/A
# P'_bary (s/s)    =  N/A
# P''_bary (s/s^2) =  N/A
# P_orb (s)        =  N/A
# asin(i)/c (s)    =  N/A
# eccentricity     =  N/A
# w (rad)          =  N/A
# T_peri           =  N/A
######################################################
   0  823.5564
   1  832.8796
   2  632.9014
   3  570.4091
   4  640.0615
   5  528.9015
   6  449.3406
   7  427.472
   8  350.9162
   9  446.5256
  10  344.3884
  11  363.2246
  12  471.5855
  13  326.5599
  14  390.8131
  15  444.7064
  16  356.5742
  17  369.9143
  18  301.9666
  19  227.406
  20  275.7294
  21  338.982
  22  242.2455
  23  206.7302
  24  345.2264
  25  353.4469
  26  242.7361
  27  190.939
  28  168.0379
  29  352.5791
  30  401.1625
  31  338.6407
  32  277.829
  33  260.9488
  34  303.5221
  35  347.1533
  36  271.0131
  37  337.6649
  38  115.8843
  39  81.70465
  40  249.5548
  41  253.4047
  42  241.3893
  43  285.5784
  44  312.324
  45  120.9863
  46  170.7226
  47  60.8592
  48  185.067
  49  184.5898
  50  301.9003
  51  295.1308
  52  231.7934
  53  177.7132
  54  189.0261
  55  216.7069
  56  148.4769
  57  174.5921
  58  238.739
  59  270.9595
  60  154.9898
  61  181.3737
  62  137.095
  63  77.97755
  64  220.7364
  65  272.8733
  66  297.7509
  67  240.7749
  68  183.9841
  69  175.3005
  70  188.3965
  71  225.9659
  72  215.066
  73  195.9212
  74  216.7658
  75  209.6985
  76  218.9928
  77  318.8977
  78  249.3796
  79  215.3924
  80  268.905
  81  240.0147
  82  150.4984
  83  270.7944
  84  298.0956
  85  318.0668
  86  313.4309
  87  221.5065
  88  182.0025
  89  97.40363
  90  120.465
  91  243.1807
  92  254.5671
  93  321.5628
  94  323.9095
  95  302.153
  96  171.2074
  97  190.1986
  98  160.703
  99  144.8446
 100  160.7404
 101  147.5428
 102  171.5865
 103  197.8313
 104  145.5284
 105  191.2234
 106  224.4989
 107  139.9085
 108  -40.40091
 109  158.7275
 110  360.9562
 111  315.1058
 112  282.3478
 113  249.4172
 114  225.7653
 115  152.2365
 116  118.4806
 117  235.5799
 118  127.4129
 119  253.006
 120  405.057
 121  228.9146
 122  139.1704
 123  142.5216
 124  219.8375
 125  161.9954
 126  249.4821
 127  297.11
 128  290.8467
 129  266.7968
 130  330.841
 131  368.6785
 132  389.6798
 133  348.2534
 134  268.6808
 135  257.2601
 136  304.4984
 137  378.6018
 138  250.4504
 139  310.0198
 140  365.1541
 141  350.7188
 142  181.6144
 143  131.2986
 144  316.116
 145  356.2759
 146  257.3003
 147  228.8386
 148  250.946
 149  194.8346
 150  212.5032
 151  418.2289
 152  378.8058
 153  314.5733
 154  380.4391
 155  368.155
 156  223.1969
 157  256.8584
 158  300.1464
 159  310.6155
 160  285.9714
 161  235.7366
 162  127.4417
 163  140.3864
 164  331.0095
 165  287.0093
 166  132.8181
 167  177.7111
 168  228.3541
 169  330.4425
 170  167.7462
 171  176.275
 172  287.2671
 173  341.574
 174  304.982
 175  218.9218
 176  375.9126
 177  295.7296
 178  210.589
 179  253.2068
 180  372.5012
 181  334.1127
 182  222.753
 183  303.645
 184  304.9261
 185  275.4506
 186  243.3193
 187  280.3437
 188  221.8141
 189  169.3959
 190  267.8778
 191  283.4683
 192  238.8222
 193  294.2194
 194  263.7095
 195  128.7685
 196  132.7229
 197  141.1981
 198  216.7211
 199  139.8806
 200  215.1946
 201  180.7473
 202  131.6794
 203  224.5247
 204  157.5889
 205  292.8442
 206  286.4009
 207  138.728
 208  328.7542
 209  309.8105
 210  385.0197
 211  380.2424
 212  214.0859
 213  180.2299
 214  197.085
 215  224.4261
 216  355.6833
 217  285.2
 218  143.8669
 219  136.5289
 220  174.5043
 221  256.1314
 222  347.8763
 223  244.1431
 224  202.6748
 225  228.4595
 226  329.4834
 227  343.6837
 228  173.621
 229  147.9193
 230  136.9639
 231  195.8419
 232  329.2181
 233  191.4174
 234  176.0377
 235  230.4378
 236  222.717
 237  242.1353
 238  196.5557
 239  119.7663
 240  235.8721
 241  241.2748
 242  164.2375
 243  183.0185
 244  153.8746
 245  245.4361
 246  268.6562
 247  220.9846
 248  175.1452
 249  227.2078
 250  304.7008
 251  289.3609
 252  231.6971
 253  277.4208
 254  120.4669
 255  209.3478
 256  190.3355
 257  214.8537
 258  242.1154
 259  338.9109
 260  304.0183
 261  191.1818
 262  228.3298
 263  431.545
 264  395.0883
 265  276.9015
 266  264.0752
 267  306.8008
 268  311.3366
 269  303.2406
 270  339.8029
 271  316.773
 272  307.0818
 273  308.6422
 274  296.7831
 275  158.9714
 276  173.5192
 277  238.2273
 278  302.6961
 279  233.6281
 280  309.7425
 281  257.1507
 282  230.52
 283  242.553
 284  375.034
 285  279.1035
 286  224.8526
 287  241.0728
 288  258.9814
 289  292.848
 290  251.0592
 291  227.9972
 292  202.3158
 293  277.5968
 294  252.4435
 295  216.1367
 296  155.983
 297  256.2791
 298  208.8043
 299  182.8948
 300  278.077
 301  388.0633
 302  326.1368
 303  271.8924
 304  181.9329
 305  194.0264
 306  175.0611
 307  191.4932
 308  185.7726
 309  223.0862
 310  281.2726
 311  210.6605
 312  282.4446
 313  263.1772
 314  304.1817
 315  345.3789
 316  242.727
 317  309.7769
 318  393.6908
 319  284.2586
 320  256.0475
 321  144.4014
 322  224.203
 323  209.7298
 324  183.6332
 325  146.6279
 326  77.57565
 327  354.588
 328  368.081
 329  334.2796
 330  383.6875
 331  350.6989
 332  333.0726
 333  321.8532
 334  307.8443
 335  432.3631
 336  398.5786
 337  310.2177
 338  319.2632
 339  279.7695
 340  294.1015
 341  402.3316
 342  307.9576
 343  250.341
 344  278.8311
 345  404.8381
 346  347.2979
 347  333.7484
 348  371.4677
 349  317.6206
 350  200.4794
 351  203.8188
 352  156.5983
 353  211.4158
 354  290.4671
 355  293.3619
 356  251.6678
 357  151.6102
 358  182.2512
 359  156.3743
 360  270.8566
 361  315.9209
 362  221.5642
 363  259.5055
 364  329.7228
 365  370.808
 366  308.3014
 367  244.8759
 368  191.1986
 369  238.6781
 370  106.6076
 371  16.67957
 372  112.7958
 373  169.6943
 374  236.0048
 375  305.4373
 376  263.3098
 377  59.48564
 378  125.251
 379  285.8517
 380  265.8304
 381  211.887
 382  255.1218
 383  245.1976
 384  288.0225
 385  303.9927
 386  260.1586
 387  206.4247
 388  137.5234
 389  142.1502
 390  229.6984
 391  236.0682
 392  232.848
 393  239.5076
 394  309.3781
 395  269.7442
 396  152.174
 397  297.7048
 398  336.2539
 399  192.6782
 400  285.1909
 401  286.213
 402  295.2702
 403  425.9407
 404  368.7678
 405  223.9103
 406  220.5978
 407  274.5571
 408  221.8589
 409  186.9681
 410  225.5374
 411  219.1758
 412  212.6217
 413  297.9022
 414  308.8345
 415  183.7871
 416  188.8145
 417  277.337
 418  236.5913
 419  279.3477
 420  127.3662
 421  189.3275
 422  234.9457
 423  207.8924
 424  83.34101
 425  92.05501
 426  228.3044
 427  235.1725
 428  173.4229
 429  263.5091
 430  311.9667
 431  224.8411
 432  141.4264
 433  295.5284
 434  276.333
 435  219.6485
 436  318.8824
 437  383.0081
 438  290.6374
 439  244.022
 440  160.3376
 441  313.3827
 442  304.1189
 443  310.8444
 444  258.6473
 445  246.1836
 446  229.9574
 447  278.6941
 448  170.9927
 449  321.8063
 450  366.1844
 451  278.9163
 452  308.352
 453  224.8345
 454  220.7746
 455  222.3327
 456  191.431
 457  151.0869
 458  100.9919
 459  179.7529
 460  367.183
 461  332.1944
 462  359.0471
 463  332.0262
 464  260.0207
 465  310.7162
 466  318.6353
 467  277.5288
 468  409.7243
 469  372.4265
 470  268.6374
 471  222.8456
 472  262.6061
 473  322.3304
 474  386.9171
 475  355.9824
 476  336.438
 477  284.1598
 478  327.0936
 479  366.8546
 480  354.9669
 481  294.5329
 482  492.6827
 483  499.3485
 484  362.0664
 485  294.213
 486  315.0157
 487  474.9429
 488  491.9792
 489  306.8708
 490  301.713
 491  302.8853
 492  331.6075
 493  294.0045
 494  318.2683
 495  498.6502
 496  451.1748
 497  369.6052
 498  202.5396
 499  169.0575
 500  154.804
 501  230.525
 502  387.2009
 503  447.614
 504  441.1111
 505  450.713
 506  423.4944
 507  413.8091
 508  421.3996
 509  641.1503
 510  633.5469
 511  745.8857
