# Input file       =  1181614677.117078_cleaned.dat
# Candidate        =  PSR_0332+5434
# Telescope        =  AR
# Epoch_topo       =  57920.095591632846
# Epoch_bary       =  N/A
# T_sample         =  0.002
# Data Folded      =  7208960
# Data Avg         =  0.0296443884689436
# Data StdDev      =  1.00001748119436 
# Profile Bins     =  512
# Profile Avg      =  417.338600917076 
# Profile StdDev   =  118.661250097645 
# Reduced chi-sqr  =  0.849
# Prob(Noise)      <  0.994   (~0.0 sigma)
# P_topo (ms)      =  714.502220653833  +/- 0.000234
# P'_topo (s/s)    =  -0                +/- 1.26e-10
# P''_topo (s/s^2) =  0                 +/- 5.65e-14
# P_bary (ms)      =  N/A
# P'_bary (s/s)    =  N/A
# P''_bary (s/s^2) =  N/A
# P_orb (s)        =  N/A
# asin(i)/c (s)    =  N/A
# eccentricity     =  N/A
# w (rad)          =  N/A
# T_peri           =  N/A
######################################################
   0  746.239
   1  795.8701
   2  766.8765
   3  661.649
   4  588.617
   5  509.5011
   6  482.9731
   7  435.6245
   8  465.1152
   9  415.8071
  10  395.1595
  11  443.2995
  12  457.0859
  13  445.7594
  14  436.5768
  15  469.2555
  16  487.2008
  17  511.6272
  18  392.6875
  19  374.6444
  20  481.791
  21  454.9369
  22  486.8477
  23  512.0187
  24  376.8301
  25  455.8619
  26  493.5542
  27  466.7395
  28  445.2171
  29  465.195
  30  400.3634
  31  392.5145
  32  440.3625
  33  488.4869
  34  352.9031
  35  322.8736
  36  344.6237
  37  458.1051
  38  445.2023
  39  427.1904
  40  375.1577
  41  419.0485
  42  411.3206
  43  359.7265
  44  399.4221
  45  455.9339
  46  469.2431
  47  417.8939
  48  392.8408
  49  478.0224
  50  519.325
  51  499.048
  52  436.8745
  53  344.2851
  54  378.9339
  55  381.2756
  56  310.5957
  57  362.2566
  58  455.7961
  59  409.972
  60  208.5327
  61  346.2512
  62  379.1968
  63  308.0033
  64  352.2976
  65  343.0005
  66  312.8995
  67  378.6793
  68  407.9132
  69  443.1094
  70  472.4852
  71  383.4709
  72  361.7576
  73  371.5693
  74  371.7797
  75  316.8489
  76  314.4849
  77  334.6227
  78  419.354
  79  425.283
  80  438
  81  426.3073
  82  416.7065
  83  477.1958
  84  457.6972
  85  337.2894
  86  425.4591
  87  388.534
  88  476.4878
  89  480.4951
  90  414.3843
  91  479.8007
  92  447.7166
  93  412.2945
  94  466.8862
  95  433.7874
  96  374.6577
  97  356.5917
  98  435.2595
  99  407.9792
 100  393.9251
 101  282.9584
 102  367.6326
 103  410.2881
 104  409.2087
 105  414.5089
 106  415.936
 107  342.2824
 108  284.1429
 109  320.195
 110  372.6393
 111  443.7042
 112  443.9048
 113  453.2024
 114  452.2249
 115  477.4446
 116  439.2663
 117  431.1306
 118  464.2285
 119  342.8279
 120  316.9161
 121  408.5172
 122  428.2111
 123  375.0777
 124  400.3917
 125  397.942
 126  407.6241
 127  412.6072
 128  364.6853
 129  373.8204
 130  384.7754
 131  339.007
 132  364.3148
 133  291.5485
 134  200.4321
 135  159.0346
 136  281.1158
 137  266.5149
 138  279.035
 139  434.0132
 140  349.2417
 141  338.7205
 142  355.8998
 143  337.8298
 144  487.408
 145  373.748
 146  341.8039
 147  423.4832
 148  516.8936
 149  544.3582
 150  528.2859
 151  509.396
 152  478.7375
 153  398.6174
 154  430.5102
 155  439.0049
 156  416.4672
 157  448.3773
 158  522.1084
 159  442.621
 160  426.5723
 161  472.4878
 162  361.3864
 163  370.073
 164  509.7543
 165  460.5873
 166  345.3317
 167  457.1475
 168  490.3882
 169  417.6988
 170  371.2502
 171  409.1398
 172  478.6563
 173  522.5956
 174  500.1078
 175  366.5431
 176  446.8305
 177  524.6929
 178  444.9452
 179  435.055
 180  498.038
 181  463.5198
 182  520.4693
 183  402.6167
 184  278.7474
 185  315.6666
 186  406.3209
 187  410.1463
 188  401.6675
 189  330.174
 190  343.9569
 191  358.1916
 192  513.8011
 193  474.603
 194  481.4395
 195  423.3122
 196  511.3283
 197  510.9699
 198  468.3372
 199  441.23
 200  424.6828
 201  290.6749
 202  360.0734
 203  318.1865
 204  368.7372
 205  328.6094
 206  374.0282
 207  388.6655
 208  342.0705
 209  372.7269
 210  291.6489
 211  382.2143
 212  456.4118
 213  419.8912
 214  318.5527
 215  354.2278
 216  388.5624
 217  425.3184
 218  426.0971
 219  347.1323
 220  271.0752
 221  367.9066
 222  474.9669
 223  522.6912
 224  432.0638
 225  422.0608
 226  332.4052
 227  419.6048
 228  525.3955
 229  530.1683
 230  534.3223
 231  515.8922
 232  425.4825
 233  495.122
 234  545.3784
 235  504.6906
 236  438.5886
 237  404.5663
 238  484.5116
 239  533.5065
 240  554.5383
 241  432.4157
 242  380.96
 243  393.3117
 244  349.8125
 245  409.098
 246  280.6971
 247  361.1247
 248  494.0559
 249  366.3496
 250  421.74
 251  397.5212
 252  360.8038
 253  384.0188
 254  416.461
 255  453.25
 256  445.847
 257  530.8375
 258  427.6872
 259  428.5512
 260  489.1588
 261  470.1847
 262  462.3793
 263  540.8195
 264  363.8168
 265  207.2086
 266  341.8001
 267  408.5999
 268  408.6266
 269  339.9645
 270  354.0462
 271  352.8026
 272  441.5702
 273  436.4609
 274  455.7607
 275  476.3703
 276  483.688
 277  324.3042
 278  333.1223
 279  302.0494
 280  413.9815
 281  400.8649
 282  558.9988
 283  521.6663
 284  382.995
 285  355.3379
 286  343.7328
 287  406.8015
 288  416.2902
 289  433.8299
 290  536.2602
 291  612.6655
 292  561.6285
 293  383.4976
 294  411.2343
 295  449.2487
 296  527.3423
 297  586.7739
 298  442.0267
 299  427.8689
 300  385.6963
 301  326.2993
 302  334.4268
 303  394.6078
 304  536.7969
 305  397.0936
 306  478.4445
 307  555.6782
 308  460.5886
 309  447.8101
 310  503.0737
 311  445.2295
 312  457.4595
 313  539.5885
 314  550.0637
 315  394.1985
 316  320.5076
 317  292.9861
 318  353.7204
 319  372.534
 320  472.3074
 321  428.8266
 322  462.3055
 323  376.5931
 324  251.5278
 325  253.7836
 326  368.2917
 327  364.7196
 328  312.5266
 329  289.8105
 330  342.2848
 331  362.6852
 332  453.5555
 333  408.6668
 334  408.8959
 335  407.1301
 336  430.1062
 337  489.3472
 338  531.6383
 339  609.3726
 340  448.0934
 341  528.2656
 342  490.3963
 343  356.8126
 344  380.3851
 345  489.6208
 346  351.5522
 347  257.1935
 348  462.2266
 349  487.6522
 350  445.2496
 351  327.5405
 352  303.013
 353  382.3629
 354  421.9367
 355  342.6575
 356  335.3716
 357  383.6053
 358  423.6815
 359  385.535
 360  371.6383
 361  372.3802
 362  339.9221
 363  352.7695
 364  467.4848
 365  375.5084
 366  419.3058
 367  358.5237
 368  425.6444
 369  450.8838
 370  434.4071
 371  450.8049
 372  424.939
 373  471.8226
 374  445.1665
 375  449.1555
 376  350.0817
 377  301.1471
 378  461.6404
 379  491.4332
 380  455.1927
 381  333.8597
 382  383.1687
 383  350.7295
 384  330.7039
 385  426.3542
 386  425.5441
 387  352.9881
 388  426.2271
 389  397.2819
 390  390.2784
 391  368.6647
 392  487.495
 393  394.7036
 394  345.4721
 395  269.79
 396  314.6383
 397  444.73
 398  451.6843
 399  429.8131
 400  535.68
 401  534.3827
 402  457.7295
 403  429.1499
 404  440.7706
 405  444.7875
 406  420.8521
 407  522.0392
 408  533.0121
 409  358.1107
 410  344.0681
 411  364.7116
 412  305.3466
 413  296.7775
 414  399.6178
 415  438.1158
 416  463.1537
 417  492.6021
 418  452.9692
 419  395.125
 420  422.8805
 421  516.895
 422  427.8983
 423  492.5872
 424  319.7952
 425  414.2048
 426  360.8325
 427  294.9381
 428  299.6095
 429  350.5816
 430  286.4328
 431  366.7931
 432  419.5575
 433  327.3181
 434  417.7644
 435  439.1938
 436  449.8128
 437  456.1575
 438  453.7115
 439  383.9541
 440  430.0008
 441  374.4406
 442  326.8441
 443  228.3546
 444  206.8752
 445  303.4575
 446  428.2487
 447  499.2391
 448  532.3571
 449  587.4813
 450  578.3796
 451  379.9931
 452  459.6835
 453  529.3037
 454  584.4695
 455  465.299
 456  431.9617
 457  352.4932
 458  344.7163
 459  414.1714
 460  475.0494
 461  374.3797
 462  388.2138
 463  323.1256
 464  325.0247
 465  465.7552
 466  488.0555
 467  492.8517
 468  402.7312
 469  299.9712
 470  414.0326
 471  434.4748
 472  375.8334
 473  326.9792
 474  355.0878
 475  389.0278
 476  489.4404
 477  430.5859
 478  373.881
 479  373.631
 480  231.1672
 481  361.4349
 482  448.6209
 483  461.4702
 484  371.2832
 485  321.2838
 486  451.8194
 487  512.8594
 488  453.2061
 489  466.0354
 490  436.6558
 491  328.386
 492  409.7306
 493  366.7536
 494  418.5296
 495  431.4683
 496  463.4643
 497  515.9271
 498  468.4482
 499  517.7377
 500  433.4233
 501  345.8073
 502  363.5256
 503  351.6189
 504  352.7467
 505  481.7943
 506  486.7497
 507  489.2238
 508  510.2855
 509  588.0506
 510  650.7235
 511  647.4741
