# Input file       =  1181558042.121278_cleaned.dat
# Candidate        =  PSR_0332+5434
# Telescope        =  AR
# Epoch_topo       =  57919.440093996272
# Epoch_bary       =  N/A
# T_sample         =  0.002
# Data Folded      =  7340032
# Data Avg         =  0.0254235870643535
# Data StdDev      =  1.00004351247468 
# Profile Bins     =  512
# Profile Avg      =  364.528396553748 
# Profile StdDev   =  119.73824625748  
# Reduced chi-sqr  =  1.106
# Prob(Noise)      <  0.0493   (~1.7 sigma)
# P_topo (ms)      =  714.503168684551  +/- 7.77e-05
# P'_topo (s/s)    =  -0                +/- 4.1e-11
# P''_topo (s/s^2) =  0                 +/- 1.81e-14
# P_bary (ms)      =  N/A
# P'_bary (s/s)    =  N/A
# P''_bary (s/s^2) =  N/A
# P_orb (s)        =  N/A
# asin(i)/c (s)    =  N/A
# eccentricity     =  N/A
# w (rad)          =  N/A
# T_peri           =  N/A
######################################################
   0  767.174
   1  726.3896
   2  683.3168
   3  554.5771
   4  446.3214
   5  449.5668
   6  535.7574
   7  500.5799
   8  409.5279
   9  351.9505
  10  367.3769
  11  425.0597
  12  431.7629
  13  253.2551
  14  293.1146
  15  375.5063
  16  311.0269
  17  289.9008
  18  334.4991
  19  283.4418
  20  281.5932
  21  335.8103
  22  275.7788
  23  246.7469
  24  337.877
  25  333.3203
  26  339.7903
  27  339.5734
  28  356.0541
  29  323.643
  30  348.4623
  31  381.1227
  32  329.0007
  33  290.6457
  34  254.2996
  35  264.4415
  36  228.3125
  37  224.9611
  38  339.2321
  39  353.3052
  40  306.0773
  41  293.5369
  42  290.232
  43  305.6004
  44  263.8127
  45  367.5879
  46  385.4199
  47  458.5178
  48  483.3497
  49  500.4102
  50  493.4756
  51  331.6524
  52  304.2663
  53  458.7163
  54  469.3947
  55  410.2753
  56  306.9712
  57  321.8967
  58  335.502
  59  267.2146
  60  329.5128
  61  363.7187
  62  291.1826
  63  237.8399
  64  305.1963
  65  351.9911
  66  278.887
  67  310.4612
  68  281.0699
  69  337.8334
  70  318.3414
  71  193.7924
  72  206.7358
  73  202.2807
  74  222.1835
  75  294.7871
  76  307.7317
  77  238.2191
  78  286.6584
  79  297.0331
  80  302.2049
  81  285.4024
  82  268.8166
  83  332.9725
  84  450.9753
  85  414.3497
  86  306.8064
  87  380.1579
  88  503.1161
  89  281.1799
  90  296.3813
  91  290.9541
  92  413.3568
  93  442.3862
  94  316.0858
  95  431.9169
  96  363.9357
  97  409.9707
  98  379.7179
  99  127.5204
 100  267.3361
 101  382.1922
 102  332.3267
 103  307.7899
 104  295.4707
 105  260.6419
 106  264.9334
 107  336.1506
 108  380.831
 109  221.7258
 110  200.3229
 111  316.8355
 112  402.8269
 113  366.7452
 114  342.5606
 115  261.6227
 116  358.5362
 117  393.8745
 118  298.1834
 119  261.8219
 120  313.3351
 121  351.9652
 122  375.771
 123  265.1693
 124  350.3674
 125  421.4932
 126  307.3377
 127  388.3137
 128  318.1233
 129  320.0538
 130  447.941
 131  456.9595
 132  346.0261
 133  261.6866
 134  269.0879
 135  418.1233
 136  418.0276
 137  324.5573
 138  362.4256
 139  404.26
 140  377.9395
 141  325.1311
 142  343.2332
 143  421.1689
 144  337.6648
 145  448.4137
 146  379.9058
 147  283.359
 148  344.2156
 149  377.2377
 150  334.3017
 151  359.3263
 152  209.7787
 153  182.0111
 154  197.0066
 155  354.8637
 156  456.0182
 157  359.6324
 158  322.8288
 159  332.6957
 160  324.2336
 161  261.7175
 162  326.306
 163  252.4713
 164  371.4684
 165  380.7613
 166  291.0498
 167  258.3226
 168  353.2885
 169  450.3694
 170  527.1658
 171  374.2237
 172  454.7545
 173  491.1535
 174  405.8789
 175  459.9005
 176  474.0021
 177  493.693
 178  412.216
 179  307.8691
 180  380.4143
 181  378.139
 182  407.7593
 183  326.8853
 184  339.3227
 185  342.9561
 186  392.0754
 187  277.0749
 188  299.7857
 189  304.5488
 190  213.2302
 191  151.2234
 192  196.8347
 193  304.1364
 194  433.4207
 195  370.2618
 196  263.1864
 197  380.8107
 198  411.7971
 199  333.3176
 200  243.1844
 201  281.3401
 202  349.7707
 203  494.7621
 204  356.7653
 205  321.9822
 206  369.108
 207  378.5027
 208  324.9134
 209  261.417
 210  219.8503
 211  261.0829
 212  256.6343
 213  387.3661
 214  374.7288
 215  400.8127
 216  429.9475
 217  332.931
 218  341.7294
 219  402.1154
 220  394.132
 221  408.7897
 222  368.4168
 223  274.2701
 224  328.0368
 225  466.8112
 226  484.6563
 227  409.6659
 228  368.2678
 229  339.2284
 230  428.8918
 231  440.0084
 232  441.727
 233  426.3042
 234  378.912
 235  250.6507
 236  317.8401
 237  411.7072
 238  395.9121
 239  418.3896
 240  386.8961
 241  391.9135
 242  323.1624
 243  316.8813
 244  381.2552
 245  342.9268
 246  472.6747
 247  433.0028
 248  292.1354
 249  244.4168
 250  406.6809
 251  420.9206
 252  323.1436
 253  292.1613
 254  257.2813
 255  353.606
 256  405.8305
 257  350.0479
 258  342.9695
 259  382.3929
 260  460.611
 261  407.2626
 262  368.9311
 263  347.7175
 264  354.0237
 265  450.3723
 266  394.1888
 267  334.2545
 268  417.207
 269  470.1339
 270  498.7859
 271  497.2768
 272  366.0616
 273  306.5821
 274  373.0998
 275  385
 276  261.8929
 277  240.0986
 278  302.3102
 279  297.0131
 280  248.7721
 281  245.3252
 282  236.4778
 283  222.1731
 284  314.2965
 285  354.1921
 286  355.2975
 287  290.2185
 288  226.5732
 289  239.6141
 290  209.5155
 291  192.7432
 292  274.7872
 293  364.2258
 294  307.5046
 295  365.5499
 296  453.404
 297  500.3517
 298  405.9449
 299  318.3456
 300  348.6765
 301  423.9388
 302  416.4461
 303  383.7942
 304  575.7765
 305  727.8108
 306  588.3911
 307  478.9498
 308  448.1529
 309  404.1791
 310  353.3515
 311  338.4355
 312  477.8004
 313  462.0559
 314  414.0327
 315  381.2676
 316  334.5002
 317  420.853
 318  420.1121
 319  308.8168
 320  307.9887
 321  410.6417
 322  383.0328
 323  391.0033
 324  420.7188
 325  350.8005
 326  344.4188
 327  320.6825
 328  354.5446
 329  328.8494
 330  415.9772
 331  408.8914
 332  393.6144
 333  321.637
 334  338.7143
 335  240.4483
 336  264.3043
 337  271.7637
 338  274.1357
 339  274.3148
 340  336.8311
 341  293.9815
 342  384.2184
 343  461.4703
 344  412.0808
 345  428.8199
 346  535.2578
 347  411.8581
 348  307.7202
 349  359.7967
 350  414.8481
 351  369.1287
 352  378.9203
 353  300.9029
 354  249.4443
 355  269.4685
 356  367.8349
 357  301.2265
 358  215.4715
 359  158.4647
 360  255.0738
 361  375.3161
 362  162.0824
 363  58.24931
 364  193.9238
 365  286.7697
 366  258.9796
 367  175.5987
 368  187.0189
 369  247.3399
 370  352.6379
 371  275.0652
 372  270.1357
 373  309.2803
 374  363.3749
 375  395.3284
 376  271.1703
 377  252.1226
 378  347.4863
 379  440.4988
 380  372.5796
 381  383.5023
 382  363.5975
 383  409.4085
 384  352.7586
 385  429.9344
 386  441.6458
 387  456.7072
 388  549.916
 389  496.2165
 390  535.0071
 391  517.514
 392  416.6911
 393  407.4544
 394  489.9602
 395  464.1769
 396  425.8013
 397  509.5376
 398  463.4247
 399  353.2093
 400  307.2103
 401  419.4303
 402  386.3164
 403  462.1878
 404  452.8016
 405  387.0469
 406  353.5445
 407  282.2472
 408  287.3619
 409  259.5708
 410  149.1874
 411  344.0818
 412  319.7787
 413  382.3184
 414  281.2267
 415  261.1653
 416  194.4036
 417  315.402
 418  362.7551
 419  361.0016
 420  346.9211
 421  432.5642
 422  518.347
 423  489.9209
 424  448.4744
 425  326.1096
 426  448.1893
 427  493.4505
 428  526.0844
 429  527.7783
 430  487.0844
 431  420.0975
 432  390.6904
 433  522.9467
 434  514.476
 435  428.812
 436  523.1785
 437  477.0725
 438  446.0818
 439  404.9537
 440  424.5601
 441  434.7651
 442  419.78
 443  397.6394
 444  255.3065
 445  348.0098
 446  441.0392
 447  491.4717
 448  499.755
 449  392.1084
 450  401.2939
 451  356.881
 452  297.924
 453  299.9163
 454  327.7678
 455  404.3446
 456  351.2614
 457  416.2928
 458  300.9663
 459  368.0253
 460  344.8284
 461  358.6193
 462  410.8929
 463  439.5416
 464  372.9129
 465  359.5265
 466  419.5581
 467  394.9583
 468  373.8188
 469  324.7696
 470  493.3103
 471  533.8334
 472  603.2758
 473  472.7906
 474  319.2687
 475  428.9233
 476  470.0948
 477  332.558
 478  373.9181
 479  452.5953
 480  487.7122
 481  432.9184
 482  424.4798
 483  411.278
 484  423.8026
 485  407.5469
 486  386.6751
 487  388.1414
 488  486.4959
 489  476.3474
 490  432.063
 491  477.2315
 492  363.7733
 493  365.503
 494  416.4055
 495  399.5355
 496  376.9293
 497  374.5742
 498  398.1182
 499  373.4544
 500  387.0431
 501  282.4875
 502  268.26
 503  339.6415
 504  528.4741
 505  495.5925
 506  388.3106
 507  293.1222
 508  385.531
 509  560.139
 510  643.702
 511  713.6528
