# Input file       =  1181558042.121278_cleaned.dat
# Candidate        =  PSR_0332+5434
# Telescope        =  AR
# Epoch_topo       =  57919.440093996272
# Epoch_bary       =  N/A
# T_sample         =  0.002
# Data Folded      =  7340032
# Data Avg         =  0.0254235870643535
# Data StdDev      =  1.00004351247468 
# Profile Bins     =  512
# Profile Avg      =  364.528396600752 
# Profile StdDev   =  119.73824625748  
# Reduced chi-sqr  =  1.112
# Prob(Noise)      <  0.0407   (~1.7 sigma)
# P_topo (ms)      =  714.503168511358  +/- 7.99e-05
# P'_topo (s/s)    =  -0                +/- 4.22e-11
# P''_topo (s/s^2) =  0                 +/- 1.86e-14
# P_bary (ms)      =  N/A
# P'_bary (s/s)    =  N/A
# P''_bary (s/s^2) =  N/A
# P_orb (s)        =  N/A
# asin(i)/c (s)    =  N/A
# eccentricity     =  N/A
# w (rad)          =  N/A
# T_peri           =  N/A
######################################################
   0  741.4513
   1  717.4986
   2  611.114
   3  493.7538
   4  423.5701
   5  507.1729
   6  538.2429
   7  440.9567
   8  366.0283
   9  349.331
  10  403.2026
  11  457.5291
  12  326.8626
  13  243.7446
  14  351.4313
  15  358.601
  16  275.4852
  17  331.4561
  18  307.4576
  19  274.9149
  20  317.8332
  21  312.6053
  22  241.2332
  23  290.1575
  24  343.0842
  25  335.8102
  26  340.0257
  27  358.0359
  28  332.8911
  29  327.1613
  30  372.8907
  31  358.3765
  32  312.0845
  33  276.5799
  34  250.6724
  35  250.0813
  36  204.7706
  37  289.0591
  38  376.1828
  39  303.1375
  40  313.4476
  41  270.1094
  42  329.877
  43  260.7563
  44  320.1238
  45  381.5555
  46  417.9581
  47  491.0789
  48  486.0759
  49  518.9976
  50  401.7639
  51  272.4497
  52  402.1353
  53  467.2353
  54  456.7604
  55  351.2825
  56  302.0199
  57  347.8543
  58  269.889
  59  298.5611
  60  359.5433
  61  339.6722
  62  241.2756
  63  262.9188
  64  344.5879
  65  319.1759
  66  286.4574
  67  316.2675
  68  279.7224
  69  366.9899
  70  214.372
  71  206.4158
  72  199.0673
  73  219.8797
  74  261.1306
  75  327.2935
  76  264.2876
  77  263.2911
  78  288.6406
  79  286.6265
  80  306.6321
  81  259.0527
  82  298.385
  83  397.6867
  84  460.9562
  85  349.731
  86  317.4672
  87  494.3348
  88  382.9224
  89  261.548
  90  295.804
  91  334.8444
  92  465.7491
  93  349.9507
  94  363.8594
  95  438.694
  96  342.5611
  97  456.3508
  98  210.2937
  99  170.0902
 100  368.7019
 101  363.0229
 102  298.9657
 103  308.7111
 104  253.0409
 105  264.6438
 106  291.9322
 107  398.5743
 108  307.4143
 109  179.79
 110  255.854
 111  374.6142
 112  390.233
 113  348.6525
 114  295.0008
 115  294.4055
 116  403.614
 117  356.3335
 118  256.3038
 119  301.4
 120  331.3081
 121  368.9533
 122  337.4719
 123  250.9119
 124  446.7067
 125  323.3613
 126  366.9534
 127  347.9771
 128  299.0148
 129  388.0234
 130  492.8873
 131  387.6624
 132  301.1109
 133  237.9423
 134  353.7474
 135  452.0302
 136  342.4212
 137  341.7228
 138  393.6784
 139  384.712
 140  363.7733
 141  303.4516
 142  419.2087
 143  365.3553
 144  379.6037
 145  448.38
 146  303.0345
 147  306.3041
 148  378.6422
 149  341.5624
 150  356.9343
 151  296.0126
 152  173.1527
 153  192.9185
 154  258.1005
 155  443.1469
 156  398.6723
 157  341.7922
 158  302.4261
 159  356.864
 160  267.0052
 161  316.0846
 162  279.6999
 163  298.8994
 164  406.4501
 165  323.6687
 166  255.6558
 167  303.1894
 168  406.5475
 169  522.3632
 170  436.7671
 171  397.668
 172  502.8709
 173  443.1986
 174  413.8558
 175  480.7898
 176  490.3014
 177  465.3504
 178  334.44
 179  331.9965
 180  392.1423
 181  399.7802
 182  371.8234
 183  322.3727
 184  349.5921
 185  362.0312
 186  350.7156
 187  249.353
 188  328.5748
 189  256.6854
 190  160.2921
 191  175.3309
 192  237.3564
 193  394.3983
 194  428.6428
 195  277.8734
 196  322.2781
 197  419.145
 198  373.4725
 199  272.548
 200  246.4816
 201  317.5696
 202  447.2601
 203  459.7736
 204  303.225
 205  344.3162
 206  378.752
 207  347.8032
 208  302.9761
 209  217.3416
 210  254.6697
 211  233.0945
 212  344.4468
 213  385.4253
 214  383.6656
 215  427.7248
 216  384.5346
 217  319.792
 218  367.2122
 219  416.9056
 220  382.1938
 221  400.2043
 222  309.1968
 223  283.2272
 224  428.3085
 225  485.3922
 226  438.4355
 227  376.2674
 228  349.4821
 229  391.7212
 230  435.3404
 231  456.9776
 232  433.9296
 233  409.0547
 234  291.9698
 235  252.2625
 236  402.2929
 237  412.4933
 238  404.3819
 239  403.8361
 240  385.7401
 241  355.5235
 242  305.1518
 243  369.2078
 244  352.8831
 245  404.024
 246  474.8902
 247  354.5297
 248  237.3678
 249  337.8808
 250  445.6393
 251  353.1072
 252  315.7087
 253  251.8805
 254  301.5598
 255  402.6879
 256  371.2557
 257  357.703
 258  345.4386
 259  450.8847
 260  418.3192
 261  392.4493
 262  356.2341
 263  345.0476
 264  410.1592
 265  422.863
 266  348.0575
 267  363.2069
 268  457.581
 269  490.7793
 270  511.6146
 271  441.441
 272  309.3157
 273  327.6204
 274  392.7635
 275  321.9182
 276  226.0437
 277  290.5965
 278  318.7018
 279  253.0305
 280  258.846
 281  216.4935
 282  239.6674
 283  256.1702
 284  349.384
 285  353.0691
 286  336.2075
 287  235.5928
 288  253.4633
 289  219.379
 290  203.3915
 291  218.6341
 292  347.7074
 293  325.6459
 294  321.7388
 295  412.4991
 296  502.1686
 297  460.4261
 298  338.3112
 299  325.9951
 300  397.1505
 301  437.3986
 302  372.4652
 303  462.2225
 304  694.6477
 305  674.8031
 306  510.9828
 307  476.1857
 308  399.4643
 309  393.2114
 310  291.387
 311  451.0819
 312  463.9954
 313  455.7639
 314  371.5941
 315  364.2186
 316  359.174
 317  460.1369
 318  351.2915
 319  290.9997
 320  363.5256
 321  410.7693
 322  365.7995
 323  429.571
 324  377.9161
 325  361.2843
 326  307.5829
 327  366.7142
 328  323.291
 329  381.7393
 330  422.5833
 331  396.4189
 332  346.8432
 333  340.0783
 334  275.1436
 335  255.2273
 336  261.706
 337  280.356
 338  250.0455
 339  320.4543
 340  327.292
 341  316.5606
 342  460.9154
 343  427.1065
 344  401.7761
 345  508.6757
 346  472.3227
 347  347.7398
 348  319.7021
 349  409.7614
 350  375.2141
 351  392.7348
 352  326.2584
 353  279.1106
 354  242.1726
 355  326.684
 356  355.1216
 357  230.7992
 358  198.6052
 359  172.0264
 360  367.3276
 361  271.0917
 362  68.17489
 363  119.2782
 364  264.8618
 365  274.9169
 366  217.288
 367  161.7988
 368  231.5649
 369  307.5265
 370  324.0212
 371  246.9753
 372  301.1129
 373  332.5665
 374  394.8015
 375  332.9503
 376  249.9069
 377  288.6434
 378  417.58
 379  398.2621
 380  381.458
 381  385.1252
 382  369.7745
 383  398.6298
 384  365.088
 385  471.5507
 386  412.2733
 387  523.8933
 388  528.4609
 389  502.1216
 390  544.9815
 391  458.7643
 392  401.5678
 393  441.9344
 394  505.6748
 395  415.0266
 396  490.2582
 397  485.8356
 398  411.4441
 399  293.4011
 400  384.7016
 401  406.7078
 402  413.6488
 403  487.5064
 404  404.7901
 405  376.2068
 406  302.0841
 407  267.9869
 408  313.7674
 409  152.9755
 410  262.5332
 411  335.2146
 412  354.6509
 413  341.98
 414  262.3427
 415  218.7052
 416  253.6198
 417  346.1552
 418  373.0609
 419  334.0771
 420  401.5161
 421  474.3655
 422  511.6623
 423  478.5892
 424  365.2484
 425  372.2256
 426  500.2971
 427  504.7876
 428  547.1147
 429  501.4656
 430  450.8786
 431  397.81
 432  443.4582
 433  572.2419
 434  423.5446
 435  490.0348
 436  503.8166
 437  457.795
 438  427.4632
 439  401.6974
 440  448.4173
 441  404.9043
 442  435.2369
 443  302.5471
 444  280.6363
 445  416.6641
 446  454.2203
 447  537.4561
 448  428.6615
 449  391.0852
 450  384.4264
 451  314.6391
 452  299.0286
 453  303.5915
 454  385.7847
 455  376.3805
 456  390.9445
 457  350.5439
 458  337.4128
 459  346.7521
 460  360.6743
 461  363.5467
 462  453.035
 463  395.463
 464  366.1782
 465  390.1916
 466  427.0567
 467  371.9599
 468  329.6859
 469  394.3912
 470  545.1512
 471  558.637
 472  582.0417
 473  343.2704
 474  372.0346
 475  481.1931
 476  394.7661
 477  331.4976
 478  425.5668
 479  480.3468
 480  464.9687
 481  425.2144
 482  428.8833
 483  396.9106
 484  423.7437
 485  375.4681
 486  387.4315
 487  430.1982
 488  510.6712
 489  431.6202
 490  467.7625
 491  433.8402
 492  332.5349
 493  407.3435
 494  412.7507
 495  378.4072
 496  374.7286
 497  397.6537
 498  381.0897
 499  385.3243
 500  327.4301
 501  267.9756
 502  279.958
 503  461.0449
 504  527.4867
 505  445.5782
 506  314.251
 507  328.5792
 508  481.511
 509  624.5518
 510  669.1249
 511  763.212
