# Input file       =  1181183852.10865_cleaned.dat
# Candidate        =  PSR_0332+5434
# Telescope        =  AR
# Epoch_topo       =  57915.109191072341
# Epoch_bary       =  N/A
# T_sample         =  0.002
# Data Folded      =  7143424
# Data Avg         =  0.0286019501727496
# Data StdDev      =  1.00005592969384 
# Profile Bins     =  512
# Profile Avg      =  399.073320922943 
# Profile StdDev   =  118.125190818134 
# Reduced chi-sqr  =  0.979
# Prob(Noise)      <  0.625   (~0.0 sigma)
# P_topo (ms)      =  714.506864797238  +/- 0.000384
# P'_topo (s/s)    =  -0                +/- 2.08e-10
# P''_topo (s/s^2) =  0                 +/- 9.45e-14
# P_bary (ms)      =  N/A
# P'_bary (s/s)    =  N/A
# P''_bary (s/s^2) =  N/A
# P_orb (s)        =  N/A
# asin(i)/c (s)    =  N/A
# eccentricity     =  N/A
# w (rad)          =  N/A
# T_peri           =  N/A
######################################################
   0  874.6374
   1  864.3048
   2  777.8534
   3  591.0592
   4  502.287
   5  545.5542
   6  489.7079
   7  483.2041
   8  466.6182
   9  450.5554
  10  386.8195
  11  404.2695
  12  513.9598
  13  540.4408
  14  484.9401
  15  515.081
  16  414.1903
  17  455.2298
  18  575.543
  19  537.0682
  20  485.9785
  21  458.54
  22  310.2634
  23  418.0009
  24  458.8719
  25  493.4616
  26  458.9413
  27  448.6266
  28  443.675
  29  449.5034
  30  531.2418
  31  472.9043
  32  254.7018
  33  386.2918
  34  499.8152
  35  440.2986
  36  496.7293
  37  394.0904
  38  384.6544
  39  475.8969
  40  419.6461
  41  407.6816
  42  510.8923
  43  558.4823
  44  466.661
  45  471.05
  46  483.6669
  47  334.6311
  48  256.5755
  49  309.8625
  50  426.3532
  51  384.9041
  52  301.0682
  53  366.5696
  54  352.4698
  55  334.9632
  56  353.7
  57  405.1039
  58  252.6727
  59  237.218
  60  393.3336
  61  405.5714
  62  444.8047
  63  436.1313
  64  395.8637
  65  361.981
  66  417.9038
  67  444.7939
  68  479.0711
  69  451.6661
  70  425.2914
  71  392.6431
  72  339.3954
  73  258.2082
  74  272.0462
  75  330.1447
  76  431.05
  77  423.8789
  78  462.5564
  79  424.6225
  80  334.2956
  81  415.6196
  82  371.4279
  83  369.8895
  84  382.6858
  85  497.7822
  86  353.3081
  87  345.1222
  88  327.3129
  89  315.1323
  90  267.5539
  91  368.6059
  92  507.6472
  93  477.8645
  94  343.1946
  95  356.9918
  96  393.5017
  97  425.5476
  98  449.1064
  99  509.4422
 100  455.1225
 101  452.9756
 102  410.0803
 103  405.9123
 104  425.7736
 105  398.6348
 106  443.5957
 107  494.7817
 108  435.7887
 109  418.3676
 110  478.179
 111  461.0658
 112  385.5621
 113  340.0585
 114  425.7651
 115  415.3671
 116  387.824
 117  429.6486
 118  342.4155
 119  387.0631
 120  361.8923
 121  409.5984
 122  465.0297
 123  312.5094
 124  286.7617
 125  393.6275
 126  392.7134
 127  476.1506
 128  407.771
 129  388.6565
 130  303.5363
 131  395.3782
 132  399.843
 133  434.8093
 134  426.6965
 135  360.6514
 136  296.7207
 137  351.7391
 138  365.4698
 139  372.3961
 140  419.8238
 141  420.4109
 142  512.8842
 143  383.7914
 144  300.6873
 145  327.8041
 146  370.7359
 147  302.3606
 148  347.0595
 149  339.639
 150  400.4064
 151  447.4921
 152  361.6097
 153  413.8187
 154  422.0219
 155  438.8871
 156  379.7901
 157  325.4018
 158  327.6069
 159  448.0234
 160  488.7538
 161  468.0817
 162  446.9503
 163  480.216
 164  407.6455
 165  336.9643
 166  427.4836
 167  486.1348
 168  528.236
 169  464.063
 170  405.8921
 171  409.7331
 172  505.0955
 173  477.1976
 174  394.1624
 175  391.6686
 176  510.1806
 177  575.8968
 178  490.329
 179  409.5623
 180  467.3202
 181  423.3339
 182  322.0118
 183  418.0791
 184  351.6578
 185  298.2351
 186  335.4541
 187  360.1306
 188  371.3481
 189  332.1857
 190  258.5942
 191  128.0772
 192  193.7048
 193  328.8909
 194  364.127
 195  392.3856
 196  490.5374
 197  387.3789
 198  375.3738
 199  343.4509
 200  330.8685
 201  348.2399
 202  456.7866
 203  413.421
 204  470.2706
 205  356.1657
 206  293.9858
 207  382.1456
 208  373.0992
 209  383.2473
 210  400.6299
 211  443.9217
 212  382.0257
 213  229.7578
 214  225.9556
 215  411.3732
 216  461.7901
 217  320.5089
 218  419.535
 219  295.5302
 220  233.6213
 221  350.7672
 222  283.4944
 223  336.854
 224  334.9673
 225  290.7886
 226  350.2189
 227  488.2903
 228  395.0355
 229  249.9777
 230  280.6869
 231  287.5004
 232  391.1003
 233  421.3929
 234  356.2627
 235  328.8502
 236  387.1286
 237  266.4986
 238  318.1095
 239  454.0897
 240  503.0961
 241  398.9014
 242  412.4562
 243  464.8851
 244  418.9136
 245  501.8663
 246  467.615
 247  384.7481
 248  313.2015
 249  347.113
 250  323.1699
 251  375.483
 252  349.687
 253  373.3032
 254  446.8267
 255  460.7831
 256  411.2816
 257  432.6488
 258  438.3349
 259  425.7986
 260  545.4977
 261  562.0035
 262  400.5745
 263  468.48
 264  460.0456
 265  347.2945
 266  311.6473
 267  411.6643
 268  469.1668
 269  402.2173
 270  454.1924
 271  473.915
 272  394.4518
 273  445.3822
 274  320.875
 275  342.0456
 276  343.476
 277  301.0721
 278  349.3177
 279  305.2001
 280  280.0684
 281  246.4454
 282  313.8192
 283  423.706
 284  486.572
 285  456.8906
 286  340.609
 287  316.2541
 288  242.8998
 289  385.0528
 290  314.9948
 291  397.4227
 292  412.5895
 293  451.7423
 294  465.9995
 295  344.0212
 296  323.6729
 297  330.6917
 298  355.999
 299  373.0978
 300  400.6935
 301  403.6788
 302  438.9537
 303  396.9567
 304  376.6539
 305  403.3817
 306  411.6761
 307  318.8642
 308  374.9569
 309  311.2772
 310  261.5328
 311  285.9551
 312  411.761
 313  491.4052
 314  475.1544
 315  511.7713
 316  456.732
 317  441.3511
 318  493.2811
 319  538.7408
 320  506.8574
 321  423.6017
 322  397.9727
 323  229.0136
 324  338.7177
 325  388.2782
 326  423.9935
 327  498.3431
 328  464.2026
 329  435.0243
 330  455.5113
 331  589.3115
 332  571.3235
 333  389.084
 334  474.1414
 335  402.3604
 336  510.5537
 337  439.8323
 338  304.5539
 339  313.9154
 340  432.432
 341  509.8839
 342  443.2033
 343  321.9311
 344  308.2867
 345  370.0458
 346  469.8858
 347  390.8502
 348  507.2761
 349  441.8364
 350  428.2391
 351  389.6662
 352  423.8004
 353  407.6581
 354  328.4405
 355  335.1404
 356  306.8905
 357  408.9181
 358  424.5292
 359  414.0695
 360  346.3674
 361  328.7876
 362  343.8882
 363  237.027
 364  314.8539
 365  387.3824
 366  360.5441
 367  410.4778
 368  468.4471
 369  351.8251
 370  260.1524
 371  351.4305
 372  444.7766
 373  284.9736
 374  276.3011
 375  414.4859
 376  480.1433
 377  526.1318
 378  373.858
 379  363.0218
 380  415.6249
 381  390.9572
 382  343.0342
 383  332.1336
 384  337.116
 385  361.249
 386  439.8164
 387  504.6283
 388  430.8279
 389  374.8744
 390  364.3599
 391  434.6787
 392  415.8695
 393  395.3521
 394  260.0216
 395  345.6008
 396  462.0746
 397  445.8312
 398  555.3879
 399  451.3614
 400  426.4139
 401  412.1799
 402  316.5203
 403  367.6304
 404  369.3136
 405  389.4998
 406  348.9607
 407  404.0519
 408  348.4791
 409  505.8717
 410  502.9539
 411  449.9817
 412  399.0336
 413  378.4836
 414  337.63
 415  276.3148
 416  332.83
 417  356.8783
 418  361.5085
 419  251.5763
 420  261.3217
 421  263.1022
 422  341.4255
 423  509.9984
 424  406.3936
 425  335.6778
 426  327.069
 427  306.1681
 428  298.4709
 429  352.0294
 430  404.2751
 431  488.8613
 432  417.4754
 433  249.2284
 434  208.0588
 435  142.0255
 436  283.7254
 437  447.653
 438  397.7654
 439  398.2163
 440  249.2511
 441  376.1545
 442  389.2261
 443  364.862
 444  365.0255
 445  353.5102
 446  391.4557
 447  305.9963
 448  378.3706
 449  362.6747
 450  425.9702
 451  371.5506
 452  368.4088
 453  372.3958
 454  424.1239
 455  384.0249
 456  472.561
 457  560.6438
 458  451.959
 459  354.4832
 460  332.8601
 461  350.1184
 462  380.8513
 463  418.0566
 464  485.6748
 465  453.3568
 466  403.9927
 467  447.437
 468  405.8379
 469  481.0412
 470  456.1491
 471  454.2124
 472  440.5039
 473  333.8554
 474  231.6944
 475  265.4141
 476  395.7729
 477  457.717
 478  350.485
 479  343.4219
 480  456.861
 481  441.659
 482  356.1898
 483  374.0847
 484  391.8209
 485  398.1321
 486  299.1537
 487  209.0308
 488  376.6886
 489  546.6069
 490  505.8497
 491  400.9228
 492  361.1145
 493  347.0772
 494  378.2143
 495  272.3549
 496  304.7147
 497  453.249
 498  434.3021
 499  373.5689
 500  424.9525
 501  477.5907
 502  355.6516
 503  397.8047
 504  353.014
 505  332.5889
 506  428.2713
 507  470.8236
 508  601.781
 509  583.8118
 510  649.0696
 511  740.6454
