# Input file       =  1182936363.103926_cleaned.dat
# Candidate        =  PSR_0332+5434
# Telescope        =  AR
# Epoch_topo       =  57935.392883147288
# Epoch_bary       =  N/A
# T_sample         =  0.002
# Data Folded      =  7340032
# Data Avg         =  0.027762728280843
# Data StdDev      =  1.00010816326835 
# Profile Bins     =  512
# Profile Avg      =  397.913369025424 
# Profile StdDev   =  119.74598709331  
# Reduced chi-sqr  =  1.399
# Prob(Noise)      <  5.7e-09   (~5.7 sigma)
# P_topo (ms)      =  714.48924021854   +/- 0.000349
# P'_topo (s/s)    =  -0                +/- 1.84e-10
# P''_topo (s/s^2) =  0                 +/- 8.12e-14
# P_bary (ms)      =  N/A
# P'_bary (s/s)    =  N/A
# P''_bary (s/s^2) =  N/A
# P_orb (s)        =  N/A
# asin(i)/c (s)    =  N/A
# eccentricity     =  N/A
# w (rad)          =  N/A
# T_peri           =  N/A
######################################################
   0  955.6441
   1  968.0565
   2  974.4536
   3  697.2397
   4  471.4236
   5  375.595
   6  386.7763
   7  420.0922
   8  361.9247
   9  308.2066
  10  290.9694
  11  368.5586
  12  456.7391
  13  453.9
  14  421.9023
  15  483.3216
  16  529.8473
  17  496.1239
  18  438.7213
  19  419.4441
  20  448.8756
  21  421.8344
  22  419.8177
  23  517.6724
  24  517.7731
  25  453.4046
  26  485.4212
  27  517.3219
  28  395.5275
  29  367.2198
  30  330.2359
  31  292.7727
  32  376.4572
  33  455.1441
  34  344.144
  35  333.0943
  36  395.5339
  37  377.7847
  38  362.0292
  39  230.7875
  40  339.6868
  41  379.4379
  42  418.6204
  43  386.7185
  44  398.1142
  45  299.3338
  46  249.8919
  47  235.1395
  48  291.8769
  49  343.8134
  50  292.2823
  51  363.7543
  52  292.1483
  53  265.4534
  54  261.0398
  55  296.3118
  56  375.9182
  57  388.8711
  58  483.721
  59  418.7893
  60  265.0016
  61  248.9873
  62  400.4819
  63  418.4312
  64  427.1499
  65  532.6319
  66  405.802
  67  329.434
  68  375.6901
  69  383.3611
  70  270.9178
  71  440.0674
  72  444.488
  73  377.2515
  74  425.8882
  75  551.4783
  76  529.751
  77  404.9792
  78  333.1146
  79  328.0652
  80  296.9689
  81  342.5627
  82  423.8
  83  300.4741
  84  275.2797
  85  329.9285
  86  269.4116
  87  266.3366
  88  272.6036
  89  244.7513
  90  295.143
  91  308.2253
  92  451.1141
  93  321.6081
  94  414.4744
  95  423.0963
  96  355.6319
  97  375.868
  98  428.3273
  99  385.5591
 100  367.7511
 101  268.0422
 102  340.7992
 103  371.5151
 104  431.1765
 105  333.4878
 106  357.7977
 107  458.8719
 108  410.8021
 109  412.9913
 110  377.0311
 111  345.5542
 112  344.5047
 113  394.5333
 114  349.9744
 115  289.1416
 116  349.9749
 117  485.2834
 118  485.7709
 119  411.4485
 120  288.2119
 121  293.4849
 122  323.1872
 123  249.7969
 124  279.8415
 125  276.2468
 126  337.8993
 127  320.3562
 128  277.4543
 129  305.4156
 130  245.7491
 131  178.7102
 132  200.3537
 133  218.9913
 134  197.3884
 135  222.2975
 136  323.3711
 137  364.7939
 138  375.2435
 139  209.1793
 140  212.682
 141  372.1095
 142  537.0421
 143  427.6812
 144  281.0548
 145  312.8701
 146  403.8144
 147  323.0351
 148  344.1821
 149  376.7583
 150  434.6821
 151  403.9547
 152  378.8085
 153  341.1674
 154  279.687
 155  318.6497
 156  371.5065
 157  244.4755
 158  263.66
 159  270.4435
 160  323.8412
 161  306.3045
 162  381.827
 163  343.1785
 164  226.1304
 165  294.7661
 166  365.95
 167  379.5779
 168  422.2258
 169  343.2355
 170  331.7256
 171  319.4091
 172  335.9504
 173  393.1481
 174  320.5814
 175  268.6382
 176  233.5952
 177  250.3195
 178  289.405
 179  244.9561
 180  211.9279
 181  297.1519
 182  447.0597
 183  388.8229
 184  434.9969
 185  492.0311
 186  354.9923
 187  317.6219
 188  281.0961
 189  329.2941
 190  417.7736
 191  551.3377
 192  365.8851
 193  321.5388
 194  404.6862
 195  423.2736
 196  375.4688
 197  321.205
 198  419.604
 199  388.4477
 200  501.4594
 201  479.3378
 202  428.8974
 203  404.0497
 204  460.9931
 205  489.4255
 206  314.938
 207  307.4667
 208  281.1589
 209  300.629
 210  310.5428
 211  316.4055
 212  364.3449
 213  286.001
 214  270.6349
 215  381.7427
 216  347.3515
 217  391.6012
 218  443.4579
 219  436.2767
 220  374.1972
 221  367.0587
 222  289.3609
 223  422.532
 224  373.2947
 225  406.505
 226  371.4043
 227  395.3101
 228  427.5984
 229  411.9239
 230  303.4636
 231  343.3896
 232  456.9976
 233  323.7002
 234  328.7069
 235  353.7946
 236  435.4335
 237  337.6817
 238  323.4753
 239  281.5469
 240  231.9972
 241  246.5393
 242  304.9407
 243  304.2151
 244  357.9832
 245  450.5605
 246  386.3891
 247  440.9352
 248  373.4845
 249  221.266
 250  198.6166
 251  249.7821
 252  330.3604
 253  433.3571
 254  285.2792
 255  265.8063
 256  323.3834
 257  390.8239
 258  463.5379
 259  441.2681
 260  404.3872
 261  384.3954
 262  356.1842
 263  270.2561
 264  290.6841
 265  271.2217
 266  356.6901
 267  399.7842
 268  420.7204
 269  402.042
 270  484.4469
 271  524.9772
 272  477.8084
 273  496.17
 274  415.8474
 275  399.5865
 276  452.3742
 277  484.6597
 278  503.1153
 279  457.0942
 280  518.5096
 281  555.771
 282  532.2006
 283  488.2584
 284  474.7328
 285  317.9321
 286  217.2159
 287  359.8133
 288  410.4572
 289  432.5293
 290  509.7946
 291  401.9597
 292  395.0179
 293  362.7172
 294  404.8566
 295  401.7486
 296  315.3524
 297  425.6982
 298  350.1093
 299  271.02
 300  421.8277
 301  331.7456
 302  435.6819
 303  386.5286
 304  346.2575
 305  417.4515
 306  568.9406
 307  451.6143
 308  346.2977
 309  431.1843
 310  404.97
 311  370.0624
 312  409.5247
 313  480.558
 314  421.2771
 315  495.2856
 316  525.5431
 317  496.0306
 318  472.6689
 319  439.1951
 320  429.8924
 321  452.0678
 322  445.2912
 323  499.6823
 324  470.2704
 325  500.9686
 326  493.9975
 327  450.7813
 328  416.5771
 329  431.1646
 330  428.2056
 331  508.3174
 332  397.6434
 333  328.6465
 334  351.9363
 335  271.1215
 336  320.2011
 337  410.3145
 338  497.5366
 339  387.366
 340  380.8891
 341  403.2701
 342  373.8564
 343  316.7088
 344  407.1858
 345  521.5581
 346  400.1231
 347  383.7595
 348  566.3922
 349  417.4852
 350  362.9752
 351  379.5531
 352  425.4231
 353  451.0121
 354  421.4687
 355  516.2262
 356  546.6234
 357  539.7587
 358  563.0623
 359  385.7107
 360  398.4285
 361  482.4984
 362  435.6929
 363  403.9647
 364  401.4489
 365  434.9776
 366  489.3227
 367  486.4922
 368  519.3276
 369  468.335
 370  494.0257
 371  564.7081
 372  512.1374
 373  432.692
 374  571.0333
 375  566.3998
 376  628.8674
 377  529.8088
 378  509.9436
 379  488.5937
 380  468.1638
 381  458.2202
 382  347.193
 383  383.7243
 384  404.6241
 385  387.2422
 386  398.8388
 387  582.7068
 388  493.7735
 389  416.2598
 390  408.1822
 391  396.3336
 392  398.1976
 393  355.6765
 394  366.8344
 395  358.7691
 396  340.526
 397  469.2662
 398  545.6485
 399  537.8419
 400  413.4077
 401  378.7658
 402  375.251
 403  450.6512
 404  484.3231
 405  496.6245
 406  456.6215
 407  407.8706
 408  477.6083
 409  418.9825
 410  401.8932
 411  494.3107
 412  552.4427
 413  540.1108
 414  574.7789
 415  525.4921
 416  379.7897
 417  367.3025
 418  388.7977
 419  441.0751
 420  351.3446
 421  349.5532
 422  332.472
 423  259.0018
 424  296.6375
 425  409.3073
 426  441.8942
 427  383.1104
 428  334.3119
 429  378.2151
 430  292.3325
 431  329.1079
 432  302.324
 433  261.0282
 434  270.1848
 435  326.7729
 436  417.4573
 437  361.4095
 438  273.4482
 439  389.0098
 440  404.1311
 441  324.0703
 442  328.1522
 443  417.5805
 444  301.5885
 445  255.0531
 446  313.9552
 447  412.3337
 448  473.3268
 449  411.3929
 450  387.2821
 451  434.5395
 452  552.6108
 453  517.203
 454  572.4795
 455  494.1299
 456  582.0596
 457  606.6082
 458  607.205
 459  463.1141
 460  351.4947
 461  311.6341
 462  412.2888
 463  366.5675
 464  301.5159
 465  284.7737
 466  394.8224
 467  458.8386
 468  549.0172
 469  574.7731
 470  367.2007
 471  265.1016
 472  387.556
 473  471.0099
 474  489.4149
 475  381.9587
 476  421.4849
 477  328.2162
 478  325.9937
 479  346.2099
 480  398.4447
 481  335.6826
 482  403.5974
 483  409.0156
 484  435.1793
 485  381.2077
 486  527.6615
 487  458.1199
 488  479.4145
 489  440.2422
 490  412.9134
 491  473.7095
 492  477.2761
 493  481.205
 494  541.3014
 495  486.9903
 496  435.3763
 497  404.9949
 498  382.129
 499  408.6254
 500  265.8981
 501  366.0193
 502  443.7185
 503  464.4768
 504  494.367
 505  510.8594
 506  502.5476
 507  558.03
 508  546.8311
 509  659.3782
 510  878.7014
 511  978.3544
