# Input file       =  1182749466.114012_cleaned.dat
# Candidate        =  PSR_0332+5434
# Telescope        =  AR
# Epoch_topo       =  57933.229723541808
# Epoch_bary       =  N/A
# T_sample         =  0.002
# Data Folded      =  7340032
# Data Avg         =  0.026110046471501
# Data StdDev      =  1.00007077005679 
# Profile Bins     =  512
# Profile Avg      =  374.261320978125 
# Profile StdDev   =  119.74150989055  
# Reduced chi-sqr  =  1.164
# Prob(Noise)      <  0.00611   (~2.5 sigma)
# P_topo (ms)      =  714.490676069752  +/- 4.23e-05
# P'_topo (s/s)    =  -0                +/- 2.23e-11
# P''_topo (s/s^2) =  0                 +/- 9.85e-15
# P_bary (ms)      =  N/A
# P'_bary (s/s)    =  N/A
# P''_bary (s/s^2) =  N/A
# P_orb (s)        =  N/A
# asin(i)/c (s)    =  N/A
# eccentricity     =  N/A
# w (rad)          =  N/A
# T_peri           =  N/A
######################################################
   0  813.6415
   1  929.7741
   2  845.3669
   3  585.6714
   4  515.5339
   5  407.4254
   6  286.0146
   7  412.455
   8  508.0809
   9  495.2368
  10  369.3652
  11  377.3068
  12  471.0785
  13  400.5532
  14  243.1201
  15  196.8261
  16  423.666
  17  523.356
  18  368.6673
  19  246.2582
  20  250.8607
  21  354.287
  22  412.5692
  23  415.2547
  24  474.8297
  25  458.998
  26  348.444
  27  428.7166
  28  429.5797
  29  311.7484
  30  265.3409
  31  333.1303
  32  485.9445
  33  425.8397
  34  340.1513
  35  381.6238
  36  406.3378
  37  434.0967
  38  416.8669
  39  348.3637
  40  412.0863
  41  402.1554
  42  374.0231
  43  248.967
  44  327.6771
  45  305.1574
  46  429.3031
  47  415.9349
  48  210.9567
  49  217.4534
  50  409.6653
  51  435.1019
  52  383.6363
  53  428.0832
  54  406.4995
  55  327.8354
  56  353.0547
  57  459.3017
  58  428.9989
  59  373.7058
  60  376.6358
  61  454.3106
  62  326.4751
  63  249.1255
  64  354.8546
  65  403.8762
  66  394.8039
  67  288.0896
  68  331.7769
  69  402.2638
  70  352.2716
  71  228.2595
  72  237.1703
  73  296.7593
  74  368.0208
  75  426.6103
  76  298.8
  77  153.4707
  78  170.9626
  79  364.4944
  80  482.3291
  81  340.7823
  82  267.5892
  83  338.0082
  84  426.5543
  85  428.874
  86  277.8778
  87  210.8205
  88  334.5076
  89  371.6766
  90  305.5585
  91  277.0008
  92  334.0004
  93  350.9858
  94  336.748
  95  250.653
  96  216.2792
  97  336.8575
  98  443.2982
  99  505.7168
 100  481.0937
 101  385.365
 102  243.2504
 103  348.464
 104  402.7075
 105  408.7899
 106  396.0404
 107  370.4861
 108  454.2314
 109  509.4328
 110  462.8954
 111  371.7163
 112  385.1439
 113  482.356
 114  392.7191
 115  316.8089
 116  315.6373
 117  408.3042
 118  499.0298
 119  251.6036
 120  279.0886
 121  305.9951
 122  214.2486
 123  351.5345
 124  381.5025
 125  329.8152
 126  339.8201
 127  398.0105
 128  293.4887
 129  303.0653
 130  319.8945
 131  371.9328
 132  330.6098
 133  283.8644
 134  300.9083
 135  194.3422
 136  170.4911
 137  264.7693
 138  298.5073
 139  150.9186
 140  224.1271
 141  290.2068
 142  388.3049
 143  379.8668
 144  246.5159
 145  268.8448
 146  323.4209
 147  408.4882
 148  369.351
 149  405.1718
 150  371.3635
 151  317.9257
 152  425.0194
 153  385.3808
 154  372.2774
 155  405.9543
 156  475.0885
 157  446.5835
 158  433.5764
 159  309.4527
 160  409.9901
 161  389.0933
 162  264.4041
 163  326.5737
 164  318.7569
 165  357.0044
 166  353.036
 167  273.2415
 168  376.3506
 169  405.2533
 170  365.4173
 171  285.5608
 172  273.4891
 173  488.6026
 174  416.8512
 175  367.1418
 176  441.3165
 177  338.1429
 178  381.6613
 179  385.0232
 180  421.7408
 181  389.6599
 182  336.482
 183  437.647
 184  526.5742
 185  466.025
 186  264.717
 187  291.5426
 188  317.7158
 189  426.0514
 190  402.4734
 191  495.2311
 192  379.136
 193  417.2487
 194  443.0682
 195  405.6606
 196  302.9191
 197  350.6175
 198  370.6152
 199  392.7823
 200  461.2746
 201  380.7499
 202  156.2047
 203  200.4175
 204  325.591
 205  318.9185
 206  290.7214
 207  361.5516
 208  445.6389
 209  472.5594
 210  285.8568
 211  196.5324
 212  278.8328
 213  390.8957
 214  345.7256
 215  370.0957
 216  378.1641
 217  206.1565
 218  384.2181
 219  404.9866
 220  457.7914
 221  517.6205
 222  574.3626
 223  554.1409
 224  415.3634
 225  241.719
 226  253.1395
 227  369.9435
 228  434.2682
 229  458.2556
 230  427.1732
 231  448.0293
 232  532.3593
 233  540.0953
 234  400.8579
 235  360.8674
 236  511.4483
 237  467.8428
 238  324.1247
 239  335.9622
 240  377.2566
 241  445.0042
 242  507.9936
 243  480.9018
 244  324.3942
 245  309.0045
 246  378.7906
 247  309.9471
 248  366.0954
 249  372.0458
 250  384.7313
 251  407.4095
 252  330.331
 253  309.4749
 254  320.4312
 255  213.4151
 256  339.2016
 257  366.7235
 258  378.9212
 259  337.5709
 260  291.3573
 261  284.7241
 262  390.3593
 263  381.0622
 264  401.9723
 265  287.8781
 266  301.2222
 267  401.9279
 268  286.136
 269  356.4091
 270  386.5424
 271  400.1288
 272  408.8298
 273  226.4422
 274  321.2405
 275  365.079
 276  505.5013
 277  292.5394
 278  151.7549
 279  321.0466
 280  406.7691
 281  376.5227
 282  316.0727
 283  330.7524
 284  489.1515
 285  334.326
 286  379.5791
 287  310.6531
 288  280.9634
 289  362.4751
 290  454.9985
 291  389.2136
 292  323.4638
 293  369.5812
 294  355.8019
 295  329.9637
 296  334.1727
 297  326.4556
 298  243.7569
 299  272.3625
 300  327.4998
 301  295.5843
 302  323.2151
 303  419.94
 304  368.6321
 305  215.7435
 306  248.5883
 307  293.5536
 308  311.5652
 309  391.0809
 310  301.3549
 311  238.772
 312  408.7973
 313  510.4078
 314  465.6767
 315  406.4239
 316  270.0845
 317  385.2946
 318  385.1866
 319  484.6515
 320  599.6824
 321  426.5723
 322  454.7068
 323  462.5546
 324  467.3048
 325  441.9995
 326  469.4325
 327  531.9856
 328  476.1083
 329  426.5598
 330  370.9065
 331  425.305
 332  380.7926
 333  306.648
 334  325.8846
 335  297.129
 336  322.3948
 337  492.7983
 338  486.3827
 339  468.2058
 340  399.2223
 341  404.2171
 342  403.7938
 343  381.2716
 344  390.1771
 345  335.5005
 346  383.3369
 347  479.7344
 348  449.8466
 349  373.6166
 350  333.8051
 351  242.2488
 352  419.9503
 353  447.94
 354  366.5231
 355  326.7002
 356  439.2682
 357  518.6677
 358  450.0853
 359  369.305
 360  346.2046
 361  479.6106
 362  488.0817
 363  371.4094
 364  331.3947
 365  337.6552
 366  371.1577
 367  376.0406
 368  335.4391
 369  418.1103
 370  494.9203
 371  524.2935
 372  381.1015
 373  257.6177
 374  377.2712
 375  431.7394
 376  363.0709
 377  386.1813
 378  295.2539
 379  342.9004
 380  314.3647
 381  312.7623
 382  353.1004
 383  415.0529
 384  436.0246
 385  402.4792
 386  398.5138
 387  441.2023
 388  391.4744
 389  365.3418
 390  415.3825
 391  436.3336
 392  409.0556
 393  422.3893
 394  530.5376
 395  517.2495
 396  449.291
 397  421.2636
 398  455.6878
 399  368.5069
 400  270.2881
 401  366.5883
 402  336.4238
 403  373.4274
 404  443.0628
 405  504.1615
 406  397.4031
 407  285.7206
 408  374.9172
 409  501.8889
 410  367.4349
 411  372.0283
 412  354.9569
 413  386.252
 414  444.6348
 415  475.8165
 416  253.8074
 417  303.5177
 418  261.7276
 419  326.3853
 420  295.0164
 421  265.1418
 422  319.918
 423  442.9623
 424  397.3362
 425  425.0219
 426  421.6946
 427  389.1692
 428  443.8685
 429  408.2953
 430  404.2415
 431  332.9687
 432  241.1865
 433  307.6258
 434  363.7032
 435  444.5087
 436  360.8065
 437  321.5717
 438  412.2169
 439  354.4575
 440  346.1753
 441  437.0971
 442  459.29
 443  462.3037
 444  462.7888
 445  474.0194
 446  392.2248
 447  431.718
 448  463.2981
 449  450.57
 450  370.2787
 451  183.4027
 452  305.3355
 453  472.5609
 454  463.4926
 455  399.171
 456  447.6917
 457  373.8437
 458  312.0989
 459  356.0828
 460  451.63
 461  490.341
 462  458.8203
 463  548.1072
 464  448.2078
 465  358.5855
 466  224.2925
 467  310.3299
 468  375.9588
 469  230.7928
 470  365.1559
 471  334.6753
 472  498.6227
 473  279.0905
 474  291.8972
 475  267.2935
 476  260.0625
 477  241.1161
 478  239.0199
 479  177.3089
 480  203.12
 481  334.3512
 482  281.4581
 483  134.0013
 484  164.5957
 485  284.5644
 486  353.7679
 487  314.9254
 488  308.3776
 489  384.1546
 490  454.3109
 491  375.9555
 492  460.0257
 493  448.4749
 494  253.0213
 495  224.2808
 496  416.4905
 497  384.3232
 498  400.5131
 499  382.2411
 500  438.0713
 501  405.7996
 502  303.1539
 503  316.7479
 504  407.4406
 505  386.2829
 506  405.8907
 507  398.605
 508  445.6985
 509  556.632
 510  794.358
 511  800.1316
