# Input file       =  1182419751.099498_cleaned.dat
# Candidate        =  PSR_0332+5434
# Telescope        =  AR
# Epoch_topo       =  57929.413577540487
# Epoch_bary       =  N/A
# T_sample         =  0.002
# Data Folded      =  7340032
# Data Avg         =  0.0187679154939202
# Data StdDev      =  1.00011115895106 
# Profile Bins     =  512
# Profile Avg      =  269.099051801684 
# Profile StdDev   =  119.746345775497 
# Reduced chi-sqr  =  1.332
# Prob(Noise)      <  6.69e-07   (~4.8 sigma)
# P_topo (ms)      =  714.494229749862  +/- 0.000167
# P'_topo (s/s)    =  -0                +/- 8.79e-11
# P''_topo (s/s^2) =  0                 +/- 3.88e-14
# P_bary (ms)      =  N/A
# P'_bary (s/s)    =  N/A
# P''_bary (s/s^2) =  N/A
# P_orb (s)        =  N/A
# asin(i)/c (s)    =  N/A
# eccentricity     =  N/A
# w (rad)          =  N/A
# T_peri           =  N/A
######################################################
   0  204.73
   1  262.8417
   2  288.968
   3  291.8528
   4  216.2693
   5  283.3006
   6  241.679
   7  145.5444
   8  129.6834
   9  179.4768
  10  186.8497
  11  177.9679
  12  289.6879
  13  480.7211
  14  424.6571
  15  319.2657
  16  303.1121
  17  288.769
  18  295.5015
  19  263.5873
  20  304.2488
  21  345.3182
  22  166.4763
  23  315.4898
  24  376.9199
  25  226.3099
  26  152.6143
  27  205.0582
  28  172.4949
  29  349.0139
  30  327.2875
  31  262.4958
  32  164.8134
  33  323.7443
  34  361.076
  35  357.5668
  36  322.0919
  37  250.063
  38  374.9791
  39  355.3006
  40  287.3505
  41  267.1187
  42  250.9088
  43  261.7125
  44  274.7523
  45  258.2437
  46  179.2677
  47  215.4863
  48  297.6182
  49  388.5565
  50  261.828
  51  225.9953
  52  257.1903
  53  260.3709
  54  274.7505
  55  314.6831
  56  395.0757
  57  308.438
  58  253.8223
  59  398.0483
  60  413.2131
  61  323.1636
  62  407.0617
  63  401.6487
  64  315.4061
  65  469.6066
  66  621.6056
  67  735.5978
  68  818.2661
  69  914.0881
  70  1022.838
  71  822.8536
  72  472.5512
  73  275.4169
  74  249.9843
  75  232.7284
  76  246.8802
  77  250.9796
  78  194.301
  79  315.6395
  80  258.2657
  81  293.6491
  82  338.2865
  83  387.6258
  84  386.0078
  85  269.5745
  86  257.0161
  87  269.3809
  88  315.8744
  89  253.2336
  90  153.0136
  91  249.1086
  92  361.9388
  93  293.9266
  94  282.7321
  95  295.5404
  96  296.8276
  97  275.7932
  98  352.6786
  99  218.3488
 100  236.6617
 101  292.061
 102  221.724
 103  386.1842
 104  384.4323
 105  262.6661
 106  316.7065
 107  397.3799
 108  335.2306
 109  258.2224
 110  324.4597
 111  360.8654
 112  262.2143
 113  296.389
 114  309.9506
 115  376.7297
 116  248.7424
 117  243.0971
 118  298.5817
 119  356.9155
 120  254.28
 121  176.1172
 122  237.8344
 123  291.2846
 124  302.5475
 125  407.4175
 126  441.5334
 127  390.7513
 128  277.2729
 129  243.4492
 130  174.2858
 131  189.2793
 132  328.4908
 133  390.3237
 134  282.0136
 135  321.2104
 136  252.7811
 137  201.9209
 138  147.9552
 139  145.2551
 140  157.5515
 141  224.1063
 142  193.1768
 143  292.3367
 144  281.743
 145  319.0972
 146  367.3837
 147  249.6359
 148  257.171
 149  259.003
 150  306.2482
 151  347.7111
 152  300.3353
 153  264.0755
 154  326.2059
 155  385.3485
 156  196.7178
 157  253.6109
 158  280.2962
 159  226.9049
 160  310.8776
 161  359.3732
 162  486.9668
 163  241.928
 164  88.77944
 165  105.4785
 166  241.9554
 167  186.8264
 168  241.9962
 169  259.6657
 170  356.4751
 171  361.2473
 172  326.0837
 173  288.9764
 174  333.9031
 175  312.1379
 176  315.3313
 177  292.7098
 178  307.3303
 179  301.1573
 180  319.4256
 181  363.4046
 182  380.7603
 183  237.5579
 184  289.3549
 185  210.635
 186  297.5663
 187  409.4662
 188  289.8554
 189  308.502
 190  293.0585
 191  283.6663
 192  337.6978
 193  310.6921
 194  305.9313
 195  416.7485
 196  384.1367
 197  348.4887
 198  313.3964
 199  204.974
 200  197.4524
 201  273.3119
 202  302.3073
 203  207.9948
 204  266.1077
 205  425.6075
 206  283.4588
 207  219.4805
 208  148.2924
 209  199.4488
 210  282.3176
 211  152.557
 212  183.3113
 213  206.9037
 214  273.5759
 215  248.3609
 216  299.0166
 217  208.3122
 218  235.437
 219  208.173
 220  268.3992
 221  234.1876
 222  87.12436
 223  141.286
 224  187.1812
 225  172.2642
 226  298.367
 227  160.9799
 228  102.4568
 229  176.6916
 230  164.1999
 231  174.368
 232  176.1791
 233  219.494
 234  191.4701
 235  288.5334
 236  246.4
 237  148.6344
 238  187.3123
 239  142.9705
 240  129.7537
 241  20.12758
 242  43.48094
 243  177.3626
 244  167.1869
 245  327.5698
 246  263.2188
 247  -14.30139
 248  15.70701
 249  180.0858
 250  166.0267
 251  250.5571
 252  272.1068
 253  342.3044
 254  282.7301
 255  161.2599
 256  146.8562
 257  252.8422
 258  264.4584
 259  157.1067
 260  217.8372
 261  282.8689
 262  269.2504
 263  288.6718
 264  323.4927
 265  377.6977
 266  247.2397
 267  247.8176
 268  206.5368
 269  164.5162
 270  198.2585
 271  211.4438
 272  226.7197
 273  296.7473
 274  242.8354
 275  233.5803
 276  210.1449
 277  161.5968
 278  225.7366
 279  197.8648
 280  296.0667
 281  223.4939
 282  230.9371
 283  145.076
 284  143.2332
 285  127.6033
 286  278.5085
 287  165.0369
 288  135.1877
 289  276.0878
 290  198.9844
 291  153.6228
 292  149.2608
 293  254.538
 294  235.7515
 295  389.3099
 296  260.2456
 297  232.8967
 298  225.7073
 299  194.3676
 300  190.7495
 301  231.8183
 302  299.8838
 303  239.1149
 304  265.2437
 305  236.2432
 306  231.2413
 307  164.9292
 308  172.3654
 309  163.093
 310  289.6678
 311  258.45
 312  303.3694
 313  364.1111
 314  338.5397
 315  297.0871
 316  225.3101
 317  317.1439
 318  348.1878
 319  371.8454
 320  292.9556
 321  304.2728
 322  367.1607
 323  298.0671
 324  361.1529
 325  229.3559
 326  274.1302
 327  281.5939
 328  330.7967
 329  235.1956
 330  183.261
 331  252.5181
 332  336.4531
 333  255.7606
 334  134.4571
 335  303.8032
 336  346.1926
 337  164.3167
 338  190.3064
 339  261.7548
 340  218.3393
 341  195.266
 342  262.1619
 343  289.0753
 344  369.1086
 345  347.2289
 346  329.5396
 347  296.2186
 348  340.8367
 349  304.1854
 350  386.8972
 351  357.9099
 352  272.3689
 353  166.6653
 354  200.6282
 355  226.2706
 356  238.9552
 357  226.8339
 358  110.4394
 359  175.1583
 360  260.3157
 361  244.7428
 362  212.4828
 363  108.0821
 364  217.4785
 365  278.7433
 366  337.9023
 367  498.7864
 368  395.0249
 369  273.5683
 370  220.5156
 371  230.5993
 372  314.65
 373  371.9057
 374  417.8741
 375  248.9297
 376  273.362
 377  367.278
 378  310.4386
 379  205.6921
 380  249.3148
 381  235.0167
 382  290.3531
 383  328.896
 384  219.1008
 385  207.6535
 386  376.4261
 387  311.9181
 388  282.6417
 389  258.5511
 390  282.5591
 391  231.1108
 392  206.1207
 393  386.4791
 394  398.2127
 395  279.4637
 396  460.5919
 397  469.4098
 398  216.8048
 399  166.0162
 400  220.7119
 401  253.7573
 402  270.7663
 403  325.0885
 404  265.2353
 405  144.1928
 406  110.3611
 407  184.423
 408  233.4044
 409  162.5953
 410  146.1192
 411  26.97422
 412  148.5438
 413  151.914
 414  253.5636
 415  229.3364
 416  106.2012
 417  176.7136
 418  198.8916
 419  153.9712
 420  151.2776
 421  210.5473
 422  262.7362
 423  302.2451
 424  276.0044
 425  109.878
 426  246.4851
 427  246.795
 428  277.5415
 429  232.177
 430  275.1106
 431  184.9493
 432  91.41952
 433  115.8935
 434  237.046
 435  216.0441
 436  216.8495
 437  167.5888
 438  147.8298
 439  135.2596
 440  212.1707
 441  171.4505
 442  148.9863
 443  131.5134
 444  264.4116
 445  212.7203
 446  362.7089
 447  251.2714
 448  268.248
 449  226.4762
 450  255.7695
 451  366.7969
 452  346.921
 453  240.3086
 454  321.6124
 455  338.9204
 456  312.5038
 457  275.6121
 458  261.5695
 459  233.8522
 460  242.9762
 461  348.9575
 462  270.284
 463  256.1476
 464  329.413
 465  234.4045
 466  201.064
 467  356.8903
 468  351.7498
 469  238.7012
 470  237.8904
 471  227.4523
 472  382.1634
 473  364.3634
 474  330.1265
 475  227.2322
 476  200.239
 477  238.0121
 478  246.9701
 479  225.3456
 480  282.0924
 481  384.1349
 482  409.4352
 483  203.585
 484  196.7444
 485  235.1695
 486  348.4354
 487  363.8388
 488  312.2106
 489  264.0628
 490  280.6274
 491  259.2689
 492  357.2381
 493  351.527
 494  226.688
 495  107.1603
 496  197.9454
 497  283.189
 498  303.8014
 499  264.6631
 500  281.4428
 501  208.3316
 502  296.3533
 503  350.8274
 504  283.6443
 505  314.5757
 506  228.4674
 507  297.4183
 508  326.5858
 509  344.7201
 510  350.6641
 511  198.985
