# Input file       =  1182734782.112887_cleaned.dat
# Candidate        =  PSR_0332+5434
# Telescope        =  AR
# Epoch_topo       =  57933.059769825079
# Epoch_bary       =  N/A
# T_sample         =  0.002
# Data Folded      =  7208960
# Data Avg         =  0.0209662894064064
# Data StdDev      =  1.00002351858586 
# Profile Bins     =  512
# Profile Avg      =  295.226361244464 
# Profile StdDev   =  118.661966489545 
# Reduced chi-sqr  =  1.254
# Prob(Noise)      <  8.04e-05   (~3.8 sigma)
# P_topo (ms)      =  714.490807016781  +/- 0.000333
# P'_topo (s/s)    =  -0                +/- 1.79e-10
# P''_topo (s/s^2) =  0                 +/- 8.05e-14
# P_bary (ms)      =  N/A
# P'_bary (s/s)    =  N/A
# P''_bary (s/s^2) =  N/A
# P_orb (s)        =  N/A
# asin(i)/c (s)    =  N/A
# eccentricity     =  N/A
# w (rad)          =  N/A
# T_peri           =  N/A
######################################################
   0  315.9122
   1  308.9265
   2  280.5476
   3  206.0773
   4  252.2624
   5  299.5188
   6  256.7173
   7  269.7712
   8  330.195
   9  261.5734
  10  273.964
  11  336.5819
  12  241.6173
  13  362.387
  14  282.7392
  15  218.71
  16  302.8985
  17  246.674
  18  300.2604
  19  371.178
  20  320.8419
  21  284.7943
  22  238.911
  23  250.8956
  24  210.4438
  25  361.7605
  26  223.5544
  27  138.5406
  28  213.7432
  29  312.0475
  30  367.7501
  31  77.63789
  32  92.04392
  33  214.3214
  34  257.6919
  35  300.042
  36  247.4297
  37  188.75
  38  267.524
  39  259.8998
  40  212.381
  41  326.2066
  42  325.4483
  43  244.3774
  44  296.8604
  45  353.847
  46  215.7207
  47  205.5409
  48  433.8117
  49  481.4535
  50  287.5545
  51  311.9068
  52  461.5815
  53  364.4013
  54  240.7006
  55  222.5135
  56  145.8415
  57  262.0235
  58  280.0146
  59  203.8238
  60  267.3871
  61  324.5218
  62  313.4585
  63  390.0866
  64  317.6125
  65  243.0335
  66  315.7131
  67  281.1557
  68  256.6369
  69  406.3248
  70  373.7815
  71  228.5021
  72  261.4124
  73  281.3628
  74  337.9701
  75  350.8688
  76  363.0229
  77  262.7658
  78  316.1232
  79  387.5578
  80  178.0008
  81  150.6855
  82  337.8204
  83  345.2796
  84  299.0341
  85  253.4262
  86  249.0753
  87  177.6952
  88  245.6238
  89  277.1916
  90  401.2834
  91  428.8405
  92  215.7497
  93  225.5793
  94  256.5383
  95  234.7872
  96  180.7942
  97  277.6486
  98  221.1412
  99  221.0959
 100  201.2332
 101  153.7397
 102  202.4547
 103  384.951
 104  294.9546
 105  301.1288
 106  290.5155
 107  353.6463
 108  370.8514
 109  199.9795
 110  158.0916
 111  197.8846
 112  285.1051
 113  231.201
 114  293.0672
 115  356.4862
 116  336.083
 117  216.9585
 118  247.7207
 119  320.9135
 120  184.9514
 121  256.8629
 122  251.0337
 123  309.4427
 124  330.2904
 125  363.1302
 126  334.3429
 127  321.3111
 128  243.157
 129  256.2162
 130  406.5634
 131  346.5705
 132  304.6589
 133  321.6039
 134  301.6797
 135  305.8765
 136  329.198
 137  294.7863
 138  191.4733
 139  251.0886
 140  246.4303
 141  234.2568
 142  135.7664
 143  10.61114
 144  231.6706
 145  286.9896
 146  305.2349
 147  235.6768
 148  181.5615
 149  440.0836
 150  428.9469
 151  405.3167
 152  315.9298
 153  253.3855
 154  283.2938
 155  349.0299
 156  366.6409
 157  439.7493
 158  267.6372
 159  258.0393
 160  114.1151
 161  212.0181
 162  396.5739
 163  382.9017
 164  314.4527
 165  362.4141
 166  391.6827
 167  309.3979
 168  361.1786
 169  442.7085
 170  380.882
 171  330.5898
 172  361.4852
 173  407.4793
 174  438.9717
 175  330.0545
 176  293.6517
 177  354.6198
 178  356.055
 179  325.4505
 180  281.1263
 181  365.1063
 182  235.0292
 183  287.9494
 184  232.7078
 185  363.5971
 186  351.774
 187  209.446
 188  286.9957
 189  245.797
 190  300.1715
 191  364.6024
 192  395.3182
 193  364.1964
 194  325.3765
 195  254.076
 196  248.8137
 197  340.3092
 198  388.2802
 199  349.5621
 200  267.0999
 201  209.7525
 202  215.1827
 203  257.1804
 204  337.4642
 205  387.4352
 206  391.0641
 207  343.8293
 208  200.5058
 209  221.6335
 210  353.5056
 211  346.6756
 212  217.1854
 213  242.7543
 214  324.0113
 215  517.0134
 216  504.1797
 217  345.1129
 218  340.7591
 219  362.4304
 220  288.2737
 221  317.827
 222  435.1136
 223  549.4376
 224  616.5565
 225  448.9419
 226  282.5067
 227  336.1279
 228  303.534
 229  277.0955
 230  340.0769
 231  313.6569
 232  377.0292
 233  448.1166
 234  269.0352
 235  495.22
 236  611.4802
 237  682.1138
 238  795.8484
 239  791.0174
 240  940.0219
 241  839.9206
 242  548.5393
 243  413.3147
 244  411.4556
 245  322.0587
 246  281.0233
 247  243.1961
 248  284.9391
 249  304.2368
 250  356.1923
 251  336.6353
 252  372.4827
 253  315.5582
 254  387.7986
 255  418.6629
 256  270.1351
 257  226.4482
 258  312.9797
 259  221.7264
 260  252.7018
 261  269.8521
 262  315.3346
 263  267.7489
 264  133.3625
 265  216.1874
 266  348.2987
 267  289.572
 268  245.0089
 269  240.8768
 270  261.3277
 271  305.6072
 272  303.212
 273  296.8881
 274  234.2173
 275  286.2969
 276  325.7584
 277  288.9973
 278  283.7172
 279  146.854
 280  147.8539
 281  301.4936
 282  367.1679
 283  290.201
 284  325.5746
 285  395.731
 286  296.4245
 287  233.2902
 288  417.3804
 289  352.2798
 290  265.6941
 291  217.7962
 292  194.3703
 293  241.7915
 294  238.1595
 295  239.7896
 296  282.1921
 297  273.2853
 298  221.9408
 299  299.8835
 300  271.0144
 301  174.3654
 302  102.8929
 303  190.0114
 304  254.8451
 305  141.6909
 306  163.3741
 307  320.918
 308  340.246
 309  315.3991
 310  262.3185
 311  279.7838
 312  235.9496
 313  205.9545
 314  289.0618
 315  350.4789
 316  328.4683
 317  326.3979
 318  292.5731
 319  360.3601
 320  318.5576
 321  357.3407
 322  410.9542
 323  433.6138
 324  461.4882
 325  278.5152
 326  198.6091
 327  262.1723
 328  312.5658
 329  397.0788
 330  300.8803
 331  363.9678
 332  337.9019
 333  244.4038
 334  154.0437
 335  201.5593
 336  498.9248
 337  369.7741
 338  250.252
 339  298.6988
 340  262.5961
 341  357.2928
 342  277.6225
 343  318.1616
 344  281.0231
 345  213.711
 346  237.1502
 347  97.84814
 348  307.6877
 349  248.5154
 350  234.2044
 351  301.8773
 352  345.4396
 353  403.0339
 354  427.6519
 355  201.5006
 356  27.2041
 357  279.059
 358  461.145
 359  335.0742
 360  252.8546
 361  322.261
 362  270.7249
 363  233.8829
 364  266.8084
 365  351.5974
 366  340.8125
 367  180.6336
 368  286.3312
 369  249.5697
 370  191.5967
 371  147.7077
 372  229.7409
 373  302.9873
 374  307.3172
 375  347.2458
 376  205.9396
 377  277.5003
 378  346.5464
 379  242.546
 380  352.7841
 381  347.316
 382  208.2796
 383  232.2994
 384  283.2098
 385  331.2597
 386  216.2978
 387  259.8448
 388  267.5572
 389  230.0242
 390  274.354
 391  239.1825
 392  206.1341
 393  329.3298
 394  274.1088
 395  162.5069
 396  280.0076
 397  181.5
 398  220.4893
 399  319.9529
 400  299.3927
 401  370.4193
 402  337.532
 403  347.2738
 404  290.8604
 405  461.6305
 406  264.2007
 407  240.8254
 408  163.9413
 409  239.261
 410  248.9929
 411  284.35
 412  344.2984
 413  319.2637
 414  276.759
 415  268.0815
 416  166.9461
 417  253.2004
 418  280.4411
 419  220.869
 420  256.1163
 421  216.4902
 422  287.9162
 423  238.1524
 424  147.8397
 425  249.6247
 426  357.7429
 427  369.9937
 428  336.2727
 429  372.5259
 430  349.0992
 431  175.7272
 432  231.3667
 433  127.5629
 434  155.5578
 435  183.0625
 436  167.7674
 437  209.7926
 438  279.3308
 439  340.1072
 440  276.9725
 441  329.1886
 442  325.3849
 443  354.1588
 444  357.3924
 445  244.7791
 446  367.3315
 447  277.4772
 448  285.0609
 449  400.1352
 450  374.7927
 451  360.1574
 452  398.5843
 453  383.2474
 454  194.8637
 455  134.2558
 456  349.9252
 457  369.288
 458  182.7358
 459  175.0144
 460  272.8613
 461  230.0987
 462  170.7554
 463  238.6476
 464  175.0009
 465  300.1446
 466  285.6258
 467  184.197
 468  83.81728
 469  261.5492
 470  193.508
 471  87.17392
 472  207.0073
 473  316.1779
 474  209.3568
 475  151.8985
 476  254.922
 477  293.9236
 478  187.8137
 479  247.3079
 480  280.902
 481  338.3504
 482  319.0447
 483  326.0067
 484  333.4881
 485  310.2959
 486  302.4359
 487  320.3443
 488  360.7724
 489  325.6675
 490  248.1766
 491  271.6801
 492  323.5099
 493  331.8842
 494  197.6775
 495  177.5252
 496  261.417
 497  170.093
 498  335.0608
 499  356.4942
 500  217.7183
 501  303.4514
 502  284.8681
 503  263.016
 504  374.3733
 505  421.9745
 506  375.867
 507  336.2671
 508  402.2104
 509  433.5023
 510  390.9819
 511  392.1364
