# Input file       =  1182734782.112887_cleaned.dat
# Candidate        =  PSR_0332+5434
# Telescope        =  AR
# Epoch_topo       =  57933.059769825079
# Epoch_bary       =  N/A
# T_sample         =  0.002
# Data Folded      =  7208960
# Data Avg         =  0.0209662894064064
# Data StdDev      =  1.00002351858586 
# Profile Bins     =  512
# Profile Avg      =  295.226358335935 
# Profile StdDev   =  118.661966489545 
# Reduced chi-sqr  =  1.258
# Prob(Noise)      <  6.35e-05   (~3.8 sigma)
# P_topo (ms)      =  714.490805747362  +/- 0.00033
# P'_topo (s/s)    =  -0                +/- 1.77e-10
# P''_topo (s/s^2) =  0                 +/- 7.98e-14
# P_bary (ms)      =  N/A
# P'_bary (s/s)    =  N/A
# P''_bary (s/s^2) =  N/A
# P_orb (s)        =  N/A
# asin(i)/c (s)    =  N/A
# eccentricity     =  N/A
# w (rad)          =  N/A
# T_peri           =  N/A
######################################################
   0  850.6039
   1  956.3364
   2  697.6752
   3  467.574
   4  423.1257
   5  357.2856
   6  318.8207
   7  225.2756
   8  288.6613
   9  265.2263
  10  367.2395
  11  324.3482
  12  356.1313
  13  353.4967
  14  317.7327
  15  444.4334
  16  345.7744
  17  213.3468
  18  294.6819
  19  266.079
  20  231.77
  21  263.9007
  22  285.8695
  23  320.7975
  24  197.0422
  25  128.9618
  26  303.3903
  27  338.3438
  28  258.6382
  29  250.5898
  30  235.1864
  31  287.9302
  32  304.0158
  33  298.6424
  34  261.1076
  35  263.2824
  36  303.6564
  37  325.2828
  38  274.2626
  39  231.6347
  40  115.7666
  41  216.2945
  42  358.3764
  43  353.1255
  44  260.6079
  45  371.3532
  46  360.324
  47  256.8794
  48  314.685
  49  421.3127
  50  287.3521
  51  236.9747
  52  215.3157
  53  206.8049
  54  253.8823
  55  231.7231
  56  256.6121
  57  289.654
  58  254.4406
  59  234.9658
  60  321.5785
  61  202.0942
  62  148.7159
  63  114.9936
  64  246.2252
  65  211.3268
  66  105.0657
  67  255.5327
  68  331.9512
  69  338.9494
  70  289.1798
  71  266.7664
  72  277.635
  73  204.5977
  74  230.8792
  75  340.9601
  76  331.5411
  77  346.6644
  78  279.7025
  79  329.7192
  80  346.1734
  81  310.9797
  82  414.0355
  83  405.0581
  84  487.8034
  85  385.7452
  86  215.6682
  87  212.4054
  88  277.4899
  89  359.2608
  90  355.7314
  91  323.7936
  92  373.2604
  93  286.043
  94  222.0201
  95  107.3599
  96  378.7399
  97  465.0602
  98  298.2831
  99  259.0119
 100  280.0203
 101  306.0758
 102  350.8053
 103  259.5454
 104  344.7429
 105  209.9288
 106  266.9492
 107  130.5771
 108  189.8253
 109  317.052
 110  232.3
 111  253.5224
 112  338.6328
 113  344.7545
 114  443.9923
 115  342.9561
 116  71.2954
 117  121.6234
 118  393.7431
 119  432.8963
 120  248.4938
 121  311.7096
 122  302.9278
 123  248.0803
 124  226.0577
 125  305.8461
 126  385.6516
 127  256.1495
 128  208.8663
 129  302.6762
 130  202.3597
 131  179.7815
 132  165.7636
 133  283.8199
 134  294.4251
 135  328.0446
 136  305.8975
 137  183.8983
 138  365.1754
 139  275.2581
 140  276.8877
 141  397.8398
 142  277.2597
 143  204.0113
 144  233.9435
 145  322.0474
 146  270.9253
 147  223.229
 148  288.748
 149  237.6337
 150  249.1665
 151  272.0423
 152  211.6063
 153  259.1216
 154  339.6547
 155  176.1404
 156  235.3364
 157  235.5778
 158  188.0741
 159  262.2439
 160  323.1167
 161  316.8796
 162  368.9696
 163  348.2863
 164  309.786
 165  374.4398
 166  408.7664
 167  205.5897
 168  236.4429
 169  153.4101
 170  282.663
 171  232.4634
 172  330.1637
 173  330.0975
 174  294.8237
 175  292.8342
 176  215.9139
 177  193.9669
 178  285.6741
 179  238.3064
 180  246.4596
 181  219.9838
 182  251.304
 183  275.8906
 184  185.1399
 185  176.602
 186  311.6804
 187  379.9799
 188  363.1889
 189  336.1472
 190  400.6919
 191  246.9667
 192  192.9319
 193  207.7423
 194  98.82323
 195  204.0394
 196  145.9487
 197  198.6399
 198  214.8497
 199  339.5508
 200  310.8357
 201  292.2645
 202  333.673
 203  322.6466
 204  373.1375
 205  285.198
 206  292.9135
 207  366.0739
 208  239.3015
 209  358.235
 210  398.0982
 211  368.3599
 212  366.1755
 213  425.1212
 214  291.7621
 215  128.2091
 216  219.6785
 217  406.9951
 218  289.0777
 219  135.8646
 220  240.9579
 221  261.2883
 222  180.655
 223  205.1922
 224  211.4489
 225  221.572
 226  326.047
 227  247.91
 228  111.8513
 229  156.5189
 230  272.8882
 231  114.6011
 232  116.0085
 233  283.3729
 234  283.6046
 235  159.5631
 236  182.1783
 237  314.5779
 238  227.5071
 239  214.3604
 240  267.2857
 241  303.8832
 242  336.8324
 243  299.6236
 244  337.6528
 245  324.7738
 246  303.8465
 247  325.5309
 248  318.9206
 249  382.3668
 250  255.1239
 251  275.1631
 252  264.5912
 253  371.9135
 254  257.5534
 255  165.335
 256  243.368
 257  206.3911
 258  218.1143
 259  381.9595
 260  282.3944
 261  249.0919
 262  337.7174
 263  243.1145
 264  310.717
 265  404.9058
 266  395.5435
 267  349.8432
 268  352.6387
 269  447.4758
 270  407.0178
 271  402.0976
 272  353.1975
 273  310.1817
 274  294.4407
 275  228.2351
 276  221.9061
 277  283.6637
 278  302.1483
 279  237.0305
 280  307.1987
 281  307.2667
 282  241.9072
 283  330.5957
 284  270.3527
 285  294.363
 286  364.6349
 287  215.5276
 288  262.3166
 289  297.2081
 290  240.0329
 291  368.2653
 292  344.1106
 293  304.0772
 294  263.1254
 295  243.0541
 296  214.0787
 297  283.8252
 298  334.2436
 299  160.0251
 300  163.0712
 301  256.8784
 302  357.8683
 303  248.1165
 304  8.849858
 305  207.1564
 306  205.0746
 307  311.7516
 308  261.3567
 309  219.503
 310  207.3389
 311  283.3361
 312  240.4718
 313  246.8113
 314  370.2437
 315  246.5957
 316  268.9774
 317  324.3138
 318  324.8941
 319  162.1619
 320  327.3587
 321  482.3605
 322  409.6856
 323  240.863
 324  406.1005
 325  449.5782
 326  274.5909
 327  252.3613
 328  162.645
 329  193.8514
 330  285.8908
 331  244.7469
 332  210.664
 333  308.4544
 334  304.5826
 335  340.6014
 336  391.3056
 337  266.1874
 338  266.2442
 339  333.2362
 340  217.379
 341  345.2591
 342  412.2991
 343  306.2676
 344  219.5863
 345  277.4358
 346  306.7766
 347  338.5246
 348  378.2788
 349  301.0118
 350  283.9331
 351  372.613
 352  324.3471
 353  98.45354
 354  238.1366
 355  367.7485
 356  313.9079
 357  296.5775
 358  235.4177
 359  226.0813
 360  193.6983
 361  261.6954
 362  326.007
 363  463.7709
 364  316.5411
 365  189.1415
 366  232.7033
 367  271.2147
 368  208.277
 369  211.4938
 370  268.3897
 371  209.1809
 372  210.065
 373  194.9166
 374  133.4474
 375  326.6701
 376  350.0972
 377  296.6622
 378  284.5186
 379  327.7382
 380  372.3627
 381  297.1965
 382  153.8351
 383  152.5148
 384  255.5531
 385  261.7862
 386  256.1137
 387  325.056
 388  360.9128
 389  277.7151
 390  209.5505
 391  309.341
 392  259.4341
 393  202.033
 394  266.7973
 395  267.3925
 396  314.4855
 397  351.2542
 398  344.2206
 399  345.339
 400  266.8348
 401  239.0965
 402  325.9366
 403  425.7354
 404  299.2798
 405  326.3378
 406  290.0779
 407  315.975
 408  300.8936
 409  336.3792
 410  232.8359
 411  214.0149
 412  265.3612
 413  222.2642
 414  220.0866
 415  30.75207
 416  120.6903
 417  281.103
 418  276.1913
 419  303.3629
 420  154.2068
 421  331.6888
 422  445.1187
 423  427.6509
 424  352.9091
 425  303.7997
 426  237.3725
 427  334.6901
 428  330.3794
 429  426.2109
 430  365.5264
 431  255.8455
 432  207.8589
 433  115.1326
 434  304.5891
 435  403.9873
 436  341.2453
 437  336.47
 438  391.2554
 439  355.5374
 440  314.4421
 441  409.0836
 442  435.1062
 443  326.2812
 444  357.5108
 445  368.1071
 446  455.5247
 447  382.7906
 448  290.054
 449  323.411
 450  354.7957
 451  367.3427
 452  264.2044
 453  361.8665
 454  282.1883
 455  269.5764
 456  253.8387
 457  285.9507
 458  397.0998
 459  258.61
 460  240.5316
 461  275.9305
 462  264.6694
 463  318.7417
 464  402.6345
 465  359.0132
 466  389.8486
 467  256.2867
 468  266.3456
 469  261.2881
 470  385.4946
 471  376.1282
 472  312.6031
 473  230.6687
 474  203.6065
 475  228.656
 476  302.0616
 477  361.1355
 478  391.8855
 479  390.9269
 480  269.7602
 481  189.7536
 482  280.169
 483  385.8164
 484  277.3943
 485  225.6549
 486  249.7103
 487  427.4995
 488  535.0353
 489  433.563
 490  319.0142
 491  365.1926
 492  333.8678
 493  271.1227
 494  366.9826
 495  480.0867
 496  615.8277
 497  565.0825
 498  347.5513
 499  286.4347
 500  343.3529
 501  269.4801
 502  317.5802
 503  327.6591
 504  319.8907
 505  460.7854
 506  347.1435
 507  338.6058
 508  576.5807
 509  632.3591
 510  737.5733
 511  782.3066
