# Input file       =  1182820940.11059_cleaned.dat
# Candidate        =  PSR_0332+5434
# Telescope        =  AR
# Epoch_topo       =  57934.056968872566
# Epoch_bary       =  N/A
# T_sample         =  0.002
# Data Folded      =  7208960
# Data Avg         =  0.0329478269436415
# Data StdDev      =  1.00007210789675 
# Profile Bins     =  512
# Profile Avg      =  463.746302486265 
# Profile StdDev   =  118.667732057127 
# Reduced chi-sqr  =  1.091
# Prob(Noise)      <  0.0765   (~1.4 sigma)
# P_topo (ms)      =  714.489986890013  +/- 0.000113
# P'_topo (s/s)    =  -0                +/- 6.07e-11
# P''_topo (s/s^2) =  0                 +/- 2.73e-14
# P_bary (ms)      =  N/A
# P'_bary (s/s)    =  N/A
# P''_bary (s/s^2) =  N/A
# P_orb (s)        =  N/A
# asin(i)/c (s)    =  N/A
# eccentricity     =  N/A
# w (rad)          =  N/A
# T_peri           =  N/A
######################################################
   0  914.1212
   1  947.7145
   2  765.7938
   3  762.3886
   4  543.5857
   5  413.1806
   6  422.3276
   7  490.0315
   8  509.9913
   9  495.7783
  10  454.0991
  11  520.1074
  12  570.0303
  13  568.1493
  14  485.6906
  15  571.1892
  16  604.8164
  17  527.5049
  18  488.418
  19  573.9101
  20  547.2364
  21  517.4315
  22  574.4615
  23  526.2822
  24  411.8033
  25  270.1364
  26  282.8222
  27  331.5684
  28  364.4494
  29  538.3135
  30  486.884
  31  432.7759
  32  411.9321
  33  489.7785
  34  535.4636
  35  534.0455
  36  579.3372
  37  615.6366
  38  457.3431
  39  317.08
  40  411.2459
  41  498.1897
  42  449.1553
  43  446.9702
  44  391.0819
  45  454.9445
  46  485.1553
  47  382.4398
  48  380.532
  49  453.8776
  50  364.5691
  51  395.9907
  52  422.17
  53  498.3058
  54  448.2779
  55  475.8347
  56  561.8698
  57  482.8389
  58  416.4298
  59  415.2066
  60  465.2538
  61  468.7723
  62  394.4275
  63  337.6365
  64  426.241
  65  428.2777
  66  452.0085
  67  397.4226
  68  396.4667
  69  311.8318
  70  379.7267
  71  412.5214
  72  512.5398
  73  605.5392
  74  618.829
  75  496.1986
  76  515.9388
  77  445.95
  78  372.3252
  79  499.4936
  80  569.2076
  81  539.9333
  82  492.8274
  83  490.4905
  84  424.8463
  85  443.5792
  86  495.3494
  87  634.6827
  88  520.8011
  89  529.9272
  90  514.4383
  91  427.3602
  92  552.4928
  93  524.3846
  94  437.3336
  95  546.5579
  96  530.9036
  97  457.0406
  98  494.6433
  99  453.8112
 100  410.8835
 101  427.7334
 102  467.1612
 103  479.7509
 104  485.9302
 105  646.1979
 106  627.2608
 107  527.9854
 108  524.3248
 109  497.5861
 110  511.3426
 111  517.4835
 112  524.044
 113  575.0147
 114  517.4199
 115  402.8211
 116  440.1935
 117  356.9971
 118  328.8621
 119  445.4772
 120  493.307
 121  537.0818
 122  360.3983
 123  284.2477
 124  209.7458
 125  396.7603
 126  523.6585
 127  563.8814
 128  570.9005
 129  581.1859
 130  521.729
 131  471.4945
 132  520.911
 133  508.3694
 134  558.7159
 135  452.2534
 136  482.5264
 137  447.9093
 138  436.2291
 139  456.1277
 140  373.0616
 141  375.32
 142  412.7652
 143  529.2047
 144  487.2715
 145  460.2082
 146  433.7852
 147  311.4224
 148  328.8297
 149  514.264
 150  478.7077
 151  540.8636
 152  467.8668
 153  501.0442
 154  468.6958
 155  342.4913
 156  376.0974
 157  383.2073
 158  483.2892
 159  561.6909
 160  515.634
 161  373.8448
 162  306.4087
 163  302.9743
 164  365.7952
 165  473.9463
 166  562.6208
 167  420.8098
 168  394.273
 169  454.8569
 170  351.283
 171  448.6161
 172  563.1285
 173  397.6079
 174  329.0022
 175  409.4478
 176  555.5714
 177  512.2384
 178  555.9713
 179  494.5514
 180  591.6616
 181  581.3895
 182  515.1703
 183  509.8315
 184  379.4776
 185  434.4809
 186  423.3207
 187  426.8895
 188  495.1063
 189  471.8316
 190  380.1345
 191  389.7454
 192  378.7981
 193  406.1862
 194  507.9565
 195  414.795
 196  427.4435
 197  272.5877
 198  290.304
 199  524.9442
 200  473.9663
 201  527.9844
 202  480.3956
 203  549.1681
 204  620.6974
 205  351.2675
 206  275.705
 207  345.6183
 208  393.8989
 209  408.5558
 210  473.0469
 211  513.6336
 212  418.4375
 213  355.7128
 214  382.5341
 215  316.2423
 216  444.0979
 217  485.7415
 218  422.683
 219  486.1185
 220  442.5944
 221  490.9313
 222  531.1611
 223  380.3842
 224  388.0895
 225  395.6773
 226  416.712
 227  502.762
 228  485.162
 229  451.4383
 230  421.1773
 231  350.933
 232  432.439
 233  410.6049
 234  502.5421
 235  572.9518
 236  390.4846
 237  462.408
 238  524.6443
 239  403.7855
 240  526.728
 241  559.0149
 242  532.7083
 243  450.9951
 244  406.2569
 245  457.9022
 246  508.0419
 247  467.4944
 248  582.5466
 249  517.7652
 250  454.0665
 251  528.0925
 252  568.9355
 253  569.6186
 254  452.9874
 255  473.5325
 256  533.509
 257  592.8705
 258  541.4892
 259  471.1315
 260  512.1269
 261  530.7808
 262  604.539
 263  608.6566
 264  539.0226
 265  504.5946
 266  271.1169
 267  305.1615
 268  440.8098
 269  440.7435
 270  325.0456
 271  461.2578
 272  501.2982
 273  313.3789
 274  262.3171
 275  239.7281
 276  358.1867
 277  467.6134
 278  429.4626
 279  373.6302
 280  438.5553
 281  385.1652
 282  330.9577
 283  362.5638
 284  508.8409
 285  584.6406
 286  566.3049
 287  532.0059
 288  378.6837
 289  242.8643
 290  384.3606
 291  468.9191
 292  415.2419
 293  459.0137
 294  537.9185
 295  418.3315
 296  448.5507
 297  394.0079
 298  380.6321
 299  390.7134
 300  470.4211
 301  580.0614
 302  475.5492
 303  424.9941
 304  463.4147
 305  309.1058
 306  349.8387
 307  448.2906
 308  635.089
 309  481.2547
 310  340.2938
 311  436.2955
 312  449.1811
 313  387.5074
 314  440.9215
 315  474.681
 316  506.9984
 317  496.1058
 318  528.5303
 319  489.6029
 320  380.7076
 321  393.7589
 322  350.7005
 323  307.4814
 324  335.841
 325  425.1562
 326  505.4242
 327  436.8722
 328  486.2513
 329  525.2332
 330  471.0257
 331  457.7836
 332  425.0957
 333  470.3852
 334  420.2489
 335  327.4773
 336  414.9197
 337  444.9488
 338  495.2922
 339  525.5729
 340  400.7809
 341  320.7567
 342  370.1459
 343  458.2302
 344  446.7371
 345  293.5284
 346  279.847
 347  323.5949
 348  360.0096
 349  339.6944
 350  421.1559
 351  410.6695
 352  469.4819
 353  474.5326
 354  449.6188
 355  496.0124
 356  458.8171
 357  395.1824
 358  469.7106
 359  487.9682
 360  368.5005
 361  503.9493
 362  416.6824
 363  437.2599
 364  351.6164
 365  407.1458
 366  617.2107
 367  479.2504
 368  462.8557
 369  331.7859
 370  302.1486
 371  324.7423
 372  471.0889
 373  451.9493
 374  501.6704
 375  420.6444
 376  431.0721
 377  502.9377
 378  548.9572
 379  499.3685
 380  545.8046
 381  542.7612
 382  538.2782
 383  550.4905
 384  539.5648
 385  422.4894
 386  388.8145
 387  399.785
 388  532.0078
 389  635.7737
 390  532.0307
 391  508.187
 392  517.4761
 393  477.3042
 394  489.7946
 395  385.4831
 396  426.1577
 397  455.8355
 398  517.7251
 399  577.7327
 400  641.0515
 401  492.0129
 402  489.4881
 403  490.8643
 404  432.3781
 405  461.5204
 406  440.8824
 407  606.9219
 408  538.6478
 409  429.7494
 410  383.4821
 411  471.5403
 412  510.5413
 413  433.4571
 414  372.5837
 415  402.0128
 416  514.43
 417  465.0499
 418  384.9157
 419  421.7401
 420  398.3806
 421  333.2632
 422  429.6256
 423  446.578
 424  514.2889
 425  512.6442
 426  547.9764
 427  533.2818
 428  422.0005
 429  341.5119
 430  553.1494
 431  503.4646
 432  400.2274
 433  453.1713
 434  536.9572
 435  506.0879
 436  430.726
 437  433.2948
 438  492.598
 439  397.037
 440  554.3352
 441  600.3446
 442  609.4357
 443  627.4731
 444  554.9758
 445  520.6208
 446  409.9718
 447  376.9129
 448  426.6453
 449  478.0113
 450  533.6373
 451  541.0566
 452  431.1305
 453  529.4312
 454  528.9277
 455  434.6133
 456  412.1012
 457  434.5116
 458  479.7357
 459  551.5631
 460  427.9491
 461  424.8167
 462  350.7632
 463  342.6987
 464  437.4714
 465  462.0234
 466  521.6415
 467  473.2314
 468  570.2213
 469  571.4969
 470  578.0694
 471  517.1781
 472  482.9352
 473  386.3177
 474  479.4738
 475  489.2919
 476  587.4393
 477  514.9115
 478  362.7157
 479  431.8563
 480  481.3902
 481  542.8103
 482  413.5392
 483  456.1321
 484  473.9704
 485  422.7339
 486  366.732
 487  442.6516
 488  489.7354
 489  419.2085
 490  438.6813
 491  413.9617
 492  428.5739
 493  521.3817
 494  555.6983
 495  584.722
 496  493.5847
 497  363.7036
 498  425.2644
 499  435.3464
 500  383.8794
 501  291.8293
 502  308.3835
 503  426.2333
 504  505.7334
 505  499.1335
 506  462.484
 507  502.5081
 508  545.5234
 509  655.6168
 510  824.5449
 511  880.6727
