# Input file       =  1182577136.109246_cleaned.dat
# Candidate        =  PSR_0332+5434
# Telescope        =  AR
# Epoch_topo       =  57931.235163301455
# Epoch_bary       =  N/A
# T_sample         =  0.002
# Data Folded      =  7340032
# Data Avg         =  0.0268914633032193
# Data StdDev      =  0.999975662686494
# Profile Bins     =  512
# Profile Avg      =  385.461920057021 
# Profile StdDev   =  119.730122396323 
# Reduced chi-sqr  =  1.267
# Prob(Noise)      <  3.87e-05   (~4.0 sigma)
# P_topo (ms)      =  714.492340358067  +/- 0.00026
# P'_topo (s/s)    =  -0                +/- 1.37e-10
# P''_topo (s/s^2) =  0                 +/- 6.05e-14
# P_bary (ms)      =  N/A
# P'_bary (s/s)    =  N/A
# P''_bary (s/s^2) =  N/A
# P_orb (s)        =  N/A
# asin(i)/c (s)    =  N/A
# eccentricity     =  N/A
# w (rad)          =  N/A
# T_peri           =  N/A
######################################################
   0  954.9634
   1  1002.716
   2  814.8965
   3  647.2979
   4  500.8413
   5  447.2054
   6  509.5192
   7  420.453
   8  420.0145
   9  443.6072
  10  373.6442
  11  368.8247
  12  499.6401
  13  373.3488
  14  418.4731
  15  495.1899
  16  544.3196
  17  447.3807
  18  499.2773
  19  440.0857
  20  436.3122
  21  365.6558
  22  355.0222
  23  389.7531
  24  294.3471
  25  313.7533
  26  382.6051
  27  458.8609
  28  384.2734
  29  438.9433
  30  402.5624
  31  404.9924
  32  526.8455
  33  521.7264
  34  357.4346
  35  380.1318
  36  332.6479
  37  237.9007
  38  376.7152
  39  458.8848
  40  444.9511
  41  414.4254
  42  372.7294
  43  327.3118
  44  313.1573
  45  366.3979
  46  399.5744
  47  441.0863
  48  440.6233
  49  440.0431
  50  541.4182
  51  507.7315
  52  418.4586
  53  463.3093
  54  521.1373
  55  419.7806
  56  305.0604
  57  391.9115
  58  410.4588
  59  301.6659
  60  268.85
  61  262.1467
  62  337.4052
  63  477.323
  64  353.9632
  65  399.8818
  66  462.306
  67  421.9306
  68  365.6101
  69  303.5651
  70  439.1501
  71  504.7988
  72  496.0064
  73  403.0302
  74  391.4696
  75  515.4861
  76  444.5175
  77  325.2318
  78  249.8275
  79  299.6298
  80  359.9398
  81  315.5849
  82  367.8648
  83  353.984
  84  355.5615
  85  520.6133
  86  462.0052
  87  448.3841
  88  387.0247
  89  382.6429
  90  372.6874
  91  481.6878
  92  411.6133
  93  501.7153
  94  546.2833
  95  443.2659
  96  361.6559
  97  396.966
  98  384.3281
  99  371.4686
 100  348.5287
 101  372.3174
 102  401.3979
 103  424.5284
 104  446.6363
 105  436.5175
 106  393.931
 107  351.9384
 108  399.6307
 109  535.9966
 110  413.4879
 111  357.5557
 112  499.2598
 113  540.2906
 114  533.8053
 115  481.881
 116  366.8793
 117  248.9567
 118  469.7495
 119  502.002
 120  471.5334
 121  576.7264
 122  601.3776
 123  364.0285
 124  415.2982
 125  432.8586
 126  348.9632
 127  437.8377
 128  519.1429
 129  362.5529
 130  395.6895
 131  393.53
 132  396.3732
 133  487.1781
 134  489.8836
 135  348.1075
 136  295.0534
 137  423.184
 138  452.719
 139  523.7114
 140  439.5009
 141  455.8861
 142  361.8573
 143  317.3851
 144  215.2482
 145  242.7589
 146  270.1313
 147  169.7699
 148  280.4911
 149  331.1088
 150  346.5573
 151  307.6465
 152  267.0471
 153  292.1705
 154  290.4855
 155  330.0185
 156  225.2311
 157  267.52
 158  293.9492
 159  234.7997
 160  328.6221
 161  287.8463
 162  275.4931
 163  324.68
 164  343.1984
 165  279.2843
 166  308.3905
 167  331.9905
 168  319.6788
 169  466.2166
 170  386.8294
 171  357.3589
 172  255.7376
 173  371.1337
 174  404.8581
 175  495.9995
 176  460.645
 177  396.4085
 178  346.6745
 179  367.2757
 180  279.6436
 181  364.1576
 182  452.1458
 183  503.2394
 184  391.1262
 185  374.9345
 186  317.0825
 187  390.2554
 188  423.2158
 189  383.0168
 190  426.0412
 191  408.2089
 192  255.1377
 193  258.9935
 194  275.7382
 195  286.7325
 196  371.3622
 197  339.2643
 198  292.5639
 199  299.675
 200  305.8547
 201  312.9622
 202  258.3886
 203  367.0245
 204  502.4544
 205  465.0601
 206  382.5387
 207  382.7351
 208  370.8546
 209  417.6234
 210  375.2924
 211  431.6435
 212  382.4909
 213  506.5075
 214  513.2727
 215  473.3825
 216  389.0978
 217  459.0255
 218  471.3274
 219  274.4799
 220  298.5222
 221  342.8961
 222  308.1004
 223  282.017
 224  290.3889
 225  277.8293
 226  313.2422
 227  317.8805
 228  275.8117
 229  382.597
 230  460.1753
 231  519.3712
 232  441.0964
 233  443.286
 234  341.5773
 235  277.6508
 236  261.7663
 237  261.3926
 238  312.4354
 239  323.8169
 240  352.2607
 241  460.8569
 242  536.7721
 243  500.563
 244  338.4839
 245  271.769
 246  275.8181
 247  421.8392
 248  503.8669
 249  566.2438
 250  499.3575
 251  373.6557
 252  407.6716
 253  433.0174
 254  453.1876
 255  294.3669
 256  475.5825
 257  449.3859
 258  342.5846
 259  252.4202
 260  273.6986
 261  353.1305
 262  359.0213
 263  354.0544
 264  415.2276
 265  384.7581
 266  340.2632
 267  254.728
 268  250.7241
 269  285.1873
 270  438.5875
 271  357.155
 272  305.8663
 273  233.0624
 274  293.0496
 275  433.102
 276  345.0574
 277  354.1614
 278  311.023
 279  333.351
 280  524.3976
 281  360.168
 282  337.8601
 283  442.795
 284  422.0978
 285  386.8741
 286  349.9645
 287  249.403
 288  270.4491
 289  367.6238
 290  476.8512
 291  256.6559
 292  157.2662
 293  308.4355
 294  352.2554
 295  377.5338
 296  331.6836
 297  354.5248
 298  410.1541
 299  356.4111
 300  419.4841
 301  339.4436
 302  438.7686
 303  339.2803
 304  325.6025
 305  280.0709
 306  329.0675
 307  395.7475
 308  400.5749
 309  364.9006
 310  359.2095
 311  337.4138
 312  350.8076
 313  413.0361
 314  383.2702
 315  342.8368
 316  336.9315
 317  186.3288
 318  389.7596
 319  366.4012
 320  431.1698
 321  559.7671
 322  392.1025
 323  323.677
 324  265.0892
 325  244.3269
 326  291.0887
 327  350.105
 328  397.2697
 329  393.2264
 330  382.148
 331  339.1285
 332  379.3879
 333  481.456
 334  459.9204
 335  508.652
 336  473.6663
 337  533.4923
 338  447.5963
 339  365.2569
 340  443.6996
 341  441.847
 342  482.7587
 343  415.0056
 344  356.083
 345  429.3157
 346  415.3443
 347  525.8983
 348  482.8854
 349  361.4518
 350  372.2697
 351  511.5566
 352  553.171
 353  545.9667
 354  446.3589
 355  414.5271
 356  354.8857
 357  342.7054
 358  356.4599
 359  360.2039
 360  317.9732
 361  402.129
 362  323.5151
 363  294.7857
 364  284.5827
 365  272.1059
 366  310.8429
 367  284.9972
 368  178.5222
 369  229.899
 370  247.1014
 371  216.3016
 372  233.092
 373  330.4711
 374  296.0866
 375  337.4668
 376  388.2771
 377  354.1376
 378  318.5969
 379  353.6068
 380  314.4039
 381  208.5979
 382  218.0404
 383  169.2539
 384  334.578
 385  347.4669
 386  330.2307
 387  347.2113
 388  303.0774
 389  292.2152
 390  209.6273
 391  316.3416
 392  400.9937
 393  331.4008
 394  403.6437
 395  373.4046
 396  463.6436
 397  512.6253
 398  507.4022
 399  342.0504
 400  246.3029
 401  409.181
 402  385.4032
 403  390.824
 404  360.8018
 405  429.3035
 406  397.2503
 407  293.9884
 408  369.4884
 409  347.8762
 410  282.5621
 411  298.6368
 412  365.3787
 413  439.2229
 414  373.0952
 415  373.0219
 416  332.5927
 417  350.8069
 418  471.5083
 419  487.0618
 420  461.0454
 421  398.2316
 422  403.3817
 423  373.5233
 424  373.9162
 425  365.9895
 426  324.1098
 427  512.6148
 428  435.1979
 429  342.5372
 430  468.0183
 431  408.6976
 432  346.1047
 433  357.5212
 434  260.1689
 435  167.9023
 436  218.9437
 437  359.635
 438  425.245
 439  441.7863
 440  404.6707
 441  310.6275
 442  433.8631
 443  425.8913
 444  331.246
 445  300.7409
 446  381.2242
 447  408.8479
 448  289.3219
 449  281.3148
 450  367.1547
 451  350.6572
 452  471.1575
 453  351.2839
 454  390.7559
 455  402.6572
 456  305.2332
 457  359.976
 458  397.0107
 459  317.1548
 460  309.1566
 461  390.1669
 462  430.9805
 463  536.7463
 464  482.6863
 465  380.1759
 466  335.4886
 467  442.2003
 468  313.187
 469  371.0053
 470  336.5502
 471  307.5425
 472  380.6095
 473  426.3841
 474  353.5121
 475  366.3562
 476  430.9962
 477  438.6107
 478  379.6892
 479  365.1286
 480  376.141
 481  372.7353
 482  300.8346
 483  449.184
 484  370.3241
 485  328.8437
 486  362.0943
 487  375.5962
 488  360.3725
 489  321.692
 490  364.3162
 491  484.4502
 492  406.8116
 493  398.8361
 494  444.9034
 495  424.4857
 496  388.718
 497  292.2628
 498  387.5205
 499  405.759
 500  397.4805
 501  270.8864
 502  284.4839
 503  422.9952
 504  522.936
 505  443.7362
 506  485.8771
 507  710.7624
 508  727.9556
 509  691.0033
 510  782.8961
 511  878.8613
