# Input file       =  1182936363.103926_cleaned.dat
# Candidate        =  PSR_0332+5434
# Telescope        =  AR
# Epoch_topo       =  57935.392883147288
# Epoch_bary       =  N/A
# T_sample         =  0.002
# Data Folded      =  7340032
# Data Avg         =  0.027762728280843
# Data StdDev      =  1.00010816326835 
# Profile Bins     =  512
# Profile Avg      =  397.913386074483 
# Profile StdDev   =  119.74598709331  
# Reduced chi-sqr  =  1.404
# Prob(Noise)      <  4.14e-09   (~5.8 sigma)
# P_topo (ms)      =  714.489241455225  +/- 0.000347
# P'_topo (s/s)    =  -0                +/- 1.83e-10
# P''_topo (s/s^2) =  0                 +/- 8.07e-14
# P_bary (ms)      =  N/A
# P'_bary (s/s)    =  N/A
# P''_bary (s/s^2) =  N/A
# P_orb (s)        =  N/A
# asin(i)/c (s)    =  N/A
# eccentricity     =  N/A
# w (rad)          =  N/A
# T_peri           =  N/A
######################################################
   0  396.2294
   1  403.9448
   2  323.8984
   3  455.7435
   4  392.8833
   5  362.7812
   6  391.4977
   7  413.379
   8  380.9795
   9  319.3003
  10  287.5255
  11  359.0071
  12  408.2103
  13  414.6638
  14  296.0423
  15  417.1426
  16  438.7273
  17  412.2234
  18  408.605
  19  351.1867
  20  354.5689
  21  362.9858
  22  395.4397
  23  300.0639
  24  311.6664
  25  399.7997
  26  511.6953
  27  450.5525
  28  362.87
  29  273.5242
  30  321.0066
  31  292.5804
  32  248.272
  33  284.8455
  34  293.8282
  35  341.975
  36  303.6122
  37  280.0841
  38  284.2869
  39  213.4659
  40  178.1241
  41  221.6931
  42  210.5195
  43  198.8443
  44  273.7571
  45  332.8743
  46  393.1415
  47  292.6508
  48  205.0737
  49  245.0445
  50  475.6833
  51  520.1654
  52  351.5179
  53  260.0156
  54  365.1494
  55  389.549
  56  329.0655
  57  356.3616
  58  376.904
  59  437.294
  60  389.4149
  61  371.4352
  62  325.9984
  63  252.3888
  64  376.2265
  65  317.781
  66  231.9678
  67  285.5023
  68  280.1423
  69  333.3926
  70  317.6538
  71  398.747
  72  277.8788
  73  229.492
  74  344.1812
  75  357.1446
  76  424.4747
  77  378.5872
  78  346.9745
  79  328.4081
  80  310.8618
  81  374.4208
  82  361.8604
  83  298.31
  84  242.0155
  85  244.4309
  86  273.3407
  87  279.7796
  88  209.2161
  89  228.9097
  90  388.1768
  91  437.8268
  92  388.612
  93  470.7016
  94  450.1073
  95  330.7088
  96  293.8582
  97  290.5272
  98  350.7499
  99  495.6073
 100  502.6277
 101  299.6269
 102  378.2708
 103  385.9236
 104  437.0841
 105  327.788
 106  381.6542
 107  416.9781
 108  406.8328
 109  525.5204
 110  428.3304
 111  432.7771
 112  398.414
 113  514.6729
 114  408.6414
 115  294.6791
 116  300.2947
 117  275.62
 118  320.1086
 119  308.053
 120  340.7469
 121  340.1773
 122  251.1656
 123  323.5255
 124  389.7786
 125  358.8667
 126  411.1184
 127  451.6099
 128  389.186
 129  394.5979
 130  307.9741
 131  355.4217
 132  392.4007
 133  408.3238
 134  376.7136
 135  386.8386
 136  406.8253
 137  441.0896
 138  346.5123
 139  300.3938
 140  408.1044
 141  437.9369
 142  293.332
 143  330.4132
 144  380.0558
 145  424.6407
 146  306.5417
 147  346.756
 148  234.9444
 149  239.1711
 150  256.0403
 151  319.7722
 152  296.4171
 153  428.1673
 154  412.2876
 155  410.535
 156  432.2574
 157  306.2819
 158  187.6298
 159  231.4397
 160  261.5912
 161  409.2204
 162  377.2168
 163  247.8246
 164  297.0363
 165  340.7073
 166  450.4027
 167  443.2097
 168  438.477
 169  372.5208
 170  398.5097
 171  297.5152
 172  282.3342
 173  284.4697
 174  288.2793
 175  394.2745
 176  397.487
 177  425.434
 178  430.1534
 179  510.9579
 180  513.9233
 181  470.7027
 182  484.9796
 183  390.3756
 184  413.8892
 185  460.3278
 186  498.4908
 187  481.4197
 188  481.8144
 189  551.9464
 190  545.0388
 191  503.5888
 192  487.542
 193  437.6751
 194  247.3651
 195  256.2211
 196  400.8269
 197  412.2881
 198  479.2044
 199  468.6544
 200  369.4193
 201  404.528
 202  360.9575
 203  438.0793
 204  335.6306
 205  356.6262
 206  433.4229
 207  281.3532
 208  342.1705
 209  378.7473
 210  347.8846
 211  447.1521
 212  367.0814
 213  355.2771
 214  493.3037
 215  545.8649
 216  393.3312
 217  363.7304
 218  462.6032
 219  351.6985
 220  389.6541
 221  440.367
 222  466.2793
 223  442.8341
 224  514.5435
 225  512.1526
 226  477.0079
 227  488.2577
 228  411.1924
 229  457.5051
 230  421.1295
 231  475.1255
 232  502.1162
 233  470.1726
 234  518.0015
 235  465.0092
 236  430.4589
 237  436.1041
 238  409.5465
 239  478.0467
 240  471.5221
 241  348.4962
 242  355.4784
 243  313.7263
 244  274.4711
 245  357.5403
 246  447.1982
 247  481.6349
 248  345.6606
 249  425.8882
 250  387.8174
 251  343.0032
 252  335.3305
 253  474.0925
 254  488.6032
 255  352.8275
 256  477.5777
 257  527.9865
 258  369.9489
 259  368.2366
 260  384.1415
 261  462.1571
 262  422.9549
 263  455.8228
 264  545.8952
 265  524.7078
 266  576.1202
 267  492.7085
 268  360.5886
 269  438.1515
 270  472.9713
 271  421.5617
 272  401.7323
 273  422.0064
 274  450.3449
 275  495.6713
 276  487.4216
 277  517.6199
 278  452.5708
 279  539.5715
 280  569.2447
 281  454.1309
 282  477.4786
 283  583.3111
 284  583.8651
 285  611.3121
 286  494.4014
 287  506.8246
 288  487.3845
 289  461.2552
 290  427.2533
 291  323.9245
 292  433.7643
 293  376.9057
 294  377.7296
 295  460.8134
 296  590.6436
 297  437.4573
 298  426.7618
 299  384.3076
 300  411.5542
 301  378.3614
 302  363.9514
 303  358.2087
 304  339.6806
 305  383.8928
 306  525.8273
 307  553.1676
 308  482.4265
 309  388.9712
 310  374.072
 311  406.7279
 312  473.68
 313  492.3364
 314  489.0983
 315  417.7253
 316  426.0683
 317  480.6819
 318  389.9213
 319  436.572
 320  527.1401
 321  541.2682
 322  559.557
 323  564.6714
 324  479.138
 325  355.2818
 326  371.3439
 327  399.5634
 328  429.811
 329  319.3508
 330  386.3118
 331  286.0584
 332  266.4477
 333  338.8541
 334  428.485
 335  421.6161
 336  349.0415
 337  367.2411
 338  345.2928
 339  292.6954
 340  339.9665
 341  270.989
 342  266.0555
 343  271.2551
 344  382.0244
 345  417.4631
 346  301.7606
 347  306.5635
 348  416.8994
 349  366.8187
 350  297.1005
 351  384.6319
 352  397.0721
 353  252.7462
 354  280.005
 355  340.8818
 356  454.5486
 357  460.3374
 358  386.5077
 359  405.9884
 360  483.4942
 361  537.8637
 362  550.1938
 363  534.9784
 364  524.1736
 365  608.9713
 366  605.1079
 367  565.6576
 368  388.8654
 369  324.1273
 370  357.9957
 371  407.6997
 372  344.4887
 373  281.508
 374  338.7033
 375  411.9717
 376  493.372
 377  562.0099
 378  525.2774
 379  287.0177
 380  315.7899
 381  431.4236
 382  485.744
 383  442.5011
 384  402.2883
 385  383.9037
 386  319.0874
 387  317.1747
 388  395.5713
 389  370.1334
 390  359.9902
 391  390.0466
 392  438.046
 393  387.7385
 394  444.1004
 395  528.1503
 396  435.01
 397  502.0766
 398  385.3941
 399  468.8233
 400  459.6611
 401  491.4403
 402  484.1176
 403  551.5757
 404  443.3614
 405  432.3002
 406  386.4117
 407  409.7525
 408  354.2855
 409  276.3429
 410  406.4387
 411  462.7469
 412  474.8822
 413  510.9301
 414  497.1095
 415  523.49
 416  542.389
 417  577.96
 418  745.4741
 419  950.5986
 420  966.7102
 421  959.2037
 422  990.3945
 423  906.9573
 424  556.3699
 425  436.6933
 426  350.3392
 427  410.4795
 428  401.4166
 429  327.0342
 430  302.836
 431  306.2031
 432  431.4734
 433  446.9651
 434  453.1102
 435  417.6174
 436  533.2317
 437  516.931
 438  480.9065
 439  411.1677
 440  447.4536
 441  434.7304
 442  407.2558
 443  461.5668
 444  538.2004
 445  482.3443
 446  451.5564
 447  511.825
 448  466.7884
 449  377.8042
 450  365.8007
 451  306.8803
 452  305.9573
 453  427.4855
 454  419.0065
 455  315.6826
 456  356.6648
 457  391.9352
 458  398.0385
 459  293.5445
 460  259.8433
 461  360.1778
 462  397.6496
 463  406.7392
 464  395.0032
 465  373.2356
 466  271.1132
 467  222.3102
 468  258.504
 469  326.1536
 470  330.473
 471  294.4099
 472  372.0591
 473  240.0329
 474  303.5574
 475  244.0657
 476  338.747
 477  384.0941
 478  414.2912
 479  504.2399
 480  338.3398
 481  233.6207
 482  316.5413
 483  409.811
 484  425.209
 485  461.0485
 486  513.0266
 487  343.0437
 488  344.3836
 489  401.3644
 490  321.4487
 491  311.9291
 492  490.6857
 493  396.8261
 494  398.8489
 495  465.6864
 496  569.4619
 497  470.0467
 498  368.4475
 499  340.2137
 500  314.2285
 501  305.6197
 502  373.9095
 503  397.7583
 504  264.1943
 505  302.9729
 506  328.7855
 507  229.9136
 508  303.6713
 509  226.1083
 510  286.0814
 511  264.7001
