# Input file       =  1182419751.099498_cleaned.dat
# Candidate        =  PSR_0332+5434
# Telescope        =  AR
# Epoch_topo       =  57929.413577540487
# Epoch_bary       =  N/A
# T_sample         =  0.002
# Data Folded      =  7340032
# Data Avg         =  0.0187679154939202
# Data StdDev      =  1.00011115895106 
# Profile Bins     =  512
# Profile Avg      =  269.099057511889 
# Profile StdDev   =  119.746345775497 
# Reduced chi-sqr  =  1.325
# Prob(Noise)      <  1.06e-06   (~4.7 sigma)
# P_topo (ms)      =  714.494228474784  +/- 0.00017
# P'_topo (s/s)    =  -0                +/- 8.95e-11
# P''_topo (s/s^2) =  0                 +/- 3.95e-14
# P_bary (ms)      =  N/A
# P'_bary (s/s)    =  N/A
# P''_bary (s/s^2) =  N/A
# P_orb (s)        =  N/A
# asin(i)/c (s)    =  N/A
# eccentricity     =  N/A
# w (rad)          =  N/A
# T_peri           =  N/A
######################################################
   0  986.5447
   1  944.3651
   2  594.3068
   3  326.3971
   4  250.4575
   5  239.6193
   6  242.6728
   7  267.3574
   8  196.0067
   9  283.3141
  10  286.8065
  11  267.6496
  12  321.4671
  13  361.9725
  14  403.4157
  15  327.2395
  16  246.3226
  17  254.9791
  18  298.0636
  19  302.2968
  20  162.6337
  21  185.5016
  22  344.3322
  23  330.3817
  24  294.4986
  25  273.8067
  26  305.7786
  27  265.3246
  28  335.653
  29  285.5471
  30  185.8072
  31  309.3282
  32  230.3282
  33  312.6001
  34  424.1391
  35  289.8205
  36  284.3488
  37  377.3357
  38  373.3147
  39  284.5016
  40  276.4075
  41  375.0381
  42  293.3989
  43  273.3466
  44  305.2701
  45  354.0877
  46  313.5768
  47  220.224
  48  284.813
  49  337.6293
  50  320.0193
  51  171.789
  52  214.2718
  53  273.1724
  54  299.9635
  55  369.816
  56  432.6744
  57  424.7469
  58  303.1943
  59  261.6651
  60  193.7679
  61  162.5767
  62  275.8977
  63  386.1927
  64  342.4748
  65  279.9605
  66  306.6694
  67  203.1605
  68  177.1522
  69  125.1923
  70  155.2634
  71  191.5606
  72  220.3512
  73  232.4438
  74  320.1975
  75  262.0147
  76  394.9379
  77  282.2058
  78  252.9504
  79  267.0045
  80  277.4021
  81  326.4699
  82  323.1118
  83  273.8525
  84  280.4335
  85  414.2797
  86  254.4234
  87  222.263
  88  271.2545
  89  243.4058
  90  268.1457
  91  342.819
  92  456.9906
  93  360.7611
  94  128.0353
  95  54.04032
  96  225.444
  97  191.5474
  98  223.8967
  99  248.1401
 100  320.044
 101  373.0006
 102  353.1998
 103  273.536
 104  331.2438
 105  317.1959
 106  316.8343
 107  305.5311
 108  289.1068
 109  309.2456
 110  301.4006
 111  337.2614
 112  400.7425
 113  286.8718
 114  274.5277
 115  251.1986
 116  224.9091
 117  408.6148
 118  333.0744
 119  295.4867
 120  302.6982
 121  271.8855
 122  307.2347
 123  347.5994
 124  273.2889
 125  405.8006
 126  399.2058
 127  358.1302
 128  334.112
 129  232.0164
 130  184.5155
 131  247.8712
 132  308.4967
 133  254.2876
 134  193.5692
 135  401.8487
 136  345.6839
 137  236.1516
 138  182.4311
 139  154.3972
 140  283.7975
 141  202.5607
 142  153.6806
 143  204.854
 144  246.1378
 145  256.4142
 146  294.3719
 147  240.1476
 148  217.7232
 149  216.8704
 150  244.0448
 151  250.3777
 152  155.4437
 153  73.23144
 154  224.9138
 155  130.2749
 156  269.5529
 157  221.7069
 158  97.53667
 159  169.2563
 160  169.0623
 161  165.0325
 162  179.3167
 163  204.9028
 164  207.8867
 165  233.2585
 166  295.3214
 167  156.7237
 168  188.2032
 169  156.5505
 170  142.6132
 171  53.62959
 172  13.21353
 173  151.897
 174  148.0016
 175  273.0134
 176  317.7685
 177  100.0638
 178  -49.41502
 179  144.7977
 180  172.6343
 181  196.7556
 182  278.1297
 183  310.4259
 184  333.998
 185  197.2325
 186  126.5483
 187  203.089
 188  290.1071
 189  200.2781
 190  179.5286
 191  265.8556
 192  278.5248
 193  272.3506
 194  288.9905
 195  383.1168
 196  291.8218
 197  241.7984
 198  242.443
 199  164.136
 200  198.9447
 201  185.7796
 202  229.0198
 203  268.3727
 204  284.6704
 205  221.1957
 206  228.1352
 207  173.0266
 208  202.0143
 209  211.4871
 210  249.8284
 211  263.1788
 212  214.18
 213  186.1811
 214  140.8696
 215  130.6069
 216  227.0971
 217  231.8238
 218  107.8343
 219  220.1777
 220  263.6785
 221  150.9168
 222  144.7586
 223  220.5119
 224  222.2387
 225  350.8968
 226  334.9106
 227  217.1367
 228  235.8223
 229  200.2565
 230  200.0712
 231  186.9099
 232  311.6215
 233  240.6795
 234  267.1178
 235  235.8913
 236  241.1364
 237  196.026
 238  155.6518
 239  173.6798
 240  222.9912
 241  309.1187
 242  245.8564
 243  361.4841
 244  342.5482
 245  328.088
 246  241.5926
 247  269.0938
 248  348.5702
 249  364.7433
 250  334.4112
 251  276.4102
 252  360.352
 253  321.8874
 254  333.1745
 255  277.5201
 256  256.5994
 257  275.2178
 258  316.3091
 259  284.0808
 260  177.9468
 261  231.859
 262  296.2032
 263  328.0482
 264  139.9027
 265  239.4888
 266  370.6412
 267  242.6287
 268  134.9118
 269  252.4426
 270  236.1718
 271  185.4594
 272  240.8674
 273  272.1483
 274  339.4015
 275  360.3768
 276  354.0078
 277  300.6093
 278  333.2214
 279  323.1355
 280  334.6191
 281  380.4826
 282  298.3883
 283  213.4478
 284  158.8905
 285  250.7735
 286  212.055
 287  255.9183
 288  149.7609
 289  115.5253
 290  256.0725
 291  238.1766
 292  252.7728
 293  133.8484
 294  156.9247
 295  268.9756
 296  296.7599
 297  446.2617
 298  458.7264
 299  288.8997
 300  256.0495
 301  214.7122
 302  298.1196
 303  338.0131
 304  415.2394
 305  319.6177
 306  225.9538
 307  362.4954
 308  348.4374
 309  226.4541
 310  226.9916
 311  249.7737
 312  245.6107
 313  337.9646
 314  266.3573
 315  172.7271
 316  343.3209
 317  347.2922
 318  283.8567
 319  261.9969
 320  276.7248
 321  263.5501
 322  196.1549
 323  300.241
 324  440.7937
 325  302.6714
 326  364.6252
 327  526.1221
 328  297.5892
 329  175.4268
 330  176.0596
 331  273.457
 332  229.115
 333  327.9545
 334  294.7103
 335  187.132
 336  117.6524
 337  135.5751
 338  245.6799
 339  175.4647
 340  168.5781
 341  51.26921
 342  103.3691
 343  160.5552
 344  199.5471
 345  265.1711
 346  142.4909
 347  126.0166
 348  205.4171
 349  171.3152
 350  145.2102
 351  186.0966
 352  267.6405
 353  261.2722
 354  328.3646
 355  142.683
 356  182.3906
 357  258.5954
 358  253.8361
 359  259.0804
 360  255.9245
 361  248.4903
 362  110.3237
 363  89.8764
 364  191.7605
 365  240.9721
 366  218.1881
 367  186.1304
 368  153.9659
 369  111.3696
 370  198.99
 371  187.2435
 372  172.6826
 373  107.2652
 374  230.78
 375  222.5043
 376  297.6996
 377  333.059
 378  236.7194
 379  268.4267
 380  217.421
 381  323.7213
 382  379.3859
 383  269.1896
 384  269.8717
 385  357.2507
 386  317.7668
 387  286.9543
 388  269.3707
 389  248.5527
 390  221.7651
 391  319.243
 392  312.2331
 393  226.9512
 394  316.5533
 395  299.8375
 396  179.0443
 397  305.5596
 398  378.3458
 399  264.585
 400  248.7952
 401  207.3733
 402  321.6004
 403  399.0557
 404  324.392
 405  291.9326
 406  180.7107
 407  221.616
 408  244.2859
 409  237.7236
 410  257.5707
 411  341.6027
 412  429.2323
 413  281.8783
 414  173.5561
 415  226.9742
 416  284.8788
 417  393.9203
 418  319.667
 419  293.654
 420  256.2387
 421  271.64
 422  312.4778
 423  368.8573
 424  292.5673
 425  133.5009
 426  137.6508
 427  261.643
 428  304.9491
 429  272.1226
 430  294.7089
 431  227.3333
 432  235.3791
 433  353.0063
 434  295.6529
 435  315.8404
 436  267.0906
 437  252.6754
 438  337.7764
 439  308.1212
 440  382.9788
 441  243.7497
 442  193.8167
 443  247.4137
 444  285.8059
 445  296.7194
 446  227.0686
 447  245.1713
 448  275.3608
 449  187.6093
 450  125.6192
 451  171.1226
 452  168.8656
 453  191.5145
 454  212.7469
 455  442.2965
 456  464.0938
 457  350.5931
 458  302.2049
 459  302.081
 460  288.7246
 461  286.8207
 462  257.2628
 463  374.1918
 464  208.1836
 465  244.4847
 466  384.589
 467  298.3901
 468  150.5115
 469  188.2718
 470  173.5354
 471  262.3423
 472  377.8981
 473  280.6324
 474  185.5686
 475  245.6563
 476  370.3358
 477  366.0169
 478  353.0005
 479  240.1318
 480  336.9386
 481  368.244
 482  313.6342
 483  266.6034
 484  259.4608
 485  260.5022
 486  272.823
 487  263.7419
 488  202.7478
 489  192.0553
 490  255.8175
 491  378.0221
 492  318.0354
 493  229.1948
 494  252.4528
 495  250.9667
 496  273.5052
 497  281.5684
 498  382.4107
 499  351.6646
 500  254.4568
 501  334.174
 502  441.9579
 503  346.9464
 504  348.7908
 505  446.1636
 506  318.607
 507  402.7585
 508  554.1285
 509  703.4948
 510  782.943
 511  880.394
