# Input file       =  1182304229.116146_cleaned.dat
# Candidate        =  PSR_0332+5434
# Telescope        =  AR
# Epoch_topo       =  57928.076517547990
# Epoch_bary       =  N/A
# T_sample         =  0.002
# Data Folded      =  7405568
# Data Avg         =  0.0211069330717545
# Data StdDev      =  1.00008687322289 
# Profile Bins     =  512
# Profile Avg      =  305.400572805187 
# Profile StdDev   =  120.27681895424  
# Reduced chi-sqr  =  1.410
# Prob(Noise)      <  2.52e-09   (~5.8 sigma)
# P_topo (ms)      =  714.49503958356   +/- 0.000193
# P'_topo (s/s)    =  -0                +/- 1.01e-10
# P''_topo (s/s^2) =  0                 +/- 4.41e-14
# P_bary (ms)      =  N/A
# P'_bary (s/s)    =  N/A
# P''_bary (s/s^2) =  N/A
# P_orb (s)        =  N/A
# asin(i)/c (s)    =  N/A
# eccentricity     =  N/A
# w (rad)          =  N/A
# T_peri           =  N/A
######################################################
   0  935.1147
   1  918.2192
   2  855.4762
   3  717.4625
   4  528.0368
   5  425.612
   6  297.1329
   7  329.6888
   8  333.1064
   9  434.36
  10  496.0891
  11  474.1968
  12  408.2589
  13  371.5146
  14  404.7965
  15  326.0362
  16  341.6131
  17  357.1844
  18  365.1006
  19  291.8591
  20  448.4828
  21  349.6435
  22  186.3662
  23  231.2663
  24  263.2783
  25  261.0358
  26  245.5773
  27  186.9483
  28  257.301
  29  353.4704
  30  298.6953
  31  283.72
  32  349.307
  33  420.2945
  34  312.9729
  35  194.478
  36  266.5353
  37  417.945
  38  447.3918
  39  322.1765
  40  247.0015
  41  257.0785
  42  377.4616
  43  278.0682
  44  364.7972
  45  432.9767
  46  417.2954
  47  212.9507
  48  369.7851
  49  400.1368
  50  354.6469
  51  327.0644
  52  364.8836
  53  275.3256
  54  315.2165
  55  396.8582
  56  322.7276
  57  400.2433
  58  487.2263
  59  416.1798
  60  332.6952
  61  231.2015
  62  263.6182
  63  269.7307
  64  338.8718
  65  442.1999
  66  333.0173
  67  306.5039
  68  335.4963
  69  215.1116
  70  275.5833
  71  313.6291
  72  247.6268
  73  284.3278
  74  261.4853
  75  366.6216
  76  338.9461
  77  266.1993
  78  127.1419
  79  207.509
  80  339.9019
  81  313.2711
  82  324.3825
  83  317.5934
  84  230.4916
  85  215.1711
  86  217.9875
  87  151.1834
  88  177.9086
  89  194.5374
  90  278.9765
  91  323.6264
  92  344.0361
  93  389.4099
  94  309.8177
  95  323.9239
  96  194.8537
  97  195.5285
  98  279.6441
  99  261.9981
 100  215.2611
 101  232.6113
 102  246.6598
 103  298.7115
 104  170.5685
 105  206.366
 106  152.2371
 107  282.511
 108  342.1098
 109  467.1352
 110  430.4922
 111  419.5254
 112  359.9229
 113  204.0661
 114  200.3028
 115  278.6345
 116  318.3337
 117  254.4058
 118  376.4812
 119  446.5292
 120  222.2932
 121  317.0233
 122  286.9626
 123  229.9964
 124  330.4138
 125  417.6302
 126  443.3155
 127  257.1905
 128  185.7756
 129  306.5805
 130  420.3281
 131  357.7722
 132  410.6704
 133  340.7757
 134  250.6807
 135  213.4941
 136  197.2922
 137  250.7577
 138  151.8783
 139  257.2881
 140  349.3882
 141  348.7137
 142  276.9656
 143  256.2407
 144  306.7497
 145  296.2558
 146  251.6939
 147  387.0867
 148  368.631
 149  358.9422
 150  376.6189
 151  419.6694
 152  341.608
 153  299.9338
 154  259.4949
 155  273.8219
 156  309.3643
 157  351.084
 158  269.8565
 159  190.1192
 160  325.9484
 161  275.3371
 162  296.0841
 163  299.1007
 164  263.652
 165  292.6021
 166  341.0199
 167  282.1828
 168  217.9793
 169  226.6623
 170  284.9775
 171  327.6223
 172  349.085
 173  334.1079
 174  274.7081
 175  391.0516
 176  368.4525
 177  200.3577
 178  284.9065
 179  253.8484
 180  137.954
 181  143.4418
 182  232.9478
 183  367.6493
 184  280.4399
 185  249.5673
 186  349.6777
 187  450.5427
 188  404.6419
 189  430.4131
 190  412.0411
 191  294.8072
 192  470.2061
 193  429.7413
 194  470.3543
 195  355.8426
 196  366.8412
 197  321.1241
 198  313.0969
 199  395.2423
 200  496.3074
 201  362.4581
 202  296.5297
 203  365.7397
 204  393.6937
 205  286.1671
 206  317.8788
 207  216.4854
 208  308.0659
 209  428.5901
 210  368.8003
 211  301.2335
 212  247.9239
 213  182.4595
 214  244.0443
 215  290.8425
 216  232.6945
 217  276.2832
 218  331.553
 219  377.4646
 220  267.7473
 221  149.642
 222  148.8522
 223  235.9523
 224  318.0994
 225  415.4943
 226  459.4069
 227  455.7136
 228  460.2734
 229  459.9447
 230  364.5115
 231  320.2379
 232  285.637
 233  336.6542
 234  305.405
 235  309.9709
 236  355.0497
 237  266.8029
 238  267.0163
 239  163.8653
 240  125.0126
 241  133.7672
 242  157.9973
 243  239.392
 244  272.5342
 245  304.4371
 246  203.5194
 247  209.8211
 248  358.6989
 249  331.8008
 250  349.4785
 251  409.3631
 252  254.1636
 253  222.8705
 254  180.4398
 255  263.1755
 256  335.9738
 257  145.6368
 258  156.2034
 259  239.2141
 260  431.2965
 261  489.4374
 262  355.9149
 263  376.4025
 264  431.0678
 265  429.5475
 266  414.3834
 267  314.4721
 268  301.2847
 269  361.2742
 270  400.8449
 271  370.7415
 272  324.2627
 273  286.9666
 274  207.2699
 275  236.0173
 276  319.9123
 277  361.2359
 278  340.9615
 279  425.8925
 280  437.6362
 281  385.313
 282  308.4072
 283  347.0329
 284  336.1747
 285  266.2502
 286  234.0956
 287  225.4244
 288  246.1546
 289  253.0199
 290  198.3582
 291  211.8241
 292  262.9353
 293  282.1113
 294  266.4503
 295  271.9355
 296  199.4955
 297  172.1385
 298  198.6659
 299  283.8563
 300  214.2673
 301  245.8004
 302  136.217
 303  113.5429
 304  246.7032
 305  299.0108
 306  281.1766
 307  254.0085
 308  262.5933
 309  246.7706
 310  280.4194
 311  186.0537
 312  228.7536
 313  236.6374
 314  237.1899
 315  149.7401
 316  193.9265
 317  277.7906
 318  260.0556
 319  228.2185
 320  124.5626
 321  168.0021
 322  275.2892
 323  201.1033
 324  195.0349
 325  201.233
 326  214.6072
 327  191.9753
 328  269.8703
 329  261.1423
 330  389.8078
 331  344.7286
 332  125.5396
 333  171.2139
 334  282.9188
 335  212.3877
 336  213.3793
 337  309.4272
 338  340.1379
 339  241.1352
 340  328.0714
 341  368.7449
 342  270.3287
 343  321.0886
 344  320.1986
 345  361.8143
 346  435.2542
 347  390.2727
 348  318.4821
 349  265.3575
 350  315.8152
 351  414.5578
 352  316.0147
 353  269.3133
 354  225.8116
 355  218.8378
 356  213.3337
 357  243.7635
 358  184.3734
 359  274.2361
 360  365.0677
 361  372.5579
 362  269.557
 363  382.4234
 364  321.4282
 365  252.1756
 366  281.7504
 367  406.4902
 368  318.5754
 369  380.9371
 370  266.2346
 371  182.6539
 372  172.911
 373  198.3556
 374  241.732
 375  225.8378
 376  206.9203
 377  368.1001
 378  272.4624
 379  364.5542
 380  341.3254
 381  282.4262
 382  241.9457
 383  195.3208
 384  270.1117
 385  362.9143
 386  324.131
 387  260.3968
 388  113.6089
 389  168.7148
 390  214.9494
 391  228.2184
 392  266.7328
 393  313.8009
 394  187.4326
 395  171.0998
 396  235.9037
 397  221.4761
 398  217.7827
 399  293.3778
 400  303.5333
 401  316.3594
 402  282.2628
 403  125.3061
 404  278.0031
 405  349.8672
 406  254.4764
 407  279.7623
 408  300.4975
 409  310.6825
 410  202.6629
 411  270.471
 412  462.2204
 413  422.368
 414  349.6976
 415  332.8111
 416  350.1597
 417  400.0861
 418  277.7498
 419  238.9642
 420  387.8897
 421  333.4626
 422  297.0633
 423  264.8702
 424  164.5023
 425  306.3975
 426  387.7506
 427  248.8976
 428  274.0692
 429  324.1137
 430  346.4057
 431  360.7705
 432  346.4239
 433  229.8682
 434  296.1914
 435  283.9648
 436  295.5107
 437  284.352
 438  335.2753
 439  304.1574
 440  255.3169
 441  216.7726
 442  229.756
 443  205.1084
 444  265.2367
 445  324.4049
 446  381.3105
 447  398.9876
 448  319.6949
 449  218.6645
 450  267.5613
 451  234.6656
 452  358.6384
 453  450.6051
 454  379.1661
 455  232.3572
 456  205.1251
 457  323.5192
 458  340.5758
 459  222.3387
 460  276.4967
 461  166.3583
 462  309.151
 463  360.1761
 464  221.9897
 465  144.0094
 466  165.0233
 467  312.5694
 468  322.7021
 469  263.1171
 470  220.5178
 471  193.7933
 472  203.1067
 473  140.1557
 474  167.6971
 475  283.6393
 476  430.0264
 477  363.1395
 478  266.4436
 479  258.9798
 480  276.9299
 481  377.8288
 482  374.8779
 483  343.258
 484  402.0067
 485  410.5725
 486  247.5656
 487  229.1551
 488  210.2945
 489  208.3
 490  213.1934
 491  352.5587
 492  352.339
 493  397.3809
 494  332.7001
 495  370.0843
 496  371.2329
 497  308.5869
 498  249.6038
 499  295.6309
 500  402.6044
 501  328.6294
 502  391.3343
 503  365.7697
 504  391.6789
 505  379.7416
 506  300.8881
 507  366.6693
 508  605.6585
 509  727.3116
 510  896.7424
 511  866.3868
