# Input file       =  1182734782.112887_cleaned.dat
# Candidate        =  PSR_0332+5434
# Telescope        =  AR
# Epoch_topo       =  57933.059769825079
# Epoch_bary       =  N/A
# T_sample         =  0.002
# Data Folded      =  7208960
# Data Avg         =  0.0209662894064064
# Data StdDev      =  1.00002351858586 
# Profile Bins     =  512
# Profile Avg      =  295.226358589689 
# Profile StdDev   =  118.661966489545 
# Reduced chi-sqr  =  1.253
# Prob(Noise)      <  8.12e-05   (~3.8 sigma)
# P_topo (ms)      =  714.490806016237  +/- 0.000333
# P'_topo (s/s)    =  -0                +/- 1.79e-10
# P''_topo (s/s^2) =  0                 +/- 8.05e-14
# P_bary (ms)      =  N/A
# P'_bary (s/s)    =  N/A
# P''_bary (s/s^2) =  N/A
# P_orb (s)        =  N/A
# asin(i)/c (s)    =  N/A
# eccentricity     =  N/A
# w (rad)          =  N/A
# T_peri           =  N/A
######################################################
   0  942.6828
   1  833.6695
   2  543.9214
   3  412.9324
   4  410.0533
   5  321.9873
   6  278.2629
   7  246.0666
   8  283.2444
   9  306.4362
  10  355.9492
  11  338.3651
  12  371.8493
  13  315.3667
  14  390.0468
  15  415.9595
  16  266.4506
  17  229.9351
  18  312.0847
  19  221.7155
  20  252.9667
  21  268.7724
  22  317.0475
  23  264.9024
  24  131.5261
  25  219.4945
  26  349.3553
  27  287.8861
  28  245.2987
  29  241.4788
  30  261.8942
  31  304.9902
  32  302.4578
  33  297.3461
  34  234.2271
  35  288.4449
  36  325.4324
  37  287.1933
  38  283.1396
  39  144.3657
  40  150.1402
  41  303.7686
  42  366.3406
  43  288.9403
  44  328.3719
  45  395.7336
  46  294.341
  47  233.4558
  48  420.0007
  49  349.6737
  50  264.5607
  51  217.7611
  52  194.5585
  53  242.7057
  54  236.6185
  55  240.4546
  56  283.0941
  57  273.4038
  58  222.0502
  59  301.6084
  60  266.4689
  61  173.7954
  62  103.8018
  63  192.5937
  64  253.649
  65  139.3582
  66  166.7037
  67  321.6528
  68  339.7308
  69  314.6736
  70  261.6588
  71  280.9366
  72  233.9958
  73  207.2591
  74  289.869
  75  350.2661
  76  329.4698
  77  324.1458
  78  294.3608
  79  360.0473
  80  317.0143
  81  361.4483
  82  409.418
  83  437.0519
  84  459.488
  85  275.1515
  86  199.2541
  87  263.5364
  88  312.9239
  89  396.5157
  90  301.1893
  91  364.55
  92  335.0626
  93  244.1895
  94  150.6494
  95  208.2232
  96  500.424
  97  366.0721
  98  249.8314
  99  299.0159
 100  263.2493
 101  357.2927
 102  275.2015
 103  321.9967
 104  277.3293
 105  216.0555
 106  232.7495
 107  100.1718
 108  309.5739
 109  246.4458
 110  234.8438
 111  304.0797
 112  344.3944
 113  407.0604
 114  424.5684
 115  196.0714
 116  27.97589
 117  284.7327
 118  461.3319
 119  330.6541
 120  255.6157
 121  322.3842
 122  269.8843
 123  232.6894
 124  268.7831
 125  354.1952
 126  337.4093
 127  178.7916
 128  289.8263
 129  246.0091
 130  190.226
 131  147.7882
 132  231.978
 133  303.964
 134  306.6873
 135  347.8167
 136  203.4444
 137  283.3799
 138  343.7754
 139  242.2775
 140  354.9074
 141  344.341
 142  206.9343
 143  233.342
 144  285.3109
 145  329.5822
 146  214.8013
 147  261.338
 148  266.5969
 149  230.5771
 150  274.5977
 151  238.1448
 152  207.8225
 153  330.6708
 154  271.9839
 155  162.5
 156  279.3225
 157  181.2966
 158  222.338
 159  320.2814
 160  298.3609
 161  371.1958
 162  339.4481
 163  345.6381
 164  291.7406
 165  462.5777
 166  258.0388
 167  242.9297
 168  163.0782
 169  241.925
 170  247.3583
 171  287.2001
 172  344.6164
 173  318.1475
 174  275.214
 175  267.1338
 176  166.8703
 177  255.8791
 178  278.5423
 179  221.8264
 180  255.9075
 181  216.2924
 182  288.6231
 183  235.6007
 184  147.934
 185  253.1653
 186  358.4409
 187  369.752
 188  336.1329
 189  373.7939
 190  345.1942
 191  175.5645
 192  231.7707
 193  124.095
 194  159.3902
 195  181.2883
 196  169.9456
 197  208.6296
 198  281.786
 199  339.4737
 200  277.1845
 201  329.2909
 202  326.1893
 203  355.278
 204  355.002
 205  244.0208
 206  369.4677
 207  275.3748
 208  287.2186
 209  400.8371
 210  373.6013
 211  360.4392
 212  398.751
 213  381.3023
 214  191.4655
 215  137.3795
 216  353.5808
 217  365.8894
 218  179.2383
 219  177.7928
 220  273.6259
 221  228.2713
 222  170.5583
 223  237.7348
 224  177.1077
 225  302.0971
 226  284.395
 227  181.3911
 228  84.89841
 229  262.9961
 230  190.3193
 231  87.2681
 232  210.385
 233  316.4235
 234  207.3574
 235  151.5571
 236  257.6727
 237  292.4178
 238  187.0028
 239  249.1468
 240  281.018
 241  339.102
 242  317.4457
 243  328.0225
 244  333.9511
 245  308.6378
 246  303.0923
 247  319.8916
 248  363.4247
 249  322.0601
 250  250.4471
 251  269.6355
 252  327.4586
 253  328.486
 254  195.9619
 255  178.4991
 256  260.3946
 257  170.0305
 258  339.1191
 259  354.6773
 260  217.6709
 261  304.7317
 262  282.4385
 263  264.6584
 264  376.5972
 265  421.0578
 266  376.0519
 267  334.8768
 268  404.5882
 269  431.589
 270  391.9926
 271  391.5029
 272  315.4752
 273  307.7625
 274  278.0937
 275  207.5737
 276  252.6217
 277  301.0559
 278  253.4821
 279  271.9071
 280  330.8545
 281  259.6103
 282  276.3615
 283  334.9008
 284  241.3334
 285  365.1135
 286  278.5646
 287  220.0923
 288  303.6235
 289  245.9023
 290  301.7713
 291  371.3039
 292  320.3099
 293  283.6011
 294  239.3267
 295  249.3208
 296  211.2475
 297  363.4143
 298  221.0106
 299  139.4396
 300  214.9655
 301  313.222
 302  366.1514
 303  72.96117
 304  97.21751
 305  212.9811
 306  260.1919
 307  298.7555
 308  246.5013
 309  188.9204
 310  268.0617
 311  259.1693
 312  211.8784
 313  329.9129
 314  321.8003
 315  246.3628
 316  296.6649
 317  354.164
 318  213.0376
 319  209.1453
 320  436.0023
 321  480.4529
 322  284.2605
 323  314.966
 324  462.8615
 325  360.0644
 326  241.1024
 327  220.219
 328  147.198
 329  263.1453
 330  279.3105
 331  203.8755
 332  269.4405
 333  324.0172
 334  313.382
 335  391.9032
 336  315.7654
 337  242.7669
 338  317.5674
 339  277.6731
 340  259.8091
 341  406.1931
 342  370.9603
 343  227.738
 344  262.8179
 345  282.42
 346  338.4
 347  352.3755
 348  360.3769
 349  263.1123
 350  317.5748
 351  387.2576
 352  172.4752
 353  154.5565
 354  340.3062
 355  343.6087
 356  298.1538
 357  251.3856
 358  249.8793
 359  177.6092
 360  247.6555
 361  277.5183
 362  404.7448
 363  424.1743
 364  214.235
 365  225.8387
 366  256.9619
 367  234.9437
 368  182.0642
 369  277.5109
 370  219.8721
 371  220.3224
 372  201.2447
 373  151.447
 374  208.3258
 375  385.0424
 376  294.4571
 377  299.9063
 378  292.0866
 379  354.156
 380  368.4929
 381  198.058
 382  157.7138
 383  201.8302
 384  283.6811
 385  230.9967
 386  294.8954
 387  356.9996
 388  333.4878
 389  215.1631
 390  250.8722
 391  320.1441
 392  183.8865
 393  258.2008
 394  250.0698
 395  310.3976
 396  331.5584
 397  362.0729
 398  335.7562
 399  318.5414
 400  243.1774
 401  256.8958
 402  409.0882
 403  344.7533
 404  306.2478
 405  319.2856
 406  302.2082
 407  304.295
 408  331.1998
 409  292.6053
 410  191.6688
 411  252.7387
 412  245.5284
 413  234.9161
 414  130.2815
 415  12.64515
 416  234.5618
 417  287.1693
 418  304.9886
 419  233.6666
 420  185.6829
 421  441.4117
 422  428.3181
 423  403.2437
 424  315.1364
 425  252.6701
 426  285.6436
 427  348.404
 428  369.7734
 429  437.7805
 430  266.3835
 431  256.5204
 432  112.0387
 433  216.0721
 434  397.6694
 435  380.8203
 436  314.8652
 437  364.6936
 438  391.1823
 439  308.2066
 440  362.9431
 441  443.0258
 442  378.198
 443  332.3691
 444  360.4514
 445  409.8853
 446  436.3799
 447  329.6757
 448  292.8698
 449  355.4896
 450  356.7029
 451  322.4516
 452  283.8444
 453  364.0523
 454  235.031
 455  287.4108
 456  233.1913
 457  366.8935
 458  347.7959
 459  209.8664
 460  287.2805
 461  244.2183
 462  301.5817
 463  367.9808
 464  394.7072
 465  364.8904
 466  321.6231
 467  254.3421
 468  248.229
 469  341.5971
 470  389.1613
 471  348.4605
 472  266.1813
 473  209.4842
 474  215.4702
 475  259.5709
 476  337.4246
 477  387.8667
 478  390.2847
 479  342.317
 480  199.4925
 481  222.8081
 482  356.4038
 483  343.8781
 484  216.4183
 485  242.1408
 486  328.7348
 487  518.6467
 488  502.2748
 489  342.0059
 490  343.1276
 491  360.4967
 492  287.5339
 493  320.1284
 494  437.4062
 495  551.7145
 496  615.9471
 497  444.6163
 498  279.8122
 499  337.8059
 500  301.2715
 501  278.5599
 502  341.6558
 503  313.0923
 504  380.7108
 505  444.0216
 506  269.4871
 507  498.951
 508  611.7725
 509  685.0705
 510  796.0558
 511  793.603
