# Input file       =  1182820940.11059_cleaned.dat
# Candidate        =  PSR_0332+5434
# Telescope        =  AR
# Epoch_topo       =  57934.056968872566
# Epoch_bary       =  N/A
# T_sample         =  0.002
# Data Folded      =  7208960
# Data Avg         =  0.0329478269436415
# Data StdDev      =  1.00007210789675 
# Profile Bins     =  512
# Profile Avg      =  463.746302481393 
# Profile StdDev   =  118.667732057127 
# Reduced chi-sqr  =  1.101
# Prob(Noise)      <  0.056   (~1.6 sigma)
# P_topo (ms)      =  714.489986947481  +/- 0.000108
# P'_topo (s/s)    =  -0                +/- 5.82e-11
# P''_topo (s/s^2) =  0                 +/- 2.62e-14
# P_bary (ms)      =  N/A
# P'_bary (s/s)    =  N/A
# P''_bary (s/s^2) =  N/A
# P_orb (s)        =  N/A
# asin(i)/c (s)    =  N/A
# eccentricity     =  N/A
# w (rad)          =  N/A
# T_peri           =  N/A
######################################################
   0  980.4793
   1  821.6536
   2  774.2537
   3  649.9514
   4  447.4151
   5  403.3361
   6  470.3351
   7  494.1365
   8  536.7554
   9  443.6302
  10  495.3784
  11  537.9517
  12  594.9124
  13  506.0043
  14  510.9995
  15  607.5055
  16  569.99
  17  504.643
  18  524.3122
  19  583.1401
  20  508.4187
  21  557.2713
  22  557.2895
  23  486.1147
  24  297.6584
  25  268.5472
  26  314.769
  27  345.9699
  28  454.9751
  29  544.3408
  30  427.2886
  31  447.6538
  32  418.6757
  33  550.8683
  34  512.5562
  35  568.4548
  36  594.1385
  37  567.952
  38  325.8883
  39  368.3831
  40  475.5345
  41  476.5721
  42  446.5751
  43  407.3387
  44  426.5985
  45  471.5067
  46  458.4241
  47  325.091
  48  475.8922
  49  372.8661
  50  383.6498
  51  407.3278
  52  468.7225
  53  503.31
  54  403.2515
  55  557.5145
  56  515.0977
  57  445.483
  58  408.5917
  59  435.2642
  60  492.2334
  61  427.5555
  62  364.7357
  63  369.4145
  64  449.1211
  65  418.0532
  66  438.7011
  67  385.1958
  68  358.7901
  69  342.4291
  70  391.3842
  71  465.9398
  72  540.7271
  73  658.8284
  74  540.8274
  75  503.1632
  76  503.328
  77  370.1998
  78  439.5554
  79  548.0788
  80  564.2342
  81  506.7916
  82  509.5732
  83  442.0545
  84  433.6718
  85  429.8531
  86  616.7867
  87  558.6639
  88  534.788
  89  517.7458
  90  465.6006
  91  474.8645
  92  577.0568
  93  457.5486
  94  481.9948
  95  580.4606
  96  462.7697
  97  475.8839
  98  487.6638
  99  424.6642
 100  418.1318
 101  432.3348
 102  493.5523
 103  454.1109
 104  591.5226
 105  646.2524
 106  586.3675
 107  494.1779
 108  532.3554
 109  469.6238
 110  557.7784
 111  496.1072
 112  562.5082
 113  556.5721
 114  422.0983
 115  444.7832
 116  398.3048
 117  325.106
 118  404.0373
 119  462.8771
 120  535.1075
 121  437.7953
 122  320.2965
 123  220.7032
 124  304.9987
 125  479.6756
 126  551.8135
 127  568.7451
 128  575.6291
 129  566.4119
 130  468.8994
 131  503.6972
 132  514.9366
 133  541.2991
 134  506.9131
 135  443.2877
 136  486.7682
 137  415.9925
 138  463.2702
 139  415.2492
 140  358.3155
 141  401.0634
 142  471.6094
 143  545.1131
 144  433.6138
 145  476.3889
 146  343.457
 147  298.4775
 148  441.5822
 149  510.8693
 150  517.5087
 151  508.9707
 152  463.0557
 153  513.2264
 154  362.2269
 155  373.6253
 156  358.6821
 157  446.301
 158  539.0679
 159  549.582
 160  440.5554
 161  324.2715
 162  294.2488
 163  331.6595
 164  418.1933
 165  550.6033
 166  502.9106
 167  366.7798
 168  458.9941
 169  399.2073
 170  358.9373
 171  563.161
 172  468.0509
 173  345.6554
 174  344.562
 175  524.0756
 176  528.636
 177  548.4088
 178  508.9272
 179  531.933
 180  620.3154
 181  524.7353
 182  527.2045
 183  429.0906
 184  398.0063
 185  438.9846
 186  431.9792
 187  443.7025
 188  524.8031
 189  374.992
 190  395.6554
 191  386.696
 192  376.8693
 193  486.866
 194  451.4675
 195  428.9744
 196  353.3044
 197  230.3327
 198  433.1387
 199  507.9645
 200  487.6268
 201  527.3464
 202  487.7535
 203  641.8627
 204  469.6213
 205  271.89
 206  305.303
 207  379.0682
 208  399.3043
 209  449.8368
 210  507.1136
 211  485.8791
 212  346.6594
 213  398.2942
 214  319.1251
 215  387.3154
 216  463.9694
 217  464.983
 218  445.457
 219  484.9332
 220  447.4867
 221  529.2173
 222  468.4042
 223  345.1858
 224  416.6161
 225  376.17
 226  486.8753
 227  502.2385
 228  455.2555
 229  447.271
 230  351.7617
 231  420.9158
 232  407.8719
 233  460.1329
 234  545.1873
 235  497.2551
 236  374.3418
 237  549.0031
 238  432.6958
 239  452.8387
 240  583.4001
 241  536.9996
 242  508.6906
 243  387.3308
 244  447.4443
 245  482.2862
 246  482.2191
 247  538.7004
 248  564.1719
 249  480.0332
 250  468.2432
 251  557.7382
 252  567.7249
 253  509.562
 254  452.257
 255  515.0189
 256  573.9046
 257  581.4443
 258  477.743
 259  491.799
 260  514.1036
 261  573.4299
 262  627.9581
 263  555.8532
 264  548.6613
 265  371.5754
 266  256.8554
 267  375.4037
 268  487.9616
 269  336.2923
 270  396.0124
 271  513.6639
 272  388.8579
 273  283.285
 274  229.1248
 275  316.1499
 276  412.134
 277  491.937
 278  357.9431
 279  432.3568
 280  416.8133
 281  345.3252
 282  332.8506
 283  430.0714
 284  558.6494
 285  588.8298
 286  551.6008
 287  462.5596
 288  262.045
 289  300.6169
 290  466.9657
 291  437.6857
 292  420.561
 293  533.7875
 294  472.1911
 295  438.0598
 296  422.683
 297  362.3548
 298  388.5836
 299  409.314
 300  572.6971
 301  537.0411
 302  420.0692
 303  461.7962
 304  369.9263
 305  319.1338
 306  380.1144
 307  574.8812
 308  591.5692
 309  368.4108
 310  378.81
 311  479.3582
 312  393.4176
 313  410.6307
 314  459.7772
 315  489.253
 316  512.8279
 317  505.8788
 318  516.4139
 319  438.0399
 320  367.7752
 321  402.2343
 322  304.8459
 323  324.7952
 324  359.3302
 325  511.4223
 326  437.9524
 327  473.2311
 328  511.1324
 329  495.1907
 330  467.4039
 331  412.7382
 332  468.3276
 333  462.194
 334  358.0949
 335  358.8334
 336  435.6714
 337  467.2816
 338  525.8718
 339  474.9516
 340  337.7212
 341  346.5846
 342  416.0319
 343  472.2592
 344  354.3639
 345  251.3804
 346  319.198
 347  341.1958
 348  356.6176
 349  377.1568
 350  429.3723
 351  437.4814
 352  479.6193
 353  461.7972
 354  464.4144
 355  496.8481
 356  398.3093
 357  430.0327
 358  509.4202
 359  408.3554
 360  438.4685
 361  469.8172
 362  397.6987
 363  427.4113
 364  317.2568
 365  583.9424
 366  532.8375
 367  487.8295
 368  385.8091
 369  314.9329
 370  264.2221
 371  440.0522
 372  451.9669
 373  484.2939
 374  484.2324
 375  391.0862
 376  483.2628
 377  528.0486
 378  521.6779
 379  516.8086
 380  556.389
 381  539.3406
 382  534.3201
 383  554.9492
 384  486.9987
 385  385.9914
 386  387.2947
 387  451.1798
 388  632.4987
 389  573.8635
 390  506.0749
 391  509.3195
 392  499.8014
 393  494.6982
 394  430.4869
 395  395.6022
 396  437.306
 397  496.5356
 398  538.2419
 399  642.0079
 400  559.322
 401  471.2426
 402  507.5638
 403  468.1704
 404  435.8161
 405  429.946
 406  522.9832
 407  602.7651
 408  478.1232
 409  391.6972
 410  424.1128
 411  515.3346
 412  484.1444
 413  388.1879
 414  367.2143
 415  458.6682
 416  503.6673
 417  406.0996
 418  400.1571
 419  454.3254
 420  317.0775
 421  404.7593
 422  412.8576
 423  513.7357
 424  491.7591
 425  537.6424
 426  542.6898
 427  513.1439
 428  328.4224
 429  460.4908
 430  548.8206
 431  443.4275
 432  413.5356
 433  506.9016
 434  526.7704
 435  456.6641
 436  408.9333
 437  496.1807
 438  424.5923
 439  474.6887
 440  604.7904
 441  589.3914
 442  628.8033
 443  590.5264
 444  548.3182
 445  464.2043
 446  369.3279
 447  390.7989
 448  452.6856
 449  512
 450  550.8652
 451  479.7779
 452  472.9591
 453  562.8054
 454  459.4134
 455  411.6922
 456  427.8858
 457  457.5724
 458  537.6935
 459  486.043
 460  418.274
 461  397.3359
 462  326.2602
 463  396.4047
 464  441.3102
 465  507.6208
 466  492.1337
 467  538.5767
 468  561.4489
 469  582.5184
 470  528.7087
 471  519.4077
 472  402.9177
 473  430.2032
 474  506.2039
 475  525.5772
 476  614.0331
 477  377.9595
 478  406.1686
 479  452.517
 480  524.2264
 481  477.0436
 482  406.3805
 483  490.1785
 484  452.5092
 485  375.5552
 486  406.8838
 487  485.6752
 488  446.9838
 489  413.4817
 490  454.9442
 491  400.1993
 492  487.4692
 493  535.7479
 494  563.4013
 495  564.1567
 496  397.3537
 497  389.2952
 498  442.8623
 499  415.3839
 500  331.4348
 501  282.8062
 502  360.468
 503  500.7225
 504  498.1612
 505  490.5944
 506  463.6702
 507  533.1886
 508  583.4264
 509  756.7306
 510  877.9272
 511  876.3295
