# Input file       =  1182663277.113445_cleaned.dat
# Candidate        =  PSR_0332+5434
# Telescope        =  AR
# Epoch_topo       =  57932.232165664871
# Epoch_bary       =  N/A
# T_sample         =  0.002
# Data Folded      =  7340032
# Data Avg         =  0.0330952084113597
# Data StdDev      =  1.00013024723769 
# Profile Bins     =  512
# Profile Avg      =  474.454425735994 
# Profile StdDev   =  119.748631274014 
# Reduced chi-sqr  =  1.236
# Prob(Noise)      <  0.000205   (~3.5 sigma)
# P_topo (ms)      =  714.491503460758  +/- 5.11e-05
# P'_topo (s/s)    =  -0                +/- 2.7e-11
# P''_topo (s/s^2) =  0                 +/- 1.19e-14
# P_bary (ms)      =  N/A
# P'_bary (s/s)    =  N/A
# P''_bary (s/s^2) =  N/A
# P_orb (s)        =  N/A
# asin(i)/c (s)    =  N/A
# eccentricity     =  N/A
# w (rad)          =  N/A
# T_peri           =  N/A
######################################################
   0  1240.33
   1  1126.577
   2  894.4321
   3  639.5695
   4  489.1391
   5  598.3108
   6  608.8389
   7  446.7593
   8  505.0861
   9  544.3981
  10  551.2653
  11  486.3484
  12  515.6202
  13  526.5671
  14  448.6609
  15  479.5981
  16  454.2373
  17  510.877
  18  358.6194
  19  366.4586
  20  451.6774
  21  452.2745
  22  381.0376
  23  414.1912
  24  382.1803
  25  447.0669
  26  308.652
  27  388.7127
  28  384.3554
  29  383.0282
  30  450.7762
  31  440.0344
  32  347.0501
  33  408.9845
  34  498.9761
  35  505.7009
  36  431.2315
  37  415.4341
  38  460.7645
  39  483.6253
  40  348.2686
  41  409.6489
  42  361.6227
  43  394.0775
  44  468.4767
  45  376.0034
  46  397.3129
  47  417.393
  48  516.6513
  49  427.2254
  50  384.2391
  51  451.2096
  52  535.6876
  53  525.3045
  54  496.4457
  55  398.3516
  56  420.3259
  57  487.2454
  58  458.1673
  59  566.2404
  60  587.0942
  61  484.3007
  62  537.1815
  63  613.57
  64  477.3076
  65  466.2601
  66  552.7886
  67  492.5268
  68  559.5893
  69  513.7885
  70  522.9056
  71  478.7713
  72  455.9424
  73  449.666
  74  381.1114
  75  333.4548
  76  562.1984
  77  562.7953
  78  494.3108
  79  472.1869
  80  560.1921
  81  533.7631
  82  520.1557
  83  489.4349
  84  470.2882
  85  399.6617
  86  494.2711
  87  457.8455
  88  378.7668
  89  427.8704
  90  441.2555
  91  352.9335
  92  381.442
  93  458.7107
  94  392.0588
  95  413.6898
  96  444.506
  97  558.2393
  98  487.4863
  99  470.0797
 100  590.1993
 101  575.8436
 102  483.862
 103  485.2635
 104  401.3634
 105  444.4793
 106  449.459
 107  437.4299
 108  428.2499
 109  422.4422
 110  523.2949
 111  514.6199
 112  618.5942
 113  502.3006
 114  461.0738
 115  495.9134
 116  434.2742
 117  386.7334
 118  355.3476
 119  294.7566
 120  396.1588
 121  397.9414
 122  384.313
 123  398.5108
 124  411.4367
 125  443.7219
 126  502.9306
 127  324.4829
 128  337.8579
 129  395.6444
 130  465.4624
 131  365.9165
 132  418.2913
 133  421.7773
 134  454.7028
 135  551.4259
 136  529.9807
 137  463.706
 138  446.6784
 139  540.3715
 140  598.0902
 141  515.3494
 142  452.9647
 143  458.0959
 144  515.9652
 145  612.7543
 146  520.7869
 147  407.2552
 148  468.1268
 149  454.1179
 150  429.2026
 151  352.6115
 152  377.0623
 153  378.2384
 154  423.5817
 155  407.3765
 156  441.6426
 157  404.3517
 158  428.0997
 159  427.1999
 160  425.3161
 161  374.3161
 162  376.8045
 163  436.8589
 164  500.4168
 165  423.4396
 166  373.2867
 167  349.5343
 168  506.06
 169  532.8674
 170  445.1336
 171  421.016
 172  591.4484
 173  586.6509
 174  506.9551
 175  526.8314
 176  510.9285
 177  528.5033
 178  516.9468
 179  388.1833
 180  328.5769
 181  401.579
 182  559.9097
 183  506.9133
 184  491.8077
 185  393.0638
 186  428.6783
 187  404.6486
 188  425.2823
 189  342.9692
 190  380.9492
 191  416.7817
 192  391.8854
 193  424.3472
 194  424.0623
 195  385.3629
 196  324.4525
 197  392.0071
 198  471.4979
 199  496.763
 200  476.3991
 201  492.7267
 202  467.2477
 203  366.3866
 204  393.6117
 205  385.7365
 206  467.7533
 207  386.5758
 208  340.4504
 209  387.2985
 210  511.6029
 211  459.1873
 212  410.2292
 213  475.1819
 214  436.2722
 215  371.1451
 216  411.0604
 217  373.4601
 218  243.137
 219  312.3112
 220  361.4887
 221  446.8289
 222  488.796
 223  384.5324
 224  411.4099
 225  432.376
 226  341.8981
 227  457.2409
 228  398.4625
 229  398.5614
 230  521.851
 231  434.7329
 232  473.8741
 233  418.944
 234  473.7295
 235  585.5634
 236  441.9957
 237  358.1111
 238  374.7585
 239  451.5957
 240  457.2625
 241  428.7565
 242  429.3155
 243  527.5569
 244  532.2312
 245  484.5445
 246  439.1365
 247  374.3436
 248  471.173
 249  537.1725
 250  508.4358
 251  387.2737
 252  400.0979
 253  425.2073
 254  436.4666
 255  487.4052
 256  453.9522
 257  396.5608
 258  459.0006
 259  356.585
 260  427.8973
 261  318.4825
 262  337.9128
 263  448.0758
 264  473.5117
 265  437.797
 266  436.568
 267  567.5126
 268  548.0054
 269  498.8378
 270  560.2639
 271  535.1702
 272  568.3873
 273  635.6172
 274  609.031
 275  503.655
 276  502.3654
 277  512.835
 278  499.3499
 279  525.8983
 280  440.9786
 281  373.387
 282  386.1769
 283  542.5196
 284  510.89
 285  417.4285
 286  383.9646
 287  350.1781
 288  383.1869
 289  380.0442
 290  359.0013
 291  362.2014
 292  431.5627
 293  561.6837
 294  507.9857
 295  529.2369
 296  476.6546
 297  544.8924
 298  541.6923
 299  409.6448
 300  350.6598
 301  362.0719
 302  428.9782
 303  473.1946
 304  400.1706
 305  419.2866
 306  538.8659
 307  457.8565
 308  399.6983
 309  405.8568
 310  368.3455
 311  382.3362
 312  432.0351
 313  497.2943
 314  421.718
 315  366.8349
 316  432.8507
 317  514.5461
 318  414.6539
 319  386.2818
 320  385.9861
 321  504.0046
 322  516.0215
 323  385.7564
 324  377.9251
 325  516.4037
 326  497.8098
 327  467.1228
 328  428.2999
 329  399.5253
 330  480.1888
 331  566.6378
 332  500.0346
 333  433.3431
 334  557.1719
 335  469.5536
 336  487.6297
 337  410.8424
 338  452.8115
 339  524.8588
 340  639.3508
 341  637.4288
 342  521.5948
 343  410.4598
 344  445.921
 345  434.0634
 346  523.6563
 347  474.6793
 348  419.4195
 349  472.2251
 350  534.3554
 351  594.6902
 352  595.2047
 353  555.1398
 354  528.8564
 355  558.9309
 356  651.1868
 357  587.2487
 358  516.7737
 359  431.1463
 360  388.0768
 361  516.8188
 362  431.7018
 363  406.472
 364  568.1632
 365  457.7212
 366  323.5342
 367  446.7251
 368  387.6234
 369  421.5098
 370  462.9218
 371  469.7711
 372  497.1815
 373  494.1871
 374  557.3838
 375  555.7632
 376  491.8172
 377  488.6377
 378  538.4594
 379  529.5328
 380  535.5714
 381  474.2326
 382  511.8789
 383  551.7516
 384  620.3574
 385  638.4745
 386  465.1461
 387  395.9944
 388  418.026
 389  473.5421
 390  457.9713
 391  452.6413
 392  575.5113
 393  609.1741
 394  568.6064
 395  578.4709
 396  548.5596
 397  603.9191
 398  674.1143
 399  660.0496
 400  494.5903
 401  376.4664
 402  483.3245
 403  586.6652
 404  397.1443
 405  446.5231
 406  472.3562
 407  582.9075
 408  602.303
 409  464.5078
 410  407.8301
 411  410.0184
 412  371.7361
 413  451.1683
 414  365.4001
 415  380.2289
 416  366.3872
 417  405.937
 418  452.9146
 419  526.9614
 420  530.6862
 421  566.5054
 422  536.8842
 423  487.2406
 424  460.7604
 425  515.8859
 426  477.1121
 427  520.1571
 428  422.4459
 429  397.6926
 430  509.5912
 431  565.8597
 432  537.295
 433  410.3204
 434  506.188
 435  571.5074
 436  512.8724
 437  454.4251
 438  497.9789
 439  523.7504
 440  520.1703
 441  453.4863
 442  423.8146
 443  408.1933
 444  345.1126
 445  431.0642
 446  479.8433
 447  447.9971
 448  365.1578
 449  353.1345
 450  452.267
 451  598.3261
 452  553.4348
 453  425.6695
 454  455.3602
 455  545.575
 456  606.1022
 457  450.008
 458  453.2133
 459  514.9235
 460  613.6986
 461  462.0209
 462  446.8859
 463  370.2731
 464  351.9293
 465  338.9241
 466  351.2536
 467  476.6236
 468  420.7343
 469  445.5941
 470  523.1518
 471  520.1995
 472  427.2266
 473  461.4562
 474  552.274
 475  531.6326
 476  552.6488
 477  539.5002
 478  426.248
 479  444.5097
 480  556.8026
 481  572.172
 482  491.6473
 483  569.4572
 484  606.6484
 485  493.4321
 486  436.1413
 487  455.8794
 488  513.0074
 489  605.6572
 490  461.1778
 491  496.8712
 492  624.5556
 493  558.3796
 494  535.1974
 495  492.213
 496  600.9684
 497  613.3772
 498  723.578
 499  724.6105
 500  507.5323
 501  532.0092
 502  558.7212
 503  564.4583
 504  578.2637
 505  649.9008
 506  565.3715
 507  646.8512
 508  760.6742
 509  775.2116
 510  859.3809
 511  1006.607
