# Input file       =  1182993473.111839_cleaned.dat
# Candidate        =  PSR_0332+5434
# Telescope        =  AR
# Epoch_topo       =  57936.053878609251
# Epoch_bary       =  N/A
# T_sample         =  0.002
# Data Folded      =  7405568
# Data Avg         =  0.0236911334812133
# Data StdDev      =  1.00001233111396 
# Profile Bins     =  512
# Profile Avg      =  342.658458827901 
# Profile StdDev   =  120.26785404531  
# Reduced chi-sqr  =  1.295
# Prob(Noise)      <  7.02e-06   (~4.3 sigma)
# P_topo (ms)      =  714.488373931746  +/- 0.000269
# P'_topo (s/s)    =  -0                +/- 1.41e-10
# P''_topo (s/s^2) =  0                 +/- 6.16e-14
# P_bary (ms)      =  N/A
# P'_bary (s/s)    =  N/A
# P''_bary (s/s^2) =  N/A
# P_orb (s)        =  N/A
# asin(i)/c (s)    =  N/A
# eccentricity     =  N/A
# w (rad)          =  N/A
# T_peri           =  N/A
######################################################
   0  1084.737
   1  889.7983
   2  661.8422
   3  470.4496
   4  341.4386
   5  378.1229
   6  431.7535
   7  363.1345
   8  384.4588
   9  458.768
  10  438.9802
  11  438.4709
  12  481.993
  13  511.8078
  14  457.8067
  15  480.4751
  16  528.4508
  17  404.7444
  18  352.7477
  19  288.103
  20  341.6208
  21  457.4484
  22  395.5273
  23  351.2118
  24  430.8821
  25  351.6367
  26  249.5039
  27  289.1087
  28  463.5988
  29  428.7921
  30  349.2923
  31  314.226
  32  320.7376
  33  380.2166
  34  312.4357
  35  313.5976
  36  329.7394
  37  334.6479
  38  379.0685
  39  347.7926
  40  404.8937
  41  373.1774
  42  311.9301
  43  432.5111
  44  320.6993
  45  395.8099
  46  333.4136
  47  258.8167
  48  288.9781
  49  246.4906
  50  331.7494
  51  261.52
  52  161.342
  53  171.6428
  54  236.2772
  55  231.5595
  56  301.6114
  57  390.8678
  58  274.1698
  59  260.5923
  60  290.0344
  61  274.8849
  62  453.4315
  63  364.5083
  64  362.2511
  65  402.502
  66  396.0531
  67  442.2852
  68  453.5215
  69  317.2212
  70  309.6088
  71  468.7053
  72  314.5854
  73  348.5547
  74  538.1783
  75  527.1908
  76  402.0407
  77  459.9368
  78  433.4904
  79  337.5163
  80  350.4212
  81  403.4492
  82  458.0237
  83  348.3932
  84  373.1023
  85  285.9254
  86  342.1601
  87  362.1886
  88  493.2623
  89  505.8126
  90  349.4492
  91  148.9083
  92  160.0942
  93  227.5112
  94  357.2355
  95  413.6178
  96  386.3858
  97  342.0189
  98  230.8404
  99  186.5334
 100  179.4077
 101  293.685
 102  318.5009
 103  218.0706
 104  342.1289
 105  263.3725
 106  280.0119
 107  335.3553
 108  359.466
 109  364.7416
 110  343.0014
 111  376.3532
 112  446.6219
 113  464.5819
 114  301.1068
 115  298.8785
 116  303.4756
 117  315.4821
 118  305.9036
 119  304.4759
 120  276.7882
 121  201.6907
 122  240.6762
 123  282.9707
 124  271.8014
 125  301.324
 126  342.1042
 127  299.3441
 128  242.3116
 129  243.137
 130  341.9273
 131  304.0109
 132  337.5832
 133  392.6093
 134  326.2889
 135  371.8221
 136  366.1428
 137  348.5071
 138  257.1343
 139  206.0755
 140  272.631
 141  329.4958
 142  310.6626
 143  348.904
 144  358.3295
 145  311.0359
 146  333.8376
 147  242.7926
 148  223.1404
 149  328.6684
 150  277.0978
 151  353.4326
 152  380.9072
 153  318.8398
 154  391.6945
 155  338.5722
 156  376.0413
 157  362.1591
 158  273.5825
 159  306.1552
 160  291.5931
 161  287.3788
 162  302.4825
 163  220.2771
 164  268.7479
 165  298.4491
 166  298.1092
 167  244.2476
 168  278.5573
 169  289.9802
 170  187.942
 171  351.2807
 172  274.6881
 173  187.4952
 174  152.4091
 175  260.7877
 176  357.4699
 177  317.6963
 178  199.9403
 179  268.1199
 180  300.84
 181  268.3471
 182  186.1672
 183  285.5959
 184  361.5558
 185  270.2205
 186  199.609
 187  160.5103
 188  244.3268
 189  242.4352
 190  238.8625
 191  275.5673
 192  340.1676
 193  326.455
 194  280.6727
 195  224.8223
 196  280.7942
 197  333.5942
 198  217.353
 199  293.8408
 200  478.1118
 201  401.0955
 202  255.6073
 203  199.3304
 204  194.5837
 205  300.1404
 206  364.7341
 207  424.9753
 208  429.6348
 209  423.8512
 210  460.574
 211  362.7585
 212  327.2778
 213  464.2455
 214  484.8108
 215  447.4337
 216  454.0572
 217  373.4367
 218  378.9367
 219  360.103
 220  227.7421
 221  279.078
 222  334.7597
 223  336.2747
 224  336.0388
 225  332.1325
 226  286.8114
 227  275.3979
 228  208.9941
 229  235.7469
 230  303.0012
 231  369.5253
 232  417.0666
 233  300.8113
 234  284.7697
 235  380.2395
 236  339.4917
 237  364.7548
 238  387.8663
 239  398.1035
 240  363.5554
 241  226.9202
 242  300.6306
 243  287.6119
 244  274.9272
 245  268.5071
 246  403.1817
 247  398.3802
 248  418.4418
 249  275.8703
 250  318.5809
 251  402.7709
 252  353.3998
 253  311.2127
 254  240.7903
 255  359.278
 256  361.1106
 257  359.1003
 258  318.6568
 259  362.8346
 260  428.1425
 261  387.894
 262  374.0828
 263  314.2275
 264  256.37
 265  259.6361
 266  313.1581
 267  286.6519
 268  278.7013
 269  352.5681
 270  377.0044
 271  339.9188
 272  334.1064
 273  310.9958
 274  421.4588
 275  331.9563
 276  354.4617
 277  389.728
 278  375.7538
 279  234.2458
 280  255.6279
 281  354.378
 282  355.2201
 283  466.976
 284  388.2409
 285  394.3199
 286  402.6726
 287  392.9255
 288  504.584
 289  466.6689
 290  347.3461
 291  319.4322
 292  436.0478
 293  490.9327
 294  423.2583
 295  378.6454
 296  344.5355
 297  383.848
 298  366.4816
 299  451.5428
 300  308.9952
 301  380.5427
 302  382.2692
 303  378.5744
 304  468.031
 305  478.0687
 306  341.9965
 307  265.9746
 308  323.8219
 309  419.2462
 310  405.0584
 311  395.1534
 312  406.614
 313  335.0703
 314  284.0966
 315  331.3725
 316  331.1978
 317  450.24
 318  385.2967
 319  361.0854
 320  333.912
 321  360.8804
 322  294.0011
 323  356.0616
 324  385.0698
 325  282.8859
 326  285.3373
 327  285.5602
 328  275.0515
 329  326.319
 330  321.7834
 331  403.6391
 332  386.0472
 333  374.718
 334  404.0586
 335  439.2794
 336  276.0172
 337  384.4788
 338  317.4273
 339  273.0923
 340  344.4145
 341  324.1315
 342  384.0781
 343  316.5708
 344  385.7773
 345  462.9864
 346  315.7582
 347  272.7645
 348  302.0026
 349  333.7245
 350  417.0699
 351  408.0312
 352  414.3028
 353  404.8387
 354  395.898
 355  469.2451
 356  492.6532
 357  433.1786
 358  471.0392
 359  413.1261
 360  311.4582
 361  392.9383
 362  470.7616
 363  401.5256
 364  381.1907
 365  527.8424
 366  452.9698
 367  330.1161
 368  373.3806
 369  418.8045
 370  360.9516
 371  292.5979
 372  355.8096
 373  330.3392
 374  245.8247
 375  313.7012
 376  268.6424
 377  343.047
 378  345.2345
 379  248.4695
 380  273.5917
 381  338.4652
 382  201.2985
 383  252.2585
 384  294.3479
 385  357.331
 386  312.4127
 387  304.7911
 388  326.7248
 389  146.8654
 390  235.0854
 391  363.1323
 392  317.8765
 393  168.2019
 394  141.2524
 395  177.517
 396  210.6611
 397  404.1937
 398  299.3288
 399  298.9918
 400  306.073
 401  246.1516
 402  206.2259
 403  194.3793
 404  242.7218
 405  300.4801
 406  320.4252
 407  347.5981
 408  264.0855
 409  171.9866
 410  187.4979
 411  127.4907
 412  263.7622
 413  260.3709
 414  280.6799
 415  314.2725
 416  223.6877
 417  314.8724
 418  350.8518
 419  312.6977
 420  342.6964
 421  340.2947
 422  347.8718
 423  249.1349
 424  258.5244
 425  270.7667
 426  377.0725
 427  501.368
 428  416.3624
 429  381.7886
 430  327.5893
 431  278.9249
 432  302.5331
 433  356.0674
 434  353.1016
 435  362.025
 436  427.2876
 437  396.4575
 438  326.8737
 439  366.4385
 440  350.7661
 441  347.7801
 442  291.6236
 443  258.0986
 444  422.9097
 445  429.3662
 446  441.4855
 447  361.8199
 448  426.979
 449  461.5443
 450  436.6583
 451  294.3441
 452  340.4186
 453  305.8414
 454  319.5771
 455  312.1263
 456  281.6957
 457  390.2566
 458  397.8183
 459  359.8549
 460  298.8235
 461  327.4824
 462  320.3555
 463  139.0708
 464  247.1718
 465  292.3603
 466  383.8776
 467  329.2185
 468  370.7797
 469  355.5756
 470  338.0329
 471  345.5877
 472  223.1297
 473  204.9007
 474  262.211
 475  370.6329
 476  326.1661
 477  297.7576
 478  345.8866
 479  284.5816
 480  240.709
 481  224.4214
 482  212.4985
 483  238.4494
 484  347.2611
 485  263.8342
 486  130.4754
 487  249.4097
 488  386.1268
 489  388.6581
 490  284.1246
 491  376.1173
 492  367.6473
 493  402.2254
 494  388.3813
 495  443.2268
 496  483.9589
 497  431.0161
 498  301.5406
 499  271.6811
 500  354.7853
 501  394.4168
 502  415.7234
 503  390.1975
 504  382.9385
 505  401.0526
 506  452.3843
 507  537.9212
 508  600.9219
 509  754.1764
 510  921.1335
 511  1029.703
