# Input file       =  1182319293.117347_cleaned.dat
# Candidate        =  PSR_0332+5434
# Telescope        =  AR
# Epoch_topo       =  57928.250869413736
# Epoch_bary       =  N/A
# T_sample         =  0.002
# Data Folded      =  7340032
# Data Avg         =  0.0400606192051006
# Data StdDev      =  1.00015469593059 
# Profile Bins     =  512
# Profile Avg      =  574.383801164127 
# Profile StdDev   =  119.751558590251 
# Reduced chi-sqr  =  1.059
# Prob(Noise)      <  0.172   (~0.9 sigma)
# P_topo (ms)      =  714.494910936011  +/- 0.00021
# P'_topo (s/s)    =  -0                +/- 1.11e-10
# P''_topo (s/s^2) =  0                 +/- 4.89e-14
# P_bary (ms)      =  N/A
# P'_bary (s/s)    =  N/A
# P''_bary (s/s^2) =  N/A
# P_orb (s)        =  N/A
# asin(i)/c (s)    =  N/A
# eccentricity     =  N/A
# w (rad)          =  N/A
# T_peri           =  N/A
######################################################
   0  943.1636
   1  923.5188
   2  736.572
   3  574.5789
   4  510.753
   5  512.0112
   6  608.7493
   7  637.0485
   8  692.3972
   9  720.6427
  10  663.0439
  11  594.7123
  12  569.8236
  13  707.1625
  14  719.2518
  15  801.2421
  16  771.3007
  17  596.8694
  18  679.0123
  19  584.3824
  20  624.9607
  21  641.4174
  22  582.0994
  23  472.4759
  24  435.2873
  25  511.6133
  26  549.029
  27  550.7375
  28  589.0118
  29  599.2569
  30  564.6483
  31  550.9751
  32  489.1664
  33  667.5867
  34  594.731
  35  523.3171
  36  459.8728
  37  472.3118
  38  527.54
  39  582.0236
  40  586.9012
  41  591.7985
  42  542.4506
  43  588.4658
  44  667.4294
  45  700.3367
  46  584.5505
  47  503.7061
  48  583.1373
  49  605.3734
  50  623.1829
  51  621.2
  52  587.1904
  53  665.7258
  54  701.5125
  55  617.6
  56  617.7502
  57  535.574
  58  512.5908
  59  617.8983
  60  629.9492
  61  542.379
  62  546.2701
  63  542.2993
  64  434.124
  65  306.9009
  66  349.5219
  67  393.5166
  68  340.2811
  69  497.9376
  70  530.4777
  71  533.5272
  72  458.2538
  73  363.0435
  74  379.3945
  75  485.5603
  76  450.4527
  77  468.4103
  78  486.4284
  79  514.47
  80  522.5151
  81  556.5256
  82  523.4593
  83  559.8079
  84  539.7968
  85  421.188
  86  406.814
  87  485.1349
  88  538.7029
  89  548.1309
  90  457.1851
  91  540.5602
  92  499.7551
  93  501.0464
  94  494.9452
  95  605.4822
  96  682.7898
  97  725.3766
  98  688.3656
  99  697.1745
 100  670.3179
 101  619.1373
 102  681.6758
 103  691.3278
 104  749.6127
 105  709.86
 106  703.2502
 107  630.9952
 108  683.5704
 109  649.9858
 110  583.4202
 111  604.7411
 112  596.1402
 113  582.4569
 114  644.293
 115  673.0444
 116  729.0513
 117  687.1281
 118  596.0521
 119  546.7437
 120  513.3727
 121  546.0901
 122  636.4507
 123  647.0445
 124  566.1082
 125  565.9456
 126  674.7502
 127  585.0769
 128  607.8624
 129  668.8302
 130  683.2297
 131  605.1196
 132  634.7498
 133  690.4119
 134  652.0752
 135  504.5803
 136  649.2132
 137  726.3802
 138  630.934
 139  631.2856
 140  593.4551
 141  570.8281
 142  607.8985
 143  637.0094
 144  627.2921
 145  535.8415
 146  538.5536
 147  537.2891
 148  572.0899
 149  557.0527
 150  559.007
 151  549.8361
 152  527.0269
 153  472.5234
 154  428.3651
 155  443.4433
 156  504.1755
 157  514.5334
 158  502.6045
 159  481.0834
 160  404.6188
 161  517.5778
 162  559.2978
 163  638.1199
 164  530.8947
 165  608.8522
 166  570.3998
 167  486.5345
 168  467.4465
 169  531.4571
 170  612.4972
 171  507.7018
 172  507.6618
 173  464.6803
 174  491.1167
 175  544.246
 176  554.2683
 177  572.4261
 178  662.6663
 179  638.9232
 180  548.2719
 181  566.2067
 182  593.0569
 183  646.997
 184  699.1693
 185  646.3734
 186  624.7346
 187  704.2504
 188  644.8395
 189  602.0623
 190  667.5041
 191  601.9089
 192  532.1023
 193  517.92
 194  489.3666
 195  516.8093
 196  508.9832
 197  499.4388
 198  510.5021
 199  470.236
 200  343.8787
 201  391.3968
 202  359.8232
 203  516.3018
 204  474.2614
 205  469.173
 206  440.558
 207  487.5906
 208  509.0972
 209  437.9129
 210  414.6305
 211  533.6259
 212  585.051
 213  481.8717
 214  397.0325
 215  472.1555
 216  589.4014
 217  517.3734
 218  559.8008
 219  520.6804
 220  550.89
 221  537.3278
 222  592.2377
 223  664.6581
 224  613.2918
 225  583.9929
 226  560.139
 227  535.1055
 228  545.5118
 229  477.2112
 230  550.5153
 231  600.8884
 232  647.7397
 233  683.7294
 234  608.324
 235  587.139
 236  531.6213
 237  504.374
 238  478.3955
 239  488.4978
 240  561.0499
 241  379.0654
 242  391.2821
 243  372.7303
 244  392.5553
 245  476.0328
 246  515.6429
 247  398.501
 248  417.2632
 249  491.0436
 250  528.1584
 251  547.0959
 252  589.0636
 253  591.1933
 254  576.5767
 255  514.1956
 256  569.6776
 257  502.0499
 258  530.2426
 259  490.5812
 260  614.1107
 261  709.1581
 262  653.0826
 263  610.5482
 264  636.1539
 265  776.655
 266  720.7057
 267  606.1248
 268  591.0421
 269  620.5903
 270  695.7902
 271  657.4937
 272  611.5573
 273  673.066
 274  657.2892
 275  542.5163
 276  632.9281
 277  637.8679
 278  650.4977
 279  603.7563
 280  622.7139
 281  531.5596
 282  482.5049
 283  524.1915
 284  634.9108
 285  640.1476
 286  553.8838
 287  550.4717
 288  564.4384
 289  589.8488
 290  556.4279
 291  571.7276
 292  554.1504
 293  689.7498
 294  609.6348
 295  616.4818
 296  540.8356
 297  551.8751
 298  657.7538
 299  635.7473
 300  616.1671
 301  687.0883
 302  670.0461
 303  506.5803
 304  455.9188
 305  635.2137
 306  740.0491
 307  646.3043
 308  604.2775
 309  609.0184
 310  583.1229
 311  554.0867
 312  637.4897
 313  727.0635
 314  696.114
 315  650.4756
 316  607.1644
 317  739.4777
 318  648.6198
 319  613.593
 320  552.4863
 321  545.3582
 322  588.2766
 323  490.065
 324  450.4874
 325  470.6624
 326  517.0847
 327  506.6338
 328  509.6492
 329  527.9699
 330  557.6842
 331  587.9563
 332  525.1797
 333  561.3329
 334  498.0939
 335  515.4872
 336  585.0082
 337  642.7673
 338  564.5869
 339  581.6497
 340  479.317
 341  470.6827
 342  539.3679
 343  584.8463
 344  569.1907
 345  496.1391
 346  453.8643
 347  576.5212
 348  589.7372
 349  437.848
 350  495.6049
 351  620.2687
 352  680.9099
 353  608.4488
 354  576.1767
 355  648.7496
 356  587.028
 357  701.3439
 358  735.5605
 359  689.3882
 360  637.8736
 361  612.5568
 362  588.9242
 363  552.8467
 364  486.5642
 365  397.6868
 366  365.052
 367  393.8028
 368  478.4189
 369  484.6492
 370  524.4414
 371  468.1571
 372  537.1788
 373  556.2741
 374  531.1535
 375  430.8958
 376  515.4814
 377  512.4417
 378  592.8409
 379  570.5478
 380  568.4816
 381  611.3596
 382  602.4992
 383  657.4047
 384  563.6375
 385  519.0629
 386  630.6739
 387  701.8101
 388  635.4792
 389  640.001
 390  634.4153
 391  587.6489
 392  515.8275
 393  494.7621
 394  550.1612
 395  565.538
 396  504.2206
 397  562.5912
 398  622.4349
 399  633.8453
 400  631.7889
 401  617.0739
 402  599.3182
 403  592.6253
 404  608.4214
 405  633.5003
 406  614.8303
 407  513.7347
 408  572.2599
 409  472.9361
 410  505.5771
 411  503.0164
 412  507.7807
 413  569.1261
 414  533.3829
 415  650.8979
 416  667.0543
 417  484.324
 418  570.5969
 419  613.7662
 420  554.6409
 421  564.2238
 422  532.3302
 423  436.4067
 424  467.0103
 425  491.1789
 426  579.1301
 427  515.0508
 428  548.5138
 429  571.9851
 430  587.1783
 431  585.2636
 432  610.3079
 433  661.9369
 434  691.8757
 435  609.8323
 436  593.7336
 437  641.0559
 438  698.6981
 439  673.2412
 440  664.0244
 441  721.3139
 442  710.0573
 443  747.0162
 444  587.9333
 445  580.0329
 446  574.8378
 447  592.6818
 448  597.5137
 449  492.8646
 450  510.6904
 451  481.0139
 452  526.5804
 453  538.3837
 454  449.988
 455  621.4987
 456  618.9141
 457  627.6362
 458  630.8648
 459  538.0701
 460  598.6245
 461  622.3626
 462  615.5042
 463  653.4823
 464  579.4361
 465  620.0398
 466  676.0209
 467  561.9697
 468  491.4194
 469  526.2943
 470  620.7654
 471  662.5771
 472  681.6278
 473  664.797
 474  632.7122
 475  537.3294
 476  489.0085
 477  587.0931
 478  521.1188
 479  562.4562
 480  733.2991
 481  702.7447
 482  721.1888
 483  746.0869
 484  562.4594
 485  540.3004
 486  552.6879
 487  587.717
 488  608.1703
 489  574.1129
 490  539.5934
 491  575.3317
 492  591.7174
 493  516.4822
 494  575.1483
 495  551.6097
 496  481.6359
 497  366.994
 498  487.0576
 499  529.5251
 500  597.3622
 501  570.2877
 502  640.7835
 503  563.4151
 504  498.2894
 505  510.4967
 506  611.3293
 507  673.4588
 508  648.184
 509  718.1435
 510  933.1887
 511  1028.449
