# Input file       =  1182907142.112401_cleaned.dat
# Candidate        =  PSR_0332+5434
# Telescope        =  AR
# Epoch_topo       =  57935.054677226864
# Epoch_bary       =  N/A
# T_sample         =  0.002
# Data Folded      =  7143424
# Data Avg         =  0.0322308220697449
# Data StdDev      =  1.00001202255137 
# Profile Bins     =  512
# Profile Avg      =  449.765046052329 
# Profile StdDev   =  118.120004568616 
# Reduced chi-sqr  =  1.006
# Prob(Noise)      <  0.455   (~0.1 sigma)
# P_topo (ms)      =  714.489177733226  +/- 0.000342
# P'_topo (s/s)    =  -0                +/- 1.86e-10
# P''_topo (s/s^2) =  0                 +/- 8.42e-14
# P_bary (ms)      =  N/A
# P'_bary (s/s)    =  N/A
# P''_bary (s/s^2) =  N/A
# P_orb (s)        =  N/A
# asin(i)/c (s)    =  N/A
# eccentricity     =  N/A
# w (rad)          =  N/A
# T_peri           =  N/A
######################################################
   0  343.2404
   1  431.7091
   2  552.7222
   3  522.5828
   4  408.5634
   5  350.6905
   6  428.4585
   7  395.5934
   8  390.4781
   9  374.7599
  10  455.7765
  11  437.9435
  12  370.4525
  13  346.7833
  14  388.2136
  15  374.4926
  16  418.2424
  17  470.9597
  18  398.5955
  19  398.5879
  20  466.8444
  21  427.171
  22  446.7407
  23  389.8968
  24  398.2974
  25  461.2616
  26  424.6783
  27  358.2491
  28  248.7653
  29  263.3146
  30  478.1556
  31  472.1607
  32  469.9065
  33  388.877
  34  391.194
  35  448.3596
  36  424.6843
  37  371.3922
  38  411.1899
  39  369.475
  40  349.2109
  41  402.8491
  42  409.7219
  43  354.1227
  44  385.0411
  45  432.6265
  46  433.2312
  47  550.922
  48  439.2565
  49  476.7705
  50  521.9036
  51  487.9914
  52  511.0721
  53  492.3696
  54  469.713
  55  415.2375
  56  421.3675
  57  446.0398
  58  489.0938
  59  468.1288
  60  484.3889
  61  408.6313
  62  523.0947
  63  521.7543
  64  496.5167
  65  434.4861
  66  399.8914
  67  500.7754
  68  549.24
  69  475.0294
  70  536.7593
  71  474.2393
  72  391.092
  73  393.0854
  74  423.4279
  75  404.147
  76  406.5611
  77  443.5652
  78  397.7876
  79  409.6385
  80  486.498
  81  440.9846
  82  380.3492
  83  493.5708
  84  469.768
  85  477.7859
  86  514.7167
  87  504.4644
  88  511.7212
  89  461.4365
  90  531.3828
  91  455.3622
  92  461.7621
  93  450.9085
  94  475.6417
  95  322.0931
  96  383.0615
  97  455.0776
  98  439.9898
  99  340.8794
 100  398.006
 101  408.0965
 102  436.524
 103  491.8127
 104  583.266
 105  474.6353
 106  469.1123
 107  500.8881
 108  456.2376
 109  473.0173
 110  456.5333
 111  503.7227
 112  553.3925
 113  551.7467
 114  417.7721
 115  437.3301
 116  398.3918
 117  478.4048
 118  506.0308
 119  523.543
 120  646.6204
 121  577.9465
 122  623.5646
 123  565.8555
 124  396.4306
 125  424.87
 126  540.2832
 127  553.2142
 128  462.3481
 129  504.4684
 130  559.6406
 131  573.2471
 132  554.2697
 133  499.9551
 134  500.4179
 135  460.3427
 136  599.5731
 137  635.6362
 138  541.5861
 139  487.0576
 140  572.8929
 141  573.6311
 142  511.9195
 143  529.2915
 144  677.1995
 145  523.7542
 146  496.5958
 147  456.9669
 148  422.779
 149  397.0901
 150  374.0792
 151  473.2182
 152  421.5564
 153  457.9264
 154  421.2468
 155  375.2874
 156  325.9789
 157  296.2378
 158  330.7119
 159  487.275
 160  430.2809
 161  382.9525
 162  356.2667
 163  422.0274
 164  363.7218
 165  367.5998
 166  436.7009
 167  304.1948
 168  377.2422
 169  455.4464
 170  316.8176
 171  330.402
 172  327.5526
 173  339.0033
 174  528.5778
 175  451.6309
 176  300.2706
 177  320.8453
 178  368.0282
 179  430.1788
 180  378.737
 181  440.758
 182  508.3323
 183  530.329
 184  438.6815
 185  375.9028
 186  375.9341
 187  468.9085
 188  411.6773
 189  341.1788
 190  368.1015
 191  399.3492
 192  398.0779
 193  371.2563
 194  350.9178
 195  444.2558
 196  518.7646
 197  474.1678
 198  483.3437
 199  422.8647
 200  404.031
 201  367.9469
 202  475.4348
 203  494.5771
 204  381.6171
 205  339.9419
 206  486.407
 207  605.937
 208  375.4961
 209  339.3176
 210  421.1036
 211  459.5938
 212  343.4111
 213  436.247
 214  514.8342
 215  548.3607
 216  437.5237
 217  425.7628
 218  463.1627
 219  483.8451
 220  454.3184
 221  401.2027
 222  447.5363
 223  329.7191
 224  365.8108
 225  445.0406
 226  477.2454
 227  413.2024
 228  428.5126
 229  475.6159
 230  457.256
 231  435.4384
 232  471.2643
 233  432.5237
 234  357.9832
 235  392.9428
 236  354.7212
 237  408.9784
 238  428.8935
 239  440.332
 240  404.4231
 241  400.0417
 242  335.9785
 243  385.057
 244  435.7762
 245  399.6461
 246  380.7233
 247  399.956
 248  486.1379
 249  521.3089
 250  402.6936
 251  417.971
 252  464.8122
 253  393.7427
 254  443.3243
 255  378.3461
 256  386.8245
 257  559.2316
 258  574.9691
 259  535.8953
 260  425.9155
 261  361.4574
 262  399.0284
 263  443.2279
 264  471.8649
 265  512.3006
 266  475.1831
 267  495.8825
 268  497.8379
 269  402.1121
 270  429.3768
 271  519.392
 272  487.4204
 273  415.573
 274  373.0634
 275  306.5684
 276  416.4768
 277  536.1418
 278  550.9338
 279  485.113
 280  527.7368
 281  565.2722
 282  491.2824
 283  519.6826
 284  572.964
 285  679.0394
 286  712.0424
 287  714.1317
 288  895.3117
 289  1057.697
 290  1026.535
 291  856.3699
 292  664.0747
 293  547.033
 294  556.6339
 295  494.9006
 296  450.7497
 297  330.7963
 298  424.379
 299  537.6549
 300  456.4303
 301  479.6583
 302  611.9482
 303  502.1975
 304  513.7791
 305  500.5959
 306  441.9074
 307  444.5305
 308  401.5974
 309  327.0702
 310  449.4294
 311  494.2332
 312  489.5492
 313  450.7276
 314  384.8978
 315  327.4875
 316  455.0535
 317  431.2064
 318  444.9457
 319  431.4482
 320  437.5927
 321  476.5337
 322  475.1938
 323  464.3054
 324  467.3325
 325  426.6679
 326  440.586
 327  412.8071
 328  423.2429
 329  467.1761
 330  441.8459
 331  477.185
 332  522.5566
 333  508.3748
 334  511.1875
 335  557.309
 336  495.2738
 337  453.5912
 338  490.7369
 339  458.4022
 340  507.064
 341  452.0598
 342  399.6826
 343  468.6306
 344  457.4662
 345  388.1362
 346  419.5439
 347  329.5779
 348  393.7976
 349  431.0579
 350  409.3665
 351  498.2942
 352  491.9889
 353  452.1985
 354  369.3377
 355  371.8542
 356  324.7506
 357  360.7833
 358  404.7652
 359  394.952
 360  462.9112
 361  503.8983
 362  447.3352
 363  490.6013
 364  449.8638
 365  422.5679
 366  444.4877
 367  455.9874
 368  527.6817
 369  485.0226
 370  379.5737
 371  425.2753
 372  341.6469
 373  460.5383
 374  428.4785
 375  414.2034
 376  434.8202
 377  392.4201
 378  398.4838
 379  365.0605
 380  400.3482
 381  371.6619
 382  387.0707
 383  283.7563
 384  429.5835
 385  420.1063
 386  290.09
 387  215.8848
 388  241.5158
 389  242.2758
 390  360.0886
 391  414.8353
 392  391.2917
 393  485.9402
 394  490.201
 395  316.2531
 396  337.2341
 397  364.1246
 398  377.5722
 399  399.4946
 400  503.4313
 401  459.3166
 402  440.103
 403  463.5856
 404  386.5948
 405  442.3094
 406  440.5142
 407  557.5157
 408  619.1575
 409  477.0658
 410  434.7864
 411  455.6784
 412  440.066
 413  440.1161
 414  477.8017
 415  508.6712
 416  491.9123
 417  562.9241
 418  516.0303
 419  387.2615
 420  368.4056
 421  461.6112
 422  469.1438
 423  473.2956
 424  537.3798
 425  449.8664
 426  530.5783
 427  504.1512
 428  513.2158
 429  506.7504
 430  487.1571
 431  507.7425
 432  468.4912
 433  456.0513
 434  486.5455
 435  522.1727
 436  466.9002
 437  549.0817
 438  609.5915
 439  537.5886
 440  422.5653
 441  583.5534
 442  596.7677
 443  494.7899
 444  443.6671
 445  443.8259
 446  508.6427
 447  464.8667
 448  392.6482
 449  343.7204
 450  471.0785
 451  530.7051
 452  483.1232
 453  393.5886
 454  332.6203
 455  373.1944
 456  402.3471
 457  333.3463
 458  537.3287
 459  547.355
 460  373.9739
 461  353.8842
 462  412.7057
 463  341.61
 464  322.2928
 465  470.2102
 466  501.1364
 467  353.772
 468  319.7249
 469  398.883
 470  418.9507
 471  387.1943
 472  351.0617
 473  385.985
 474  382.0214
 475  389.4754
 476  418.8772
 477  457.5836
 478  574.2942
 479  499.4394
 480  498.6906
 481  410.7096
 482  421.412
 483  494.8243
 484  537.5219
 485  455.3335
 486  390.5763
 487  509.747
 488  485.0908
 489  399.9998
 490  455.5736
 491  498.5331
 492  457.0036
 493  511.1852
 494  488.8308
 495  372.4344
 496  304.2102
 497  349.3669
 498  477.8353
 499  494.8958
 500  478.4229
 501  492.2242
 502  451.1871
 503  476.4551
 504  331.3366
 505  444.901
 506  481.6279
 507  456.0525
 508  534.15
 509  478.0629
 510  432.1966
 511  384.3418
