# Input file       =  1182334205.111209_cleaned.dat
# Candidate        =  PSR_0332+5434
# Telescope        =  AR
# Epoch_topo       =  57928.423461935286
# Epoch_bary       =  N/A
# T_sample         =  0.002
# Data Folded      =  7340032
# Data Avg         =  0.020360482632536
# Data StdDev      =  1.00000878758027 
# Profile Bins     =  512
# Profile Avg      =  291.920112626554 
# Profile StdDev   =  119.734088540435 
# Reduced chi-sqr  =  1.410
# Prob(Noise)      <  2.45e-09   (~5.9 sigma)
# P_topo (ms)      =  714.495101796602  +/- 0.000256
# P'_topo (s/s)    =  -0                +/- 1.35e-10
# P''_topo (s/s^2) =  0                 +/- 5.96e-14
# P_bary (ms)      =  N/A
# P'_bary (s/s)    =  N/A
# P''_bary (s/s^2) =  N/A
# P_orb (s)        =  N/A
# asin(i)/c (s)    =  N/A
# eccentricity     =  N/A
# w (rad)          =  N/A
# T_peri           =  N/A
######################################################
   0  937.5413
   1  932.2289
   2  783.0585
   3  549.442
   4  386.8354
   5  387.2846
   6  370.3099
   7  345.0891
   8  379.7546
   9  294.4939
  10  211.7195
  11  363.6274
  12  416.5573
  13  403.2676
  14  382.4127
  15  321.7505
  16  401.7574
  17  422.123
  18  444.3726
  19  275.5163
  20  272.0692
  21  294.733
  22  261.3499
  23  243.1949
  24  396.6908
  25  421.7273
  26  386.7655
  27  434.1736
  28  347.4407
  29  325.9592
  30  379.2828
  31  311.2955
  32  275.0524
  33  290.6596
  34  415.2584
  35  452.7159
  36  398.3177
  37  343.7892
  38  327.635
  39  265.4153
  40  306.699
  41  259.2892
  42  258.4724
  43  229.5137
  44  344.7195
  45  261.5097
  46  161.4187
  47  220.4207
  48  353.5539
  49  295.4636
  50  262.5929
  51  248.5443
  52  429.59
  53  414.1221
  54  405.0874
  55  473.3533
  56  309.3923
  57  256.7721
  58  341.1343
  59  389.702
  60  316.4375
  61  341.4951
  62  250.8817
  63  301.8492
  64  280.8587
  65  392.1487
  66  387.0956
  67  323.6295
  68  323.7709
  69  257.5522
  70  343.3031
  71  333.4613
  72  322.9983
  73  331.5756
  74  246.4893
  75  200.4843
  76  235.7352
  77  298.3542
  78  347.3224
  79  346.2782
  80  307.6667
  81  273.0771
  82  300.394
  83  369.8239
  84  275.8698
  85  367.2769
  86  511.2404
  87  344.9514
  88  273.9223
  89  254.4576
  90  172.1001
  91  202.9044
  92  253.5786
  93  281.5737
  94  353.6182
  95  328.0843
  96  238.3223
  97  194.7267
  98  259.0518
  99  107.0017
 100  275.9649
 101  338.9031
 102  274.9475
 103  208.0173
 104  295.3999
 105  330.0428
 106  437.8591
 107  400.2865
 108  226.1545
 109  138.6945
 110  238.8801
 111  341.3215
 112  311.7049
 113  363.7771
 114  293.5666
 115  158.9875
 116  205.1945
 117  366.2892
 118  287.7539
 119  282.1971
 120  330.8958
 121  405.8777
 122  313.6178
 123  231.0208
 124  310.6559
 125  342.4574
 126  296.4025
 127  169.9196
 128  127.9051
 129  342.2302
 130  384.2147
 131  356.971
 132  254.6139
 133  261.9262
 134  286.0757
 135  195.4545
 136  64.36636
 137  303.2518
 138  418.4153
 139  387.6204
 140  406.5262
 141  258.7683
 142  318.4811
 143  342.5994
 144  344.5645
 145  317.7535
 146  301.4211
 147  340.7111
 148  278.8771
 149  240.3306
 150  195.4076
 151  134.125
 152  230.2401
 153  205.4086
 154  387.4717
 155  357.8347
 156  340.9633
 157  318.4351
 158  236.0951
 159  196.8521
 160  250.5629
 161  280.4654
 162  244.1013
 163  264.632
 164  267.6558
 165  265.1943
 166  248.6293
 167  241.5319
 168  213.3149
 169  225.3535
 170  135.043
 171  220.4402
 172  265.5285
 173  314.4936
 174  208.8506
 175  229.9784
 176  115.7307
 177  173.1359
 178  230.3036
 179  230.9618
 180  314.8102
 181  211.3763
 182  168.1467
 183  158.6937
 184  250.643
 185  244.8565
 186  72.50285
 187  103.3771
 188  240.5604
 189  370.5677
 190  357.9794
 191  324.4958
 192  323.7965
 193  267.8687
 194  302.9137
 195  384.5804
 196  338.0221
 197  149.5348
 198  155.8701
 199  295.0555
 200  392.0678
 201  340.8739
 202  311.5655
 203  226.1197
 204  198.5114
 205  291.44
 206  308.5496
 207  369.9798
 208  420.6665
 209  519.4887
 210  352.5621
 211  225.072
 212  273.015
 213  392.2768
 214  224.4569
 215  318.2263
 216  380.1375
 217  384.7269
 218  441.4182
 219  284.2943
 220  194.4775
 221  228.9874
 222  289.1294
 223  148.0769
 224  134.8469
 225  131.3369
 226  353.2407
 227  311.2025
 228  296.0558
 229  255.721
 230  250.9455
 231  400.0862
 232  393.4756
 233  263.4609
 234  345.0214
 235  304.8821
 236  346.4726
 237  379.5776
 238  421.1981
 239  358.333
 240  265.2111
 241  423.3069
 242  350.3356
 243  250.7386
 244  242.6424
 245  328.7987
 246  288.998
 247  300.9488
 248  268.6492
 249  202.9419
 250  214.0087
 251  280.7495
 252  345.5845
 253  290.6704
 254  359.1409
 255  277.7771
 256  267.3869
 257  273.3556
 258  416.0864
 259  283.3356
 260  299.1487
 261  408.1013
 262  300.5456
 263  238.1332
 264  284.6873
 265  375.5773
 266  329.8575
 267  364.2259
 268  262.1256
 269  324.5547
 270  284.2507
 271  238.4285
 272  339.4677
 273  362.9532
 274  281.1544
 275  377.3587
 276  403.7664
 277  381.4887
 278  188.4073
 279  152.9165
 280  213.1407
 281  175.7992
 282  270.4836
 283  279.6805
 284  339.9939
 285  205.6996
 286  171.946
 287  265.7958
 288  185.2847
 289  128.8847
 290  290.7189
 291  275.1382
 292  307.84
 293  98.71027
 294  65.08973
 295  196.8745
 296  311.0846
 297  212.1541
 298  217.3944
 299  252.5825
 300  192.2628
 301  244.9125
 302  338.7236
 303  298.3556
 304  241.4208
 305  295.9383
 306  263.3736
 307  222.9171
 308  201.7148
 309  143.1295
 310  174.7877
 311  200.0591
 312  88.9656
 313  132.403
 314  223.4759
 315  298.6064
 316  273.7234
 317  171.1647
 318  239.8138
 319  257.4328
 320  275.7787
 321  229.7621
 322  180.0455
 323  121.2202
 324  91.93307
 325  181.6309
 326  114.3936
 327  184.8871
 328  301.087
 329  290.0201
 330  171.1297
 331  196.7953
 332  275.0095
 333  226.7644
 334  256.1383
 335  151.2263
 336  200.2244
 337  219.2365
 338  186.7716
 339  218.7762
 340  210.0863
 341  253.7501
 342  248.5328
 343  154.9456
 344  194.7693
 345  151.4392
 346  125.3372
 347  239.8621
 348  202.2993
 349  95.86862
 350  278.7564
 351  267.9971
 352  179.9477
 353  194.888
 354  275.3589
 355  272.2331
 356  191.7705
 357  158.2877
 358  124.451
 359  321.7662
 360  322.7226
 361  187.6879
 362  69.89448
 363  223.309
 364  224.1379
 365  178.4494
 366  179.5802
 367  313.1356
 368  310.0684
 369  278.8077
 370  299.4318
 371  254.7563
 372  261.4346
 373  280.9788
 374  330.4959
 375  238.3485
 376  330.4061
 377  454.9292
 378  368.6129
 379  409.6164
 380  308.6508
 381  249.4137
 382  175.4937
 383  146.6798
 384  88.13649
 385  137.4913
 386  290.2516
 387  300.7485
 388  347.1945
 389  321.0292
 390  239.7288
 391  341.728
 392  316.8349
 393  267.3785
 394  276.4252
 395  352.3277
 396  388.4099
 397  259.8469
 398  226.4427
 399  303.5285
 400  203.7937
 401  291.5251
 402  382.5114
 403  369.9738
 404  341.2546
 405  121.0841
 406  231.6738
 407  339.5881
 408  209.0515
 409  198.6107
 410  309.1906
 411  354.3395
 412  294.0042
 413  260.493
 414  258.4948
 415  217.752
 416  323.2854
 417  323.7532
 418  358.1607
 419  340.6477
 420  254.8266
 421  243.1122
 422  295.3294
 423  322.3582
 424  312.9344
 425  268.1508
 426  325.1009
 427  286.1079
 428  254.0742
 429  318.4691
 430  269.1338
 431  377.4636
 432  446.3812
 433  342.2839
 434  339.0216
 435  368.4413
 436  305.763
 437  223.911
 438  276.0235
 439  230.0988
 440  153.529
 441  117.2324
 442  201.2508
 443  108.3808
 444  146.7115
 445  241.2975
 446  218.5471
 447  260.5396
 448  176.2116
 449  201.3535
 450  283.5962
 451  365.6882
 452  282.9737
 453  256.3273
 454  277.9232
 455  271.9735
 456  379.7202
 457  335.6685
 458  309.7813
 459  326.4991
 460  270.5289
 461  257.0147
 462  177.3116
 463  292.6792
 464  308.2562
 465  354.2331
 466  340.7166
 467  192.1879
 468  281.9963
 469  292.993
 470  345.1498
 471  359.8738
 472  297.526
 473  375.8656
 474  427.875
 475  386.8723
 476  328.7636
 477  221.2385
 478  361.5214
 479  449.3134
 480  275.256
 481  227.8331
 482  385.9085
 483  491.4971
 484  479.0623
 485  431.3172
 486  329.3391
 487  272.848
 488  203.135
 489  336.473
 490  439.625
 491  457.643
 492  367.8731
 493  218.1584
 494  375.2805
 495  336.1523
 496  317.9568
 497  334.2538
 498  428.5119
 499  349.0063
 500  311.943
 501  292.317
 502  321.0189
 503  415.6456
 504  524.8459
 505  457.9837
 506  332.7612
 507  366.4045
 508  502.3563
 509  692.0441
 510  768.9736
 511  867.7434
