# Input file       =  1182907142.112401_cleaned.dat
# Candidate        =  PSR_0332+5434
# Telescope        =  AR
# Epoch_topo       =  57935.054677226864
# Epoch_bary       =  N/A
# T_sample         =  0.002
# Data Folded      =  7143424
# Data Avg         =  0.0322308220697449
# Data StdDev      =  1.00001202255137 
# Profile Bins     =  512
# Profile Avg      =  449.765016951122 
# Profile StdDev   =  118.120004568616 
# Reduced chi-sqr  =  1.008
# Prob(Noise)      <  0.442   (~0.1 sigma)
# P_topo (ms)      =  714.489176861155  +/- 0.000341
# P'_topo (s/s)    =  -0                +/- 1.85e-10
# P''_topo (s/s^2) =  0                 +/- 8.4e-14
# P_bary (ms)      =  N/A
# P'_bary (s/s)    =  N/A
# P''_bary (s/s^2) =  N/A
# P_orb (s)        =  N/A
# asin(i)/c (s)    =  N/A
# eccentricity     =  N/A
# w (rad)          =  N/A
# T_peri           =  N/A
######################################################
   0  1051.516
   1  1042.402
   2  896.9393
   3  705.3513
   4  552.4606
   5  561.0164
   6  511.761
   7  468.8066
   8  335.8453
   9  395.1364
  10  527.5602
  11  483.2759
  12  446.0385
  13  612.2872
  14  521.6323
  15  512.4076
  16  500.0703
  17  464.7095
  18  423.7203
  19  430.9692
  20  318.6074
  21  428.3148
  22  489.138
  23  493.3485
  24  459.1304
  25  402.7305
  26  324.9089
  27  430.1312
  28  449.4515
  29  429.2683
  30  446.6081
  31  424.6804
  32  479.9976
  33  463.1938
  34  467.5173
  35  480.0749
  36  426.8609
  37  437.8781
  38  418.8492
  39  421.8954
  40  457.44
  41  455.5281
  42  461.0303
  43  519.683
  44  515.0375
  45  497.5939
  46  553.1382
  47  515.9386
  48  446.1206
  49  493.9109
  50  460.3123
  51  492.4445
  52  490.367
  53  382.2016
  54  464.3583
  55  455.4902
  56  402.8083
  57  410.7198
  58  348.8681
  59  372.4592
  60  433.8312
  61  409.0983
  62  482.8267
  63  493.0466
  64  478.4182
  65  374.4478
  66  367.9281
  67  336.759
  68  341.9809
  69  404.334
  70  401.9341
  71  428.6561
  72  517.8878
  73  438.4641
  74  497.1397
  75  452.7831
  76  440.4471
  77  429.2654
  78  465.9182
  79  486.71
  80  521.5093
  81  383.9292
  82  423.9877
  83  352.7295
  84  432.3539
  85  447.8612
  86  398.0416
  87  445.7108
  88  390.8262
  89  414.0881
  90  366.4787
  91  394.0953
  92  367.6611
  93  404.6877
  94  282.6994
  95  401.299
  96  442.344
  97  324.438
  98  204.8698
  99  242.4445
 100  227.2951
 101  335.0516
 102  423.8894
 103  395.0713
 104  447.1852
 105  524.8298
 106  339.5397
 107  327.5898
 108  355.8359
 109  371.9688
 110  383.8
 111  487.4095
 112  481.6848
 113  434.5506
 114  461.8457
 115  406.4244
 116  429.6976
 117  440.6087
 118  513.7624
 119  624.2362
 120  515.1554
 121  439.3024
 122  455.8622
 123  443.8619
 124  428.3873
 125  463.1681
 126  512.9477
 127  489.926
 128  550.2145
 129  538.2805
 130  418.7294
 131  351.677
 132  445.0617
 133  468.4062
 134  466.5786
 135  539.0599
 136  465.1977
 137  493.9945
 138  532.3286
 139  499.2666
 140  510.5302
 141  484.0151
 142  507.7947
 143  480.0555
 144  460.6395
 145  476.3749
 146  520.8542
 147  477.0441
 148  518.3057
 149  609.1942
 150  569.2752
 151  422.6422
 152  550.3513
 153  604.4608
 154  513.5196
 155  450.0989
 156  442.5231
 157  510.3298
 158  471.3547
 159  409.0915
 160  330.3503
 161  445.3219
 162  536.8459
 163  493.8583
 164  405.7215
 165  356.782
 166  337.3807
 167  426.07
 168  325.5252
 169  490.3711
 170  572.8206
 171  397.9124
 172  346.8372
 173  407.003
 174  361.9681
 175  318.1472
 176  430.0645
 177  521.6679
 178  384.2494
 179  307.2333
 180  390.3091
 181  409.648
 182  402.3033
 183  348.7847
 184  377.2831
 185  393.8334
 186  372.5605
 187  427.0238
 188  436.3275
 189  564.7698
 190  513.9702
 191  494.2813
 192  427.1195
 193  409.6734
 194  479.1177
 195  551.2776
 196  474.9962
 197  391.0413
 198  479.0137
 199  510.3564
 200  396.8699
 201  438.9771
 202  506.1027
 203  467.4483
 204  494.74
 205  496.5956
 206  404.6001
 207  309.7288
 208  330.2043
 209  453.7285
 210  496.0328
 211  475.4728
 212  501.1597
 213  447.8627
 214  490.9165
 215  343.5714
 216  412.0518
 217  492.6985
 218  453.2204
 219  518.2593
 220  493.3767
 221  439.0102
 222  396.5189
 223  342.6914
 224  407.6879
 225  532.1253
 226  549.5192
 227  428.7604
 228  346.8028
 229  422.4701
 230  403.4869
 231  391.6578
 232  369.8528
 233  429.5338
 234  467.1125
 235  377.0548
 236  355.4937
 237  355.3812
 238  395.8423
 239  390.4403
 240  484.9226
 241  409.0227
 242  388.9377
 243  461.1716
 244  432.305
 245  456.2502
 246  391.7603
 247  387.8355
 248  448.7134
 249  444.3174
 250  373.0697
 251  273.6042
 252  228.353
 253  444.8635
 254  484.6769
 255  474.5915
 256  404.5218
 257  381.6299
 258  441.4121
 259  437.7502
 260  374.1797
 261  397.7951
 262  388.3156
 263  350.8678
 264  386.1007
 265  417.28
 266  362.08
 267  368.4449
 268  445.0577
 269  408.3242
 270  540.892
 271  454.4276
 272  454.8501
 273  529.9879
 274  487.6613
 275  520.0942
 276  493.5526
 277  476.8781
 278  423.8702
 279  411.7728
 280  440.3767
 281  487.9436
 282  471.0663
 283  488.4081
 284  412.3904
 285  497.793
 286  531.7198
 287  506.349
 288  448.647
 289  393.983
 290  482.6255
 291  552.577
 292  480.5636
 293  516.6471
 294  503.3175
 295  407.2976
 296  383.7246
 297  424.4634
 298  397.7748
 299  409.3302
 300  425.0506
 301  426.8586
 302  380.9118
 303  483.6545
 304  463.9724
 305  371.4014
 306  475.2986
 307  486.3907
 308  459.9281
 309  517.3926
 310  505.1903
 311  511.3067
 312  469.6889
 313  514.5054
 314  488.0909
 315  450.1516
 316  451.1009
 317  480.0989
 318  343.3309
 319  364.8901
 320  444.2888
 321  456.8841
 322  344.9853
 323  383.7241
 324  412.4658
 325  422.7639
 326  482.2693
 327  569.978
 328  511.891
 329  445.2638
 330  519.4789
 331  444.6473
 332  482.6857
 333  448.9891
 334  495.4036
 335  539.9294
 336  572.8331
 337  438.2056
 338  426.5553
 339  411.8784
 340  441.6856
 341  528.8318
 342  492.6149
 343  647.8624
 344  580.0754
 345  615.3879
 346  594.9875
 347  425.6228
 348  398.9388
 349  518.4572
 350  562.4055
 351  475.5977
 352  480.0897
 353  551.5914
 354  576.7078
 355  566.802
 356  508.9564
 357  500.5654
 358  458.4734
 359  559.4391
 360  653.2025
 361  554.7021
 362  493.0003
 363  549.326
 364  587.1825
 365  528.8031
 366  499.0983
 367  667.4294
 368  556.309
 369  495.4979
 370  472.6345
 371  426.9746
 372  414.6687
 373  360.631
 374  463.8238
 375  428.3385
 376  446.1227
 377  443.6725
 378  380.5118
 379  334.3199
 380  300.3418
 381  309.1272
 382  461.2935
 383  448.6732
 384  388.785
 385  357.2563
 386  419.7614
 387  374.8236
 388  361.2596
 389  432.3473
 390  333.8648
 391  336.3724
 392  463.0389
 393  343.8978
 394  313.206
 395  349.3438
 396  311.0833
 397  502.3283
 398  481.8193
 399  325.5259
 400  300.629
 401  359.8172
 402  423.4346
 403  392.0205
 404  410.3231
 405  505.9333
 406  530.5653
 407  466.1829
 408  382.3416
 409  365.0313
 410  450.6446
 411  434.2988
 412  352.4916
 413  353.9883
 414  404.2371
 415  388.7613
 416  394.7488
 417  337.5994
 418  426.5345
 419  513.4103
 420  478.9066
 421  479.7305
 422  442.0933
 423  394.0023
 424  386.4758
 425  437.7023
 426  511.0664
 427  408.8528
 428  334.7169
 429  435.9213
 430  614.7935
 431  416.9596
 432  337.1131
 433  391.1445
 434  478.796
 435  355.2838
 436  413.0155
 437  502.9683
 438  547.3681
 439  459.7122
 440  423.8165
 441  452.2385
 442  485.4242
 443  471.423
 444  397.6858
 445  446.7648
 446  349.8843
 447  344.168
 448  428.3697
 449  489.1365
 450  419.9852
 451  424.2309
 452  464.1341
 453  469.1741
 454  427.3282
 455  468.681
 456  451.3241
 457  363.0427
 458  391.9041
 459  352.7745
 460  395.7699
 461  428.4833
 462  449.3532
 463  405.3279
 464  408.236
 465  334.7583
 466  374.6367
 467  430.4059
 468  404.2511
 469  387.4823
 470  388.2433
 471  463.4669
 472  536.585
 473  425.5574
 474  404.9154
 475  458.564
 476  406.7503
 477  424.908
 478  404.1498
 479  374.0811
 480  515.397
 481  589.0668
 482  550.5276
 483  456.1175
 484  356.8386
 485  381.4641
 486  438.3305
 487  469.3577
 488  506.9251
 489  484.4923
 490  476.1437
 491  525.912
 492  407.4815
 493  419.0922
 494  506.5549
 495  499.9328
 496  431.6018
 497  388.1386
 498  310.1407
 499  382.5852
 500  516.4855
 501  561.5839
 502  485.9708
 503  510.0847
 504  569.0158
 505  509.3809
 506  504.9523
 507  563.9088
 508  652.2997
 509  710.7466
 510  706.0861
 511  838.183
