# Input file       =  1182993473.111839_cleaned.dat
# Candidate        =  PSR_0332+5434
# Telescope        =  AR
# Epoch_topo       =  57936.053878609251
# Epoch_bary       =  N/A
# T_sample         =  0.002
# Data Folded      =  7405568
# Data Avg         =  0.0236911334812133
# Data StdDev      =  1.00001233111396 
# Profile Bins     =  512
# Profile Avg      =  342.658458830682 
# Profile StdDev   =  120.26785404531  
# Reduced chi-sqr  =  1.302
# Prob(Noise)      <  4.57e-06   (~4.4 sigma)
# P_topo (ms)      =  714.488373908963  +/- 0.000262
# P'_topo (s/s)    =  -0                +/- 1.37e-10
# P''_topo (s/s^2) =  0                 +/- 6e-14
# P_bary (ms)      =  N/A
# P'_bary (s/s)    =  N/A
# P''_bary (s/s^2) =  N/A
# P_orb (s)        =  N/A
# asin(i)/c (s)    =  N/A
# eccentricity     =  N/A
# w (rad)          =  N/A
# T_peri           =  N/A
######################################################
   0  1079.143
   1  1022.821
   2  760.5702
   3  593.6243
   4  382.0774
   5  361.3057
   6  397.5471
   7  412.1202
   8  349.3613
   9  427.0096
  10  472.466
  11  406.8693
  12  471.9597
  13  484.2644
  14  514.0616
  15  436.0762
  16  529.6808
  17  478.3225
  18  378.5055
  19  327.1765
  20  271.6306
  21  410.3352
  22  450.8379
  23  365.2962
  24  390.5332
  25  413.957
  26  283.0551
  27  241.9252
  28  369.2998
  29  472.9741
  30  394.5293
  31  338.4734
  32  301.0912
  33  359.2465
  34  359.4983
  35  300.3309
  36  308.5267
  37  331.7738
  38  353.7842
  39  383.6188
  40  353.1976
  41  426.6075
  42  312.2938
  43  377.5131
  44  380.4076
  45  329.3937
  46  413.3005
  47  266.8284
  48  300.6593
  49  243.9695
  50  287.5746
  51  322.6328
  52  206.8098
  53  157.5304
  54  192.3028
  55  244.2341
  56  240.3281
  57  370.999
  58  347.2991
  59  238.9563
  60  295.5113
  61  246.9769
  62  372.4078
  63  429.8647
  64  347.9476
  65  391.5575
  66  405.633
  67  400.4432
  68  468.3159
  69  402.1723
  70  259.2909
  71  406.5664
  72  409.3548
  73  290.2455
  74  452.5351
  75  569.8588
  76  478.7286
  77  381.5553
  78  491.7216
  79  354.631
  80  366.169
  81  346.1225
  82  464.7582
  83  399.9914
  84  351.1773
  85  354.1497
  86  279.3067
  87  357.0807
  88  398.9133
  89  525.3604
  90  470.4196
  91  233.2555
  92  154.7039
  93  166.9316
  94  303.0904
  95  369.6101
  96  422.9389
  97  362.6945
  98  299.4958
  99  201.4024
 100  176.9054
 101  218.409
 102  335.5582
 103  256.2341
 104  264.7138
 105  330.1982
 106  231.8097
 107  331.173
 108  331.2765
 109  389.5492
 110  338.6778
 111  368.5282
 112  395.2205
 113  474.2756
 114  400.908
 115  271.144
 116  304.9805
 117  299.235
 118  317.5404
 119  302.0771
 120  301.6391
 121  240.3932
 122  212.1395
 123  272.0802
 124  279.3492
 125  283.0852
 126  321.251
 127  329.2067
 128  265.3069
 129  232.8603
 130  290.1778
 131  339.8388
 132  289.1911
 133  386.7903
 134  361.0006
 135  333.8868
 136  368.1474
 137  360.9134
 138  330.2294
 139  205.701
 140  247.8453
 141  278.5329
 142  351.7494
 143  307.9292
 144  380.7649
 145  322.6193
 146  313.5135
 147  329.2517
 148  185.0815
 149  295.5159
 150  295.7542
 151  288.4932
 152  402.6526
 153  319.8252
 154  382.3658
 155  360.4655
 156  354.9915
 157  370.766
 158  322.8346
 159  284.1343
 160  316.8981
 161  275.5771
 162  287.0092
 163  267.4584
 164  225.9595
 165  302.0476
 166  285.0891
 167  280.5082
 168  244.3069
 169  312.4986
 170  234.6712
 171  233.4833
 172  357.6645
 173  221.7477
 174  163.3844
 175  194.4711
 176  304.6041
 177  375.7388
 178  249.6223
 179  209.6965
 180  292.5674
 181  294.8329
 182  235.871
 183  209.4265
 184  336.3486
 185  326.231
 186  231.9146
 187  180.4208
 188  185.6231
 189  271.6802
 190  224.6075
 191  250.2939
 192  304.3204
 193  347.6849
 194  306.8703
 195  253.6917
 196  225.1252
 197  330.4647
 198  281.5807
 199  225.2379
 200  387.9013
 201  485.5876
 202  315.7977
 203  229.4746
 204  180.9489
 205  226.6953
 206  345.2163
 207  388.6651
 208  451.9853
 209  400.6627
 210  463.9948
 211  403.3685
 212  348.1721
 213  353.0872
 214  520.5875
 215  444.4733
 216  464.5566
 217  413.9987
 218  359.2664
 219  403.2111
 220  291.9192
 221  221.236
 222  309.5873
 223  336.0691
 224  347.9112
 225  339.3784
 226  300.2685
 227  289.2629
 228  243.9756
 229  220.2096
 230  264.135
 231  326.636
 232  404.6401
 233  381.0398
 234  255.8566
 235  346.3007
 236  358.2409
 237  346.141
 238  377.3968
 239  391.7048
 240  396.4637
 241  297.2929
 242  235.2598
 243  321.5977
 244  280.8233
 245  265.2319
 246  320.4293
 247  409.8925
 248  416.1924
 249  361.9182
 250  256.6867
 251  380.3791
 252  378.2227
 253  350.2992
 254  272.0484
 255  273.6521
 256  376.5026
 257  351.3317
 258  336.9714
 259  334.2731
 260  399.8773
 261  415.451
 262  391.7651
 263  346.1049
 264  298.2194
 265  234.5439
 266  296.4649
 267  281.9541
 268  311.4093
 269  284.0103
 270  399.2072
 271  324.6812
 272  354.4854
 273  288.1015
 274  384.5623
 275  385.0687
 276  352.9472
 277  364.5053
 278  405.438
 279  307.2599
 280  200.0483
 281  321.6168
 282  346.7847
 283  398.4297
 284  464.6131
 285  353.4118
 286  432.6786
 287  376.4924
 288  439.9866
 289  534.4711
 290  399.764
 291  314.9369
 292  350.5134
 293  484.4248
 294  467.9893
 295  397.1748
 296  355.5869
 297  366.7814
 298  367.8663
 299  428.4935
 300  386.606
 301  308.9424
 302  411.3141
 303  346.9675
 304  435.7987
 305  467.2971
 306  436.1209
 307  290.5481
 308  286.3943
 309  373.2394
 310  420.3751
 311  395.7801
 312  400.2523
 313  404.6547
 314  271.2786
 315  329.6043
 316  302.0726
 317  399.8467
 318  426.8804
 319  378.0786
 320  344.4634
 321  343.432
 322  329.4034
 323  300.0693
 324  403.6962
 325  326.1606
 326  267.6242
 327  295.9216
 328  280.7477
 329  315.2497
 330  299.1869
 331  368.8557
 332  387.2842
 333  402.0568
 334  362.14
 335  459.7001
 336  358.3784
 337  298.8056
 338  386.4435
 339  258.5612
 340  327.2294
 341  320.3625
 342  366.85
 343  353.0345
 344  325.3092
 345  449.018
 346  411.2483
 347  278.4549
 348  277.1419
 349  313.1865
 350  369.5065
 351  413.008
 352  409.1398
 353  413.7035
 354  401.9211
 355  418.3406
 356  499.866
 357  457.9499
 358  436.5864
 359  474.2469
 360  349.3133
 361  345.9174
 362  429.8857
 363  467.0459
 364  352.764
 365  456.4659
 366  526.6296
 367  372.269
 368  353.0717
 369  391.0273
 370  419.6983
 371  300.332
 372  333.2502
 373  348.9853
 374  285.9041
 375  266.187
 376  294.2228
 377  291.2514
 378  350.8201
 379  320.2011
 380  223.1946
 381  335.8826
 382  257.6756
 383  226.164
 384  261.6062
 385  351.3162
 386  337.7019
 387  289.0385
 388  331.6147
 389  238.3114
 390  145.1333
 391  319.7914
 392  366.725
 393  271.6449
 394  117.8722
 395  176.5532
 396  154.711
 397  324.1506
 398  377.9081
 399  276.1836
 400  319.6609
 401  273.2868
 402  225.3761
 403  197.8748
 404  215.0287
 405  261.4347
 406  309.7891
 407  326.5597
 408  335.5328
 409  210.9554
 410  179.0638
 411  161.3075
 412  155.5221
 413  298.4862
 414  244.6802
 415  328.7862
 416  273.2843
 417  230.4215
 418  362.3208
 419  313.0985
 420  336.4306
 421  342.6961
 422  341.3283
 423  319.9322
 424  222.1856
 425  286.4494
 426  287.759
 427  460.0433
 428  486.0221
 429  375.072
 430  380.7264
 431  274.1421
 432  284.5666
 433  336.0682
 434  363.3033
 435  353.7095
 436  378.0886
 437  452.08
 438  336.168
 439  350.6847
 440  346.041
 441  359.5318
 442  323.1222
 443  260.9254
 444  322.5055
 445  450.7975
 446  424.2849
 447  421.919
 448  368.205
 449  449.2952
 450  461.9641
 451  369.1396
 452  293.6382
 453  356.5018
 454  288.7122
 455  340.5162
 456  276.6449
 457  331.5171
 458  407.8121
 459  387.0293
 460  332.1405
 461  300.0667
 462  347.7231
 463  213.4547
 464  179.4459
 465  263.7101
 466  352.7821
 467  350.5377
 468  330.5927
 469  382.0984
 470  331.6152
 471  372.9413
 472  288.3704
 473  205.8769
 474  210.8765
 475  317.2498
 476  365.8696
 477  307.3588
 478  309.297
 479  342.5063
 480  246.6063
 481  234.4681
 482  225.4498
 483  197.4003
 484  309.5877
 485  328.5334
 486  204.7427
 487  147.1294
 488  329.5685
 489  404.3072
 490  338.2841
 491  298.325
 492  392.0585
 493  364.4604
 494  393.4767
 495  418.7799
 496  455.1084
 497  499.14
 498  357.9439
 499  279.1317
 500  302.8685
 501  378.3907
 502  414.4548
 503  411.3204
 504  386.8983
 505  385.3376
 506  409.1842
 507  488.453
 508  565.1175
 509  649.6402
 510  846.2227
 511  970.9633
