# Input file       =  1182764375.119632_cleaned.dat
# Candidate        =  PSR_0332+5434
# Telescope        =  AR
# Epoch_topo       =  57933.402281477225
# Epoch_bary       =  N/A
# T_sample         =  0.002
# Data Folded      =  7340032
# Data Avg         =  0.0252191828406782
# Data StdDev      =  1.00002124912724 
# Profile Bins     =  512
# Profile Avg      =  361.592040999613 
# Profile StdDev   =  119.735580599291 
# Reduced chi-sqr  =  1.620
# Prob(Noise)      <  2.25e-17   (~8.4 sigma)
# P_topo (ms)      =  714.490868960594  +/- 1.31e-05
# P'_topo (s/s)    =  -0                +/- 6.92e-12
# P''_topo (s/s^2) =  0                 +/- 3.06e-15
# P_bary (ms)      =  N/A
# P'_bary (s/s)    =  N/A
# P''_bary (s/s^2) =  N/A
# P_orb (s)        =  N/A
# asin(i)/c (s)    =  N/A
# eccentricity     =  N/A
# w (rad)          =  N/A
# T_peri           =  N/A
######################################################
   0  528.1768
   1  363.5053
   2  184.1519
   3  248.257
   4  276.4062
   5  397.2471
   6  467.9172
   7  187.4679
   8  282.863
   9  382.7571
  10  346.6235
  11  283.3649
  12  254.3522
  13  319.0949
  14  377.2369
  15  322.7054
  16  271.1717
  17  330.605
  18  355.8208
  19  361.9108
  20  194.5782
  21  109.017
  22  230.5339
  23  323.0174
  24  453.9319
  25  367.0302
  26  291.4606
  27  380.8463
  28  505.8968
  29  443.1916
  30  348.8557
  31  143.7719
  32  258.3236
  33  512.2491
  34  344.3394
  35  289.7138
  36  246.1369
  37  352.4782
  38  409.5847
  39  323.5446
  40  207.4179
  41  162.4361
  42  341.8799
  43  371.5166
  44  349.0454
  45  276.5197
  46  343.0828
  47  448.1163
  48  335.6963
  49  291.3794
  50  250.4395
  51  321.9893
  52  477.9442
  53  496.5654
  54  309.8209
  55  207.397
  56  321.8092
  57  395.0202
  58  402.563
  59  338.154
  60  283.1951
  61  338.9236
  62  534.4814
  63  414.9241
  64  206.8726
  65  380.1077
  66  506.3737
  67  494.7828
  68  412.9455
  69  380.7737
  70  465.6712
  71  525.0796
  72  648.4182
  73  564.5818
  74  617.5252
  75  793.2092
  76  925.3156
  77  882.0874
  78  564.0565
  79  347.1347
  80  369.7274
  81  456.7303
  82  382.4077
  83  306.1288
  84  294.1319
  85  379.0947
  86  349.9535
  87  375.3298
  88  251.4276
  89  201.6427
  90  444.2787
  91  624.8949
  92  546.6526
  93  391.0679
  94  442.2774
  95  534.6757
  96  400.7442
  97  334.4656
  98  383.8328
  99  448.6637
 100  515.8038
 101  413.8763
 102  301.9311
 103  253.9415
 104  269.1721
 105  460.441
 106  414.518
 107  309.0917
 108  334.5362
 109  393.3825
 110  458.0586
 111  491.3787
 112  349.6445
 113  251.2926
 114  455.511
 115  529.8792
 116  348.2467
 117  248.9149
 118  385.4746
 119  381.2011
 120  476.6769
 121  344.5278
 122  229.924
 123  458.8912
 124  534.5984
 125  409.5537
 126  335.5693
 127  239.5341
 128  425.6784
 129  471.5058
 130  369.2375
 131  228.0837
 132  264.1338
 133  508.6748
 134  574.1646
 135  431.3233
 136  197.25
 137  230.4109
 138  375.7371
 139  566.4823
 140  454.1914
 141  315.127
 142  371.6387
 143  421.6523
 144  372.8318
 145  273.063
 146  255.8912
 147  370.6786
 148  472.8897
 149  411.7108
 150  320.7515
 151  322.2697
 152  432.0334
 153  465.4082
 154  399.8711
 155  329.006
 156  298.2355
 157  528.1531
 158  559.2557
 159  397.2421
 160  323.8111
 161  382.0291
 162  476.9744
 163  354.971
 164  381.9894
 165  267.1359
 166  235.6994
 167  468.9045
 168  423.2138
 169  176.6438
 170  164.6777
 171  439.0594
 172  437.8182
 173  410.5634
 174  356.6756
 175  377.6387
 176  462.9555
 177  358.6239
 178  279.7649
 179  239.4367
 180  359.4755
 181  328.7321
 182  352.5773
 183  319.9567
 184  195.7239
 185  277.8769
 186  401.277
 187  408.7344
 188  379.4492
 189  249.5707
 190  279.2394
 191  415.4869
 192  394.7663
 193  301.5987
 194  189.2351
 195  352.5536
 196  326.5088
 197  207.0746
 198  238.3801
 199  195.1323
 200  322.6689
 201  448.2367
 202  392.4159
 203  342.1384
 204  195.69
 205  243.4526
 206  363.601
 207  239.6258
 208  157.9556
 209  336.8882
 210  497.1735
 211  409.0672
 212  298.9366
 213  272.7772
 214  366.219
 215  477.451
 216  486.8855
 217  292.5186
 218  265.3174
 219  468.2193
 220  458.8849
 221  484.0492
 222  187.1072
 223  255.9466
 224  449.3169
 225  449.4742
 226  418.9666
 227  345.4262
 228  297.7946
 229  396.9338
 230  378.8696
 231  324.2774
 232  274.5147
 233  273.0246
 234  403.7772
 235  396.6959
 236  348.0902
 237  245.4235
 238  310.9989
 239  401.66
 240  314.7229
 241  217.958
 242  295.3931
 243  399.2089
 244  518.124
 245  390.6869
 246  140.7849
 247  219.4715
 248  434.0549
 249  475.3426
 250  339.0044
 251  184.2821
 252  283.3036
 253  379.878
 254  366.7967
 255  224.994
 256  257.4355
 257  308.7353
 258  438.9595
 259  469.1383
 260  320.8593
 261  276.7769
 262  483.6457
 263  495.135
 264  346.8752
 265  254.6429
 266  267.9986
 267  508.1583
 268  483.3782
 269  312.9948
 270  249.4276
 271  281.932
 272  470.7575
 273  573.5209
 274  368.093
 275  195.9232
 276  230.2134
 277  377.8637
 278  466.3189
 279  269.2283
 280  223.8187
 281  303.3067
 282  355.7159
 283  393.0259
 284  145.9845
 285  155.1408
 286  418.7264
 287  510.2771
 288  433.6281
 289  395.7405
 290  249.4537
 291  375.9707
 292  431.84
 293  455.4266
 294  432.9444
 295  365.7913
 296  472.423
 297  509.6973
 298  433.8311
 299  306.9459
 300  348.0246
 301  390.4099
 302  338.1741
 303  364.9855
 304  363.5944
 305  408.0148
 306  421.2589
 307  456.0878
 308  365.1125
 309  391.1715
 310  429.4085
 311  533.5416
 312  399.2214
 313  320.3488
 314  396.476
 315  482.6291
 316  528.0844
 317  293.7164
 318  313.4603
 319  362.8954
 320  408.0585
 321  344.4359
 322  241.6392
 323  239.3027
 324  407.125
 325  490.4074
 326  275.7122
 327  71.06367
 328  145.1661
 329  289.1941
 330  452.5102
 331  460.8053
 332  307.9109
 333  324.2819
 334  499.4719
 335  414.0827
 336  342.7352
 337  258.067
 338  389.3165
 339  569.5624
 340  543.9805
 341  460.4509
 342  361.424
 343  427.1724
 344  559.5443
 345  459.5721
 346  264.7166
 347  201.8716
 348  367.0135
 349  442.8621
 350  523.8849
 351  434.8842
 352  348.5306
 353  360.3908
 354  376.1419
 355  331.9676
 356  300.0455
 357  374.5462
 358  295.9124
 359  275.1508
 360  231.2458
 361  111.2021
 362  213.0435
 363  316.1479
 364  345.7432
 365  158.576
 366  93.31956
 367  262.8538
 368  404.0837
 369  365.8884
 370  237.7522
 371  82.19244
 372  376.5786
 373  539.4655
 374  385.3517
 375  182.9411
 376  268.9473
 377  388.5963
 378  448.0885
 379  452.7146
 380  216.2907
 381  247.4983
 382  474.1141
 383  548.6921
 384  375.6136
 385  225.4844
 386  314.1488
 387  466.0886
 388  390.507
 389  217.9782
 390  106.0248
 391  337.4836
 392  458.7785
 393  452.4468
 394  279.1077
 395  229.0602
 396  369.1082
 397  442.0567
 398  424.4899
 399  306.8166
 400  310.433
 401  382.8542
 402  357.1439
 403  318.8366
 404  174.6946
 405  201.7424
 406  330.2926
 407  357.7029
 408  319.3349
 409  239.2164
 410  265.4361
 411  388.0374
 412  434.1026
 413  284.8703
 414  208.644
 415  262.8523
 416  468.974
 417  433.2476
 418  312.3816
 419  201.0392
 420  214.5001
 421  324.8821
 422  366.5402
 423  319.1312
 424  277.9986
 425  409.2514
 426  363.4837
 427  274.3095
 428  221.63
 429  268.3051
 430  440.1581
 431  356.0742
 432  286.6531
 433  239.0789
 434  348.4534
 435  439.4054
 436  504.0352
 437  364.4917
 438  353.8867
 439  523.3928
 440  535.9202
 441  396.6385
 442  203.9733
 443  151.7615
 444  348.7916
 445  421.9483
 446  319.5269
 447  174.4344
 448  225.9033
 449  468.5193
 450  489.6005
 451  263.0462
 452  308.3197
 453  511.6564
 454  577.5116
 455  435.1794
 456  262.4547
 457  200.8131
 458  283.5964
 459  409.3825
 460  439.2152
 461  362.8424
 462  325.0515
 463  344.9305
 464  514.9534
 465  518.1573
 466  251.0294
 467  267.6214
 468  336.3278
 469  476.4556
 470  394.6268
 471  256.6369
 472  235.0211
 473  411.0368
 474  550.3359
 475  473.2531
 476  352.469
 477  317.7335
 478  450.7856
 479  462.0977
 480  298.2069
 481  293.488
 482  395.5726
 483  513.6075
 484  434.7473
 485  438.6132
 486  303.082
 487  499.223
 488  564.0049
 489  386.7346
 490  372.5348
 491  472.3031
 492  480.4715
 493  418.5976
 494  262.9281
 495  359.6635
 496  384.9455
 497  363.1342
 498  407.8816
 499  270.1868
 500  209.0595
 501  346.6287
 502  575.1685
 503  438.7112
 504  324.515
 505  286.1625
 506  489.7108
 507  558.8279
 508  439.3143
 509  304.9677
 510  255.4866
 511  449.7547
