# Input file       =  1182749466.114012_cleaned.dat
# Candidate        =  PSR_0332+5434
# Telescope        =  AR
# Epoch_topo       =  57933.229723541808
# Epoch_bary       =  N/A
# T_sample         =  0.002
# Data Folded      =  7340032
# Data Avg         =  0.026110046471501
# Data StdDev      =  1.00007077005679 
# Profile Bins     =  512
# Profile Avg      =  374.261321024711 
# Profile StdDev   =  119.74150989055  
# Reduced chi-sqr  =  1.162
# Prob(Noise)      <  0.00665   (~2.5 sigma)
# P_topo (ms)      =  714.490676161688  +/- 4.25e-05
# P'_topo (s/s)    =  -0                +/- 2.24e-11
# P''_topo (s/s^2) =  0                 +/- 9.91e-15
# P_bary (ms)      =  N/A
# P'_bary (s/s)    =  N/A
# P''_bary (s/s^2) =  N/A
# P_orb (s)        =  N/A
# asin(i)/c (s)    =  N/A
# eccentricity     =  N/A
# w (rad)          =  N/A
# T_peri           =  N/A
######################################################
   0  877.1633
   1  928.5765
   2  684.2839
   3  536.4667
   4  480.475
   5  317.1841
   6  336.5448
   7  464.4848
   8  524.6241
   9  413.0231
  10  368.286
  11  423.5159
  12  467.7098
  13  305.1729
  14  193.7104
  15  308.6888
  16  524.3703
  17  440.5932
  18  282.2271
  19  237.2229
  20  305.077
  21  393.9597
  22  427.1287
  23  410.6046
  24  520.0063
  25  363.73
  26  405.1045
  27  433.3538
  28  358.3096
  29  266.6192
  30  287.3502
  31  434.8769
  32  492.1625
  33  346.157
  34  375.9588
  35  384.5369
  36  425.36
  37  431.9833
  38  369.2462
  39  382.8072
  40  415.2111
  41  402.3455
  42  281.9615
  43  304.0476
  44  299.2965
  45  370.6666
  46  438.9025
  47  323.0573
  48  166.0625
  49  349.2217
  50  431.3008
  51  408.0923
  52  393.1173
  53  440.1086
  54  340.6848
  55  327.8317
  56  410.2693
  57  472.1877
  58  390.9986
  59  363.5487
  60  415.9427
  61  423.4512
  62  244.4981
  63  313.9409
  64  379.7886
  65  416.4436
  66  337.616
  67  278.354
  68  399.3027
  69  372.8212
  70  293.6545
  71  202.4848
  72  278.1102
  73  315.4698
  74  425.7056
  75  378.5121
  76  209.6684
  77  141.2832
  78  241.7432
  79  477.0156
  80  411.7323
  81  294.6467
  82  295.7444
  83  389.0024
  84  457.2303
  85  340.698
  86  218.4711
  87  257.6287
  88  379.213
  89  332.793
  90  277.2711
  91  312.8667
  92  347.2742
  93  354.3257
  94  289.5378
  95  223.8021
  96  272.1337
  97  411.1434
  98  473.213
  99  502.882
 100  445.1719
 101  301.7593
 102  259.1378
 103  401.2394
 104  389.5546
 105  429.3956
 106  365.8848
 107  419.1005
 108  486.507
 109  499.2814
 110  402.7237
 111  355.2413
 112  450.9365
 113  462.2428
 114  340.3148
 115  317.1092
 116  331.6721
 117  504.2363
 118  351.6985
 119  242.3766
 120  319.1045
 121  248.835
 122  263.5284
 123  393.7353
 124  355.77
 125  313.7241
 126  395.7964
 127  320.7294
 128  301.6125
 129  304.712
 130  357.5569
 131  360.6153
 132  277.446
 133  316.6071
 134  246.576
 135  158.0702
 136  220.9877
 137  312.7017
 138  206.3091
 139  173.2075
 140  275.4651
 141  339.2441
 142  416.9888
 143  287.7906
 144  259.9824
 145  289.393
 146  378.7296
 147  382.5815
 148  384.6303
 149  401.9955
 150  312.8822
 151  394.8584
 152  411.2264
 153  366.904
 154  377.5475
 155  464.7487
 156  455.2792
 157  456.5228
 158  332.9327
 159  352.7239
 160  436.6257
 161  308.1374
 162  283.8081
 163  339.4955
 164  315.2955
 165  401.9619
 166  264.5618
 167  345.8072
 168  384.082
 169  394.8867
 170  335.9716
 171  234.1723
 172  410.6015
 173  471.4846
 174  356.8859
 175  425.3601
 176  382.4187
 177  360.8838
 178  388.0999
 179  407.4143
 180  416.6606
 181  341.5449
 182  385.3046
 183  489.4185
 184  528.1904
 185  325.419
 186  273.864
 187  294.1204
 188  390.4791
 189  408.1859
 190  461.7489
 191  459.9291
 192  345.2944
 193  466.4487
 194  405.8012
 195  369.5967
 196  300.8517
 197  389.1499
 198  364.845
 199  453.4148
 200  434.2002
 201  248.6113
 202  133.9012
 203  284.2934
 204  344.3434
 205  295.9636
 206  311.3994
 207  407.9076
 208  481.8462
 209  380.9698
 210  223.9074
 211  215.0554
 212  365.6815
 213  373.3805
 214  329.775
 215  414.3042
 216  237.3959
 217  296.2172
 218  426.0292
 219  416.7675
 220  506.3387
 221  547.3007
 222  597.8422
 223  471.0939
 224  316.1571
 225  219.672
 226  315.4243
 227  418.9772
 228  440.195
 229  459.5486
 230  424.2967
 231  505.0657
 232  532.0463
 233  476.9261
 234  339.5797
 235  450.6258
 236  521.6657
 237  380.2453
 238  310.2297
 239  359.0175
 240  407.2998
 241  493.3818
 242  514.1757
 243  395.7601
 244  275.3871
 245  370.9982
 246  336.9034
 247  337.1434
 248  374.4455
 249  371.7636
 250  411.2534
 251  368.4726
 252  300.1258
 253  335.0491
 254  246.6037
 255  273.1046
 256  363.786
 257  374.6274
 258  352.9236
 259  317.8132
 260  267.7228
 261  359.7184
 262  391.3326
 263  404.5747
 264  340.1114
 265  254.1483
 266  379.1944
 267  347.5682
 268  294.525
 269  412.6566
 270  352.4225
 271  454.8229
 272  276.1727
 273  282.4668
 274  341.1705
 275  441.1859
 276  439.7088
 277  156.8791
 278  247.5455
 279  376.391
 280  408.9956
 281  332.1276
 282  298.6622
 283  420.6875
 284  435.1117
 285  323.5374
 286  385.3854
 287  264.4216
 288  321.1534
 289  421.2616
 290  443.8128
 291  322.0164
 292  346.6228
 293  375.7869
 294  327.9483
 295  332.9308
 296  342.9773
 297  275.4201
 298  258.1823
 299  288.9686
 300  331.668
 301  284.9721
 302  386.3468
 303  427.0837
 304  268.8056
 305  217.2874
 306  285.656
 307  292.899
 308  365.7339
 309  363.3037
 310  230.8193
 311  325.73
 312  486.7359
 313  487.7561
 314  437.0051
 315  328.087
 316  315.2399
 317  414.2213
 318  386.8198
 319  605.5536
 320  488.1898
 321  436.9762
 322  446.8103
 323  479.1078
 324  447.3557
 325  470.3935
 326  502.084
 327  508.5373
 328  439.2434
 329  390.0648
 330  391.0068
 331  433.9295
 332  330.4626
 333  303.6237
 334  324.8891
 335  269.0692
 336  438.7962
 337  493.5317
 338  495.7269
 339  422.8945
 340  396.4364
 341  408.1829
 342  381.1266
 343  392.9064
 344  354.6139
 345  358.2805
 346  436.6675
 347  498.3042
 348  376.0286
 349  368.3401
 350  251.4215
 351  330.0612
 352  468.1301
 353  411.3789
 354  318.1666
 355  383.7788
 356  488.8939
 357  490.1341
 358  409.7977
 359  342.6441
 360  423.828
 361  502.3588
 362  431.7738
 363  329.2647
 364  333.9711
 365  348.3871
 366  380.0872
 367  355.6623
 368  363.5966
 369  469.8349
 370  513.4347
 371  482.3167
 372  281.7166
 373  302.1142
 374  456.165
 375  361.4843
 376  410.8124
 377  309.7885
 378  333.095
 379  310.6658
 380  314.7971
 381  324.6391
 382  393.5145
 383  417.8564
 384  440.1445
 385  371.4476
 386  458.1743
 387  404.0124
 388  367.524
 389  390.813
 390  435.1875
 391  411.8871
 392  401.5139
 393  493.0456
 394  549.5548
 395  483.4016
 396  412.2014
 397  433.7434
 398  434.3249
 399  287.3167
 400  322.0584
 401  370.8314
 402  326.7325
 403  430.9432
 404  458.4049
 405  487.3977
 406  291.6525
 407  331.2684
 408  473.3956
 409  435.5746
 410  358.5388
 411  352.9599
 412  381.2189
 413  400.8961
 414  512.266
 415  329.8528
 416  260.8093
 417  294.9392
 418  280.6903
 419  344.8682
 420  251.0753
 421  286.2768
 422  401.8169
 423  421.2576
 424  416.4054
 425  421.0984
 426  404.8622
 427  414.2602
 428  447.0342
 429  384.4005
 430  380.4378
 431  257.24
 432  286.7386
 433  340.1525
 434  406.8167
 435  414.8271
 436  307.1142
 437  377.9595
 438  397.8736
 439  323.5698
 440  411.6716
 441  455.2448
 442  455.5575
 443  439.912
 444  488.7104
 445  438.2488
 446  408.4519
 447  460.4739
 448  440.6827
 449  447.402
 450  231.1208
 451  233.7594
 452  398.4685
 453  507.3215
 454  400.0068
 455  441.969
 456  402.5401
 457  331.0735
 458  326.2962
 459  414.2685
 460  482.5022
 461  471.492
 462  486.0885
 463  539.5643
 464  366.6926
 465  307.2572
 466  221.4086
 467  400.6179
 468  270.278
 469  300.7681
 470  352.7465
 471  429.298
 472  401.3739
 473  247.0864
 474  291.1397
 475  265.2758
 476  257.0227
 477  236.3982
 478  205.2126
 479  176.902
 480  261.5239
 481  363.3167
 482  165.2479
 483  150.0728
 484  222.9704
 485  333.9438
 486  339.1379
 487  297.507
 488  336.045
 489  443.7835
 490  409.4334
 491  411.1382
 492  485.5906
 493  346.5555
 494  175.9987
 495  357.7327
 496  412.7495
 497  382.1044
 498  395.5422
 499  400.6965
 500  451.3129
 501  343.5176
 502  286.1015
 503  387.1602
 504  398.9802
 505  385.7587
 506  409.5929
 507  400.6786
 508  496.2186
 509  687.1851
 510  832.2923
 511  787.5307
