# Input file       =  1182390233.108874_cleaned.dat
# Candidate        =  PSR_0332+5434
# Telescope        =  AR
# Epoch_topo       =  57929.071934130487
# Epoch_bary       =  N/A
# T_sample         =  0.002
# Data Folded      =  7143424
# Data Avg         =  0.0195645552625004
# Data StdDev      =  0.99999594995103 
# Profile Bins     =  512
# Profile Avg      =  272.956069712341 
# Profile StdDev   =  118.118106095816 
# Reduced chi-sqr  =  1.686
# Prob(Noise)      <  2.39e-20   (~9.2 sigma)
# P_topo (ms)      =  714.49417682247   +/- 0.000137
# P'_topo (s/s)    =  -0                +/- 7.43e-11
# P''_topo (s/s^2) =  0                 +/- 3.37e-14
# P_bary (ms)      =  N/A
# P'_bary (s/s)    =  N/A
# P''_bary (s/s^2) =  N/A
# P_orb (s)        =  N/A
# asin(i)/c (s)    =  N/A
# eccentricity     =  N/A
# w (rad)          =  N/A
# T_peri           =  N/A
######################################################
   0  1101.379
   1  892.4395
   2  681.2379
   3  407.9333
   4  449.7571
   5  359.8477
   6  254.652
   7  305.1935
   8  439.3835
   9  286.4438
  10  254.1221
  11  197.7871
  12  180.4246
  13  298.7118
  14  348.415
  15  409.4305
  16  362.8162
  17  278.906
  18  184.4437
  19  199.6315
  20  180.0871
  21  218.3228
  22  359.3289
  23  412.0817
  24  295.981
  25  245.1
  26  243.9292
  27  267.3048
  28  302.6895
  29  247.9673
  30  396.5911
  31  355.5168
  32  300.8774
  33  167.4426
  34  207.1391
  35  232.5331
  36  187.6279
  37  191.6031
  38  240.5157
  39  174.439
  40  248.7265
  41  169.13
  42  91.9748
  43  274.7142
  44  313.6838
  45  272.9144
  46  268.4465
  47  323.5254
  48  330.7248
  49  331.3472
  50  234.4247
  51  321.4213
  52  288.5483
  53  183.7854
  54  364.0067
  55  292.6551
  56  298.3218
  57  296.5628
  58  293.331
  59  385.4388
  60  309.601
  61  309.8352
  62  213.646
  63  320.624
  64  410.3245
  65  461.481
  66  381.9059
  67  328.9556
  68  245.3572
  69  273.7108
  70  248.8301
  71  250.9167
  72  328.1789
  73  362.3336
  74  154.6083
  75  166.8349
  76  236.7007
  77  301.9269
  78  229.0475
  79  345.7946
  80  349.2383
  81  347.137
  82  254.4733
  83  212.9281
  84  152.0146
  85  200.1808
  86  247.383
  87  286.8338
  88  309.2202
  89  421.8162
  90  340.1458
  91  307.0989
  92  262.4846
  93  307.7305
  94  304.4969
  95  304.9164
  96  246.0165
  97  210.6025
  98  302.9993
  99  301.2478
 100  274.1444
 101  278.1481
 102  146.9738
 103  23.63357
 104  232.362
 105  245.4907
 106  175.1467
 107  184.2915
 108  273.138
 109  308.0729
 110  351.1769
 111  232.4482
 112  248.2741
 113  256.7952
 114  218.5874
 115  296.8015
 116  257.9933
 117  220.4686
 118  64.61946
 119  99.43108
 120  241.4955
 121  306.8761
 122  436.6394
 123  449.6312
 124  243.344
 125  159.5325
 126  168.1863
 127  293.7498
 128  265.5959
 129  219.4793
 130  271.6246
 131  259.4141
 132  336.6446
 133  276.547
 134  319.0511
 135  259.6503
 136  371.1707
 137  398.4707
 138  270.6875
 139  87.19625
 140  95.06651
 141  208.7506
 142  376.8954
 143  440.8923
 144  374.862
 145  356.9332
 146  280.5027
 147  315.451
 148  305.8603
 149  280.0213
 150  224.7871
 151  222.0257
 152  410.0602
 153  314.0764
 154  307.6073
 155  243.0865
 156  193.1527
 157  269.2448
 158  357.6717
 159  347.4693
 160  206.3251
 161  215.3069
 162  258.5505
 163  351.7778
 164  227.5216
 165  103.7572
 166  168.1846
 167  189.2125
 168  254.2034
 169  195.722
 170  257.3069
 171  297.6905
 172  237.6756
 173  305.3485
 174  138.5422
 175  95.87167
 176  361.5121
 177  286.9803
 178  323.2037
 179  295.5265
 180  379.0411
 181  439.4196
 182  324.2871
 183  312.554
 184  274.0666
 185  247.7428
 186  275.3174
 187  349.4178
 188  237.4671
 189  281.3441
 190  234.3293
 191  285.322
 192  230.611
 193  197.6393
 194  380.4882
 195  334.7283
 196  194.047
 197  164.407
 198  224.9
 199  301.1553
 200  245.9474
 201  277.6181
 202  320.4373
 203  250.5732
 204  225.9237
 205  253.8198
 206  293.8108
 207  166.7331
 208  197.5141
 209  242.5031
 210  275.5922
 211  232.4402
 212  277.9738
 213  348.1556
 214  332.8044
 215  154.3647
 216  216.6495
 217  239.9449
 218  229.6087
 219  360.1602
 220  404.2055
 221  393.4789
 222  282.6571
 223  125.2347
 224  88.59943
 225  148.9432
 226  149.6869
 227  357.7999
 228  302.2558
 229  132.2586
 230  141.7958
 231  189.9372
 232  269.8741
 233  203.7365
 234  66.67655
 235  123.5806
 236  193.1776
 237  268.2389
 238  260.0783
 239  124.2861
 240  140.0596
 241  218.3077
 242  193.4857
 243  137.7892
 244  126.6694
 245  177.5688
 246  165.7873
 247  197.7648
 248  146.3039
 249  193.0066
 250  203.8701
 251  204.8638
 252  244.4005
 253  286.4466
 254  224.6451
 255  351.9372
 256  476.8023
 257  245.9656
 258  151.4757
 259  172.249
 260  145.6656
 261  180.0913
 262  265.475
 263  359.439
 264  328.9781
 265  309.7219
 266  163.8832
 267  105.3762
 268  233.4017
 269  320.5918
 270  262.7165
 271  226.5445
 272  184.7404
 273  340.5565
 274  339.2734
 275  256.7388
 276  140.2647
 277  295.2057
 278  308.3626
 279  178.819
 280  243.6889
 281  241.3752
 282  223.6617
 283  289.7365
 284  144.7941
 285  186.3481
 286  334.4263
 287  224.4454
 288  291.918
 289  267.7445
 290  234.6447
 291  62.02792
 292  84.5332
 293  179.0243
 294  224.383
 295  243.9941
 296  250.6052
 297  177.1826
 298  326.5965
 299  268.8902
 300  226.9422
 301  308.5
 302  280.1647
 303  278.0521
 304  387.4117
 305  347.6899
 306  248.9473
 307  282.1952
 308  184.34
 309  187.1507
 310  264.2027
 311  225.5096
 312  157.6028
 313  73.68842
 314  267.8654
 315  214.7562
 316  150.4176
 317  201.2915
 318  349.4277
 319  289.4721
 320  88.70763
 321  117.3444
 322  204.789
 323  284.7843
 324  209.6564
 325  207.664
 326  223.8475
 327  433.7798
 328  551.6022
 329  388.2389
 330  344.6103
 331  249.4487
 332  295.3451
 333  232.5925
 334  189.4755
 335  195.0562
 336  302.2339
 337  303.6544
 338  298.0741
 339  176.5818
 340  133.0128
 341  206.6917
 342  178.5824
 343  334.6175
 344  481.4901
 345  428.1272
 346  368.2154
 347  408.2087
 348  358.0057
 349  303.9869
 350  343.4058
 351  280.5385
 352  347.0402
 353  280.8279
 354  367.8168
 355  299.5146
 356  235.6596
 357  218.5413
 358  268.7981
 359  160.0595
 360  227.2081
 361  230.8842
 362  313.3066
 363  415.4148
 364  327.055
 365  341.4674
 366  391.3919
 367  398.4961
 368  282.1672
 369  250.6436
 370  373.9551
 371  387.0612
 372  354.2036
 373  384.5742
 374  229.7057
 375  249.2379
 376  283.5462
 377  320.4287
 378  325.0873
 379  362.7921
 380  253.8521
 381  215.1407
 382  155.1369
 383  237.5474
 384  330.2466
 385  322.4162
 386  353.3919
 387  272.686
 388  180.7753
 389  162.7848
 390  171.7507
 391  188.9402
 392  185.2211
 393  191.3798
 394  177.7693
 395  324.4777
 396  261.422
 397  314.7613
 398  215.091
 399  361.4999
 400  266.0168
 401  170.0459
 402  231.7149
 403  270.5172
 404  166.695
 405  100.3054
 406  56.50339
 407  177.9675
 408  191.0033
 409  121.3067
 410  264.1948
 411  369.6793
 412  311.35
 413  368.0039
 414  360.531
 415  406.4334
 416  332.6527
 417  333.4371
 418  376.555
 419  325.0816
 420  337.0815
 421  408.5389
 422  373.0671
 423  314.3596
 424  242.5799
 425  223.4127
 426  368.2008
 427  370.0919
 428  437.7679
 429  305.7941
 430  171.8463
 431  162.1886
 432  195.8621
 433  248.4743
 434  307.49
 435  282.9074
 436  334.0133
 437  236.3517
 438  103.0963
 439  64.87465
 440  217.9136
 441  279.006
 442  217.6534
 443  258.7951
 444  300.3616
 445  240.767
 446  212.5464
 447  340.5299
 448  337.3607
 449  139.5872
 450  130.6904
 451  313.1459
 452  204.6886
 453  174.9967
 454  156.6419
 455  232.5537
 456  229.7909
 457  206.2112
 458  213.1287
 459  301.9792
 460  190.1377
 461  141.4269
 462  189.481
 463  184.7818
 464  243.2666
 465  152.3531
 466  247.8844
 467  168.096
 468  173.434
 469  212.9552
 470  384.953
 471  368.708
 472  235.4713
 473  294.363
 474  232.3968
 475  150.759
 476  206.0221
 477  358.651
 478  270.9643
 479  336.8507
 480  332.6427
 481  208.5928
 482  276.4933
 483  284.0117
 484  189.2885
 485  296.8434
 486  376.6892
 487  370.0278
 488  315.865
 489  336.0069
 490  332.0933
 491  174.9424
 492  217.9624
 493  305.2296
 494  264.9911
 495  366.8996
 496  356.0104
 497  309.8057
 498  348.978
 499  289.4081
 500  198.4969
 501  367.6957
 502  328.5664
 503  347.9214
 504  531.7774
 505  457.0486
 506  403.3785
 507  421.3331
 508  477.4627
 509  856.475
 510  951.0493
 511  1055.507
