# Input file       =  1182577136.109246_cleaned.dat
# Candidate        =  PSR_0332+5434
# Telescope        =  AR
# Epoch_topo       =  57931.235163301455
# Epoch_bary       =  N/A
# T_sample         =  0.002
# Data Folded      =  7340032
# Data Avg         =  0.0268914633032193
# Data StdDev      =  0.999975662686494
# Profile Bins     =  512
# Profile Avg      =  385.461919940712 
# Profile StdDev   =  119.730122396323 
# Reduced chi-sqr  =  1.268
# Prob(Noise)      <  3.53e-05   (~4.0 sigma)
# P_topo (ms)      =  714.49234033252   +/- 0.000263
# P'_topo (s/s)    =  -0                +/- 1.39e-10
# P''_topo (s/s^2) =  0                 +/- 6.14e-14
# P_bary (ms)      =  N/A
# P'_bary (s/s)    =  N/A
# P''_bary (s/s^2) =  N/A
# P_orb (s)        =  N/A
# asin(i)/c (s)    =  N/A
# eccentricity     =  N/A
# w (rad)          =  N/A
# T_peri           =  N/A
######################################################
   0  900.1757
   1  996.3798
   2  955.6716
   3  735.3708
   4  575.9429
   5  458.6981
   6  467.3804
   7  481.592
   8  395.0382
   9  449.3755
  10  414.9478
  11  347.2569
  12  432.9101
  13  475.948
  14  357.3492
  15  465.9132
  16  533.8679
  17  491.3713
  18  469.8065
  19  486.55
  20  435.4394
  21  414.7891
  22  322.0896
  23  397.5132
  24  336.0326
  25  300.5425
  26  332.2545
  27  437.2468
  28  429.3716
  29  392.9156
  30  454.4893
  31  367.6254
  32  459.6108
  33  529.6462
  34  470.7729
  35  330.6396
  36  404.9709
  37  261.7406
  38  276.7354
  39  424.5183
  40  463.5793
  41  432.0569
  42  412.0293
  43  343.1607
  44  315.6103
  45  318.4619
  46  393.7487
  47  415.4964
  48  459.4655
  49  415.5719
  50  495.7723
  51  545.1714
  52  460.7018
  53  424.5549
  54  499.5258
  55  496.2895
  56  347.0826
  57  317.9409
  58  435.1357
  59  357.4417
  60  282.7286
  61  257.0196
  62  291.7209
  63  409.878
  64  441.4652
  65  333.9601
  66  453.8786
  67  445.2094
  68  411.6052
  69  304.3329
  70  362.8661
  71  466.5473
  72  527.9649
  73  450.7665
  74  393.0847
  75  441.58
  76  528.6141
  77  365.8958
  78  293.6772
  79  229.1249
  80  354.913
  81  334.5016
  82  330.0641
  83  383.8464
  84  318.6437
  85  456.8188
  86  499.2073
  87  455.6821
  88  413.0998
  89  407.5526
  90  339.6781
  91  437.7984
  92  457.8762
  93  427.6126
  94  558.0878
  95  504.737
  96  388.0149
  97  366.0528
  98  397.5243
  99  376.0193
 100  377.9743
 101  345.7464
 102  390.3111
 103  414.0901
 104  424.2055
 105  463.5131
 106  400.6938
 107  394.0817
 108  327.8715
 109  498.4148
 110  489.2389
 111  359.648
 112  421.0571
 113  519.5247
 114  557.4929
 115  484.5237
 116  465.6332
 117  275.5927
 118  335.9436
 119  524.7905
 120  471.2079
 121  498.5774
 122  615.1434
 123  510.1254
 124  348.4251
 125  465.1016
 126  377.116
 127  360.7
 128  510.8628
 129  448.7724
 130  364.45
 131  407.5616
 132  372.1757
 133  434.3295
 134  501.7288
 135  454.4333
 136  282.3549
 137  373.902
 138  418.9067
 139  493.2865
 140  493.3617
 141  436.4992
 142  441.6303
 143  313.0879
 144  291.2283
 145  196.7303
 146  275.371
 147  228.7211
 148  186.8288
 149  335.0841
 150  332.7515
 151  346.9415
 152  271.9235
 153  278.9224
 154  290.1723
 155  315.2995
 156  291.6915
 157  216.4956
 158  300.0922
 159  250.2828
 160  274.916
 161  331.9601
 162  264.7187
 163  299.0975
 164  341.5169
 165  315.9472
 166  287.7667
 167  321.3577
 168  304.0462
 169  399.1523
 170  435.7733
 171  402.0718
 172  285.5036
 173  294.6077
 174  395.4054
 175  424.2935
 176  516.0619
 177  426.1378
 178  368.7839
 179  368.6904
 180  319.894
 181  300.0518
 182  411.2559
 183  487.6426
 184  446.9155
 185  393.5909
 186  332.0597
 187  346.5384
 188  412.364
 189  422.3988
 190  373.9133
 191  456.5742
 192  309.3003
 193  256.4071
 194  256.7169
 195  286.7722
 196  327.0938
 197  379.2014
 198  300.2737
 199  299.9488
 200  293.5428
 201  310.0831
 202  307.0807
 203  262.18
 204  470.2141
 205  481.2466
 206  431.1495
 207  363.768
 208  385.1177
 209  388.9059
 210  412.6676
 211  378.4401
 212  421.9029
 213  411.1294
 214  551.0705
 215  502.6717
 216  424.4998
 217  394.958
 218  485.7909
 219  390.0553
 220  250.9648
 221  339.2252
 222  325.7313
 223  296.3904
 224  279.9477
 225  292.595
 226  289.2701
 227  331.2599
 228  287.3812
 229  318.9392
 230  423.0183
 231  495.5181
 232  476.2996
 233  449.3865
 234  415.3546
 235  294.4378
 236  278.7282
 237  232.6753
 238  306.6656
 239  308.5108
 240  328.9882
 241  385.4621
 242  500.9711
 243  554.9376
 244  418.4711
 245  305.8897
 246  255.1959
 247  333.6077
 248  470.0526
 249  538.7618
 250  556.1725
 251  435.5667
 252  368.0159
 253  423.3873
 254  460.2714
 255  364.7659
 256  344.368
 257  518.3316
 258  392.0029
 259  299.5197
 260  242.2424
 261  313.1364
 262  383.3642
 263  328.8975
 264  390.4315
 265  409.1955
 266  371.8058
 267  293.0683
 268  253.6917
 269  242.0133
 270  379.2453
 271  413.9075
 272  329.5853
 273  274.5398
 274  218.6925
 275  388.3454
 276  387.0817
 277  355.2679
 278  333.8246
 279  294.4383
 280  424.4107
 281  492.6056
 282  301.2088
 283  403.0727
 284  451.8255
 285  400.4426
 286  376.1069
 287  301.2127
 288  241.263
 289  299.0892
 290  452.7651
 291  403.2774
 292  177.2082
 293  210.6079
 294  334.7117
 295  377.3513
 296  346.5191
 297  347.9903
 298  365.5694
 299  393.8064
 300  376.3532
 301  386.662
 302  388.235
 303  404.9977
 304  331.8146
 305  304.5347
 306  291.4256
 307  357.6691
 308  395.3311
 309  394.9368
 310  359.0266
 311  376.3768
 312  313.2381
 313  384.2514
 314  395.1579
 315  356.8545
 316  362.4969
 317  243.187
 318  263.1915
 319  420.9547
 320  359.8269
 321  514.3277
 322  510.0251
 323  329.5867
 324  321.8565
 325  222.9323
 326  266.5507
 327  319.6742
 328  370.4408
 329  407.4473
 330  384.5267
 331  373.9203
 332  333.0155
 333  440.317
 334  468.8751
 335  480.1103
 336  502.6575
 337  480.0677
 338  532.6406
 339  382.8372
 340  404.8416
 341  450.8414
 342  441.6004
 343  488.072
 344  354.4357
 345  397.5329
 346  411.247
 347  457.2803
 348  533.8263
 349  422.9028
 350  348.1977
 351  423.4625
 352  551.0394
 353  547.2524
 354  521.9774
 355  419.3835
 356  403.3295
 357  324.2218
 358  355.926
 359  351.36
 360  351.8819
 361  348.7448
 362  404.9874
 363  289.6689
 364  299.0409
 365  262.0281
 366  278.6231
 367  312.9191
 368  226.833
 369  203.849
 370  237.6259
 371  256.5862
 372  194.4619
 373  275.1115
 374  342.7054
 375  275.5146
 376  391.2589
 377  351.8229
 378  356.2386
 379  323.2829
 380  365.1511
 381  255.2253
 382  208.5177
 383  186.3842
 384  227.3822
 385  367.5674
 386  328.0408
 387  345.4782
 388  332.0862
 389  278.9898
 390  283.4975
 391  205.2999
 392  414.5169
 393  334.3223
 394  370.9307
 395  400.4257
 396  392.6474
 397  513.1667
 398  508.6964
 399  447.9143
 400  261.724
 401  308.0843
 402  433.1753
 403  377.6912
 404  390.0748
 405  368.4103
 406  440.0047
 407  336.4585
 408  298.2822
 409  402.7881
 410  302.8816
 411  289.0072
 412  317.8777
 413  408.9086
 414  419.31
 415  365.2571
 416  360.9626
 417  318.5913
 418  406.9017
 419  481.37
 420  489.8429
 421  419.9542
 422  414.5486
 423  370.6383
 424  378.6682
 425  384.0017
 426  325.8913
 427  410.7808
 428  518.3824
 429  367.8257
 430  386.247
 431  470.6084
 432  370.7033
 433  340.5191
 434  342.0179
 435  184.8177
 436  194.2306
 437  272.1585
 438  400.4881
 439  435.6057
 440  436.4033
 441  355.8363
 442  334.576
 443  484.2322
 444  356.8852
 445  322.7992
 446  303.7574
 447  430.1103
 448  356.0171
 449  263.8104
 450  328.6691
 451  355.9576
 452  406.2127
 453  433.564
 454  344.9356
 455  410.3001
 456  378.5878
 457  290.6357
 458  416.9217
 459  334.1901
 460  324.8036
 461  329.0189
 462  419.0307
 463  454.8877
 464  543.28
 465  447.2929
 466  343.6839
 467  397.0369
 468  384.9902
 469  316.1661
 470  376.6223
 471  322.7587
 472  325.5926
 473  406.965
 474  391.8173
 475  344.4885
 476  399.6129
 477  442.7172
 478  409.7792
 479  380.5215
 480  363.4942
 481  404.3456
 482  300.9167
 483  370.8678
 484  429.8823
 485  342.3504
 486  343.6656
 487  368.5098
 488  390.8648
 489  333.4985
 490  328.6992
 491  426.6908
 492  473.532
 493  360.5082
 494  439.4423
 495  430.7806
 496  429.3954
 497  328.9943
 498  324.3183
 499  391.7536
 500  423.83
 501  333.094
 502  262.8511
 503  328.4457
 504  490.9295
 505  496.6556
 506  431.6154
 507  583.4187
 508  757.4886
 509  683.3652
 510  725.717
 511  833.3162
