# Input file       =  1182577136.109246_cleaned.dat
# Candidate        =  PSR_0332+5434
# Telescope        =  AR
# Epoch_topo       =  57931.235163301455
# Epoch_bary       =  N/A
# T_sample         =  0.002
# Data Folded      =  7340032
# Data Avg         =  0.0268914633032193
# Data StdDev      =  0.999975662686494
# Profile Bins     =  512
# Profile Avg      =  385.461950858144 
# Profile StdDev   =  119.730122396323 
# Reduced chi-sqr  =  1.270
# Prob(Noise)      <  3.17e-05   (~4.0 sigma)
# P_topo (ms)      =  714.492341531042  +/- 0.000261
# P'_topo (s/s)    =  -0                +/- 1.38e-10
# P''_topo (s/s^2) =  0                 +/- 6.09e-14
# P_bary (ms)      =  N/A
# P'_bary (s/s)    =  N/A
# P''_bary (s/s^2) =  N/A
# P_orb (s)        =  N/A
# asin(i)/c (s)    =  N/A
# eccentricity     =  N/A
# w (rad)          =  N/A
# T_peri           =  N/A
######################################################
   0  472.8792
   1  402.8863
   2  407.2134
   3  372.3895
   4  375.3519
   5  368.8539
   6  313.9839
   7  503.0167
   8  454.6134
   9  335.5142
  10  453.3989
  11  424.9316
  12  348.4708
  13  359.1132
  14  279.6474
  15  169.6792
  16  205.0785
  17  345.1167
  18  421.0223
  19  445.5659
  20  410.7102
  21  314.1028
  22  412.6899
  23  445.5644
  24  333.7195
  25  303.7096
  26  367.5468
  27  415.9777
  28  299.2968
  29  272.0593
  30  362.0365
  31  347.6932
  32  474.0486
  33  360.7408
  34  380.2599
  35  403.3476
  36  321.4684
  37  340.6747
  38  408.1192
  39  312.2102
  40  319.083
  41  375.4565
  42  425.2581
  43  521.4404
  44  499.7633
  45  390.0381
  46  329.0633
  47  443.0478
  48  320.9259
  49  361.0486
  50  352.0816
  51  310.3166
  52  363.4293
  53  428.3473
  54  362.2193
  55  356.7907
  56  420.7447
  57  447.2423
  58  384.4641
  59  369.8587
  60  365.843
  61  390.5923
  62  290.0215
  63  441.0961
  64  380.1443
  65  328.722
  66  362.6716
  67  368.4661
  68  367.764
  69  317.1968
  70  360.6522
  71  480.6891
  72  415.9069
  73  387.5731
  74  448.7825
  75  422.71
  76  404.604
  77  290.0578
  78  377.2266
  79  403.2162
  80  413.7126
  81  277.4034
  82  279.8882
  83  398.6233
  84  517.0229
  85  455.3084
  86  466.486
  87  693.196
  88  737.5758
  89  685.1869
  90  772.2654
  91  874.0513
  92  934.8555
  93  1015.791
  94  841.9777
  95  663.6528
  96  516.1028
  97  443.3593
  98  508.2398
  99  429.3411
 100  412.9369
 101  446.1566
 102  387.2225
 103  355.0029
 104  491.2129
 105  392.2387
 106  403.4397
 107  485.2786
 108  552.2325
 109  448.2969
 110  500.417
 111  443.518
 112  434.3928
 113  381.3356
 114  344.5749
 115  399.0873
 116  296.5201
 117  311.8433
 118  367.5131
 119  464.5689
 120  387.103
 121  431.4682
 122  412.0527
 123  389.8701
 124  519.4778
 125  531.5662
 126  376.5112
 127  366.2119
 128  354.0328
 129  232.7549
 130  354.0981
 131  459.2704
 132  450.4676
 133  413.9708
 134  383.0343
 135  331.5288
 136  310.2744
 137  357.5484
 138  400.0547
 139  429.0202
 140  450.7145
 141  432.3616
 142  535.2372
 143  517.6752
 144  424.9788
 145  450.0211
 146  521.9916
 147  439.7891
 148  308.5539
 149  375.3985
 150  421.4936
 151  306.3025
 152  273.5572
 153  261.4604
 154  324.278
 155  474.0197
 156  366.2459
 157  381.8048
 158  464.8786
 159  428.2636
 160  380.9466
 161  293.8699
 162  427.4395
 163  491.34
 164  507.1548
 165  414.081
 166  388.7132
 167  501.3835
 168  466.6415
 169  326.9356
 170  260.8412
 171  280.2121
 172  367.5124
 173  311.5599
 174  356.8999
 175  369.3176
 176  340.1676
 177  515.0713
 178  467.043
 179  447.9445
 180  391.3239
 181  393.1563
 182  355.2295
 183  485.573
 184  414.7019
 185  480.1553
 186  562.6273
 187  452.7362
 188  363.1714
 189  393.3546
 190  384.106
 191  375.0598
 192  354.6046
 193  367.9597
 194  396.7703
 195  424.4706
 196  438.8996
 197  441.8997
 198  393.798
 199  364.1268
 200  374.0259
 201  542.4076
 202  426.1289
 203  352.1508
 204  484.8979
 205  534.3818
 206  544.2122
 207  483.5
 208  391.3291
 209  243.0741
 210  446.704
 211  508.7793
 212  469.7114
 213  555.3139
 214  618.8016
 215  388.4078
 216  398.8805
 217  442.197
 218  352.6214
 219  415.0388
 220  529.7681
 221  370.6068
 222  390.5227
 223  399.8598
 224  389.5786
 225  481.0548
 226  493.7048
 227  373.7355
 228  274.9348
 229  424.0073
 230  439.0561
 231  522.1988
 232  448.188
 233  454.3702
 234  381.2747
 235  318.7737
 236  229.1564
 237  226.7178
 238  277.7144
 239  179.9055
 240  252.8008
 241  339.1951
 242  340.9964
 243  320.5192
 244  264.3289
 245  287.8376
 246  290.9488
 247  328.3367
 248  244.96
 249  250.753
 250  300.5499
 251  230.7478
 252  318.4551
 253  298.6477
 254  268.0057
 255  323.7462
 256  343.0568
 257  287.3644
 258  303.451
 259  329.8594
 260  309.6031
 261  461.9285
 262  388.6105
 263  377.5102
 264  253.174
 265  355.0948
 266  403.5392
 267  482.4035
 268  477.2867
 269  402.9286
 270  347.0329
 271  374.6835
 272  276.8247
 273  353.4343
 274  441.6689
 275  505.1475
 276  397.9411
 277  387.549
 278  308.2098
 279  385.7374
 280  428.5742
 281  385.8578
 282  411.5928
 283  427.5962
 284  258.3567
 285  257.2452
 286  271.0064
 287  287.4408
 288  365.4916
 289  351.4207
 290  288.5858
 291  298.9853
 292  304.8623
 293  314.015
 294  264.4126
 295  339.774
 296  507.0332
 297  468.9823
 298  395.2691
 299  379.862
 300  369.0195
 301  414.8388
 302  380.6597
 303  418.771
 304  389.9136
 305  483.5311
 306  526.5864
 307  478.9894
 308  398.5074
 309  448.0384
 310  476.0837
 311  290.0149
 312  284.6925
 313  343.9699
 314  312.1916
 315  285.0862
 316  288.0456
 317  283.0756
 318  303.2956
 319  326.0905
 320  274.354
 321  372.617
 322  445.2592
 323  524.7562
 324  442.1933
 325  450.9225
 326  356.1323
 327  278.1976
 328  270.1988
 329  249.504
 330  313.6871
 331  318.8585
 332  347.5419
 333  451.3907
 334  527.3688
 335  515.396
 336  347.3003
 337  283.2323
 338  266.352
 339  404.3531
 340  496.675
 341  567.9304
 342  512.091
 343  381.8062
 344  396.5919
 345  433.1178
 346  459.9711
 347  303.5406
 348  448.1848
 349  467.9454
 350  349.1404
 351  262.2276
 352  264.8127
 353  344.5185
 354  364.7856
 355  341.6653
 356  420.8514
 357  385.8187
 358  352.7391
 359  262.5602
 360  246.8622
 361  268.3665
 362  435.6366
 363  366.3816
 364  314.0635
 365  237.4178
 366  270.1043
 367  437.7153
 368  343.8734
 369  360.8931
 370  316.0723
 371  319.36
 372  508.8967
 373  390.3206
 374  319.5875
 375  442.451
 376  426.4042
 377  387.5931
 378  361.8304
 379  261.82
 380  259.1429
 381  346.3907
 382  483.5305
 383  282.062
 384  154.9502
 385  291.7689
 386  348.8253
 387  383.6577
 388  327.5645
 389  354.465
 390  401.8376
 391  358.9454
 392  418.856
 393  339.586
 394  437.2102
 395  347.31
 396  329.8613
 397  280.7871
 398  320.5376
 399  392.4132
 400  397.3174
 401  376.4386
 402  359.699
 403  345.7416
 404  338.5719
 405  410.1273
 406  390.6092
 407  341.7306
 408  351.6739
 409  186.6289
 410  367.8728
 411  373.4903
 412  407.5383
 413  559.4661
 414  424.0327
 415  320.6137
 416  274.74
 417  235.7117
 418  290.035
 419  343.6665
 420  390.3624
 421  397.1771
 422  380.5642
 423  348.9154
 424  366.3073
 425  478.9517
 426  455.4766
 427  506.2134
 428  476.8957
 429  526.6375
 430  469.5804
 431  359.9037
 432  435.5133
 433  444.8638
 434  477.8129
 435  430.0967
 436  345.9212
 437  429.9537
 438  410.5537
 439  515.9602
 440  497.8801
 441  370.233
 442  365.2202
 443  497.7904
 444  546.9014
 445  553.7487
 446  461.2456
 447  411.6716
 448  364.9972
 449  335.7874
 450  361.5829
 451  352.1519
 452  326.5286
 453  396.9837
 454  339.3073
 455  295.0812
 456  288.737
 457  270.452
 458  298.7657
 459  298.3412
 460  177.6724
 461  226.796
 462  246.5019
 463  225.5242
 464  220.9635
 465  321.6866
 466  308.5067
 467  321.0696
 468  394.6649
 469  353.8764
 470  323.9986
 471  343.4929
 472  330.411
 473  214.8774
 474  218.9911
 475  160.6309
 476  317.6718
 477  358.2426
 478  329.2984
 479  345.955
 480  312.6927
 481  285.287
 482  225.8535
 483  280.8547
 484  417.8229
 485  324.4515
 486  399.3007
 487  376.1665
 488  453.1161
 489  513.4342
 490  512.5959
 491  364.4073
 492  243.6171
 493  387.3476
 494  396.8399
 495  385.1441
 496  365.5487
 497  421.0322
 498  410.0687
 499  295.7134
 500  357.4036
 501  362.1217
 502  280.9844
 503  297.6534
 504  356.1256
 505  435.1084
 506  383.5066
 507  375.4037
 508  333.9865
 509  338.89
 510  461.4548
 511  483.482
