# Input file       =  1182907142.112401_cleaned.dat
# Candidate        =  PSR_0332+5434
# Telescope        =  AR
# Epoch_topo       =  57935.054677226864
# Epoch_bary       =  N/A
# T_sample         =  0.002
# Data Folded      =  7143424
# Data Avg         =  0.0322308220697449
# Data StdDev      =  1.00001202255137 
# Profile Bins     =  512
# Profile Avg      =  449.765016978605 
# Profile StdDev   =  118.120004568616 
# Reduced chi-sqr  =  1.001
# Prob(Noise)      <  0.482   (~0.0 sigma)
# P_topo (ms)      =  714.489176919536  +/- 0.000341
# P'_topo (s/s)    =  -0                +/- 1.85e-10
# P''_topo (s/s^2) =  0                 +/- 8.39e-14
# P_bary (ms)      =  N/A
# P'_bary (s/s)    =  N/A
# P''_bary (s/s^2) =  N/A
# P_orb (s)        =  N/A
# asin(i)/c (s)    =  N/A
# eccentricity     =  N/A
# w (rad)          =  N/A
# T_peri           =  N/A
######################################################
   0  1065.926
   1  973.1377
   2  795.5447
   3  599.6699
   4  553.4225
   5  533.9651
   6  495.8865
   7  396.1736
   8  346.1607
   9  465.0183
  10  538.8965
  11  427.6055
  12  551.7379
  13  576.355
  14  501.1037
  15  502.0649
  16  496.4115
  17  417.5126
  18  467.1199
  19  347.906
  20  360.9162
  21  479.3213
  22  496.9286
  23  475.0186
  24  426.234
  25  349.7463
  26  370.2258
  27  475.6097
  28  415.7591
  29  457.475
  30  408.7617
  31  463.3436
  32  472.2434
  33  480.9146
  34  466.5632
  35  454.4955
  36  422.5527
  37  437.9379
  38  412.4579
  39  423.5423
  40  467.537
  41  448.4005
  42  512.5367
  43  516.9362
  44  494.9738
  45  523.0835
  46  562.054
  47  461.6602
  48  479.7353
  49  475.6266
  50  466.1303
  51  513.444
  52  408.133
  53  433.6652
  54  458.9979
  55  429.3464
  56  388.4123
  57  398.4996
  58  341.0156
  59  423.3298
  60  420.4511
  61  439.6539
  62  495.1707
  63  490.0944
  64  414.5775
  65  370.7814
  66  359.4073
  67  318.7187
  68  383.8746
  69  401.3873
  70  401.374
  71  504.9401
  72  475.7964
  73  472.8081
  74  479.4849
  75  446.8422
  76  405.8228
  77  478.3445
  78  438.7888
  79  555.6318
  80  414.5462
  81  407.8794
  82  400.0816
  83  367.8683
  84  475.7226
  85  399.4215
  86  434.8883
  87  409.1671
  88  397.2317
  89  389.9811
  90  369.8627
  91  385.1122
  92  389.9294
  93  351.7434
  94  322.4602
  95  451.3763
  96  384.2359
  97  227.3155
  98  231.0329
  99  230.2913
 100  285.7736
 101  396.7541
 102  412.2128
 103  400.9858
 104  521.4481
 105  422.519
 106  300.3285
 107  347.1622
 108  370.6157
 109  375.2639
 110  448.0492
 111  505.7182
 112  442.9868
 113  458.7047
 114  434.2078
 115  392.0409
 116  453.9442
 117  445.9182
 118  606.5096
 119  580.4048
 120  451.7009
 121  438.6552
 122  458.3644
 123  429.3461
 124  453.0795
 125  492.3296
 126  505.891
 127  512.8172
 128  566.3365
 129  472.9151
 130  357.5233
 131  401.9917
 132  469.5377
 133  460.5769
 134  498.4659
 135  531.6938
 136  443.3347
 137  553.2156
 138  481.2906
 139  528.1924
 140  491.2802
 141  497.221
 142  500.5189
 143  454.1789
 144  460.1497
 145  507.224
 146  516.1149
 147  467.8663
 148  584.7348
 149  602.5622
 150  474.152
 151  466.4262
 152  606.024
 153  568.3981
 154  471.3317
 155  440.8623
 156  478.3065
 157  487.0063
 158  440.2017
 159  364.382
 160  384.1157
 161  518.459
 162  525.8962
 163  437.2213
 164  376.4807
 165  313.2723
 166  417.5609
 167  353.1804
 168  390.7158
 169  576.1738
 170  478.6108
 171  362.9597
 172  369.5135
 173  395.1973
 174  322.8841
 175  356.1979
 176  515.7362
 177  454.2508
 178  316.0098
 179  352.5795
 180  404.9926
 181  421.5378
 182  364.5375
 183  360.016
 184  393.339
 185  376.4199
 186  422.0941
 187  410.2826
 188  507.1795
 189  550.6119
 190  484.6559
 191  477.1626
 192  403.097
 193  451.1985
 194  531.5856
 195  517.7608
 196  415.2051
 197  410.7418
 198  528.2279
 199  442.5782
 200  401.7443
 201  487.0654
 202  482.6553
 203  469.099
 204  510.6803
 205  464.343
 206  338.4353
 207  308.1638
 208  394.3304
 209  497.7361
 210  485.7953
 211  492.2974
 212  463.082
 213  476.4347
 214  428.383
 215  344.7863
 216  482.2554
 217  461.0457
 218  472.6534
 219  525.2683
 220  461.045
 221  426.7484
 222  361.5351
 223  351.3308
 224  480.6249
 225  567.7832
 226  490.9922
 227  364.9411
 228  376.6978
 229  428.5171
 230  396.8933
 231  367.6357
 232  391.1826
 233  479.789
 234  402.262
 235  380.6205
 236  329.5459
 237  406.9353
 238  358.7907
 239  465.6668
 240  442.0748
 241  393.6808
 242  419.5819
 243  454.8065
 244  439.948
 245  428.4392
 246  385.4666
 247  413.8833
 248  461.4459
 249  400.0044
 250  330.7565
 251  217.5994
 252  349.3774
 253  492.8224
 254  468.9725
 255  450.2808
 256  366.799
 257  411.7137
 258  456.6738
 259  407.2286
 260  373.6906
 261  411.6503
 262  356.7074
 263  360.7701
 264  411.8618
 265  392.721
 266  343.4574
 267  427.968
 268  412.3939
 269  489.9757
 270  513.6183
 271  423.8601
 272  512.3311
 273  504.4803
 274  500.7267
 275  505.7013
 276  485.1436
 277  453.908
 278  405.5505
 279  431.6534
 280  472.3492
 281  477.4261
 282  480.1815
 283  450.009
 284  434.8487
 285  544.829
 286  512.6318
 287  480.3546
 288  409.3489
 289  422.1401
 290  537.7214
 291  519.6683
 292  474.6912
 293  544.7908
 294  436.8103
 295  381.1289
 296  410.5858
 297  410.333
 298  416.3394
 299  405.9085
 300  454.1555
 301  369.9528
 302  447.9892
 303  494.6268
 304  402.0368
 305  405.7484
 306  511.0173
 307  453.2616
 308  503.4006
 309  502.3574
 310  501.593
 311  501.0388
 312  471.4594
 313  535.824
 314  429.9594
 315  468.5537
 316  458.3512
 317  429.5949
 318  331.2454
 319  408.0432
 320  472.7434
 321  380.5164
 322  358.2362
 323  421.2704
 324  411.2317
 325  448.984
 326  519.16
 327  577.2214
 328  440.1117
 329  511.2459
 330  458.5189
 331  472.4349
 332  455.1303
 333  480.9345
 334  505.7787
 335  578.3671
 336  499.5395
 337  415.5705
 338  431.1835
 339  399.75
 340  520.1943
 341  483.2123
 342  590.9655
 343  620.6978
 344  581.2474
 345  630.2498
 346  503.2569
 347  383.8715
 348  462.9062
 349  556.0029
 350  520.2288
 351  451.7987
 352  538.1351
 353  565.5922
 354  578.2365
 355  538.9375
 356  495.559
 357  481.2665
 358  489.9128
 359  637.5157
 360  603.8245
 361  517.3257
 362  505.3843
 363  599.9065
 364  552.6161
 365  492.0154
 366  586.2534
 367  643.4966
 368  491.3969
 369  507.1987
 370  434.1104
 371  419.4403
 372  370.5805
 373  414.7392
 374  460.8477
 375  423.643
 376  466.9571
 377  400.2099
 378  365.0427
 379  299.9612
 380  293.8515
 381  394.6149
 382  489.8825
 383  398.7378
 384  361.6126
 385  388.8377
 386  406.6883
 387  357.9543
 388  396.8958
 389  403.7495
 390  287.4185
 391  432.8505
 392  422.4103
 393  298.9515
 394  349.8518
 395  302.9686
 396  408.5458
 397  534.7302
 398  393.2653
 399  282.0446
 400  345.6978
 401  384.2004
 402  426.8318
 403  378.9871
 404  471.8632
 405  517.0377
 406  512.8542
 407  408.5252
 408  368.4505
 409  404.1573
 410  475.493
 411  380.6669
 412  339.375
 413  393.3546
 414  378.6601
 415  402.0353
 416  339.4242
 417  385.2526
 418  487.9565
 419  499.8527
 420  471.9384
 421  475.1295
 422  409.2968
 423  403.0907
 424  380.3397
 425  510.8127
 426  458.5134
 427  346.3212
 428  362.709
 429  564.137
 430  540.2995
 431  339.5626
 432  353.1578
 433  474.8235
 434  396.3562
 435  365.2149
 436  470.6448
 437  537.0428
 438  524.502
 439  406.4358
 440  437.6318
 441  472.8672
 442  489.5806
 443  422.6661
 444  424.1041
 445  411.6133
 446  319.1136
 447  394.8997
 448  470.5567
 449  456.3793
 450  410.28
 451  441.7476
 452  487.3711
 453  438.2134
 454  450.5031
 455  466.4998
 456  402.0119
 457  368.3626
 458  377.5005
 459  359.5504
 460  420.6322
 461  438.0537
 462  428.1578
 463  409.4104
 464  365.253
 465  344.6351
 466  419.1593
 467  426.7345
 468  388.9955
 469  382.8359
 470  421.6003
 471  516.9835
 472  481.063
 473  389.5036
 474  443.1555
 475  458.3599
 476  387.2095
 477  435.9
 478  365.1522
 479  435.112
 480  588.6339
 481  553.829
 482  520.9702
 483  383.1395
 484  373.4202
 485  407.0836
 486  458.8324
 487  488.0155
 488  504.3716
 489  452.4607
 490  530.5184
 491  467.3469
 492  396.415
 493  458.7411
 494  518.6286
 495  456.9158
 496  417.6781
 497  346.685
 498  320.809
 499  464.5166
 500  547.7094
 501  529.6378
 502  478.0775
 503  560.4955
 504  550.4958
 505  488.1138
 506  534.868
 507  600.4583
 508  697.2194
 509  713.8601
 510  749.6031
 511  976.1548
