# Input file       =  1182304229.116146_cleaned.dat
# Candidate        =  PSR_0332+5434
# Telescope        =  AR
# Epoch_topo       =  57928.076517547990
# Epoch_bary       =  N/A
# T_sample         =  0.002
# Data Folded      =  7405568
# Data Avg         =  0.0211069330717545
# Data StdDev      =  1.00008687322289 
# Profile Bins     =  512
# Profile Avg      =  305.400572859471 
# Profile StdDev   =  120.27681895424  
# Reduced chi-sqr  =  1.416
# Prob(Noise)      <  1.58e-09   (~5.9 sigma)
# P_topo (ms)      =  714.495039687833  +/- 0.000223
# P'_topo (s/s)    =  -0                +/- 1.17e-10
# P''_topo (s/s^2) =  0                 +/- 5.11e-14
# P_bary (ms)      =  N/A
# P'_bary (s/s)    =  N/A
# P''_bary (s/s^2) =  N/A
# P_orb (s)        =  N/A
# asin(i)/c (s)    =  N/A
# eccentricity     =  N/A
# w (rad)          =  N/A
# T_peri           =  N/A
######################################################
   0  950.3815
   1  865.28
   2  802.3702
   3  601.861
   4  474.0228
   5  351.6996
   6  302.9619
   7  334.9124
   8  367.2693
   9  500.3228
  10  469.8077
  11  453.6968
  12  367.5667
  13  392.8281
  14  370.7537
  15  332.8543
  16  354.3904
  17  374.7192
  18  291.8729
  19  377.1144
  20  443.4081
  21  234.5818
  22  184.8848
  23  256.2721
  24  278.172
  25  247.9641
  26  219.8519
  27  182.425
  28  335.8002
  29  327.5523
  30  279.3593
  31  321.751
  32  396.0619
  33  386.2451
  34  220.975
  35  219.8401
  36  363.3416
  37  449.3606
  38  386.6162
  39  273.76
  40  236.0559
  41  334.6886
  42  313.3097
  43  304.7434
  44  415.1388
  45  464.3665
  46  279.433
  47  270.4231
  48  421.498
  49  386.6927
  50  315.5079
  51  364.6048
  52  311.4056
  53  268.6406
  54  390.4383
  55  339.5576
  56  366.3677
  57  448.2507
  58  472.3659
  59  355.0999
  60  281.2142
  61  225.4587
  62  293.8156
  63  271.7928
  64  425.1738
  65  384.647
  66  294.7335
  67  351.6281
  68  262.1772
  69  221.8867
  70  322.1574
  71  257.2446
  72  274.7237
  73  261.7921
  74  331.5829
  75  363.3444
  76  319.7071
  77  165.835
  78  146.3931
  79  294.3009
  80  340.5114
  81  313.1252
  82  315.4276
  83  293.8095
  84  183.1532
  85  264.2551
  86  137.4058
  87  167.4369
  88  191.8196
  89  231.8515
  90  329.7551
  91  305.5651
  92  396.62
  93  352.5913
  94  316.2465
  95  272.2421
  96  156.2005
  97  248.3277
  98  273.8154
  99  236.0099
 100  221.4454
 101  236.7505
 102  288.3759
 103  234.069
 104  171.6186
 105  179.8216
 106  203.5612
 107  327.7307
 108  406.9833
 109  468.2872
 110  419.7659
 111  395.6942
 112  271.3056
 113  172.3847
 114  266.208
 115  287.3024
 116  308.7937
 117  271.3759
 118  471.3087
 119  312.4019
 120  234.7374
 121  341.7585
 122  238.2192
 123  290.3152
 124  378.2888
 125  443.386
 126  345.3528
 127  193.9862
 128  236.2823
 129  405.4338
 130  378.8447
 131  385.4303
 132  392.4037
 133  272.5464
 134  253.6306
 135  157.2252
 136  261.8856
 137  165.754
 138  217.2224
 139  308.5128
 140  364.1895
 141  304.0127
 142  256.8026
 143  297.7067
 144  305.3995
 145  260.7641
 146  307.2892
 147  409.2777
 148  336.7612
 149  375.4652
 150  393.9463
 151  398.1747
 152  307.6417
 153  273.0795
 154  255.829
 155  294.9171
 156  341.6567
 157  335.5569
 158  195.0574
 159  265.8115
 160  324.6332
 161  254.2497
 162  324.61
 163  261.2351
 164  275.8065
 165  321.2528
 166  320.9394
 167  241.2965
 168  204.4469
 169  268.2192
 170  303.3689
 171  364.2964
 172  318.7527
 173  316.7884
 174  311.4724
 175  448.2404
 176  246.5927
 177  239.7425
 178  288.2522
 179  175.6896
 180  116.6008
 181  180.8766
 182  323.435
 183  341.7919
 184  230.0324
 185  305.0653
 186  419.187
 187  441.2465
 188  403.4679
 189  449.9579
 190  316.2753
 191  359.9314
 192  485.8774
 193  423.2386
 194  449.0831
 195  339.3893
 196  352.8645
 197  300.6683
 198  338.8579
 199  472.1053
 200  450.89
 201  298.3138
 202  322.9291
 203  407.1796
 204  315.8174
 205  325.6587
 206  253.4825
 207  245.352
 208  381.5048
 209  401.1704
 210  362.1663
 211  231
 212  253.7058
 213  146.9289
 214  344.1066
 215  219.3584
 216  263.0292
 217  293.2197
 218  374.589
 219  333.7923
 220  188.4487
 221  140.3512
 222  191.0413
 223  285.6747
 224  360.551
 225  450.3625
 226  451.0038
 227  468.3911
 228  470.6324
 229  408.9856
 230  325.1353
 231  296.856
 232  304.7071
 233  332.8273
 234  304.5107
 235  352.3433
 236  312.193
 237  260.6968
 238  224.6113
 239  118.5301
 240  128.5714
 241  136.4279
 242  203.6051
 243  260.2465
 244  297.6611
 245  268.7011
 246  159.1325
 247  332.5875
 248  339.9942
 249  331.0992
 250  390.3253
 251  330.5573
 252  223.847
 253  203.2072
 254  196.7822
 255  333.941
 256  230.3087
 257  133.1507
 258  200.9843
 259  352.9213
 260  488.0269
 261  428.6887
 262  318.6887
 263  439.1336
 264  408.6944
 265  441.5392
 266  366.1276
 267  281.5596
 268  354.09
 269  361.613
 270  420.0209
 271  301.7108
 272  342.6378
 273  211.7566
 274  226.0103
 275  273.2081
 276  346.8514
 277  359.8048
 278  367.4978
 279  456.7444
 280  405.5241
 281  337.8486
 282  316.3747
 283  363.1825
 284  292.3518
 285  248.0199
 286  222.5015
 287  236.9894
 288  266.7059
 289  221.4045
 290  188.6241
 291  234.6276
 292  284.8629
 293  268.0455
 294  277.1932
 295  237.9522
 296  179.1378
 297  182.0935
 298  256.9633
 299  247.3038
 300  221.4714
 301  208.8743
 302  90.32999
 303  193.6017
 304  278.9556
 305  306.8233
 306  232.2777
 307  277.6847
 308  239.9842
 309  287.8873
 310  228.1878
 311  187.9798
 312  244.9852
 313  243.6211
 314  187.3863
 315  160.8665
 316  249.9574
 317  274.5553
 318  242.4319
 319  172.324
 320  127.4077
 321  236.9291
 322  247.4118
 323  185.4703
 324  194.2625
 325  224.6932
 326  186.0355
 327  247.1843
 328  265.9703
 329  311.9591
 330  409.5129
 331  207.5409
 332  115.9135
 333  263.7794
 334  245.0131
 335  190.9507
 336  260.0724
 337  344.1481
 338  289.2433
 339  256.1476
 340  396.5549
 341  296.193
 342  295.4962
 343  326.8451
 344  322.3309
 345  422.8004
 346  418.1354
 347  353.0455
 348  275.256
 349  272.2239
 350  395.8309
 351  374.3408
 352  277.045
 353  247.2174
 354  227.5622
 355  201.4345
 356  258.1602
 357  183.9079
 358  218.5539
 359  316.5383
 360  405.8315
 361  291.3726
 362  343.3617
 363  358.3798
 364  282.5074
 365  252.6569
 366  358.1638
 367  369.093
 368  329.5349
 369  355.1454
 370  194.8451
 371  178.9966
 372  189.8333
 373  206.4354
 374  259.8129
 375  163.7938
 376  342.4466
 377  297.9631
 378  330.3388
 379  358.2358
 380  305.3033
 381  259.9108
 382  206.2586
 383  219.5172
 384  352.4428
 385  335.5471
 386  318.6255
 387  145.9143
 388  150.2302
 389  181.0766
 390  240.1128
 391  210.3797
 392  329.1237
 393  247.6826
 394  167.0701
 395  210.099
 396  238.3605
 397  198.3652
 398  267.4469
 399  311.9326
 400  301.1259
 401  325.5922
 402  165.4692
 403  189.0155
 404  351.7308
 405  284.2481
 406  267.8026
 407  280.6551
 408  328.3114
 409  254.8835
 410  196.1572
 411  396.19
 412  448.7971
 413  381.5589
 414  328.2833
 415  345.2101
 416  387.7572
 417  350.7138
 418  226.3137
 419  318.7866
 420  395.4623
 421  280.9955
 422  299.293
 423  187.6479
 424  225.1969
 425  404.9341
 426  304.1353
 427  237.1182
 428  313.708
 429  329.4337
 430  361.7426
 431  370.2885
 432  260.7705
 433  267.453
 434  288.841
 435  291.2838
 436  283.7816
 437  321.1378
 438  322.7663
 439  275.273
 440  219.2246
 441  240.8691
 442  192.3348
 443  258.5075
 444  281.1067
 445  365.8855
 446  383.618
 447  383.0415
 448  247.8269
 449  249.9208
 450  252.0986
 451  269.6975
 452  446.9485
 453  396.2983
 454  321.7133
 455  172.4543
 456  289.6923
 457  359.2449
 458  258.2627
 459  252.4561
 460  198.4388
 461  233.9594
 462  354.602
 463  309.5499
 464  158.0209
 465  152.7299
 466  239.4448
 467  340.7925
 468  288.9303
 469  237.6986
 470  195.1697
 471  199.29
 472  177.6721
 473  125.1097
 474  231.6366
 475  365.514
 476  439.7784
 477  284.7677
 478  257.6027
 479  261.397
 480  322.0417
 481  415.7013
 482  337.0766
 483  372.4688
 484  423.1002
 485  321.8925
 486  220.1791
 487  221.5679
 488  213.4919
 489  176.1495
 490  306.3284
 491  344.2062
 492  406.5195
 493  358.04
 494  351.3039
 495  375.0865
 496  331.7879
 497  277.7686
 498  249.2424
 499  384.7314
 500  348.8113
 501  359.9922
 502  381.5095
 503  392.2192
 504  392.5013
 505  350.6798
 506  284.6241
 507  510.1588
 508  672.0865
 509  835.5908
 510  896.8213
 511  881.7264
