# Input file       =  1182562564.1136_cleaned.dat
# Candidate        =  PSR_0332+5434
# Telescope        =  AR
# Epoch_topo       =  57931.066505944444
# Epoch_bary       =  N/A
# T_sample         =  0.002
# Data Folded      =  7143424
# Data Avg         =  0.0326716050012062
# Data StdDev      =  1.00004240340113 
# Profile Bins     =  512
# Profile Avg      =  455.818706235913 
# Profile StdDev   =  118.123593111586 
# Reduced chi-sqr  =  1.113
# Prob(Noise)      <  0.039   (~1.8 sigma)
# P_topo (ms)      =  714.49247200542   +/- 0.000203
# P'_topo (s/s)    =  -0                +/- 1.1e-10
# P''_topo (s/s^2) =  0                 +/- 5e-14
# P_bary (ms)      =  N/A
# P'_bary (s/s)    =  N/A
# P''_bary (s/s^2) =  N/A
# P_orb (s)        =  N/A
# asin(i)/c (s)    =  N/A
# eccentricity     =  N/A
# w (rad)          =  N/A
# T_peri           =  N/A
######################################################
   0  429.7568
   1  421.9879
   2  296.0988
   3  284.45
   4  432.7785
   5  402.8317
   6  439.2167
   7  494.8287
   8  504.9644
   9  457.983
  10  429.2672
  11  535.3521
  12  471.5533
  13  405.4172
  14  330.07
  15  402.0996
  16  497.956
  17  604.5345
  18  534.7592
  19  473.4437
  20  335.889
  21  343.3359
  22  397.9366
  23  482.3006
  24  517.2617
  25  454.1384
  26  484.6977
  27  511.1183
  28  554.2755
  29  540.3109
  30  629.7916
  31  593.7297
  32  520.4456
  33  535.9715
  34  717.9036
  35  872.2853
  36  954.2895
  37  994.0109
  38  1016.755
  39  871.9067
  40  624.8065
  41  563.1699
  42  421.0861
  43  334.256
  44  397.0906
  45  404.0492
  46  415.1572
  47  479.3613
  48  467.4372
  49  401.0277
  50  422.5678
  51  454.2603
  52  439.8735
  53  556.8585
  54  578.063
  55  532.7155
  56  451.0153
  57  447.7449
  58  438.5664
  59  384.7452
  60  360.936
  61  382.9504
  62  372.9718
  63  395.3734
  64  270.9251
  65  327.9565
  66  469.2163
  67  457.6335
  68  440.1686
  69  255.5337
  70  303.0042
  71  383.4784
  72  370.1908
  73  386.4777
  74  362.2418
  75  471.9681
  76  282.903
  77  269.7971
  78  459.9297
  79  335.2177
  80  386.1016
  81  413.6362
  82  349.0615
  83  274.9583
  84  288.5467
  85  448.8833
  86  339.8141
  87  415.5312
  88  394.2976
  89  501.8951
  90  449.0558
  91  404.572
  92  407.6747
  93  410.5945
  94  379.0732
  95  452.455
  96  413.4675
  97  353.3694
  98  265.5014
  99  288.7994
 100  344.0644
 101  366.9935
 102  351.1676
 103  459.5588
 104  455.7301
 105  272.5169
 106  331.0927
 107  293.0301
 108  331.3848
 109  356.2201
 110  417.8611
 111  440.0112
 112  433.5117
 113  390.7329
 114  439.1014
 115  416.5241
 116  422.1681
 117  385.5123
 118  498.5463
 119  463.4919
 120  448.4799
 121  503.7713
 122  491.7033
 123  627.9875
 124  578.1441
 125  469.329
 126  470.0898
 127  475.7575
 128  338.4319
 129  371.0715
 130  408.836
 131  468.1253
 132  481.9539
 133  540.7077
 134  395.0884
 135  405.8521
 136  410.7256
 137  303.2306
 138  325.0759
 139  306.5187
 140  361.9826
 141  438.7838
 142  538.4842
 143  582.545
 144  434.2692
 145  468.2584
 146  525.6677
 147  536.3182
 148  442.8894
 149  473.7507
 150  446.7386
 151  445.286
 152  429.4216
 153  411.4063
 154  464.0875
 155  602.2417
 156  573.5976
 157  451.5013
 158  446.167
 159  391.664
 160  512.5708
 161  366.3459
 162  315.4117
 163  377.1523
 164  446.3004
 165  495.317
 166  503.6991
 167  426.6424
 168  415.5338
 169  497.522
 170  463.8706
 171  459.9171
 172  549.0422
 173  476.1031
 174  551.9485
 175  414.788
 176  366.4139
 177  519.05
 178  427.4093
 179  458.989
 180  416.0209
 181  411.0794
 182  469.8285
 183  564.1298
 184  516.264
 185  363.1596
 186  420.8952
 187  537.187
 188  511.7141
 189  477.849
 190  577.6506
 191  523.8688
 192  501.46
 193  469.9582
 194  546.0552
 195  486.3006
 196  509.8076
 197  499.0295
 198  453.8945
 199  525.9248
 200  528.6565
 201  509.5971
 202  462.9481
 203  366.3031
 204  377.8212
 205  500.3849
 206  490.635
 207  481.7619
 208  553.5233
 209  503.5251
 210  515.5989
 211  568.8991
 212  491.4132
 213  502.7155
 214  525.6177
 215  513.9667
 216  565.104
 217  524.228
 218  444.4882
 219  457.9412
 220  453.5072
 221  549.9871
 222  531.8707
 223  422.5874
 224  370.6358
 225  304.7058
 226  355.3526
 227  411.1728
 228  449.1535
 229  523.7822
 230  511.7412
 231  447.8529
 232  454.8868
 233  400.2577
 234  462.5586
 235  509.351
 236  518.8536
 237  482.6574
 238  456.7846
 239  409.5753
 240  353.2909
 241  451.0221
 242  515.7779
 243  405.1208
 244  304.5709
 245  264.9737
 246  305.4771
 247  466.5971
 248  408.0688
 249  402.7311
 250  527.2839
 251  525.6741
 252  529.5075
 253  608.3525
 254  501.9874
 255  389.5169
 256  387.0161
 257  315.6359
 258  315.8128
 259  282.6597
 260  369.0454
 261  452.6455
 262  420.2298
 263  525.094
 264  561.8215
 265  372.433
 266  384.5998
 267  397.0056
 268  487.4967
 269  700.0388
 270  667.2556
 271  615.0624
 272  503.4984
 273  458.768
 274  455.2237
 275  489.8293
 276  482.1492
 277  355.282
 278  461.0903
 279  588.4055
 280  587.9132
 281  489.6533
 282  480.6755
 283  497.8904
 284  385.1139
 285  370.9109
 286  492.0379
 287  550.0516
 288  418.5646
 289  331.3065
 290  295.5073
 291  386.2398
 292  458.4155
 293  500.3488
 294  487.4678
 295  457.4903
 296  444.2166
 297  497.6938
 298  516.9053
 299  397.5825
 300  324.4402
 301  509.7987
 302  521.0366
 303  563.9668
 304  490.8502
 305  415.085
 306  399.9002
 307  436.1254
 308  430.0107
 309  385.9464
 310  324.2607
 311  363.4627
 312  432.8669
 313  400.7147
 314  282.4413
 315  394.7305
 316  314.3579
 317  342.736
 318  467.4313
 319  397.3413
 320  519.4105
 321  455.5183
 322  521.1707
 323  410.0099
 324  395.0896
 325  471.0176
 326  513.8087
 327  506.6603
 328  525.5412
 329  501.3036
 330  414.1202
 331  406.5196
 332  345.9574
 333  378.188
 334  522.454
 335  510.5848
 336  463.2533
 337  505.376
 338  492.2626
 339  428.0121
 340  287.8536
 341  437.7346
 342  428.5338
 343  366.2209
 344  458.7631
 345  562.6899
 346  527.0914
 347  419.2087
 348  442.9607
 349  449.9821
 350  496.1058
 351  497.2516
 352  442.0555
 353  382.6441
 354  447.1082
 355  466.9984
 356  489.4875
 357  454.4702
 358  495.2189
 359  542.2849
 360  499.8855
 361  350.1097
 362  470.6734
 363  461.0807
 364  406.104
 365  392.7304
 366  475.749
 367  361.2849
 368  412.59
 369  473.0872
 370  457.7804
 371  509.2109
 372  545.7025
 373  459.977
 374  313.8653
 375  359.0658
 376  407.5743
 377  366.8407
 378  342.3377
 379  362.4438
 380  447.6508
 381  509.9008
 382  487.8452
 383  373.1195
 384  408.0313
 385  400.0166
 386  468.6534
 387  400.1254
 388  322.1962
 389  472.7329
 390  532.7024
 391  547.0465
 392  530.5546
 393  536.6198
 394  555.2481
 395  484.0189
 396  466.3184
 397  373.833
 398  427.1553
 399  390.0323
 400  421.6924
 401  531.0511
 402  438.1161
 403  521.2642
 404  522.2805
 405  472.5873
 406  425.8781
 407  500.3823
 408  530.562
 409  476.3875
 410  436.6641
 411  501.7155
 412  510.044
 413  589.9583
 414  527.6561
 415  486.4022
 416  461.8887
 417  480.7584
 418  509.6443
 419  522.0375
 420  512.798
 421  584.416
 422  596.1788
 423  616.3845
 424  470.7787
 425  401.1486
 426  506.5481
 427  576.8201
 428  570.8149
 429  576.9229
 430  471.486
 431  509.7245
 432  492.7457
 433  478.8442
 434  351.4794
 435  350.1654
 436  476.7559
 437  414.0461
 438  440.8922
 439  470.7198
 440  400.5419
 441  357.2881
 442  480.6154
 443  426.7738
 444  463.172
 445  419.417
 446  388.0096
 447  483.4194
 448  528.5447
 449  435.386
 450  395.0027
 451  415.4044
 452  515.3535
 453  486.034
 454  368.6611
 455  378.5187
 456  411.3403
 457  445.1422
 458  407.6726
 459  381.0769
 460  422.041
 461  460.2673
 462  465.1387
 463  546.1615
 464  495.7459
 465  506.642
 466  406.7614
 467  499.0193
 468  459.9043
 469  394.8916
 470  540.6377
 471  554.9577
 472  521.3372
 473  460.2176
 474  548.3374
 475  514.4268
 476  502.5247
 477  518.8489
 478  599.8087
 479  507.1342
 480  478.1131
 481  482.993
 482  497.7147
 483  430.9561
 484  340.5923
 485  405.2153
 486  517.1298
 487  519.2354
 488  517.5809
 489  604.4615
 490  512.7627
 491  390.2997
 492  383.681
 493  459.4374
 494  337.0764
 495  362.1624
 496  386.4074
 497  496.8993
 498  501.9442
 499  463.517
 500  463.5089
 501  424.133
 502  460.4231
 503  427.3506
 504  489.3122
 505  509.9576
 506  490.5939
 507  495.9174
 508  456.8192
 509  477.1072
 510  437.4041
 511  433.9094
