# Input file       =  1182476385.100278_cleaned.dat
# Candidate        =  PSR_0332+5434
# Telescope        =  AR
# Epoch_topo       =  57930.069063660623
# Epoch_bary       =  N/A
# T_sample         =  0.002
# Data Folded      =  7143424
# Data Avg         =  0.0206240420350652
# Data StdDev      =  1.00007424682035 
# Profile Bins     =  512
# Profile Avg      =  287.728001189883 
# Profile StdDev   =  118.12735441119  
# Reduced chi-sqr  =  1.406
# Prob(Noise)      <  3.53e-09   (~5.8 sigma)
# P_topo (ms)      =  714.493319792253  +/- 0.000277
# P'_topo (s/s)    =  -0                +/- 1.5e-10
# P''_topo (s/s^2) =  0                 +/- 6.82e-14
# P_bary (ms)      =  N/A
# P'_bary (s/s)    =  N/A
# P''_bary (s/s^2) =  N/A
# P_orb (s)        =  N/A
# asin(i)/c (s)    =  N/A
# eccentricity     =  N/A
# w (rad)          =  N/A
# T_peri           =  N/A
######################################################
   0  924.1318
   1  931.1804
   2  825.8627
   3  548.0115
   4  422.8605
   5  329.3744
   6  242.44
   7  218.6985
   8  297.6714
   9  338.1635
  10  442.5641
  11  521.3297
  12  377.5175
  13  263.3343
  14  365.1671
  15  509.3358
  16  303.6596
  17  253.2858
  18  283.0385
  19  324.1956
  20  296.3242
  21  177.666
  22  297.4636
  23  249.0503
  24  265.6608
  25  351.9792
  26  345.4642
  27  243.076
  28  263.4271
  29  393.7002
  30  253.2576
  31  188.3627
  32  93.25555
  33  201.1487
  34  302.6896
  35  287.9328
  36  313.0406
  37  332.9922
  38  195.2145
  39  71.8279
  40  177.0921
  41  162.9201
  42  339.3315
  43  278.5005
  44  170.2816
  45  189.2922
  46  201.0749
  47  146.5671
  48  89.30019
  49  176.0817
  50  305.458
  51  382.6079
  52  278.7137
  53  225.0402
  54  241.9929
  55  230.1494
  56  278.3204
  57  237.7398
  58  312.1276
  59  336.0521
  60  343.1695
  61  214.4114
  62  192.1162
  63  378.9518
  64  341.9188
  65  320.1718
  66  260.8494
  67  244.4099
  68  326.5826
  69  422.3158
  70  413.4023
  71  177.0626
  72  209.4222
  73  311.5706
  74  375.9189
  75  376.4124
  76  410.4677
  77  377.6007
  78  228.9881
  79  292.2641
  80  381.482
  81  477.6866
  82  478.0353
  83  416.458
  84  298.9303
  85  308.4056
  86  415.8072
  87  372.2921
  88  320.6462
  89  375.1792
  90  423.4032
  91  452.7068
  92  250.0078
  93  186.237
  94  237.8374
  95  196.9428
  96  205.1101
  97  135.4237
  98  307.52
  99  357.991
 100  422.6906
 101  373.1577
 102  299.4935
 103  195.2557
 104  402.4921
 105  406.0855
 106  351.3934
 107  244.7643
 108  100.9236
 109  268.5883
 110  312.5134
 111  329.9679
 112  323.1762
 113  301.5407
 114  230.5078
 115  171.9703
 116  121.774
 117  349.5842
 118  357.068
 119  265.0229
 120  294.86
 121  395.3327
 122  298.6496
 123  194.8687
 124  142.5929
 125  274.825
 126  406.6077
 127  436.3435
 128  407.8107
 129  348.5958
 130  276.5453
 131  331.3773
 132  371.1971
 133  308.5868
 134  273.7632
 135  349.1928
 136  385.4569
 137  377.0029
 138  353.8188
 139  269.8722
 140  372.0789
 141  416.3936
 142  278.4937
 143  288.6949
 144  282.2953
 145  416.5222
 146  438.5651
 147  278.567
 148  180.452
 149  178.9464
 150  375.7756
 151  460.5822
 152  360.8058
 153  385.0058
 154  292.6826
 155  293.7141
 156  273.6126
 157  351.0134
 158  274.0191
 159  417.2625
 160  386.0503
 161  321.8873
 162  274.6034
 163  372.8723
 164  251.9266
 165  377.3168
 166  394.2679
 167  425.6993
 168  290.5864
 169  260.5875
 170  258.4172
 171  225.6826
 172  281.9921
 173  358.2701
 174  299.9208
 175  280.1476
 176  331.9431
 177  360.5626
 178  393.0181
 179  341.2943
 180  217.2451
 181  155.9565
 182  132.994
 183  170.6068
 184  185.8432
 185  199.1533
 186  334.3656
 187  510.7069
 188  201.1747
 189  143.05
 190  384.938
 191  224.7739
 192  197.1664
 193  306.2046
 194  121.6248
 195  236.9873
 196  248.024
 197  208.7482
 198  250.0847
 199  275.9203
 200  357.1752
 201  317.1784
 202  326.667
 203  292.3553
 204  318.8981
 205  176.9397
 206  238.3192
 207  235.8091
 208  188.461
 209  181.0397
 210  192.4883
 211  270.4899
 212  272.2599
 213  198.3128
 214  284.0908
 215  231.7569
 216  284.5457
 217  435.1958
 218  334.4009
 219  260.4979
 220  270.5825
 221  340.4034
 222  306.0249
 223  266.968
 224  368.5085
 225  402.0794
 226  366.6309
 227  348.3119
 228  324.3258
 229  274.3828
 230  373.0797
 231  435.8102
 232  393.6052
 233  441.7603
 234  408.1676
 235  267.2744
 236  333.8601
 237  335.0039
 238  180.7407
 239  390.8074
 240  376.1765
 241  358.3375
 242  342.4171
 243  329.2657
 244  379.8812
 245  237.3041
 246  258.2326
 247  305.2945
 248  289.0885
 249  331.8089
 250  284.0048
 251  380.6877
 252  412.1391
 253  379.9917
 254  346.2062
 255  381.1223
 256  306.7666
 257  313.3919
 258  331.6458
 259  344.3751
 260  302.45
 261  290.0324
 262  301.6605
 263  280.3785
 264  205.922
 265  279.9307
 266  269.7294
 267  63.43143
 268  175.1009
 269  386.7872
 270  262.7766
 271  182.0008
 272  141.0551
 273  146.818
 274  159.3261
 275  251.3152
 276  217.1119
 277  195.335
 278  246.2122
 279  169.3752
 280  198.682
 281  310.4806
 282  368.2672
 283  305.5016
 284  227.0379
 285  286.8877
 286  213.7996
 287  181.5365
 288  322.9926
 289  369.416
 290  214.799
 291  242.3732
 292  401.4719
 293  441.7787
 294  373.5657
 295  358.5423
 296  339.729
 297  246.1765
 298  137.9727
 299  201.4846
 300  298.3155
 301  282.686
 302  287.0425
 303  224.7619
 304  238.0804
 305  342.2724
 306  264.8965
 307  117.5774
 308  218.0559
 309  292.128
 310  269.9705
 311  294.2536
 312  354.1766
 313  282.5971
 314  218.4814
 315  179.11
 316  153.2795
 317  216.5104
 318  233.7415
 319  281.8572
 320  343.9142
 321  254.4613
 322  269.7231
 323  232.976
 324  192.3623
 325  243.4524
 326  299.4473
 327  274.5155
 328  190.9928
 329  210.8684
 330  228.7606
 331  113.0204
 332  217.7433
 333  212.6406
 334  159.5731
 335  237.8467
 336  246.8276
 337  247.6789
 338  248.0631
 339  165.9346
 340  293.701
 341  355.9179
 342  258.8496
 343  213.1954
 344  228.1758
 345  224.7018
 346  188.4441
 347  211.7504
 348  142.8354
 349  67.76075
 350  -42.04198
 351  27.64735
 352  208.5063
 353  283.6755
 354  282.1086
 355  307.7671
 356  409.4748
 357  298.1624
 358  277.7703
 359  263.6898
 360  241.9176
 361  315.3342
 362  314.549
 363  249.8419
 364  136.8729
 365  169.2638
 366  277.9983
 367  243.953
 368  173.5184
 369  212.3551
 370  201.6148
 371  320.0457
 372  386.7254
 373  216.0268
 374  370.02
 375  480.9082
 376  371.1066
 377  388.2675
 378  295.1263
 379  311.5654
 380  368.0095
 381  360.8776
 382  343.2802
 383  376.793
 384  382.8078
 385  424.3066
 386  305.5581
 387  229.6614
 388  325.3932
 389  326.9278
 390  377.5883
 391  364.6498
 392  388.8083
 393  278.6564
 394  142.0729
 395  263.0858
 396  200.3622
 397  238.1963
 398  202.5077
 399  213.1947
 400  234.1106
 401  277.9967
 402  330.4999
 403  204.7307
 404  288.9832
 405  230.1623
 406  163.9889
 407  166.3984
 408  253.4778
 409  315.081
 410  271.2699
 411  194.8141
 412  214.5921
 413  191.8184
 414  210.4016
 415  325.7409
 416  389.8527
 417  335.6428
 418  310.9694
 419  411.4066
 420  326.1252
 421  278.1327
 422  132.8519
 423  208.4741
 424  170.8083
 425  303.4987
 426  289.1712
 427  222.4524
 428  299.8515
 429  377.5313
 430  346.5311
 431  225.5758
 432  123.4999
 433  178.2662
 434  225.0936
 435  178.6292
 436  160.985
 437  150.3
 438  194.8734
 439  251.8657
 440  338.7826
 441  289.151
 442  264.3839
 443  296.0232
 444  368.4731
 445  422.0251
 446  336.0146
 447  366.2614
 448  359.6115
 449  363.3812
 450  322.8688
 451  283.7258
 452  290.8253
 453  267.4272
 454  334.7479
 455  320.3279
 456  355.2563
 457  367.3514
 458  259.4134
 459  224.1491
 460  185.5932
 461  135.4357
 462  -4.843287
 463  170.9639
 464  338.8161
 465  329.7748
 466  270.7279
 467  266.0041
 468  287.2932
 469  357.3722
 470  275.3419
 471  302.0621
 472  247.1334
 473  184.1764
 474  193.1717
 475  163.2819
 476  256.8557
 477  111.1488
 478  282.2732
 479  271.2548
 480  245.8669
 481  184.8552
 482  219.5255
 483  263.0854
 484  265.1453
 485  216.012
 486  202.1174
 487  242.578
 488  265.7173
 489  246.2923
 490  242.5036
 491  292.3135
 492  430.5723
 493  329.8826
 494  285.0916
 495  347.9632
 496  304.1466
 497  361.4734
 498  355.3513
 499  218.4482
 500  210.4057
 501  224.5141
 502  161.6756
 503  105.5791
 504  150.3939
 505  291.1449
 506  306.0416
 507  384.8032
 508  413.7915
 509  465.985
 510  592.6055
 511  801.8568
