# Input file       =  1182592049.117098_cleaned.dat
# Candidate        =  PSR_0332+5434
# Telescope        =  AR
# Epoch_topo       =  57931.407767559009
# Epoch_bary       =  N/A
# T_sample         =  0.002
# Data Folded      =  7340032
# Data Avg         =  0.0292966540824036
# Data StdDev      =  1.00014305064257 
# Profile Bins     =  512
# Profile Avg      =  420.071111628501 
# Profile StdDev   =  119.750164264557 
# Reduced chi-sqr  =  1.311
# Prob(Noise)      <  2.57e-06   (~4.6 sigma)
# P_topo (ms)      =  714.49252984935   +/- 2.14e-05
# P'_topo (s/s)    =  -0                +/- 1.13e-11
# P''_topo (s/s^2) =  0                 +/- 4.99e-15
# P_bary (ms)      =  N/A
# P'_bary (s/s)    =  N/A
# P''_bary (s/s^2) =  N/A
# P_orb (s)        =  N/A
# asin(i)/c (s)    =  N/A
# eccentricity     =  N/A
# w (rad)          =  N/A
# T_peri           =  N/A
######################################################
   0  541.5173
   1  517.497
   2  735.6002
   3  890.7641
   4  877.253
   5  809.0134
   6  674.0501
   7  642.0078
   8  538.6598
   9  537.9365
  10  392.3188
  11  443.9471
  12  524.3477
  13  552.3896
  14  423.4145
  15  285.0696
  16  385.6532
  17  371.1492
  18  499.0386
  19  452.4286
  20  266.8669
  21  341.096
  22  408.9153
  23  455.8168
  24  468.8728
  25  363.618
  26  322.9287
  27  318.6982
  28  355.1012
  29  386.5347
  30  346.803
  31  210.1203
  32  350.8008
  33  255.4744
  34  178.3753
  35  230.6413
  36  218.9955
  37  389.5908
  38  411.3439
  39  303.6358
  40  278.5383
  41  328.0888
  42  344.6834
  43  332.2122
  44  210.8823
  45  281.0406
  46  478.0491
  47  601.1035
  48  458.3794
  49  384.8993
  50  372.53
  51  433.1127
  52  455.2928
  53  495.928
  54  463.6555
  55  467.7526
  56  516.2857
  57  501.1658
  58  345.5294
  59  244.573
  60  302.3934
  61  428.3187
  62  485.8073
  63  410.9592
  64  241.0271
  65  386.5455
  66  458.3245
  67  430.4096
  68  315.0016
  69  278.3682
  70  390.2323
  71  493.0408
  72  415.8685
  73  388.9064
  74  347.5167
  75  465.5513
  76  446.2153
  77  485.2431
  78  346.2067
  79  322.5901
  80  451.4041
  81  384.4113
  82  390.7439
  83  454.8701
  84  500.411
  85  444.2231
  86  420.6966
  87  465.3858
  88  497.5719
  89  537.0419
  90  605.3751
  91  471.7826
  92  347.8665
  93  334.0363
  94  531.8327
  95  537.7795
  96  448.4566
  97  475.7063
  98  469.4183
  99  522.7609
 100  527.1119
 101  489.0341
 102  414.6061
 103  464.8227
 104  491.298
 105  467.8167
 106  484.8722
 107  340.2951
 108  522.0212
 109  477.0813
 110  450.4686
 111  413.7209
 112  343.7653
 113  419.6238
 114  444.5803
 115  314.0171
 116  377.6357
 117  510.4521
 118  519.0077
 119  528.9982
 120  368.1559
 121  296.7104
 122  277.4726
 123  410.5015
 124  433.0754
 125  345.1094
 126  253.2338
 127  378.6238
 128  370.0756
 129  386.9002
 130  288.547
 131  196.0912
 132  305.483
 133  358.652
 134  285.7363
 135  353.2014
 136  343.999
 137  393.8639
 138  509.475
 139  502.6614
 140  359.4305
 141  305.3833
 142  411.1293
 143  440.7461
 144  392.5542
 145  475.2746
 146  368.8524
 147  483.5319
 148  484.0206
 149  440.9614
 150  307.3051
 151  290.783
 152  446.3355
 153  351.121
 154  202.5369
 155  321.2823
 156  353.3632
 157  362.3911
 158  346.6266
 159  306.3446
 160  323.009
 161  324.8001
 162  387.9311
 163  295.4676
 164  153.5509
 165  274.4964
 166  396.1002
 167  394.7655
 168  363.0889
 169  380.821
 170  431.3628
 171  467.8555
 172  439.8555
 173  404.0371
 174  343.5766
 175  392.9502
 176  391.0881
 177  417.3391
 178  414.5522
 179  488.9236
 180  552.2131
 181  461.0089
 182  468.4409
 183  359.796
 184  329.706
 185  319.8541
 186  377.8182
 187  362.8626
 188  412.5288
 189  367.5984
 190  450.999
 191  489.612
 192  355.3159
 193  253.7692
 194  208.8554
 195  311.3612
 196  383.1574
 197  338.5935
 198  285.9968
 199  416.1791
 200  373.4766
 201  290.1881
 202  324.1279
 203  423.2794
 204  449.6785
 205  464.4955
 206  360.075
 207  276.7441
 208  310.8545
 209  366.261
 210  453.8361
 211  304.5243
 212  215.1266
 213  333.3095
 214  305.632
 215  439.8863
 216  365.3133
 217  307.9898
 218  398.3389
 219  460.3621
 220  371.5829
 221  246.7989
 222  287.6796
 223  358.8917
 224  436.6275
 225  480.8183
 226  309.2603
 227  238.5352
 228  248.3352
 229  390.0131
 230  269.8437
 231  199.9281
 232  386.5431
 233  510.446
 234  384.0291
 235  266.5405
 236  312.042
 237  467.2572
 238  449.0849
 239  408.8208
 240  272.5558
 241  355.9989
 242  318.526
 243  349.5207
 244  338.1262
 245  329.7955
 246  339.2362
 247  409.587
 248  442.2315
 249  507.3523
 250  376.4739
 251  366.4326
 252  384.0573
 253  440.4151
 254  397.3025
 255  348.6589
 256  363.753
 257  417.2029
 258  428.667
 259  448.8024
 260  336.4281
 261  396.9937
 262  497.3888
 263  550.1887
 264  548.907
 265  503.3318
 266  551.9844
 267  511.1036
 268  356.4538
 269  355.056
 270  411.7518
 271  541.9155
 272  593.9047
 273  376.7372
 274  398.702
 275  388.0603
 276  389.9254
 277  404.4209
 278  380.3245
 279  253.471
 280  262.2963
 281  452.729
 282  476.83
 283  345.5036
 284  254.4418
 285  369.1455
 286  409.567
 287  478.8524
 288  439.1554
 289  428.1453
 290  474.7499
 291  603.5947
 292  536.4857
 293  399.6819
 294  322.1475
 295  426.9755
 296  575.6622
 297  492.897
 298  356.9915
 299  363.2569
 300  510.3523
 301  495.8256
 302  387.814
 303  318.6912
 304  449.6724
 305  602.2278
 306  488.6192
 307  558.6851
 308  422.81
 309  432.1427
 310  511.1898
 311  586.8521
 312  476.0642
 313  467.6636
 314  571.0684
 315  575.4532
 316  498.1992
 317  322.0619
 318  384.3028
 319  461.5826
 320  505.1372
 321  484.5094
 322  356.4323
 323  390.7823
 324  366.1513
 325  482.9674
 326  444.9933
 327  318.0821
 328  309.3835
 329  409.6721
 330  403.0835
 331  424.4269
 332  257.7676
 333  389.5144
 334  607.9157
 335  454.2867
 336  216.0621
 337  146.3892
 338  508.5009
 339  611.0437
 340  473.8278
 341  462.9181
 342  489.4056
 343  461.0692
 344  591.3344
 345  377.0016
 346  267.0529
 347  252.0088
 348  499.4981
 349  556.8389
 350  393.3988
 351  373.7744
 352  536.8539
 353  578.0157
 354  416.6565
 355  381.8472
 356  400.2004
 357  563.4129
 358  558.4401
 359  407.3357
 360  446.7065
 361  424.5624
 362  419.7229
 363  475.571
 364  431.5103
 365  357.8651
 366  352.9221
 367  473.62
 368  484.557
 369  293.7384
 370  355.015
 371  400.5691
 372  564.1924
 373  481.4477
 374  434.2021
 375  325.0441
 376  410.4954
 377  457.4518
 378  417.5134
 379  280.2184
 380  299.8893
 381  428.2856
 382  434.7756
 383  479.0413
 384  400.4153
 385  334.3391
 386  447.8113
 387  543.3958
 388  295.5742
 389  226.9838
 390  309.34
 391  403.1852
 392  547.3548
 393  522.2656
 394  449.4485
 395  379.3152
 396  469.8841
 397  435.8132
 398  319.3972
 399  301.1754
 400  429.0536
 401  534.3222
 402  517.8091
 403  483.0279
 404  467.7596
 405  408.9154
 406  409.3651
 407  519.6585
 408  349.9128
 409  365.2498
 410  471.1272
 411  532.6859
 412  425.9182
 413  347.788
 414  438.5205
 415  377.6151
 416  359.2115
 417  380.7672
 418  377.3629
 419  366.666
 420  400.2225
 421  401.6156
 422  406.086
 423  430.7273
 424  508.447
 425  575.0265
 426  465.4163
 427  464.4682
 428  415.546
 429  459.1716
 430  553.7428
 431  552.9014
 432  390.854
 433  434.6255
 434  494.2341
 435  559.5095
 436  515.6749
 437  531.3469
 438  371.9568
 439  443.4439
 440  565.31
 441  372.2352
 442  422.5718
 443  600.9291
 444  655.5894
 445  542.2861
 446  407.6717
 447  375.6008
 448  488.1899
 449  522.1575
 450  546.1727
 451  507.1707
 452  592.9658
 453  502.1028
 454  489.0815
 455  407.7724
 456  412.5482
 457  437.4663
 458  533.2826
 459  533.7335
 460  497.1924
 461  477.2057
 462  554.2499
 463  519.3188
 464  460.5475
 465  335.8894
 466  364.4852
 467  484.9578
 468  496.2881
 469  401.0201
 470  392.6365
 471  440.3974
 472  465.6981
 473  502.2549
 474  476.0018
 475  303.6652
 476  318.7849
 477  463.0743
 478  490.5044
 479  379.2618
 480  369.4626
 481  377.4383
 482  435.4259
 483  491.1839
 484  435.2657
 485  312.2888
 486  438.6488
 487  551.2059
 488  596.5735
 489  540.9324
 490  432.4629
 491  492.5614
 492  612.8074
 493  601.4955
 494  486.823
 495  478.2789
 496  561.7292
 497  527.3715
 498  577.6003
 499  367.8299
 500  332.2329
 501  451.9197
 502  602.5328
 503  455.1582
 504  267.7172
 505  376.5202
 506  478.7845
 507  512.4073
 508  437.4514
 509  315.7874
 510  484.7487
 511  634.1209
