# Input file       =  1182648610.116692_cleaned.dat
# Candidate        =  PSR_0332+5434
# Telescope        =  AR
# Epoch_topo       =  57932.062408758007
# Epoch_bary       =  N/A
# T_sample         =  0.002
# Data Folded      =  7208960
# Data Avg         =  0.0307418758519103
# Data StdDev      =  1.00001191137304 
# Profile Bins     =  512
# Profile Avg      =  432.849293840077 
# Profile StdDev   =  118.660589187238 
# Reduced chi-sqr  =  1.247
# Prob(Noise)      <  0.000114   (~3.7 sigma)
# P_topo (ms)      =  714.491634886696  +/- 0.000287
# P'_topo (s/s)    =  -0                +/- 1.54e-10
# P''_topo (s/s^2) =  0                 +/- 6.92e-14
# P_bary (ms)      =  N/A
# P'_bary (s/s)    =  N/A
# P''_bary (s/s^2) =  N/A
# P_orb (s)        =  N/A
# asin(i)/c (s)    =  N/A
# eccentricity     =  N/A
# w (rad)          =  N/A
# T_peri           =  N/A
######################################################
   0  1038.547
   1  1003.479
   2  1054.224
   3  823.7893
   4  634.5137
   5  565.0751
   6  553.6417
   7  535.7789
   8  459.8085
   9  305.1205
  10  369.4231
  11  416.8414
  12  531.7681
  13  513.6765
  14  533.4348
  15  562.1938
  16  471.9604
  17  447.2956
  18  379.7574
  19  376.4122
  20  440.7737
  21  447.1607
  22  436.1447
  23  390.636
  24  321.0309
  25  397.2017
  26  523.808
  27  611.8181
  28  557.5437
  29  480.3081
  30  444.26
  31  330.1464
  32  412.3589
  33  367.8701
  34  473.0198
  35  446.5778
  36  558.6856
  37  618.1852
  38  521.2598
  39  388.4458
  40  379.252
  41  390.2636
  42  520.3923
  43  546.5492
  44  483.5013
  45  346.4603
  46  405.4294
  47  587.8204
  48  503.8948
  49  489.9237
  50  476.1857
  51  403.2091
  52  350.0862
  53  332.1253
  54  401.5631
  55  406.3933
  56  404.3006
  57  400.4941
  58  349.9875
  59  349.7865
  60  366.6493
  61  358.2339
  62  427.2362
  63  548.2109
  64  524.711
  65  399.2016
  66  448.9852
  67  553.2082
  68  479.5376
  69  426.2935
  70  370.3123
  71  430.5422
  72  540.3693
  73  464.5387
  74  455.2161
  75  480.2614
  76  408.6509
  77  479.2769
  78  417.9413
  79  429.0988
  80  401.2167
  81  488.9214
  82  544.0505
  83  422.2168
  84  370.5269
  85  348.6611
  86  386.4569
  87  365.6399
  88  437.6711
  89  451.3324
  90  483.6538
  91  445.7708
  92  400.702
  93  426.7598
  94  488.2741
  95  455.2435
  96  487.4486
  97  434.5083
  98  465.5755
  99  447.8769
 100  386.6931
 101  433.4211
 102  356.2273
 103  486.2562
 104  415.808
 105  357.7206
 106  422.4978
 107  310.7537
 108  301.7942
 109  229.424
 110  336.5505
 111  419.3851
 112  417.2742
 113  410.1259
 114  414.1817
 115  381.3931
 116  327.7606
 117  387.6994
 118  446.8585
 119  415.2427
 120  373.5742
 121  378.6473
 122  297.78
 123  326.7546
 124  347.757
 125  288.7815
 126  283.2956
 127  331.3188
 128  517.5319
 129  434.6733
 130  466.9086
 131  435.317
 132  459.2065
 133  427.388
 134  402.784
 135  435.5388
 136  443.8931
 137  410.8831
 138  355.466
 139  321.8427
 140  320.3849
 141  475.3266
 142  445.4676
 143  395.9843
 144  420.9759
 145  511.3515
 146  418.6147
 147  398.5392
 148  427.9704
 149  320.6125
 150  279.4808
 151  428.0852
 152  402.2562
 153  408.6274
 154  455.015
 155  586.0929
 156  497.693
 157  459.9428
 158  568.0157
 159  589.5061
 160  521.7495
 161  420.4684
 162  469.7555
 163  505.0981
 164  506.5058
 165  411.2369
 166  412.2849
 167  421.7707
 168  378.1688
 169  506.1067
 170  506.7206
 171  491.3531
 172  468.769
 173  395.6032
 174  381.269
 175  406.3353
 176  468.2815
 177  453.9364
 178  417.089
 179  455.2129
 180  500.2105
 181  330.5381
 182  272.9246
 183  311.6808
 184  349.7956
 185  297.5348
 186  391.3184
 187  492.2663
 188  405.8315
 189  292.6434
 190  317.5237
 191  390.8616
 192  348.1735
 193  348.1841
 194  323.0009
 195  336.765
 196  469.0623
 197  315.6591
 198  303.5108
 199  420.3887
 200  417.41
 201  411.4582
 202  400.0938
 203  506.1424
 204  370.4409
 205  360.1614
 206  357.5295
 207  320.4844
 208  361.5678
 209  397.2529
 210  440.9287
 211  432.8659
 212  426.6885
 213  341.9958
 214  302.1842
 215  390.7916
 216  299.7719
 217  310.3379
 218  421.0967
 219  518.5115
 220  546.0963
 221  448.7315
 222  437.8232
 223  516.5178
 224  459.9518
 225  387.7437
 226  338.8035
 227  500.6074
 228  406.3931
 229  461.8674
 230  372.713
 231  568.6132
 232  482.5122
 233  462.5919
 234  420.9406
 235  418.786
 236  515.0383
 237  455.4471
 238  420.5409
 239  438.3998
 240  490.8387
 241  411.4281
 242  380.729
 243  352.209
 244  441.2758
 245  554.9569
 246  419.3859
 247  472.0964
 248  415.9418
 249  406.7703
 250  502.4003
 251  441.8558
 252  426.0644
 253  476.1407
 254  561.4385
 255  433.0381
 256  471.7703
 257  465.1969
 258  460.4027
 259  423.5104
 260  338.1671
 261  458.1491
 262  415.5155
 263  387.5828
 264  342.5556
 265  326.9218
 266  428.7216
 267  365.6142
 268  334.9195
 269  242.9739
 270  334.1473
 271  443.6985
 272  415.5351
 273  323.695
 274  368.3552
 275  399.6455
 276  446.2974
 277  405.9408
 278  275.2694
 279  296.293
 280  443.7448
 281  447.0298
 282  286.5793
 283  263.3214
 284  382.338
 285  362.419
 286  381.1469
 287  319.3015
 288  271.906
 289  349.6695
 290  424.6784
 291  382.6192
 292  336.4237
 293  300.9422
 294  530.8484
 295  581.8625
 296  491.4719
 297  378.5522
 298  357.3352
 299  355.0802
 300  460.9289
 301  566.7112
 302  465.7665
 303  367.0547
 304  412.1817
 305  426.4008
 306  470.0353
 307  469.3991
 308  430.0188
 309  573.6961
 310  560.342
 311  538.1759
 312  548.0825
 313  590.1618
 314  491.6111
 315  447.7781
 316  445.4073
 317  564.4516
 318  635.7922
 319  511.9429
 320  536.4702
 321  546.9405
 322  566.1945
 323  680.9473
 324  611.1295
 325  487.6677
 326  434.6608
 327  434.5924
 328  514.3325
 329  573.8838
 330  438.7778
 331  418.859
 332  609.108
 333  528.2828
 334  482.4121
 335  460.3569
 336  466.7428
 337  484.0019
 338  424.5054
 339  470.8365
 340  425.1392
 341  390.461
 342  465.7255
 343  477.3822
 344  410.8085
 345  352.9742
 346  405.6721
 347  326.5011
 348  284.2242
 349  413.946
 350  500.9237
 351  484.5009
 352  178.1456
 353  274.3868
 354  295.1921
 355  241.3407
 356  426.9659
 357  419.5703
 358  409.2406
 359  405.9488
 360  390.6638
 361  487.594
 362  462.3246
 363  258.9045
 364  304.1796
 365  445.4583
 366  585.8123
 367  518.86
 368  557.1272
 369  521.3889
 370  551.9287
 371  426.4613
 372  386.9416
 373  392.6767
 374  457.6007
 375  508.2916
 376  460.2861
 377  490.4736
 378  516.0219
 379  505.769
 380  473.3121
 381  562.3383
 382  497.403
 383  535.5165
 384  434.2642
 385  335.6028
 386  354.4335
 387  385.8789
 388  460.2291
 389  501.3243
 390  451.7049
 391  518.872
 392  515.246
 393  477.8798
 394  446.4844
 395  511.6129
 396  531.23
 397  485.1556
 398  522.1845
 399  355.68
 400  316.122
 401  485.3633
 402  375.5533
 403  384.162
 404  422.4727
 405  485.8978
 406  447.5869
 407  341.369
 408  385.2604
 409  465.9474
 410  367.0937
 411  255.8036
 412  428.1388
 413  410.9902
 414  467.6628
 415  402.6742
 416  411.9344
 417  437.9679
 418  408.6027
 419  331.9489
 420  290.6269
 421  352.2473
 422  401.4464
 423  379.6139
 424  379.8521
 425  403.4204
 426  337.6983
 427  315.7881
 428  401.2618
 429  437.5573
 430  433.3866
 431  484.4019
 432  453.9312
 433  447.925
 434  386.0862
 435  402.882
 436  430.015
 437  395.5313
 438  418.9246
 439  372.2743
 440  465.4774
 441  424.3561
 442  332.0653
 443  345.3788
 444  340.1026
 445  422.4381
 446  457.6451
 447  516.4509
 448  544.8143
 449  484.7748
 450  514.1789
 451  422.7393
 452  424.642
 453  517.7246
 454  475.2309
 455  456.2017
 456  358.738
 457  333.375
 458  395.1284
 459  516.1405
 460  459.0107
 461  504.9396
 462  517.3337
 463  434.6909
 464  443.5088
 465  472.5321
 466  430.9311
 467  401.9577
 468  441.811
 469  402.7161
 470  393.5389
 471  412.1239
 472  346.3549
 473  405.4076
 474  367.9156
 475  322.5257
 476  286.7563
 477  305.3608
 478  357.1931
 479  451.9109
 480  416.6269
 481  467.3535
 482  441.8884
 483  490.6274
 484  431.8184
 485  443.6872
 486  403.8513
 487  485.0673
 488  446.9773
 489  418.0388
 490  328.8187
 491  385.9662
 492  395.1239
 493  501.9706
 494  415.0014
 495  406.6018
 496  416.3378
 497  421.6767
 498  273.0662
 499  266.567
 500  269.3638
 501  347.1503
 502  457.8589
 503  370.3274
 504  402.0999
 505  341.6575
 506  289.7343
 507  424.0392
 508  526.6022
 509  660.5063
 510  859.9775
 511  921.0322
