# Input file       =  1182476385.100278_cleaned.dat
# Candidate        =  PSR_0332+5434
# Telescope        =  AR
# Epoch_topo       =  57930.069063660623
# Epoch_bary       =  N/A
# T_sample         =  0.002
# Data Folded      =  7143424
# Data Avg         =  0.0206240420350652
# Data StdDev      =  1.00007424682035 
# Profile Bins     =  512
# Profile Avg      =  287.728001405425 
# Profile StdDev   =  118.12735441119  
# Reduced chi-sqr  =  1.406
# Prob(Noise)      <  3.41e-09   (~5.8 sigma)
# P_topo (ms)      =  714.493320711851  +/- 0.000277
# P'_topo (s/s)    =  -0                +/- 1.5e-10
# P''_topo (s/s^2) =  0                 +/- 6.82e-14
# P_bary (ms)      =  N/A
# P'_bary (s/s)    =  N/A
# P''_bary (s/s^2) =  N/A
# P_orb (s)        =  N/A
# asin(i)/c (s)    =  N/A
# eccentricity     =  N/A
# w (rad)          =  N/A
# T_peri           =  N/A
######################################################
   0  394.6003
   1  343.3641
   2  224.4164
   3  154.9249
   4  132.8064
   5  170.4934
   6  184.7357
   7  201.4806
   8  321.6647
   9  515.136
  10  210.6241
  11  137.0816
  12  379.6003
  13  234.9428
  14  188.7857
  15  311.6209
  16  123.3591
  17  232.1029
  18  251.7598
  19  209.0266
  20  246.1124
  21  276.0715
  22  354.9446
  23  317.5603
  24  327.4893
  25  293.1179
  26  320.6994
  27  177.5584
  28  235.8687
  29  237.2709
  30  192.1921
  31  180.2014
  32  187.6064
  33  270.0612
  34  274.2978
  35  200.2845
  36  281.3451
  37  233.8772
  38  279.3481
  39  434.217
  40  337.3977
  41  262.9151
  42  268.7927
  43  339.095
  44  309.0506
  45  266.0346
  46  361.3046
  47  403.6402
  48  367.9815
  49  349.1149
  50  326.4548
  51  274.6802
  52  367.3465
  53  437.4268
  54  394.7351
  55  438.4072
  56  413.5572
  57  268.744
  58  330.0498
  59  341.1489
  60  181.3255
  61  383.2693
  62  378.5328
  63  358.0766
  64  342.7157
  65  327.0169
  66  381.5884
  67  244.2838
  68  252.6773
  69  308.5062
  70  284.0416
  71  337.5172
  72  280.0276
  73  378.5816
  74  411.4575
  75  383.5533
  76  342.1232
  77  383.473
  78  309.4637
  79  312.0706
  80  333.0152
  81  344.8506
  82  303.4716
  83  287.7124
  84  301.3739
  85  282.6623
  86  204.7677
  87  278.8837
  88  273.827
  89  70.32709
  90  161.7608
  91  388.1321
  92  264.437
  93  187.0711
  94  138.8794
  95  150.382
  96  155.069
  97  250.8248
  98  215.9703
  99  197.0816
 100  244.7306
 101  173.2486
 102  195.0811
 103  308.4675
 104  365.9537
 105  311.3568
 106  225.1883
 107  288.98
 108  215.3031
 109  180.3463
 110  316.0235
 111  372.2051
 112  220.5267
 113  235.3609
 114  398.2807
 115  442.2887
 116  377.9565
 117  358.5012
 118  339.1068
 119  252.1826
 120  139.6402
 121  195.8758
 122  294.6579
 123  286.8177
 124  285.0761
 125  230.2322
 126  233.3278
 127  341.7222
 128  270.8477
 129  118.4167
 130  211.633
 131  292.4841
 132  271.8002
 133  289.5636
 134  356.3366
 135  284.0877
 136  219.948
 137  182.5262
 138  151.3568
 139  214.6336
 140  233.8443
 141  278.6957
 142  343.8315
 143  257.6703
 144  267.0182
 145  236.5785
 146  194.1846
 147  241.3312
 148  296.4098
 149  276.8414
 150  192.7991
 151  209.9523
 152  229.6072
 153  116.0318
 154  211.5878
 155  216.3542
 156  158.0619
 157  235.912
 158  246.8174
 159  244.7783
 160  252.9435
 161  164.1345
 162  290.8904
 163  354.7071
 164  264.3525
 165  211.8415
 166  229.8311
 167  225.6729
 168  186.8656
 169  213.6602
 170  143.2677
 171  74.63072
 172  -43.78099
 173  24.6555
 174  201.6536
 175  284.9315
 176  282.7797
 177  303.6345
 178  408.6794
 179  303.4474
 180  273.7
 181  267.2556
 182  239.9338
 183  315.0753
 184  313.2116
 185  257.6138
 186  137.7751
 187  166.4672
 188  272.717
 189  247.9382
 190  174.2818
 191  210.5443
 192  204.2181
 193  313.4825
 194  391.3065
 195  216.4357
 196  361.6772
 197  483.5308
 198  370.1325
 199  390.1856
 200  296.8142
 201  311.3497
 202  366.1494
 203  363.5742
 204  340.0465
 205  377.0298
 206  381.6418
 207  423.656
 208  312.228
 209  228.6424
 210  322.2362
 211  327.7228
 212  375.5945
 213  365.3961
 214  386.5196
 215  289.253
 216  137.9892
 217  264.3402
 218  198.183
 219  239.6187
 220  204.3031
 221  211.1467
 222  234.7182
 223  273.6687
 224  334.1888
 225  205.0928
 226  287.3274
 227  233.1063
 228  166.2642
 229  162.0291
 230  254.1477
 231  311.8382
 232  276.5542
 233  193.9445
 234  217.6676
 235  187.3256
 236  211.7331
 237  318.96
 238  391.106
 239  338.5803
 240  308.1819
 241  410.7887
 242  330.0806
 243  280.8221
 244  135.625
 245  205.1496
 246  169.419
 247  299.5565
 248  294.1199
 249  222.7983
 250  296.6153
 251  374.2199
 252  348.4845
 253  231.3788
 254  124.7636
 255  174.6042
 256  227.2679
 257  181.0729
 258  159.8937
 259  149.884
 260  191.9771
 261  248.1637
 262  338.8617
 263  289.6682
 264  267.8251
 265  290.4212
 266  368.5475
 267  420.9891
 268  339.6906
 269  363.6378
 270  362.0986
 271  361.6296
 272  324.3919
 273  286.267
 274  290.8595
 275  267.4065
 276  330.0989
 277  320.8403
 278  353.8014
 279  370.8865
 280  263.399
 281  222.536
 282  190.3483
 283  136.5992
 284  -0.5624623
 285  156.0549
 286  339.2858
 287  332.2727
 288  270.4643
 289  267.4738
 290  282.7884
 291  359.3875
 292  277.7899
 293  299.6002
 294  251.6133
 295  184.806
 296  194.7613
 297  158.2738
 298  261.9215
 299  111.2042
 300  274.1615
 301  277.2422
 302  244.8656
 303  186.8391
 304  213.6443
 305  265.6999
 306  264.7276
 307  218.0866
 308  201.0406
 309  240.8799
 310  264.3555
 311  247.1485
 312  243.7559
 313  286.5747
 314  431.2618
 315  334.889
 316  284.2281
 317  348.1732
 318  302.2379
 319  357.427
 320  360.975
 321  220.8692
 322  208.3081
 323  225.7097
 324  166.9377
 325  106.8523
 326  145.4314
 327  288.3936
 328  304.2817
 329  381.4337
 330  414.3844
 331  463.2845
 332  585.117
 333  795.8857
 334  920.317
 335  935.3918
 336  831.7009
 337  556.3094
 338  426.5711
 339  331.119
 340  248.3472
 341  212.3146
 342  296.1697
 343  338.1895
 344  437.6005
 345  521.8373
 346  385.1869
 347  263.7911
 348  356.9227
 349  509.8091
 350  312.4748
 351  251.9697
 352  285.3574
 353  317.2986
 354  302.4304
 355  177.2063
 356  294.3196
 357  252.9694
 358  262.9618
 359  346.7592
 360  354.3505
 361  241.9364
 362  260.0484
 363  392.0869
 364  259.1895
 365  190.3425
 366  94.56232
 367  194.5894
 368  303.4723
 369  285.4493
 370  312.7303
 371  333.9774
 372  201.9975
 373  74.88035
 374  172.0552
 375  161.588
 376  332.481
 377  286.5491
 378  168.4524
 379  190.5582
 380  199.5617
 381  151.9039
 382  86.80277
 383  174.4146
 384  300.3077
 385  381.5918
 386  284.6839
 387  222.6915
 388  244.67
 389  226.5074
 390  278.9608
 391  238.67
 392  310.06
 393  332.1522
 394  347.7275
 395  221.2071
 396  185.4003
 397  376.0222
 398  343.5341
 399  322.1882
 400  261.7079
 401  242.8206
 402  320.9529
 403  421.7841
 404  420.0758
 405  181.4675
 406  204.3524
 407  309.203
 408  376.0715
 409  377.0023
 410  406.8478
 411  382.2495
 412  234.2231
 413  285.8569
 414  379.9381
 415  474.3863
 416  480.7745
 417  417.94
 418  300.8186
 419  305.9324
 420  415.5909
 421  374.7993
 422  319.8609
 423  373.7394
 424  419.9499
 425  456.7899
 426  256.589
 427  185.28
 428  236.3284
 429  197.5116
 430  207.5137
 431  133.1134
 432  303.2071
 433  356.6501
 434  422.2341
 435  372.3346
 436  307.4568
 437  192.49
 438  396.9593
 439  409.4693
 440  352.7129
 441  249.9595
 442  103.0592
 443  262.662
 444  310.9834
 445  327.9652
 446  323.9218
 447  306.3006
 448  230.7927
 449  175.787
 450  117.0598
 451  342.9634
 452  360.9699
 453  268.3047
 454  287.1967
 455  398.8334
 456  300.1792
 457  199.8017
 458  139.178
 459  271.6573
 460  403.1614
 461  436.357
 462  411.0508
 463  346.8315
 464  282.4729
 465  327.1401
 466  370.8416
 467  310.7397
 468  271.7543
 469  347.8799
 470  385.1554
 471  377.0699
 472  357.5794
 473  269.9987
 474  366.0891
 475  421.5128
 476  274.459
 477  293.6012
 478  278.0916
 479  415.4208
 480  440.4452
 481  284.4508
 482  184.0693
 483  174.5727
 484  367.1192
 485  462.9036
 486  360.8061
 487  385.138
 488  295.9772
 489  294.7366
 490  272.3165
 491  351.7636
 492  272.747
 493  414.6455
 494  386.1071
 495  328.3647
 496  268.1561
 497  377.3479
 498  248.5834
 499  375.7366
 500  392.011
 501  430.192
 502  292.3583
 503  260.4428
 504  260.4702
 505  226.6463
 506  278.1203
 507  356.5725
 508  303.7125
 509  277.8741
 510  332.9161
 511  356.399
