# Input file       =  1183424315.08945_cleaned.dat
# Candidate        =  PSR_0332+5434
# Telescope        =  AR
# Epoch_topo       =  57941.040475572336
# Epoch_bary       =  N/A
# T_sample         =  0.002
# Data Folded      =  7405568
# Data Avg         =  0.0242120883261575
# Data StdDev      =  1.0000930166223  
# Profile Bins     =  512
# Profile Avg      =  350.406926044656 
# Profile StdDev   =  120.277557798592 
# Reduced chi-sqr  =  1.124
# Prob(Noise)      <  0.0268   (~1.9 sigma)
# P_topo (ms)      =  714.484526109943  +/- 0.000225
# P'_topo (s/s)    =  -0                +/- 1.18e-10
# P''_topo (s/s^2) =  0                 +/- 5.16e-14
# P_bary (ms)      =  N/A
# P'_bary (s/s)    =  N/A
# P''_bary (s/s^2) =  N/A
# P_orb (s)        =  N/A
# asin(i)/c (s)    =  N/A
# eccentricity     =  N/A
# w (rad)          =  N/A
# T_peri           =  N/A
######################################################
   0  857.9977
   1  824.2659
   2  614.4318
   3  385.6496
   4  348.3929
   5  437.5144
   6  243.4222
   7  239.403
   8  354.6614
   9  347.1531
  10  417.1205
  11  296.5728
  12  225.2775
  13  313.6932
  14  325.913
  15  375.7148
  16  486.6191
  17  335.8694
  18  226.3226
  19  220.2341
  20  275.6057
  21  382.5806
  22  297.8353
  23  278.6856
  24  262.3504
  25  275.5607
  26  348.3232
  27  309.3358
  28  255.3674
  29  304.9787
  30  229.5866
  31  312.2496
  32  247.263
  33  294.2606
  34  367.7155
  35  322.0724
  36  325.2732
  37  387.0793
  38  363.1786
  39  343.0876
  40  262.6596
  41  324.122
  42  240.9386
  43  393.2596
  44  396.8312
  45  360.37
  46  477.5837
  47  517.0456
  48  440.3736
  49  323.5128
  50  332.8287
  51  480.2847
  52  455.4247
  53  365.1115
  54  330.5599
  55  419.9059
  56  350.6946
  57  241.744
  58  273.6753
  59  277.0744
  60  306.9532
  61  365.1808
  62  391.6998
  63  286.3535
  64  424.4848
  65  488.7847
  66  438.2005
  67  489.3896
  68  500.1036
  69  451.4379
  70  343.7958
  71  328.6303
  72  358.4839
  73  347.2061
  74  363.753
  75  438.263
  76  430.9167
  77  535.3282
  78  396.4606
  79  418.663
  80  371.6401
  81  220.3164
  82  300.0873
  83  337.757
  84  304.4866
  85  350.0404
  86  348.1101
  87  353.7263
  88  434.0899
  89  409.5718
  90  392.9187
  91  330.4839
  92  295.7557
  93  310.8444
  94  354.9474
  95  372.7459
  96  395.735
  97  467.7108
  98  494.0408
  99  331.0253
 100  225.0427
 101  346.453
 102  349.3249
 103  309.2314
 104  377.9065
 105  494.3502
 106  374.8746
 107  202.4371
 108  149.3981
 109  274.1622
 110  307.9842
 111  258.1794
 112  283.3084
 113  233.5627
 114  189.7204
 115  191.8442
 116  277.9086
 117  322.269
 118  271.4697
 119  279.1812
 120  343.2243
 121  363.5692
 122  396.2894
 123  274.2026
 124  316.1784
 125  398.0546
 126  358.4206
 127  232.4249
 128  352.8228
 129  256.6129
 130  206.705
 131  318.7573
 132  309.4145
 133  361.5219
 134  437.7733
 135  403.624
 136  373.184
 137  319.7305
 138  302.4292
 139  391.8201
 140  400.4163
 141  390.045
 142  397.8915
 143  389.5277
 144  441.1421
 145  505.5969
 146  385.075
 147  339.1069
 148  353.5212
 149  352.695
 150  383.675
 151  483.6424
 152  429.0352
 153  450.9013
 154  468.0388
 155  453.3534
 156  349.353
 157  354.9973
 158  390.3561
 159  490.4536
 160  382.0731
 161  384.9304
 162  476.5025
 163  514.3884
 164  631.6065
 165  587.2368
 166  414.123
 167  296.1504
 168  365.7417
 169  345.0924
 170  437.4051
 171  508.437
 172  333.1655
 173  406.3243
 174  375.9026
 175  344.2726
 176  268.7706
 177  380.2896
 178  345.6665
 179  370.9402
 180  363.0985
 181  270.4664
 182  253.7466
 183  397.0607
 184  420.0112
 185  359.0077
 186  241.759
 187  206.4474
 188  227.0785
 189  343.4901
 190  309.787
 191  430.7788
 192  405.0718
 193  300.291
 194  237.6101
 195  272.0619
 196  359.7895
 197  310.611
 198  357.0463
 199  366.6747
 200  354.2213
 201  317.2216
 202  293.3163
 203  317.4677
 204  400.0575
 205  471.2539
 206  359.0092
 207  395.5272
 208  368.1116
 209  314.1727
 210  395.5259
 211  360.9458
 212  379.981
 213  415.368
 214  441.8085
 215  371.8342
 216  415.2242
 217  368.2908
 218  346.2195
 219  435.1756
 220  389.6656
 221  384.271
 222  330.6605
 223  315.4327
 224  441.8529
 225  410.8859
 226  345.2
 227  374.2528
 228  296.3501
 229  312.8719
 230  346.8797
 231  359.9395
 232  445.8541
 233  487.0128
 234  453.0221
 235  304.1847
 236  382.6023
 237  378.2348
 238  367.302
 239  403.0777
 240  451.701
 241  308.9113
 242  217.0966
 243  291.3487
 244  382.6702
 245  407.9218
 246  435.368
 247  350.1631
 248  363.6522
 249  473.1999
 250  323.6708
 251  268.8271
 252  239.4937
 253  326.3637
 254  342.9823
 255  318.062
 256  306.2658
 257  232.537
 258  277.0333
 259  220.6871
 260  286.7603
 261  415.742
 262  430.4712
 263  418.0893
 264  362.9784
 265  430.1145
 266  349.5246
 267  269.42
 268  368.5683
 269  434.0174
 270  389.5974
 271  297.1073
 272  307.5821
 273  279.4146
 274  347.4807
 275  288.5948
 276  280.4281
 277  322.5113
 278  184.8903
 279  189.4357
 280  163.5759
 281  233.2011
 282  328.5028
 283  248.1623
 284  250.3336
 285  240.7763
 286  261.8051
 287  233.8616
 288  245.9382
 289  369.1694
 290  469.6019
 291  281.5019
 292  257.1212
 293  294.0159
 294  353.1375
 295  361.1285
 296  382.0915
 297  460.2975
 298  410.3269
 299  397.6097
 300  371.1609
 301  408.5808
 302  308.0521
 303  302.6241
 304  332.2904
 305  375.5753
 306  287.7234
 307  260.0789
 308  298.7178
 309  253.2055
 310  223.1239
 311  394.3578
 312  401.2019
 313  375.3352
 314  280.2557
 315  384.8905
 316  322.6219
 317  339.7581
 318  298.825
 319  338.3022
 320  352.2008
 321  325.8203
 322  268.7969
 323  395.9266
 324  295.109
 325  273.0478
 326  203.2398
 327  259.3462
 328  291.1521
 329  345.041
 330  216.3952
 331  204.3563
 332  257.7241
 333  291.016
 334  322.6249
 335  250.8137
 336  308.3281
 337  294.326
 338  172.7491
 339  277.3081
 340  223.3664
 341  286.1456
 342  360.7552
 343  301.6864
 344  481.5349
 345  391.0191
 346  264.1165
 347  285.8896
 348  282.3339
 349  339.4918
 350  444.7999
 351  433.703
 352  434.7859
 353  485.7221
 354  408.075
 355  505.3154
 356  464.5771
 357  417.5401
 358  309.8149
 359  323.9112
 360  390.7645
 361  341.4429
 362  323.1959
 363  416.4685
 364  396.2187
 365  416.8602
 366  451.2215
 367  441.1655
 368  421.3482
 369  359.5953
 370  234.4792
 371  312.4157
 372  319.1826
 373  318.818
 374  383.9655
 375  293.9659
 376  233.4334
 377  278.78
 378  320.3621
 379  383.9286
 380  292.0819
 381  185.0417
 382  235.2937
 383  328.1234
 384  363.252
 385  271.9017
 386  221.2094
 387  301.9033
 388  266.0447
 389  198.1371
 390  268.1683
 391  301.6989
 392  327.9265
 393  372.1718
 394  407.6097
 395  317.9991
 396  280.5905
 397  276.9323
 398  276.9041
 399  386.9689
 400  278.6769
 401  299.6859
 402  274.2478
 403  241.5058
 404  170.0542
 405  205.1964
 406  284.9634
 407  186.7599
 408  194.6857
 409  355.8259
 410  403.4423
 411  415.9381
 412  470.5293
 413  429.2959
 414  389.1113
 415  403.2918
 416  314.6924
 417  313.6496
 418  351.4356
 419  326.4095
 420  369.7686
 421  326.864
 422  331.8747
 423  330.9099
 424  389.1613
 425  344.3914
 426  278.8515
 427  378.4642
 428  348.2815
 429  377.2175
 430  440.4696
 431  427.6823
 432  359.8873
 433  342.0128
 434  411.3019
 435  347.2428
 436  362.1125
 437  431.8354
 438  443.776
 439  430.0229
 440  427.9777
 441  414.2672
 442  494.5944
 443  452.467
 444  288.7628
 445  371.5937
 446  452.4986
 447  512.8442
 448  498.749
 449  399.4167
 450  437.4767
 451  471.7947
 452  513.3151
 453  481.7467
 454  317.1671
 455  259.5737
 456  259.4338
 457  245.1022
 458  247.7472
 459  335.2634
 460  416.7207
 461  437.1403
 462  323.754
 463  316.606
 464  254.999
 465  289.176
 466  341.7544
 467  305.3498
 468  260.8355
 469  322.4755
 470  312.6906
 471  265.2919
 472  197.51
 473  276.4925
 474  281.723
 475  273.3867
 476  276.3903
 477  337.6089
 478  316.8727
 479  242.4975
 480  223.6459
 481  371.4877
 482  263.091
 483  265.5884
 484  423.2848
 485  417.2737
 486  306.2856
 487  244.7011
 488  355.1473
 489  284.1742
 490  302.2869
 491  427.6072
 492  445.8311
 493  289.1206
 494  280.4726
 495  422.4273
 496  358.8036
 497  371.4641
 498  379.4259
 499  338.661
 500  369.8092
 501  283.9703
 502  318.4309
 503  273.5532
 504  259.2842
 505  483.4597
 506  527.5491
 507  451.8646
 508  587.3514
 509  800.6759
 510  913.9217
 511  799.9756
