# Input file       =  1183626022.165991_cleaned.dat
# Candidate        =  PSR_0332+5434
# Telescope        =  AR
# Epoch_topo       =  57943.375048217487
# Epoch_bary       =  N/A
# T_sample         =  0.002
# Data Folded      =  7340032
# Data Avg         =  0.0344718388852378
# Data StdDev      =  1.00007174190095 
# Profile Bins     =  512
# Profile Avg      =  494.237825959534 
# Profile StdDev   =  119.741626252403 
# Reduced chi-sqr  =  1.386
# Prob(Noise)      <  1.52e-08   (~5.5 sigma)
# P_topo (ms)      =  714.483157967147  +/- 0.000368
# P'_topo (s/s)    =  -0                +/- 1.94e-10
# P''_topo (s/s^2) =  0                 +/- 8.57e-14
# P_bary (ms)      =  N/A
# P'_bary (s/s)    =  N/A
# P''_bary (s/s^2) =  N/A
# P_orb (s)        =  N/A
# asin(i)/c (s)    =  N/A
# eccentricity     =  N/A
# w (rad)          =  N/A
# T_peri           =  N/A
######################################################
   0  1210.374
   1  1131.934
   2  884.1334
   3  614.7188
   4  495.6198
   5  394.6315
   6  550.0797
   7  530.8555
   8  529.4466
   9  567.2855
  10  487.3068
  11  485.6387
  12  503.1047
  13  559.124
  14  731.9363
  15  617.569
  16  523.5607
  17  509.8425
  18  581.8849
  19  652.8898
  20  489.1278
  21  504.7005
  22  646.5501
  23  664.4407
  24  516.4238
  25  439.0617
  26  515.2788
  27  446.858
  28  497.2619
  29  597.4193
  30  480.6067
  31  367.0201
  32  433.3885
  33  609.0145
  34  530.8236
  35  576.262
  36  474.7843
  37  355.2337
  38  352.1613
  39  448.4151
  40  346.368
  41  398.3465
  42  378.9495
  43  446.3049
  44  506.3412
  45  423.185
  46  406.0263
  47  399.8288
  48  498.3584
  49  547.8871
  50  470.9797
  51  510.6746
  52  447.6744
  53  407.7508
  54  504.8346
  55  543.6663
  56  498.6319
  57  544.4521
  58  554.9325
  59  431.3682
  60  382.84
  61  493.8359
  62  568.6376
  63  605.4151
  64  635.1946
  65  633.1656
  66  546.9752
  67  585.7789
  68  505.8869
  69  399.1631
  70  526.3564
  71  486.1122
  72  581.2749
  73  567.3759
  74  551.8777
  75  541.0264
  76  535.904
  77  436.9365
  78  452.725
  79  420.9669
  80  477.6842
  81  473.0793
  82  564.4898
  83  500.9011
  84  456.0031
  85  540.2283
  86  487.2971
  87  504.2726
  88  462.921
  89  523.9864
  90  553.5975
  91  525.2142
  92  533.5117
  93  555.296
  94  503.8791
  95  421.3945
  96  522.2438
  97  612.0527
  98  557.1118
  99  458.6109
 100  464.6599
 101  487.9483
 102  469.1107
 103  553.8102
 104  502.1263
 105  447.1443
 106  418.1028
 107  506.8355
 108  530.4617
 109  623.0113
 110  553.1592
 111  564.0023
 112  537.4916
 113  507.0057
 114  549.3508
 115  440.0927
 116  503.4944
 117  619.017
 118  550.0225
 119  406.312
 120  371.0841
 121  417.6674
 122  499.6495
 123  567.2572
 124  528.5258
 125  548.3976
 126  551.9462
 127  475.8296
 128  550.5269
 129  542.5296
 130  530.5177
 131  563.9922
 132  524.5773
 133  496.5503
 134  484.5918
 135  517.1873
 136  639.7584
 137  641.9135
 138  540.0476
 139  400.0655
 140  304.9562
 141  337.8843
 142  460.1671
 143  605.351
 144  623.672
 145  540.1556
 146  500.1205
 147  472.7192
 148  419.3325
 149  415.0474
 150  486.8619
 151  448.4579
 152  454.3068
 153  427.7537
 154  436.4655
 155  465.2826
 156  407.699
 157  389.4891
 158  512.3542
 159  445.6813
 160  455.3931
 161  478.178
 162  401.4295
 163  513.6962
 164  528.697
 165  542.8795
 166  524.0135
 167  475.2388
 168  440.1045
 169  392.6759
 170  370.7105
 171  389.8091
 172  460.3099
 173  395.1409
 174  379.28
 175  521.1127
 176  560.0884
 177  447.7007
 178  529.142
 179  467.099
 180  409.4495
 181  446.0307
 182  621.5427
 183  544.8326
 184  481.7105
 185  370.8572
 186  351.5728
 187  379.2752
 188  469.3671
 189  486.0984
 190  488.4834
 191  430.4102
 192  475.7978
 193  456.3864
 194  432.1161
 195  226.0259
 196  381.7071
 197  405.7907
 198  338.2604
 199  252.5331
 200  322.567
 201  404.0657
 202  361.3581
 203  367.3044
 204  373.2831
 205  484.5597
 206  345.2877
 207  347.631
 208  461.993
 209  477.7571
 210  451.9958
 211  535.2017
 212  455.6461
 213  463.7227
 214  439.1771
 215  454.2225
 216  497.7256
 217  561.0726
 218  548.5625
 219  505.5758
 220  363.2036
 221  316.2611
 222  408.4502
 223  462.8823
 224  457.4987
 225  489.391
 226  448.5335
 227  397.1255
 228  447.2457
 229  491.4728
 230  507.6645
 231  483.3981
 232  477.6225
 233  532.0389
 234  542.1319
 235  577.4208
 236  505.4483
 237  566.0488
 238  430.0399
 239  387.8741
 240  545.0817
 241  607.5498
 242  502.4084
 243  575.333
 244  483.2194
 245  359.9776
 246  344.3661
 247  357.4196
 248  462.2926
 249  198.6921
 250  240.3225
 251  292.1498
 252  368.749
 253  450.1673
 254  416.3457
 255  433.7957
 256  471.9499
 257  366.5528
 258  365.4854
 259  412.3143
 260  480.8026
 261  576.1403
 262  529.0896
 263  532.4169
 264  412.4495
 265  450.1078
 266  417.9409
 267  472.5434
 268  533.8517
 269  525.4826
 270  575.1055
 271  556.1507
 272  489.6486
 273  513.0955
 274  601.5576
 275  593.625
 276  445.6577
 277  531.1952
 278  570.0228
 279  482.5754
 280  508.7517
 281  473.8607
 282  500.8038
 283  377.6834
 284  392.5205
 285  396.6719
 286  436.1503
 287  501.8413
 288  510.9555
 289  442.8242
 290  322.5318
 291  420.2582
 292  393.4427
 293  453.7474
 294  510.173
 295  526.6679
 296  431.6831
 297  402.4361
 298  475.4294
 299  547.0858
 300  451.2502
 301  513.223
 302  520.5598
 303  422.3332
 304  467.1116
 305  525.3812
 306  494.0696
 307  446.8466
 308  533.5678
 309  611.6459
 310  481.6322
 311  383.3182
 312  409.4569
 313  509.4022
 314  472.1879
 315  433.8812
 316  640.1406
 317  547.2647
 318  460.1261
 319  408.1757
 320  408.5831
 321  427.743
 322  391.0378
 323  283.1714
 324  419.774
 325  445.2345
 326  547.3218
 327  490.8586
 328  492.1712
 329  540.1338
 330  527.1129
 331  421.0628
 332  532.397
 333  533.7416
 334  471.3742
 335  479.7447
 336  489.8042
 337  438.8899
 338  393.2737
 339  432.1969
 340  435.43
 341  550.775
 342  410.1717
 343  436.1831
 344  473.7121
 345  426.5656
 346  433.0648
 347  406.1322
 348  451.4
 349  477.2615
 350  472.4575
 351  389.4115
 352  405.7036
 353  367.4163
 354  274.8211
 355  338.3806
 356  418.068
 357  413.3199
 358  448.0676
 359  495.3275
 360  517.2205
 361  636.5552
 362  577.5734
 363  567.3554
 364  481.8844
 365  387.8712
 366  405.3041
 367  479.696
 368  562.1905
 369  548.9315
 370  498.3885
 371  499.5697
 372  497.1937
 373  438.8863
 374  503.0162
 375  576.7275
 376  517.5124
 377  483.1822
 378  457.7274
 379  425.0222
 380  462.741
 381  534.3408
 382  516.7374
 383  492.7878
 384  586.6851
 385  660.6411
 386  594.7887
 387  484.1845
 388  429.6197
 389  417.447
 390  370.8072
 391  389.4047
 392  407.3498
 393  392.6283
 394  378.9234
 395  446.9684
 396  380.631
 397  392.7595
 398  400.3319
 399  444.7199
 400  548.8139
 401  594.0313
 402  568.6827
 403  450.8521
 404  485.035
 405  626.8323
 406  538.7712
 407  539.492
 408  570.0048
 409  598.9537
 410  503.9159
 411  532.9177
 412  582.3426
 413  613.6265
 414  624.6807
 415  549.1137
 416  499.2088
 417  493.6705
 418  581.6227
 419  586.1273
 420  512.0927
 421  457.8757
 422  506.5042
 423  530.8908
 424  489.5359
 425  360.6727
 426  451.9279
 427  398.8512
 428  371.8493
 429  469.196
 430  493.7711
 431  510.3153
 432  523.1338
 433  586.5623
 434  611.7419
 435  585.756
 436  450.3736
 437  452.3688
 438  572.0763
 439  560.5185
 440  568.9777
 441  554.3075
 442  592.303
 443  566.1156
 444  498.434
 445  516.9807
 446  548.1683
 447  536.9332
 448  423.35
 449  358.2814
 450  496.2692
 451  492.8384
 452  505.8761
 453  501.1685
 454  475.8322
 455  549.0356
 456  546.1203
 457  547.3286
 458  496.787
 459  287.8653
 460  267.8828
 461  409.8171
 462  516.5681
 463  488.4888
 464  369.6187
 465  329.3183
 466  402.2206
 467  402.4716
 468  401.2073
 469  475.9798
 470  507.5027
 471  521.9688
 472  478.3791
 473  622.6038
 474  523.7658
 475  371.5118
 476  512.2466
 477  480.1479
 478  403.8072
 479  433.3524
 480  549.9242
 481  572.2974
 482  686.8394
 483  683.4147
 484  657.2878
 485  601.0024
 486  569.4261
 487  550.079
 488  545.2364
 489  609.5219
 490  625.9986
 491  643.6876
 492  676.1083
 493  666.4943
 494  565.0982
 495  598.7394
 496  476.0982
 497  527.882
 498  535.9428
 499  526.2894
 500  687.3694
 501  614.0422
 502  674.1528
 503  548.2881
 504  557.9685
 505  678.0742
 506  733.0493
 507  709.0347
 508  756.8187
 509  891.5508
 510  945.2031
 511  1068.484
