# Input file       =  1183079651.114455_cleaned.dat
# Candidate        =  PSR_0332+5434
# Telescope        =  AR
# Epoch_topo       =  57937.051309195078
# Epoch_bary       =  N/A
# T_sample         =  0.002
# Data Folded      =  7405568
# Data Avg         =  0.0297603970019698
# Data StdDev      =  1.00007415172094 
# Profile Bins     =  512
# Profile Avg      =  430.469523993756 
# Profile StdDev   =  120.275288985366 
# Reduced chi-sqr  =  1.186
# Prob(Noise)      <  0.0023   (~2.8 sigma)
# P_topo (ms)      =  714.487584091016  +/- 0.000113
# P'_topo (s/s)    =  -0                +/- 5.92e-11
# P''_topo (s/s^2) =  0                 +/- 2.59e-14
# P_bary (ms)      =  N/A
# P'_bary (s/s)    =  N/A
# P''_bary (s/s^2) =  N/A
# P_orb (s)        =  N/A
# asin(i)/c (s)    =  N/A
# eccentricity     =  N/A
# w (rad)          =  N/A
# T_peri           =  N/A
######################################################
   0  1027.85
   1  1067.504
   2  1008.254
   3  771.809
   4  718.312
   5  411.8784
   6  301.3304
   7  355.7051
   8  365.1793
   9  379.1436
  10  411.9461
  11  393.1357
  12  385.9763
  13  339.3575
  14  302.951
  15  467.3215
  16  561.4583
  17  526.3076
  18  453.6286
  19  365.6576
  20  360.5718
  21  432.2844
  22  420.6282
  23  442.4353
  24  489.1328
  25  475.9725
  26  397.3268
  27  529.714
  28  507.186
  29  472.0713
  30  305.1865
  31  384.2082
  32  418.5887
  33  403.4679
  34  472.1098
  35  517.3659
  36  429.2059
  37  397.4607
  38  522.1662
  39  452.2336
  40  330.0878
  41  306.9835
  42  272.4689
  43  449.0323
  44  458.6775
  45  500.0151
  46  456.6632
  47  560.3555
  48  493.2266
  49  435.9314
  50  443.15
  51  434.6741
  52  503.3925
  53  535.3414
  54  464.5895
  55  399.6554
  56  392.2312
  57  403.3731
  58  363.987
  59  425.0114
  60  443.0066
  61  427.756
  62  305.5234
  63  452.3864
  64  464.714
  65  352.625
  66  340.0515
  67  382.8645
  68  348.9533
  69  373.583
  70  387.6714
  71  384.9119
  72  341.2123
  73  354.3767
  74  326.5207
  75  363.0221
  76  283.6577
  77  363.7328
  78  354.9782
  79  325.1855
  80  305.5987
  81  294.9732
  82  361.8492
  83  323.606
  84  441.8566
  85  451.9388
  86  446.6638
  87  534.402
  88  534.9763
  89  437.4406
  90  367.0348
  91  357.6528
  92  316.316
  93  459.0688
  94  376.1077
  95  282.6178
  96  380.8608
  97  380.3173
  98  408.1007
  99  341.3313
 100  380.7423
 101  330.5754
 102  460.3526
 103  411.8713
 104  335.0858
 105  409.3255
 106  433.5962
 107  425.3071
 108  362.586
 109  489.778
 110  469.8489
 111  425.2155
 112  483.9141
 113  357.3535
 114  376.0714
 115  468.8438
 116  484.527
 117  496.2271
 118  533.6146
 119  426.4407
 120  404.4267
 121  440.8507
 122  440.0314
 123  394.0558
 124  489.9532
 125  481.1036
 126  432.6205
 127  505.0149
 128  503.554
 129  430.6332
 130  505.5363
 131  365.2402
 132  341.7386
 133  506.196
 134  546.9822
 135  430.3225
 136  345.8486
 137  458.4875
 138  432.5092
 139  248.1602
 140  187.8033
 141  349.0533
 142  470.7549
 143  455.5232
 144  435.0191
 145  425.3852
 146  363.0847
 147  310.8836
 148  373.6429
 149  403.2961
 150  472.0355
 151  463.6454
 152  405.9218
 153  295.649
 154  314.0324
 155  346.782
 156  315.9237
 157  347.4619
 158  378.4127
 159  432.5884
 160  461.3381
 161  428.7635
 162  331.0615
 163  386.9928
 164  276.0511
 165  383.4543
 166  509.211
 167  552.6768
 168  525.6783
 169  509.1376
 170  463.0076
 171  462.033
 172  447.3788
 173  462.2525
 174  389.112
 175  345.2002
 176  406.7153
 177  434.2889
 178  347.6644
 179  423.6771
 180  368.7359
 181  341.8274
 182  323.1568
 183  230.7832
 184  262.0602
 185  460.1379
 186  508.5457
 187  365.565
 188  342.291
 189  481.0361
 190  422.8739
 191  375.4898
 192  590.9868
 193  574.3577
 194  463.5217
 195  457.4327
 196  436.0143
 197  438.6986
 198  456.6533
 199  501.4969
 200  380.5547
 201  474.5714
 202  468.8416
 203  523.056
 204  483.3076
 205  321.2851
 206  398.839
 207  432.8347
 208  493.4005
 209  540.5501
 210  461.8486
 211  408.5566
 212  265.1981
 213  227.1289
 214  430.5756
 215  583.0865
 216  389.1925
 217  472.0595
 218  550.9093
 219  456.4441
 220  305.0858
 221  356.6986
 222  416.7118
 223  428.2004
 224  437.8152
 225  449.6483
 226  422.4104
 227  489.0318
 228  359.2169
 229  373.5049
 230  417.8516
 231  371.0934
 232  411.3644
 233  391.9254
 234  432.5074
 235  396.8582
 236  285.2802
 237  329.662
 238  232.9627
 239  251.4675
 240  276.2515
 241  331.1021
 242  427.4821
 243  493.4947
 244  466.2993
 245  414.7676
 246  481.954
 247  436.8944
 248  422.505
 249  363.9026
 250  436.2853
 251  468.4794
 252  445.7553
 253  399.2119
 254  462.7197
 255  363.5416
 256  333.4939
 257  328.7617
 258  427.3105
 259  534.0328
 260  564.3791
 261  497.5032
 262  402.4653
 263  396.841
 264  377.6082
 265  529.4277
 266  511.9957
 267  513.6356
 268  443.1419
 269  542.5772
 270  581.3419
 271  421.353
 272  419.2366
 273  550.5073
 274  529.4391
 275  488.4465
 276  527.4633
 277  510.7857
 278  500.8195
 279  438.8472
 280  332.907
 281  374.788
 282  408.187
 283  374.532
 284  419.4109
 285  464.2435
 286  321.2727
 287  320.1022
 288  292.4901
 289  440.8515
 290  474.1455
 291  354.5952
 292  381.1813
 293  453.402
 294  416.6105
 295  401.6438
 296  277.3764
 297  357.0502
 298  439.3064
 299  432.9319
 300  395.1884
 301  480.1655
 302  427.6636
 303  449.0735
 304  345.7848
 305  349.2889
 306  421.9111
 307  434.0246
 308  426.2631
 309  457.014
 310  419.826
 311  412.6143
 312  332.742
 313  260.3474
 314  333.2274
 315  381.213
 316  436.9125
 317  384.7152
 318  539.3362
 319  486.0715
 320  333.6507
 321  346.192
 322  423.8667
 323  389.5101
 324  381.3632
 325  411.048
 326  422.5517
 327  454.8544
 328  491.3534
 329  390.9209
 330  304.5371
 331  384.7703
 332  404.3437
 333  566.1078
 334  492.7164
 335  494.0901
 336  452.3996
 337  447.9754
 338  401.222
 339  431.4251
 340  455.2794
 341  568.3799
 342  608.7341
 343  627.513
 344  455.6869
 345  389.2758
 346  429.4075
 347  539.5303
 348  375.1965
 349  399.8546
 350  431.835
 351  478.9652
 352  473.459
 353  488.8878
 354  431.1334
 355  382.9757
 356  337.1582
 357  454.5869
 358  412.4262
 359  320.2792
 360  408.4541
 361  407.8681
 362  450.1923
 363  496.8797
 364  507.4193
 365  623.5967
 366  557.1071
 367  388.9577
 368  417.8384
 369  454.4608
 370  500.6686
 371  474.4309
 372  353.8178
 373  479.622
 374  496.8796
 375  478.8973
 376  420.3599
 377  442.3145
 378  439.8416
 379  430.9628
 380  334.3228
 381  409.9204
 382  585.9928
 383  441.0302
 384  431.0706
 385  530.7206
 386  484.431
 387  516.4957
 388  542.136
 389  543.0565
 390  416.4483
 391  524.9736
 392  487.7209
 393  403.6571
 394  398.7851
 395  393.4596
 396  432.6858
 397  462.1013
 398  446.3014
 399  354.8089
 400  446.2303
 401  464.6135
 402  484.1495
 403  510.6009
 404  360.1838
 405  447.3182
 406  411.1729
 407  466.6272
 408  526.0374
 409  453.8984
 410  353.3051
 411  401.9641
 412  332.5431
 413  338.8937
 414  430.5131
 415  521.0356
 416  532.3024
 417  379.7995
 418  367.5507
 419  300.6242
 420  282.8791
 421  333.8329
 422  437.8878
 423  468.0507
 424  573.9837
 425  475.5153
 426  356.0424
 427  387.0944
 428  470.6585
 429  427.0739
 430  391.9571
 431  469.7029
 432  476.3218
 433  469.9702
 434  449.7867
 435  364.1842
 436  338.5061
 437  332.7047
 438  380.2589
 439  379.5381
 440  325.5393
 441  305.6994
 442  379.5532
 443  379.3787
 444  390.8939
 445  314.7565
 446  326.8861
 447  362.3784
 448  484.2043
 449  425.8888
 450  304.6955
 451  327.5478
 452  460.043
 453  473.9254
 454  474.9982
 455  435.4248
 456  334.4926
 457  485.5263
 458  471.1667
 459  524.9816
 460  491.329
 461  395.5208
 462  432.9869
 463  459.0556
 464  477.7548
 465  417.5563
 466  437.2568
 467  509.8551
 468  472.1945
 469  472.1592
 470  378.8091
 471  375.5673
 472  480.6534
 473  480.4035
 474  383.6338
 475  297.4615
 476  374.8256
 477  331.3658
 478  399.9171
 479  405.9814
 480  433.3406
 481  493.5442
 482  590.9965
 483  575.1907
 484  561.3971
 485  475.374
 486  399.0682
 487  365.2039
 488  442.7915
 489  456.4316
 490  508.4283
 491  521.9094
 492  478.8256
 493  436.7313
 494  451.5131
 495  519.6284
 496  440.2751
 497  436.0184
 498  524.9456
 499  414.3051
 500  436.1746
 501  425.0225
 502  362.7449
 503  332.6908
 504  409.0545
 505  423.5493
 506  431.0348
 507  500.6934
 508  554.5785
 509  663.6466
 510  861.8849
 511  1054.545
