# Input file       =  1183626022.165991_cleaned.dat
# Candidate        =  PSR_0332+5434
# Telescope        =  AR
# Epoch_topo       =  57943.375048217487
# Epoch_bary       =  N/A
# T_sample         =  0.002
# Data Folded      =  7340032
# Data Avg         =  0.0344718388852378
# Data StdDev      =  1.00007174190095 
# Profile Bins     =  512
# Profile Avg      =  494.237826090481 
# Profile StdDev   =  119.741626252403 
# Reduced chi-sqr  =  1.394
# Prob(Noise)      <  8.62e-09   (~5.6 sigma)
# P_topo (ms)      =  714.483158103921  +/- 0.000368
# P'_topo (s/s)    =  -0                +/- 1.94e-10
# P''_topo (s/s^2) =  0                 +/- 8.58e-14
# P_bary (ms)      =  N/A
# P'_bary (s/s)    =  N/A
# P''_bary (s/s^2) =  N/A
# P_orb (s)        =  N/A
# asin(i)/c (s)    =  N/A
# eccentricity     =  N/A
# w (rad)          =  N/A
# T_peri           =  N/A
######################################################
   0  1159.343
   1  1205.035
   2  1043.043
   3  728.5837
   4  576.5052
   5  402.686
   6  469.5566
   7  560.4367
   8  518.8184
   9  560.1626
  10  544.6002
  11  463.3941
  12  509.5664
  13  496.6451
  14  644.938
  15  717.2667
  16  542.3171
  17  528.2809
  18  515.6532
  19  653.2009
  20  586.0994
  21  461.3747
  22  568.5557
  23  688.5931
  24  602.9393
  25  451.2429
  26  469.5663
  27  494.7046
  28  439.4634
  29  566.5206
  30  576.1134
  31  415.0203
  32  356.5874
  33  534.9406
  34  584.7135
  35  538.8758
  36  547.6646
  37  416.9175
  38  327.3673
  39  426.0703
  40  404.8525
  41  351.1128
  42  398.921
  43  380.3758
  44  500.2675
  45  476.9521
  46  408.3547
  47  395.2842
  48  422.6331
  49  549.5396
  50  517.5518
  51  468.7812
  52  523.3854
  53  392.7429
  54  465.8017
  55  510.9879
  56  546.2647
  57  477.9916
  58  583.9599
  59  487.9794
  60  399.4134
  61  417.8919
  62  542.1327
  63  591.5053
  64  609.6736
  65  655.5175
  66  587.6256
  67  561.8512
  68  581.3837
  69  417.7187
  70  464.1947
  71  519.0103
  72  515.7352
  73  582.8662
  74  562.595
  75  529.8522
  76  566.6516
  77  474.219
  78  449.6832
  79  431.7671
  80  443.2803
  81  477.6174
  82  499.4705
  83  569.5575
  84  455.9189
  85  495.9317
  86  521.785
  87  482.5503
  88  500.0608
  89  487.3987
  90  545.5986
  91  529.1577
  92  533.997
  93  537.3572
  94  563.1086
  95  435.3217
  96  462.4518
  97  562.2696
  98  617.1797
  99  481.8477
 100  474.784
 101  481.1093
 102  471.4808
 103  495.0112
 104  555.8474
 105  468.8438
 106  431.2021
 107  447.4671
 108  513.082
 109  575.0974
 110  614.4686
 111  545.7906
 112  563.0767
 113  503.0995
 114  535.8393
 115  508.9953
 116  442.0634
 117  566.2361
 118  614.243
 119  483.4724
 120  372.6341
 121  381.8136
 122  448.4033
 123  535.0067
 124  566.0652
 125  517.7501
 126  587.0654
 127  491.2503
 128  512.6613
 129  536.2886
 130  538.8386
 131  533.1584
 132  582.0697
 133  497.3108
 134  511.4092
 135  467.9251
 136  577.2889
 137  651.3428
 138  605.5027
 139  481.3284
 140  352.7832
 141  301.0508
 142  384.8136
 143  517.3083
 144  639.5183
 145  588.9126
 146  508.8092
 147  492.0478
 148  458.1336
 149  401.2299
 150  464.4698
 151  460.2722
 152  447.4522
 153  461.6709
 154  413.915
 155  458.24
 156  432.6069
 157  389.8154
 158  439.6763
 159  526.7623
 160  410.6259
 161  500.5602
 162  415.4542
 163  430.5364
 164  549.2023
 165  531.0263
 166  549.7261
 167  486.6671
 168  478.6031
 169  392.2206
 170  418.5278
 171  328.7919
 172  444.3044
 173  429.7127
 174  384.5999
 175  431.4135
 176  574.8876
 177  495.2882
 178  476.6487
 179  517.6956
 180  433.4096
 181  397.4711
 182  542.6721
 183  620.5246
 184  495.4441
 185  443.9355
 186  329.6183
 187  371.636
 188  411.1225
 189  494.2346
 190  480.8032
 191  476.0339
 192  435.2542
 193  488.9744
 194  438.5833
 195  352.4999
 196  230.1739
 197  460.6335
 198  344.1085
 199  314.1172
 200  252.6031
 201  383.0986
 202  391.0941
 203  354.3839
 204  365.4317
 205  425.9374
 206  447.0792
 207  306.6957
 208  402.6486
 209  488.9694
 210  453.3828
 211  498.4479
 212  507.6764
 213  439.7612
 214  467.4214
 215  427.3777
 216  475.0945
 217  538.2748
 218  573.0687
 219  542.7387
 220  436.5818
 221  314.0271
 222  338.4036
 223  453.8293
 224  456.9529
 225  470.2198
 226  485.171
 227  407.0832
 228  419.936
 229  468.8524
 230  509.5955
 231  501.4209
 232  469.3262
 233  502.8324
 234  523.979
 235  574.9498
 236  543.9434
 237  527.1402
 238  528.0251
 239  374.6302
 240  453.1233
 241  613.0959
 242  550.4788
 243  518.94
 244  574.3651
 245  401.8794
 246  364.2401
 247  322.7341
 248  438.6301
 249  359.6075
 250  169.8264
 251  277.8202
 252  317.0374
 253  413.1369
 254  443.3678
 255  406.3095
 256  467.8521
 257  419.8384
 258  356.2385
 259  390.3482
 260  439.6516
 261  538.3497
 262  543.5626
 263  544.0276
 264  481.0032
 265  407.5686
 266  454.993
 267  409.3297
 268  527.9056
 269  524.6013
 270  553.6318
 271  572.2429
 272  517.8029
 273  479.0331
 274  565.9688
 275  602.8535
 276  544.6688
 277  431.6818
 278  597.9852
 279  498.8714
 280  499.8892
 281  501.2874
 282  494.0564
 283  456.8627
 284  353.4644
 285  413.7215
 286  397.3601
 287  477.3734
 288  493.397
 289  506.9384
 290  370.797
 291  361.5185
 292  424.1504
 293  406.1819
 294  473.6849
 295  541.7148
 296  477.0741
 297  415.8193
 298  427.4278
 299  518.7015
 300  524.1783
 301  448.2608
 302  536.8182
 303  474.479
 304  425.3264
 305  505.2782
 306  519.0485
 307  468.9373
 308  452.169
 309  603.8304
 310  565.0831
 311  429.9109
 312  365.505
 313  444.1441
 314  529.0341
 315  432.6225
 316  530.4946
 317  632.55
 318  482.1178
 319  444.7821
 320  388.2839
 321  426.6199
 322  407.6688
 323  345.6959
 324  328.5327
 325  448.1289
 326  483.0191
 327  535.7556
 328  485.9957
 329  510.8501
 330  561.2726
 331  453.1974
 332  468.7113
 333  542.0096
 334  505.8338
 335  461.4241
 336  497.8083
 337  478.3407
 338  399.2735
 339  412.8348
 340  422.024
 341  501.7622
 342  512.1586
 343  381.7086
 344  474.6054
 345  435.7755
 346  438.4086
 347  409.2622
 348  444.7638
 349  456.416
 350  492.168
 351  429.1701
 352  383.7642
 353  407.1698
 354  316.0729
 355  283.5829
 356  391.2163
 357  403.5804
 358  424.4041
 359  471.9046
 360  512.4504
 361  571.8065
 362  630.1103
 363  550.7242
 364  548.3179
 365  420.7523
 366  391.7579
 367  432.8189
 368  520.8572
 369  569.0993
 370  516.7253
 371  508.815
 372  496.4454
 373  487.6917
 374  423.7998
 375  575.6419
 376  531.4931
 377  510.1496
 378  479.6102
 379  437.3737
 380  431.7047
 381  489.8605
 382  544.765
 383  484.6621
 384  536.2383
 385  630.257
 386  655.445
 387  534.0125
 388  443.0954
 389  435.5575
 390  385.6445
 391  398.552
 392  365.9733
 393  431.6727
 394  348.6038
 395  439.886
 396  410.6528
 397  375.2551
 398  407.8364
 399  414.4231
 400  483.1548
 401  580.3899
 402  585.2184
 403  526.4979
 404  425.628
 405  576.5099
 406  596.172
 407  510.7476
 408  559.521
 409  592.6546
 410  572.1619
 411  488.2099
 412  563.3377
 413  597.3279
 414  613.837
 415  613.6934
 416  502.605
 417  512.9611
 418  516.2639
 419  597.5009
 420  558.6486
 421  473.776
 422  486.1098
 423  514.9404
 424  533.9053
 425  418.8407
 426  395.643
 427  452.5614
 428  359.9807
 429  416.0263
 430  483.0175
 431  494.8443
 432  505.1461
 433  560.6791
 434  607.5585
 435  617.9911
 436  525.4709
 437  416.2431
 438  505.8895
 439  582.1003
 440  547.1237
 441  574.1446
 442  568.3501
 443  595.6581
 444  529.6157
 445  494.4838
 446  540.2691
 447  548.5533
 448  486.5319
 449  381.3901
 450  404.1043
 451  533.5639
 452  477.7097
 453  523.3134
 454  469.4648
 455  516.3739
 456  544.1266
 457  552.3943
 458  545.2887
 459  408.1477
 460  243.2693
 461  314.3429
 462  477.9764
 463  515.2568
 464  443.3384
 465  336.946
 466  351.4864
 467  426.4897
 468  385.9783
 469  431.4171
 470  500.2189
 471  520.9199
 472  493.8154
 473  520.2826
 474  644.9537
 475  399.1579
 476  434.3578
 477  519.7288
 478  439.7645
 479  397.5887
 480  484.6021
 481  567.4765
 482  617.389
 483  704.6285
 484  680.1653
 485  625.4683
 486  580.9504
 487  555.0594
 488  553.2649
 489  558.9882
 490  629.1458
 491  617.1439
 492  675.6174
 493  677.7549
 494  610.6754
 495  582.3351
 496  549.704
 497  482.0183
 498  549.9622
 499  496.0089
 500  625.4976
 501  653.5718
 502  649.6281
 503  624.4933
 504  517.4917
 505  628.5101
 506  709.6012
 507  737.9829
 508  703.7676
 509  824.8478
 510  908.4584
 511  981.6953
