# Input file       =  1183165821.120904_cleaned.dat
# Candidate        =  PSR_0332+5434
# Telescope        =  AR
# Epoch_topo       =  57938.048647232688
# Epoch_bary       =  N/A
# T_sample         =  0.002
# Data Folded      =  7405568
# Data Avg         =  0.0237573104823456
# Data StdDev      =  1.00008670251355 
# Profile Bins     =  512
# Profile Avg      =  343.908441770761 
# Profile StdDev   =  120.276798423647 
# Reduced chi-sqr  =  1.688
# Prob(Noise)      <  1.97e-20   (~9.2 sigma)
# P_topo (ms)      =  714.486804561657  +/- 0.000242
# P'_topo (s/s)    =  -0                +/- 1.27e-10
# P''_topo (s/s^2) =  0                 +/- 5.54e-14
# P_bary (ms)      =  N/A
# P'_bary (s/s)    =  N/A
# P''_bary (s/s^2) =  N/A
# P_orb (s)        =  N/A
# asin(i)/c (s)    =  N/A
# eccentricity     =  N/A
# w (rad)          =  N/A
# T_peri           =  N/A
######################################################
   0  1284.792
   1  1216.863
   2  1080.436
   3  742.5704
   4  457.9804
   5  419.6128
   6  365.5669
   7  362.7082
   8  367.0343
   9  445.7108
  10  237.0713
  11  255.5957
  12  408.2643
  13  421.7885
  14  382.1211
  15  345.967
  16  395.0815
  17  400.4577
  18  372.859
  19  352.4309
  20  263.94
  21  253.084
  22  312.6629
  23  229.1852
  24  261.7992
  25  295.4731
  26  277.6059
  27  341.7097
  28  336.6913
  29  364.7371
  30  393.4294
  31  373.6476
  32  436.3427
  33  328.5183
  34  412.6991
  35  417.5549
  36  402.7148
  37  302.8352
  38  274.4143
  39  257.1307
  40  316.3083
  41  355.0635
  42  426.986
  43  407.3829
  44  470.8345
  45  412.5387
  46  281.4173
  47  211.1266
  48  266.3497
  49  261.039
  50  333.8582
  51  549.7726
  52  337.471
  53  153.1278
  54  185.71
  55  321.1679
  56  338.8251
  57  405.2577
  58  329.6709
  59  286.3178
  60  258.6696
  61  285.6236
  62  320.2256
  63  273.4118
  64  320.6574
  65  293.0875
  66  323.3081
  67  365.4177
  68  296.7169
  69  401.4587
  70  315.5598
  71  389.013
  72  394.9694
  73  359.2643
  74  418.4507
  75  351.9966
  76  383.2671
  77  417.7593
  78  205.4839
  79  302.0678
  80  314.1291
  81  366.3606
  82  358.7125
  83  367.1745
  84  422.2094
  85  374.3619
  86  306.8388
  87  319.7815
  88  342.3108
  89  275.4407
  90  346.1054
  91  432.6075
  92  424.2148
  93  339.7851
  94  331.5524
  95  347.6395
  96  324.2642
  97  324.369
  98  419.3493
  99  455.441
 100  378.2358
 101  301.2321
 102  242.5305
 103  275.3287
 104  386.2534
 105  339.0952
 106  387.1141
 107  318.9448
 108  308.6172
 109  348.3186
 110  422.8087
 111  330.7465
 112  300.6422
 113  260.7071
 114  362.9354
 115  315.9543
 116  329.634
 117  346.0206
 118  411.7459
 119  342.6177
 120  356.1739
 121  377.3256
 122  367.5675
 123  383.2169
 124  389.7711
 125  299.3828
 126  176.7697
 127  231.8692
 128  368.5536
 129  494.6484
 130  407.981
 131  329.8089
 132  240.7165
 133  300.6789
 134  300.5295
 135  215.5102
 136  142.138
 137  161.0466
 138  334.7277
 139  385.6115
 140  301.734
 141  398.2291
 142  312.8819
 143  356.9599
 144  371.2993
 145  329.9718
 146  395.0388
 147  318.9818
 148  289.3251
 149  248.2286
 150  410.7021
 151  493.5364
 152  390.3952
 153  393.9995
 154  242.1857
 155  220.5569
 156  195.2139
 157  315.4402
 158  405.8754
 159  436.8744
 160  393.248
 161  379.63
 162  289.5795
 163  276.8034
 164  433.1526
 165  376.0824
 166  262.9891
 167  234.0661
 168  348.9527
 169  476.3869
 170  313.7719
 171  277.3021
 172  331.1936
 173  382.1416
 174  515.5909
 175  424.9004
 176  337.2249
 177  319.8093
 178  417.9285
 179  265.3043
 180  138.7131
 181  287.1187
 182  434.5336
 183  265.2587
 184  228.2923
 185  368.1696
 186  461.2291
 187  444.8173
 188  361.5868
 189  375.6596
 190  341.4305
 191  297.7946
 192  340.6377
 193  213.8855
 194  244.348
 195  353.0039
 196  295.4241
 197  197.8727
 198  232.0004
 199  398.4338
 200  332.6811
 201  358.5346
 202  271.1901
 203  312.8594
 204  372.6437
 205  337.8638
 206  299.8707
 207  287.3393
 208  385.291
 209  330.3635
 210  379.2775
 211  418.8128
 212  329.6176
 213  202.2729
 214  183.9276
 215  261.0703
 216  256.6914
 217  342.0967
 218  277.6918
 219  200.4624
 220  279.5052
 221  243.1658
 222  219.7651
 223  283.5146
 224  464.6528
 225  479.5696
 226  404.4089
 227  274.0397
 228  383.2517
 229  464.83
 230  374.9594
 231  425.2668
 232  411.2404
 233  352.9697
 234  280.8788
 235  343.7988
 236  422.1067
 237  460.6263
 238  391.3135
 239  352.0902
 240  268.6
 241  224.1931
 242  242.8843
 243  249.3035
 244  260.9563
 245  231.1092
 246  327.297
 247  333.9498
 248  335.8937
 249  230.8174
 250  179.1666
 251  267.6188
 252  308.8588
 253  334.8267
 254  342.0321
 255  363.5151
 256  369.693
 257  467.0376
 258  302.3519
 259  312.4132
 260  371.4534
 261  341.3038
 262  342.004
 263  297.1331
 264  365.3196
 265  423.6224
 266  368.9253
 267  315.7829
 268  372.2737
 269  343.9187
 270  257.0074
 271  285.959
 272  399.2753
 273  294.8778
 274  180.2192
 275  285.162
 276  348.7122
 277  379.9957
 278  411.2953
 279  362.4404
 280  377.5777
 281  412.9427
 282  308.2823
 283  294.6355
 284  377.3136
 285  370.727
 286  351.2065
 287  285.6842
 288  287.3721
 289  343.6172
 290  344.6121
 291  402.3618
 292  365.4715
 293  326.8059
 294  357.3954
 295  318.3825
 296  334.9824
 297  326.5576
 298  283.7325
 299  327.111
 300  329.7113
 301  363.5499
 302  266.4613
 303  249.9291
 304  260.11
 305  333.1401
 306  295.9562
 307  292.1785
 308  226.6738
 309  242.2824
 310  372.1641
 311  254.7697
 312  303.1414
 313  452.3883
 314  507.375
 315  388.5596
 316  248.6442
 317  249.0776
 318  211.5303
 319  309.7274
 320  360.483
 321  415.7082
 322  408.4665
 323  286.221
 324  339.9237
 325  360.2363
 326  295.8979
 327  255.5943
 328  161.8919
 329  338.3299
 330  375.1702
 331  403.4956
 332  431.8623
 333  419.1846
 334  446.3251
 335  463.2573
 336  455.85
 337  364.4275
 338  383.4452
 339  325.218
 340  279.2762
 341  334.4091
 342  349.5161
 343  442.3983
 344  451.4266
 345  436.2763
 346  426.1997
 347  367.6571
 348  347.5754
 349  361.4707
 350  395.7083
 351  302.0378
 352  298.6809
 353  294.0612
 354  310.8012
 355  227.9215
 356  255.5033
 357  341.5588
 358  301.4677
 359  276.3452
 360  404.6499
 361  462.6343
 362  389.2159
 363  371.8249
 364  428.5369
 365  397.2822
 366  323.3474
 367  391.7948
 368  397.3733
 369  233.4133
 370  326.2454
 371  356.4294
 372  339.9391
 373  253.8824
 374  331.8679
 375  336.9185
 376  324.498
 377  193.9408
 378  160.3891
 379  280.841
 380  303.3619
 381  312.9376
 382  325.2807
 383  332.5114
 384  311.5193
 385  231.0754
 386  227.0309
 387  216.6609
 388  330.0125
 389  332.3387
 390  211.4839
 391  196.2612
 392  338.7838
 393  319.0084
 394  350.3481
 395  338.3151
 396  403.1779
 397  380.2151
 398  348.1205
 399  299.7653
 400  322.5879
 401  288.1429
 402  372.4243
 403  367.7405
 404  378.8026
 405  310.0909
 406  371
 407  220.7178
 408  212.9229
 409  371.0101
 410  359.8294
 411  347.651
 412  335.8672
 413  422.0402
 414  395.7599
 415  354.2978
 416  229.7654
 417  260.6151
 418  268.824
 419  279.712
 420  239.2698
 421  185.5558
 422  140.8907
 423  242.3972
 424  278.9141
 425  165.2748
 426  331.0084
 427  382.4417
 428  354.1845
 429  352.7826
 430  272.4617
 431  167.8245
 432  216.7087
 433  315.6407
 434  296.6553
 435  207.3869
 436  262.1758
 437  297.6815
 438  389.0078
 439  454.1579
 440  366.1209
 441  329.6663
 442  279.4515
 443  283.6941
 444  305.0333
 445  325.0782
 446  414.6165
 447  463.0387
 448  402.7503
 449  313.8838
 450  353.1647
 451  364.6175
 452  349.0287
 453  359.2935
 454  379.4584
 455  312.0097
 456  267.4517
 457  349.1693
 458  346.6483
 459  311.6182
 460  298.834
 461  202.8512
 462  249.1844
 463  257.266
 464  265.9629
 465  323.2322
 466  225.4022
 467  206.4444
 468  201.7956
 469  293.2682
 470  377.9148
 471  333.2915
 472  346.5565
 473  376.0244
 474  287.8534
 475  175.7462
 476  248.6116
 477  189.1018
 478  304.6536
 479  360.1462
 480  460.8827
 481  385.1572
 482  323.2154
 483  346.5021
 484  420.4995
 485  380.3614
 486  259.1858
 487  306.38
 488  294.0918
 489  414.1451
 490  401.9552
 491  451.635
 492  436.2579
 493  426.7176
 494  415.8052
 495  406.4243
 496  423.3429
 497  342.5679
 498  417.6818
 499  383.5494
 500  347.6344
 501  447.2943
 502  498.5474
 503  379.7052
 504  429.2917
 505  564.3109
 506  505.5313
 507  583.1521
 508  770.9094
 509  810.433
 510  945.67
 511  1162.182
