# Input file       =  1183338248.11959_cleaned.dat
# Candidate        =  PSR_0332+5434
# Telescope        =  AR
# Epoch_topo       =  57940.044330087847
# Epoch_bary       =  N/A
# T_sample         =  0.002
# Data Folded      =  7340032
# Data Avg         =  0.0255798107115783
# Data StdDev      =  1.00004812467924 
# Profile Bins     =  512
# Profile Avg      =  366.717266766651 
# Profile StdDev   =  119.738798490737 
# Reduced chi-sqr  =  1.118
# Prob(Noise)      <  0.0329   (~1.8 sigma)
# P_topo (ms)      =  714.485273446774  +/- 0.000206
# P'_topo (s/s)    =  -0                +/- 1.09e-10
# P''_topo (s/s^2) =  0                 +/- 4.8e-14
# P_bary (ms)      =  N/A
# P'_bary (s/s)    =  N/A
# P''_bary (s/s^2) =  N/A
# P_orb (s)        =  N/A
# asin(i)/c (s)    =  N/A
# eccentricity     =  N/A
# w (rad)          =  N/A
# T_peri           =  N/A
######################################################
   0  962.4751
   1  962.852
   2  785.4927
   3  520.3845
   4  298.5865
   5  255.4502
   6  346.0609
   7  193.856
   8  197.5588
   9  280.4485
  10  315.6843
  11  318.2068
  12  367.3807
  13  427.6693
  14  504.002
  15  371.3426
  16  371.2468
  17  385.4444
  18  477.575
  19  397.9066
  20  308.3962
  21  268.4875
  22  366.1818
  23  418.759
  24  343.2502
  25  361.1652
  26  293.0492
  27  341.8665
  28  329.6011
  29  253.0189
  30  348.8517
  31  473.4555
  32  348.2606
  33  350.3341
  34  471.1537
  35  374.9341
  36  363.9772
  37  320.2597
  38  395.5249
  39  352.4889
  40  391.7781
  41  338.908
  42  359.306
  43  476.1486
  44  515.9516
  45  507.4618
  46  357.5829
  47  262.9028
  48  332.213
  49  470.0407
  50  417.7602
  51  391.8484
  52  406.3415
  53  372.1718
  54  313.8305
  55  376.959
  56  425.6603
  57  372.5766
  58  373.8495
  59  278.335
  60  251.1625
  61  313.8821
  62  336.6841
  63  357.1651
  64  392.9213
  65  307.8886
  66  286.7645
  67  319.4824
  68  262.9859
  69  405.2864
  70  384.0318
  71  304.6707
  72  290.4024
  73  322.2121
  74  390.104
  75  417.6502
  76  377.6829
  77  459.1969
  78  396.05
  79  435.1151
  80  397.3893
  81  423.4815
  82  343.5867
  83  305.7379
  84  408.9798
  85  456.7003
  86  310.4653
  87  328.49
  88  332.4964
  89  251.9863
  90  339.9335
  91  362.3056
  92  361.2515
  93  357.2036
  94  463.0969
  95  410.9663
  96  388.783
  97  454.3106
  98  391.1724
  99  356.4305
 100  463.4727
 101  546.0462
 102  425.9626
 103  305.0977
 104  322.4791
 105  337.4459
 106  425.3074
 107  451.7184
 108  515.3557
 109  461.1988
 110  367.3394
 111  249.5381
 112  290.1215
 113  355.2755
 114  431.1546
 115  394.9886
 116  423.3695
 117  440.5664
 118  465.8621
 119  479.3984
 120  457.4579
 121  326.7886
 122  363.2909
 123  389.8129
 124  272.7511
 125  315.1486
 126  468.6851
 127  448.8286
 128  409.8399
 129  346.557
 130  356.4275
 131  338.0197
 132  332.0044
 133  402.4881
 134  359.6352
 135  382.1881
 136  391.0546
 137  486.9283
 138  511.968
 139  334.5673
 140  356.8372
 141  400.1669
 142  460.2907
 143  417.1764
 144  381.6055
 145  355.4446
 146  318.7008
 147  405.8491
 148  364.44
 149  444.4204
 150  293.7361
 151  293.1295
 152  318.9673
 153  277.9105
 154  282.2436
 155  322.1639
 156  234.1693
 157  155.3883
 158  110.0653
 159  268.7557
 160  334.2637
 161  301.8042
 162  252.7069
 163  336.8797
 164  291.9231
 165  276.0361
 166  217.1997
 167  254.3755
 168  373.0201
 169  340.8284
 170  306.3368
 171  267.7604
 172  344.0021
 173  359.8198
 174  383.3247
 175  350.2882
 176  309.3901
 177  410.0234
 178  400.9676
 179  360.9153
 180  362.8575
 181  339.4486
 182  380.3435
 183  419.6987
 184  447.184
 185  343.2925
 186  352.4882
 187  388.9483
 188  372.9048
 189  354.695
 190  395.8893
 191  592.6312
 192  541.6572
 193  354.5205
 194  258.5659
 195  366.4245
 196  346.5414
 197  267.8395
 198  260.1569
 199  264.4567
 200  274.3514
 201  468.8928
 202  405.3966
 203  276.6467
 204  320.6276
 205  297.7527
 206  360.351
 207  313.1789
 208  330.4349
 209  477.4088
 210  460.0956
 211  430.1318
 212  439.7425
 213  436.1064
 214  461.8144
 215  296.2561
 216  417.4942
 217  417.776
 218  387.6628
 219  417.2533
 220  496.6447
 221  451.7086
 222  457.1144
 223  426.19
 224  356.448
 225  280.2669
 226  397.2649
 227  413.5428
 228  341.1878
 229  341.5003
 230  387.0288
 231  317.4164
 232  199.4906
 233  235.8771
 234  323.2859
 235  298.0317
 236  313.695
 237  246.6882
 238  373.1294
 239  376.6751
 240  460.847
 241  355.3508
 242  287.9366
 243  363.5984
 244  394.2067
 245  426.4008
 246  382.4658
 247  333.5089
 248  261.1124
 249  316.2675
 250  383.0713
 251  355.2709
 252  300.8007
 253  316.734
 254  403.9606
 255  522.5768
 256  419.6201
 257  360.6505
 258  346.6454
 259  375.4538
 260  291.7508
 261  351.0703
 262  354.8437
 263  366.422
 264  402.0435
 265  441.5398
 266  365.3084
 267  392.3062
 268  362.6461
 269  275.4124
 270  305.0408
 271  421.1146
 272  376.309
 273  273.3983
 274  298.338
 275  261.324
 276  331.9042
 277  249.1706
 278  292.9274
 279  347.7403
 280  336.404
 281  411.4427
 282  332.6425
 283  249.1385
 284  213.3549
 285  237.4607
 286  209.3259
 287  274.1896
 288  401.2764
 289  384.9826
 290  357.4661
 291  306.8108
 292  300.4453
 293  306.4264
 294  314.1057
 295  296.472
 296  225.7063
 297  292.4721
 298  439.2859
 299  306.479
 300  382.355
 301  392.4013
 302  416.9031
 303  273.0608
 304  149.1643
 305  138.5801
 306  174.8359
 307  394.1756
 308  449.2551
 309  331.3412
 310  274.6617
 311  298.9317
 312  240.359
 313  299.3948
 314  318.6648
 315  321.6664
 316  342.4392
 317  347.4202
 318  330.5633
 319  365.955
 320  424.3361
 321  381.0966
 322  296.9362
 323  349.4761
 324  287.2446
 325  272.0482
 326  269.5406
 327  305.4511
 328  401.2188
 329  450.775
 330  448.8142
 331  483.3392
 332  362.6124
 333  309.8407
 334  342.0765
 335  321.9895
 336  391.3696
 337  338.6653
 338  391.7069
 339  449.8414
 340  357.9597
 341  307.2665
 342  360.3555
 343  331.7289
 344  250.7033
 345  180.5878
 346  361.8662
 347  428.412
 348  307.4615
 349  370.478
 350  391.1955
 351  237.2396
 352  181.5144
 353  231.2556
 354  328.3842
 355  297.8398
 356  323.5401
 357  414.9274
 358  364.9617
 359  224.4472
 360  268.6529
 361  390.7232
 362  347.1495
 363  298.8486
 364  363.2279
 365  321.3352
 366  315.1597
 367  380.8055
 368  286.7028
 369  325.5611
 370  362.0358
 371  419.5568
 372  344.935
 373  311.0202
 374  314.128
 375  276.5655
 376  264.8814
 377  220.1456
 378  299.1684
 379  317.9581
 380  249.3894
 381  327.3438
 382  389.4973
 383  282.5674
 384  268.2924
 385  254.7511
 386  226.1067
 387  254.8484
 388  387.044
 389  347.3599
 390  366.9102
 391  490.2027
 392  509.431
 393  508.8731
 394  421.1606
 395  433.2296
 396  356.301
 397  378.332
 398  375.4213
 399  333.5974
 400  320.4012
 401  325.2299
 402  415.4499
 403  448.1899
 404  443.0575
 405  420.4732
 406  360.4319
 407  346.1559
 408  287.2396
 409  326.8706
 410  400.4493
 411  423.8649
 412  417.8077
 413  494.2072
 414  469.5216
 415  444.8473
 416  441.1132
 417  433.0013
 418  488.3802
 419  377.1885
 420  496.4563
 421  400.6931
 422  406.9528
 423  382.4475
 424  325.0322
 425  312.0034
 426  292.0595
 427  318.2119
 428  373.1342
 429  420.3051
 430  359.0624
 431  319.9892
 432  318.558
 433  242.6145
 434  399.9176
 435  456.3778
 436  422.4783
 437  448.684
 438  415.1868
 439  370.0424
 440  328.0247
 441  358.132
 442  331.9392
 443  365.1252
 444  395.0863
 445  417.0113
 446  337.6238
 447  323.3232
 448  332.1384
 449  320.9977
 450  399.7694
 451  368.626
 452  313.5223
 453  321.7948
 454  329.5279
 455  290.3533
 456  264.35
 457  296.4648
 458  326.9854
 459  239.8033
 460  350.3092
 461  373.4411
 462  361.0247
 463  360.4445
 464  396.1057
 465  384.8289
 466  425.0828
 467  503.9056
 468  418.8644
 469  271.012
 470  313.9579
 471  357.6032
 472  472.0132
 473  580.1757
 474  488.8583
 475  489.4911
 476  393.6633
 477  464.5211
 478  549.8398
 479  500.9363
 480  485.3453
 481  535.5433
 482  518.325
 483  470.5867
 484  401.2858
 485  376.3477
 486  448.1147
 487  425.0509
 488  353.3506
 489  270.4441
 490  388.5847
 491  463.3822
 492  447.417
 493  521.0939
 494  467.8326
 495  394.3875
 496  297.0197
 497  321.6091
 498  299.7866
 499  275.3523
 500  385.2673
 501  506.9528
 502  377.9698
 503  344.8266
 504  316.6811
 505  396.3208
 506  525.3903
 507  601.5947
 508  600.7921
 509  641.2475
 510  758.0835
 511  844.7137
