# Input file       =  1183682620.103163_cleaned.dat
# Candidate        =  PSR_0332+5434
# Telescope        =  AR
# Epoch_topo       =  57944.030116934759
# Epoch_bary       =  N/A
# T_sample         =  0.002
# Data Folded      =  7208960
# Data Avg         =  0.0315873931019875
# Data StdDev      =  1.00005735642185 
# Profile Bins     =  512
# Profile Avg      =  444.791717303432 
# Profile StdDev   =  118.665981659274 
# Reduced chi-sqr  =  1.249
# Prob(Noise)      <  0.000101   (~3.7 sigma)
# P_topo (ms)      =  714.482343175387  +/- 0.000389
# P'_topo (s/s)    =  -0                +/- 2.09e-10
# P''_topo (s/s^2) =  0                 +/- 9.39e-14
# P_bary (ms)      =  N/A
# P'_bary (s/s)    =  N/A
# P''_bary (s/s^2) =  N/A
# P_orb (s)        =  N/A
# asin(i)/c (s)    =  N/A
# eccentricity     =  N/A
# w (rad)          =  N/A
# T_peri           =  N/A
######################################################
   0  289.8691
   1  377.4648
   2  489.911
   3  398.8134
   4  324.3507
   5  290.6262
   6  368.5085
   7  529.6027
   8  422.8293
   9  445.9519
  10  466.2304
  11  366.7939
  12  334.4504
  13  328.2516
  14  306.574
  15  310.0263
  16  293.8006
  17  363.4109
  18  310.829
  19  362.4217
  20  354.3853
  21  378.3586
  22  331.7033
  23  465.9882
  24  472.411
  25  504.452
  26  316.5844
  27  334.8891
  28  415.1544
  29  370.162
  30  458.6118
  31  390.1592
  32  407.2132
  33  404.2886
  34  388.7582
  35  347.4868
  36  362.7502
  37  409.111
  38  502.333
  39  428.2538
  40  509.1912
  41  483.5814
  42  400.0798
  43  463.8903
  44  421.45
  45  347.0065
  46  422.2202
  47  353.963
  48  327.5004
  49  463.7527
  50  444.5298
  51  418.2054
  52  393.6576
  53  393.4295
  54  417.0871
  55  433.4135
  56  339.5716
  57  392.6858
  58  342.8336
  59  493.649
  60  566.9907
  61  511.0416
  62  495.9363
  63  354.534
  64  410.1033
  65  436.3974
  66  478.6371
  67  451.3753
  68  388.4208
  69  510.6189
  70  395.7437
  71  436.8407
  72  388.8157
  73  412.1967
  74  275.0467
  75  419.0506
  76  534.9925
  77  440.6776
  78  468.4228
  79  408.592
  80  428.9352
  81  466.2233
  82  484.3674
  83  486.5775
  84  475.8055
  85  526.6669
  86  435.6881
  87  493.4332
  88  485.2377
  89  485.1079
  90  551.8111
  91  496.0359
  92  467.5873
  93  420.9882
  94  413.4403
  95  394.7072
  96  392.1858
  97  579.9736
  98  603.8073
  99  556.2888
 100  494.1984
 101  450.1397
 102  486.796
 103  446.5618
 104  419.1622
 105  395.4279
 106  503.6846
 107  502.084
 108  435.0079
 109  417.2774
 110  433.8025
 111  346.0298
 112  455.0821
 113  471.6168
 114  546.8853
 115  554.5104
 116  490.5106
 117  410.9981
 118  489.2222
 119  477.0026
 120  490.144
 121  493.5109
 122  528.2202
 123  460.5083
 124  515.3527
 125  539.5519
 126  478.8045
 127  433.9597
 128  356.481
 129  450.6353
 130  375.5087
 131  370.6195
 132  419.9612
 133  418.1934
 134  373.1211
 135  349.6382
 136  401.6711
 137  389.0056
 138  433.3671
 139  410.5527
 140  551.3593
 141  421.2187
 142  441.2403
 143  469.1262
 144  448.955
 145  410.7493
 146  460.7016
 147  478.0897
 148  438.5938
 149  473.1841
 150  460.665
 151  589.8148
 152  359.9347
 153  288.3611
 154  389.5664
 155  522.8564
 156  424.0031
 157  419.616
 158  503.0757
 159  333.9248
 160  418.5923
 161  477.6125
 162  531.2448
 163  577.9832
 164  543.4363
 165  581.8759
 166  448.4902
 167  406.4796
 168  406.0537
 169  433.51
 170  334.3072
 171  289.5499
 172  375.2925
 173  511.8592
 174  500.7383
 175  426.6765
 176  482.1833
 177  455.3599
 178  418.4253
 179  493.715
 180  579.1852
 181  498.4347
 182  421.6301
 183  383.9407
 184  382.8244
 185  457.998
 186  570.5051
 187  410.8598
 188  400.3088
 189  539.4641
 190  541.8637
 191  529.7486
 192  454.5595
 193  589.9677
 194  609.1069
 195  454.6175
 196  588.3297
 197  608.5499
 198  659.5837
 199  695.224
 200  579.5763
 201  414.5825
 202  505.5593
 203  485.6911
 204  466.4691
 205  450.1098
 206  436.6613
 207  533.4107
 208  418.4386
 209  493.678
 210  580.9171
 211  436.5226
 212  448.7761
 213  576.3895
 214  580.5002
 215  573.132
 216  425.5725
 217  411.484
 218  399.0514
 219  485.1272
 220  537.8931
 221  478.9697
 222  493.0245
 223  415.8382
 224  541.6431
 225  510.2459
 226  530.6475
 227  532.298
 228  490.6938
 229  408.8734
 230  398.7181
 231  377.9697
 232  417.6322
 233  522.011
 234  547.7465
 235  409.7759
 236  434.6316
 237  511.1643
 238  390.6898
 239  422.891
 240  458.2676
 241  433.4931
 242  412.9821
 243  460.5171
 244  536.8592
 245  419.2671
 246  311.5959
 247  393.8254
 248  425.0865
 249  378.6988
 250  369.6741
 251  420.8833
 252  361.9123
 253  326.4084
 254  464.2803
 255  389.6171
 256  429.1385
 257  347.2541
 258  406.5646
 259  451.8224
 260  552.6267
 261  459.7443
 262  424.3663
 263  587.0704
 264  545.4685
 265  474.0262
 266  474.0196
 267  363.3359
 268  326.7536
 269  402.8035
 270  407.1553
 271  494.9905
 272  511.2851
 273  397.567
 274  339.955
 275  340.1185
 276  400.917
 277  410.1974
 278  364.7726
 279  442.7911
 280  519.9896
 281  510.8591
 282  556.3123
 283  483.8151
 284  327.7982
 285  396.1217
 286  387.5538
 287  408.5198
 288  441.0337
 289  468.1551
 290  465.2026
 291  389.0544
 292  408.4481
 293  335.6889
 294  458.7306
 295  515.3644
 296  449.3791
 297  428.7313
 298  381.4236
 299  496.5405
 300  305.9493
 301  427.1569
 302  553.3107
 303  479.5884
 304  500.3537
 305  360.4871
 306  431.6501
 307  425.0638
 308  417.2402
 309  480.9057
 310  435.592
 311  386.7724
 312  433.1132
 313  411.1464
 314  285.1
 315  269.1144
 316  301.9106
 317  226.3651
 318  405.0043
 319  315.9813
 320  328.4109
 321  329.8834
 322  339.4367
 323  317.793
 324  386.3559
 325  425.5271
 326  446.7869
 327  476.3327
 328  411.3619
 329  364.883
 330  374.8649
 331  392.6328
 332  401.9907
 333  433.1433
 334  401.0497
 335  431.5893
 336  393.4179
 337  379.912
 338  311.1172
 339  426.1303
 340  398.8531
 341  418.6529
 342  410.8082
 343  319.862
 344  354.6422
 345  444.8333
 346  443.2703
 347  443.3161
 348  435.4728
 349  355.6421
 350  443.6835
 351  459.9689
 352  493.0645
 353  434.0608
 354  349.0904
 355  311.6053
 356  398.6609
 357  440.274
 358  434.0015
 359  460.1875
 360  459.1256
 361  433.4961
 362  395.309
 363  510.4378
 364  576.9025
 365  545.7784
 366  559.5659
 367  595.4265
 368  713.4623
 369  833.1602
 370  1013.825
 371  1108.364
 372  1155.112
 373  990.8923
 374  732.9933
 375  560.6372
 376  426.7352
 377  400.3421
 378  456.4933
 379  455.1411
 380  542.7791
 381  581.4089
 382  578.025
 383  627.3075
 384  563.9405
 385  533.3185
 386  470.2957
 387  510.0901
 388  531.4153
 389  457.9866
 390  397.1827
 391  428.4529
 392  487.2567
 393  534.9984
 394  467.1542
 395  393.751
 396  369.4279
 397  461.7034
 398  462.0867
 399  458.2366
 400  465.9365
 401  455.9761
 402  459.7944
 403  490.2097
 404  399.5028
 405  602.7071
 406  574.8998
 407  492.5941
 408  463.34
 409  449.6352
 410  416.96
 411  424.1683
 412  480.9994
 413  442.7772
 414  359.88
 415  397.7013
 416  465.7658
 417  508.9229
 418  430.0237
 419  419.2683
 420  492.2252
 421  510.7358
 422  446.8511
 423  537.4565
 424  475.0569
 425  410.2789
 426  329.3635
 427  399.6628
 428  376.1352
 429  408.0323
 430  407.4486
 431  340.0846
 432  338.549
 433  427.7754
 434  469.8541
 435  383.3077
 436  377.1363
 437  332.7081
 438  368.0739
 439  344.6694
 440  304.7506
 441  454.8429
 442  421.0352
 443  356.8846
 444  395.263
 445  443.8055
 446  332.7856
 447  324.0931
 448  467.014
 449  470.6391
 450  450.2473
 451  423.8011
 452  472.5119
 453  452.3249
 454  356.3315
 455  382.4391
 456  287.0025
 457  302.7447
 458  401.2559
 459  512.9512
 460  358.0532
 461  348.1239
 462  341.6062
 463  379.7697
 464  327.5588
 465  366.9569
 466  393.8048
 467  444.5869
 468  572.0714
 469  419.3506
 470  418.9814
 471  455.7727
 472  551.4371
 473  470.0986
 474  529.1305
 475  585.4564
 476  578.5093
 477  546.7772
 478  473.6953
 479  475.7092
 480  392.0799
 481  431.6326
 482  510.42
 483  506.0859
 484  506.5677
 485  551.235
 486  469.2048
 487  484.8366
 488  425.0128
 489  423.6511
 490  383.6898
 491  307.5353
 492  429.9403
 493  466.3414
 494  495.782
 495  417.6853
 496  319.8329
 497  375.9031
 498  580.063
 499  421.8076
 500  472.4634
 501  541.0334
 502  467.7628
 503  476.8745
 504  391.3599
 505  275.9505
 506  287.4317
 507  380.1125
 508  383.5655
 509  383.1357
 510  203.194
 511  263.5895
