# Input file       =  1183682620.103163_cleaned.dat
# Candidate        =  PSR_0332+5434
# Telescope        =  AR
# Epoch_topo       =  57944.030116934759
# Epoch_bary       =  N/A
# T_sample         =  0.002
# Data Folded      =  7208960
# Data Avg         =  0.0315873931019875
# Data StdDev      =  1.00005735642185 
# Profile Bins     =  512
# Profile Avg      =  444.791733681129 
# Profile StdDev   =  118.665981659274 
# Reduced chi-sqr  =  1.249
# Prob(Noise)      <  0.000101   (~3.7 sigma)
# P_topo (ms)      =  714.482342016843  +/- 0.000389
# P'_topo (s/s)    =  -0                +/- 2.09e-10
# P''_topo (s/s^2) =  0                 +/- 9.39e-14
# P_bary (ms)      =  N/A
# P'_bary (s/s)    =  N/A
# P''_bary (s/s^2) =  N/A
# P_orb (s)        =  N/A
# asin(i)/c (s)    =  N/A
# eccentricity     =  N/A
# w (rad)          =  N/A
# T_peri           =  N/A
######################################################
   0  1107.746
   1  1155.072
   2  995.2944
   3  735.6125
   4  563.4408
   5  427.9951
   6  400.3481
   7  455.0243
   8  455.1955
   9  540.7557
  10  583.023
  11  576.1126
  12  627.1199
  13  564.2452
  14  534.6375
  15  470.888
  16  509.6304
  17  531.931
  18  459.4973
  19  396.9297
  20  426.3961
  21  487.3653
  22  535.5084
  23  468.5603
  24  393.9197
  25  368.7342
  26  461.4581
  27  461.6132
  28  458.0898
  29  465.9147
  30  457.408
  31  457.7047
  32  492.5939
  33  398.1592
  34  601.1462
  35  575.7483
  36  493.5917
  37  463.7702
  38  449.3221
  39  417.6711
  40  423.4875
  41  480.3427
  42  444.4345
  43  359.8867
  44  396.7702
  45  463.8875
  46  510.532
  47  430.9839
  48  418.5001
  49  490.3272
  50  511.9884
  51  446.6294
  52  536.9352
  53  476.1191
  54  411.8469
  55  329.12
  56  398.9733
  57  376.2985
  58  407.3779
  59  407.9811
  60  340.8356
  61  336.7539
  62  427.7259
  63  470.2998
  64  383.5534
  65  377.8561
  66  333.609
  67  366.6721
  68  345.7048
  69  304.3683
  70  453.3443
  71  423.1502
  72  356.9921
  73  394.7474
  74  443.6479
  75  334.3518
  76  322.5298
  77  464.9196
  78  470.9702
  79  450.9338
  80  423.091
  81  472.9291
  82  453.4262
  83  356.573
  84  382.8153
  85  287.9619
  86  302.3361
  87  398.2775
  88  514.3053
  89  358.7382
  90  348.6598
  91  340.3246
  92  380.0393
  93  328.6576
  94  365.7402
  95  394.6417
  96  442.0763
  97  573.7671
  98  419.2385
  99  417.7002
 100  455.376
 101  550.8343
 102  471.537
 103  527.1281
 104  586.3038
 105  578.056
 106  548.2786
 107  473.417
 108  476.1557
 109  392.5581
 110  430.946
 111  509.2533
 112  507.196
 113  504.733
 114  551.6364
 115  471.0629
 116  485.0418
 117  425.559
 118  423.4165
 119  385.3309
 120  306.9506
 121  428.0736
 122  465.6217
 123  495.7577
 124  420.522
 125  320.9221
 126  373.0023
 127  578.7758
 128  423.9361
 129  469.6082
 130  542.3324
 131  468.3095
 132  477.0759
 133  393.3193
 134  277.4138
 135  285.047
 136  379.9276
 137  383.8808
 138  383.8156
 139  204.4774
 140  262.8268
 141  290.1131
 142  374.7654
 143  489.9825
 144  400.5351
 145  325.0471
 146  289.5474
 147  366.4743
 148  529.4572
 149  425.3593
 150  443.9598
 151  467.4551
 152  367.0313
 153  334.8645
 154  330.0926
 155  305.4216
 156  310.3597
 157  293.0919
 158  362.7821
 159  310.9778
 160  362.6086
 161  354.5574
 162  378.4932
 163  331.0595
 164  464.2724
 165  472.3411
 166  506.8889
 167  317.3459
 168  333.673
 169  413.7241
 170  370.1803
 171  457.9656
 172  391.634
 173  406.272
 174  404.42
 175  389.4449
 176  346.9414
 177  363.0478
 178  407.835
 179  502.847
 180  428.6194
 181  508.1986
 182  485.8375
 183  399.3746
 184  462.9846
 185  422.7453
 186  346.8077
 187  420.8276
 188  356.9219
 189  326.2216
 190  462.7068
 191  444.3908
 192  418.8547
 193  392.8323
 194  393.4449
 195  416.3241
 196  435.2611
 197  339.8689
 198  392.0683
 199  343.6726
 200  489.8953
 201  567.9087
 202  511.6441
 203  496.5269
 204  355.5508
 205  408.9276
 206  437.4702
 207  476.7861
 208  454.7862
 209  385.4052
 210  511.2011
 211  395.5696
 212  437.6285
 213  388.9564
 214  413.3889
 215  275.6199
 216  414.962
 217  536.407
 218  441.7666
 219  468.1902
 220  409.3594
 221  428.5608
 222  465.0544
 223  484.6798
 224  486.1908
 225  475.5471
 226  526.691
 227  435.5349
 228  493.7171
 229  485.412
 230  485.0856
 231  550.5176
 232  497.1612
 233  467.5017
 234  421.8343
 235  413.7498
 236  395.4326
 237  390.3376
 238  578.089
 239  604.0792
 240  557.0009
 241  495.6577
 242  451.104
 243  484.1218
 244  447.8408
 245  419.2996
 246  395.5428
 247  503.5205
 248  501.486
 249  436.6235
 250  415.6961
 251  436.0994
 252  345.0452
 253  454.4687
 254  471.0921
 255  546.0569
 256  554.0569
 257  492.2518
 258  410.7909
 259  487.9413
 260  477.8597
 261  490.1634
 262  492.5682
 263  529.5192
 264  460.271
 265  513.9969
 266  541.7991
 267  478.9533
 268  435.0981
 269  355.5907
 270  450.0621
 271  376.5483
 272  370.2894
 273  418.9418
 274  417.7401
 275  375.3743
 276  348.7554
 277  401.5587
 278  388.3234
 279  434.5093
 280  409.3333
 281  550.8663
 282  423.2979
 283  439.3213
 284  469.9038
 285  449.8335
 286  410.386
 287  459.8708
 288  478.8361
 289  438.2733
 290  472.7862
 291  458.7357
 292  591.8737
 293  362.4626
 294  287.9275
 295  387.4063
 296  522.6523
 297  424.8756
 298  418.1191
 299  503.5694
 300  335.6647
 301  417.0476
 302  477.3228
 303  529.3076
 304  578.5848
 305  543.4265
 306  583.1057
 307  450.0194
 308  406.1582
 309  405.8063
 310  433.3375
 311  336.6841
 312  289.3165
 313  373.3033
 314  511.4601
 315  501.3087
 316  427.3945
 317  480.1071
 318  456.0443
 319  418.638
 320  492.7099
 321  579.957
 322  498.8777
 323  421.7678
 324  384.5966
 325  382.8313
 326  456.6597
 327  570.5351
 328  412.6065
 329  399.4151
 330  537.399
 331  542.1312
 332  529.9
 333  455.5789
 334  586.4242
 335  611.5334
 336  454.8507
 337  587.0626
 338  609.0945
 339  657.3944
 340  696.0052
 341  582.4901
 342  415.2522
 343  504.1555
 344  487.062
 345  465.4642
 346  450.5106
 347  435.8487
 348  533.3837
 349  420.3351
 350  490.9526
 351  582.009
 352  438.0915
 353  446.8219
 354  575.7484
 355  579.9546
 356  574.9167
 357  425.8186
 358  411.5701
 359  399.3461
 360  483.9973
 361  538.9587
 362  477.5696
 363  494.0126
 364  415.999
 365  541.1008
 366  510.1163
 367  530.1741
 368  532.6392
 369  491.0886
 370  409.941
 371  398.6996
 372  377.5975
 373  416.4549
 374  520.6575
 375  548.8251
 376  412.6665
 377  431.6935
 378  512.532
 379  391.2903
 380  422.9285
 381  457.2855
 382  434.0595
 383  413.5666
 384  458.7468
 385  536.9359
 386  422.5523
 387  309.2646
 388  393.1178
 389  425.6232
 390  379.3727
 391  369.6659
 392  420.9154
 393  363.3197
 394  325.2713
 395  463.6713
 396  389.6652
 397  429.5904
 398  348.0432
 399  404.9551
 400  451.7555
 401  551.9037
 402  461.5237
 403  421.7
 404  586.0828
 405  547.3634
 406  474.742
 407  473.7921
 408  366.3721
 409  325.0856
 410  402.4017
 411  407.3629
 412  492.9024
 413  513.1197
 414  397.1332
 415  340.9528
 416  339.5947
 417  399.6512
 418  411.8414
 419  364.5866
 420  441.5786
 421  519.8903
 422  510.7345
 423  555.3751
 424  486.1092
 425  328.5708
 426  395.028
 427  387.9738
 428  408.8246
 429  440.3044
 430  468.093
 431  465.0506
 432  389.7361
 433  408.5615
 434  337.1257
 435  455.387
 436  516.9499
 437  448.8397
 438  431.0858
 439  379.1674
 440  498.0213
 441  306.382
 442  424.879
 443  552.9776
 444  480.2603
 445  500.0916
 446  362.2843
 447  429.6066
 448  427.1573
 449  415.1852
 450  481.6824
 451  434.6975
 452  387.1702
 453  433.1831
 454  413.1346
 455  286.1046
 456  268.5913
 457  302.6754
 458  225.3358
 459  402.3854
 460  318.5446
 461  328.4126
 462  329.0281
 463  340.0325
 464  316.1576
 465  387.0728
 466  424.1362
 467  447.2171
 468  476.4897
 469  412.6169
 470  364.0123
 471  375.9899
 472  391.6422
 473  401.8547
 474  433.0236
 475  400.9912
 476  431.985
 477  394.4072
 478  379.6589
 479  310.8593
 480  425.1253
 481  400.347
 482  417.225
 483  412.0155
 484  321.3862
 485  351.6981
 486  445.4375
 487  443.2937
 488  442.5911
 489  436.2234
 490  355.979
 491  442.4981
 492  460.0611
 493  492.924
 494  435.4686
 495  349.873
 496  312.1127
 497  395.7851
 498  441.4174
 499  432.7587
 500  461.1667
 501  458.5186
 502  434.6526
 503  395.342
 504  507.663
 505  577.4156
 506  546.3854
 507  558.3594
 508  594.3561
 509  711.8703
 510  832.0087
 511  1010.364
