# Input file       =  1183251928.112236_cleaned.dat
# Candidate        =  PSR_0332+5434
# Telescope        =  AR
# Epoch_topo       =  57939.045255928657
# Epoch_bary       =  N/A
# T_sample         =  0.002
# Data Folded      =  7143424
# Data Avg         =  0.0220751362054604
# Data StdDev      =  1.00005995203454 
# Profile Bins     =  512
# Profile Avg      =  308.044557292766 
# Profile StdDev   =  118.125665931324 
# Reduced chi-sqr  =  1.518
# Prob(Noise)      <  3.38e-13   (~7.2 sigma)
# P_topo (ms)      =  714.486037427198  +/- 0.0002
# P'_topo (s/s)    =  -0                +/- 1.09e-10
# P''_topo (s/s^2) =  0                 +/- 4.92e-14
# P_bary (ms)      =  N/A
# P'_bary (s/s)    =  N/A
# P''_bary (s/s^2) =  N/A
# P_orb (s)        =  N/A
# asin(i)/c (s)    =  N/A
# eccentricity     =  N/A
# w (rad)          =  N/A
# T_peri           =  N/A
######################################################
   0  422.2286
   1  265.745
   2  283.0978
   3  293.1573
   4  349.6032
   5  409.3525
   6  393.3994
   7  241.8879
   8  216.0399
   9  329.4266
  10  379.8477
  11  320.6972
  12  244.0494
  13  239.0606
  14  378.3521
  15  397.5856
  16  279.4823
  17  246.6296
  18  341.1458
  19  376.6936
  20  294.1153
  21  280.178
  22  380.8228
  23  330.1402
  24  354.4001
  25  309.6837
  26  314.5555
  27  353.5266
  28  246.0899
  29  261.4825
  30  256.9352
  31  233.4841
  32  330.1262
  33  409.1884
  34  269.4957
  35  189.7002
  36  283.6809
  37  427.2121
  38  499.0347
  39  410.3219
  40  330.0236
  41  333.2001
  42  344.1252
  43  453.2424
  44  432.1244
  45  394.317
  46  353.1148
  47  280.7773
  48  277.7388
  49  253.4368
  50  309.6228
  51  312.1693
  52  308.3042
  53  282.2905
  54  388.3141
  55  390.888
  56  402.0118
  57  317.05
  58  362.246
  59  340.6451
  60  344.8597
  61  137.3942
  62  157.6807
  63  299.9984
  64  256.5451
  65  285.8108
  66  430.9381
  67  529.1682
  68  329.3257
  69  313.2142
  70  317.8212
  71  335.1854
  72  300.593
  73  309.3123
  74  328.9799
  75  356.8802
  76  338.1694
  77  366.563
  78  189.0281
  79  211.0158
  80  344.1516
  81  401.8415
  82  319.1719
  83  313.2992
  84  240.3745
  85  373.4546
  86  261.7955
  87  173.3147
  88  274.6516
  89  362.2398
  90  287.2605
  91  308.468
  92  300.521
  93  256.8978
  94  261.3998
  95  237.2428
  96  246.8517
  97  226.9408
  98  328.6386
  99  337.6163
 100  373.661
 101  304.0399
 102  244.9597
 103  133.5856
 104  303.3554
 105  344.4762
 106  302.0239
 107  294.6802
 108  240.1823
 109  290.7669
 110  370.0649
 111  252.2975
 112  246.6039
 113  248.9807
 114  263.9009
 115  452.2489
 116  373.5896
 117  274.2816
 118  235.7671
 119  179.0591
 120  242.9741
 121  292.4918
 122  316.3881
 123  246.9886
 124  191.5593
 125  272.6699
 126  360.5289
 127  246.0413
 128  321.2917
 129  357.7483
 130  379.3424
 131  478.4973
 132  389.271
 133  271.3673
 134  325.4739
 135  421.1152
 136  410.1678
 137  397.3139
 138  440.4042
 139  394.8481
 140  274.9682
 141  193.9621
 142  315.8855
 143  263.7409
 144  182.0934
 145  190.9589
 146  189.6203
 147  370.1158
 148  284.8278
 149  312.3498
 150  430.0977
 151  341.627
 152  211.8637
 153  212.2893
 154  164.004
 155  214.824
 156  292.8623
 157  343.1447
 158  352.0261
 159  276.7688
 160  251.4764
 161  152.6499
 162  237.931
 163  265.0823
 164  178.1464
 165  261.0873
 166  335.0454
 167  241.8583
 168  145.0386
 169  247.9606
 170  214.913
 171  235.3134
 172  281.3156
 173  305.4746
 174  227.1048
 175  171.6578
 176  288.1402
 177  279.6835
 178  109.0708
 179  86.46618
 180  212.1021
 181  224.9192
 182  227.961
 183  221.6234
 184  193.4378
 185  161.758
 186  138.1156
 187  320.7326
 188  284.0506
 189  289.5914
 190  316.0797
 191  328.165
 192  370.4402
 193  307.1303
 194  378.7533
 195  375.4694
 196  303.6725
 197  321.9507
 198  338.4986
 199  342.551
 200  394.7515
 201  367.8784
 202  184.0402
 203  224.6219
 204  253.0432
 205  262.5947
 206  408.0888
 207  380.4254
 208  266.3594
 209  278.7483
 210  212.4773
 211  143.2119
 212  252.8689
 213  339.8519
 214  405.8907
 215  317.7357
 216  205.1308
 217  242.36
 218  265.9611
 219  394.6895
 220  238.1659
 221  143.964
 222  154.7568
 223  268.4019
 224  264.5215
 225  370.1526
 226  348.6418
 227  145.636
 228  108.0652
 229  277.1953
 230  330.6468
 231  248.1713
 232  286.618
 233  137.4734
 234  266.7304
 235  306.469
 236  458.2308
 237  448.1307
 238  426.7877
 239  311.2004
 240  233.2272
 241  320.2786
 242  347.3274
 243  282.2734
 244  290.0375
 245  255.3952
 246  260.3676
 247  311.9728
 248  274.9613
 249  161.0105
 250  195.8528
 251  218.3886
 252  294.8002
 253  282.7566
 254  333.1222
 255  344.8421
 256  280.726
 257  327.084
 258  342.1833
 259  127.2761
 260  72.32166
 261  126.7865
 262  271.3142
 263  384.5588
 264  280.4814
 265  206.5706
 266  250.6535
 267  306.2871
 268  318.2625
 269  363.0227
 270  245.6194
 271  128.5498
 272  250.9338
 273  189.3011
 274  355.7349
 275  301.1926
 276  177.8282
 277  239.7958
 278  282.4557
 279  263.5253
 280  232.9726
 281  214.6183
 282  317.5361
 283  369.0535
 284  293.0867
 285  248.9047
 286  263.7245
 287  203.9528
 288  362.0026
 289  271.6236
 290  348.8668
 291  368.1305
 292  239.9904
 293  248.9237
 294  214.0191
 295  119.1131
 296  184.6326
 297  247.5559
 298  253.3083
 299  179.5411
 300  249.6395
 301  262.7026
 302  284.4895
 303  443.9783
 304  387.1585
 305  239.9283
 306  102.305
 307  168.599
 308  316.5352
 309  436.8127
 310  328.2126
 311  200.6067
 312  246.1835
 313  271.9373
 314  428.3951
 315  408.0352
 316  347.2585
 317  326.8401
 318  359.743
 319  370.9722
 320  403.5398
 321  427.3525
 322  337.4887
 323  297.9084
 324  307.1448
 325  345.2444
 326  344.8171
 327  373.3666
 328  361.3555
 329  316.7938
 330  385.2271
 331  380.7668
 332  277.6845
 333  238.5402
 334  281.6525
 335  404.4998
 336  361.2101
 337  379.1938
 338  388.023
 339  322.8729
 340  308.7419
 341  249.861
 342  141.5008
 343  310.0599
 344  307.2245
 345  289.411
 346  216.5684
 347  181.9934
 348  142.8524
 349  121.0241
 350  173.4179
 351  266.3141
 352  240.7663
 353  373.0166
 354  354.8094
 355  207.9615
 356  225.5029
 357  269.7169
 358  255.6708
 359  303.2661
 360  281.3571
 361  265.1394
 362  307.7959
 363  303.8259
 364  244.0658
 365  329.0957
 366  365.6956
 367  324.6761
 368  282.5333
 369  246.8497
 370  334.2692
 371  332.1075
 372  261.8438
 373  317.3346
 374  490.0404
 375  452.8515
 376  340.131
 377  248.2267
 378  270.3712
 379  416.9314
 380  311.3031
 381  413.9233
 382  412.3048
 383  307.7284
 384  432.7924
 385  368.4787
 386  440.144
 387  558.3635
 388  464.0931
 389  574.355
 390  915.5294
 391  1038.396
 392  1045.573
 393  1073.901
 394  906.9875
 395  518.387
 396  404.7142
 397  435.1657
 398  292.2805
 399  213.6752
 400  249.1755
 401  320.6146
 402  297.8253
 403  390.8373
 404  386.1326
 405  409.1615
 406  409.6146
 407  380.3264
 408  492.7267
 409  433.7306
 410  274.2418
 411  300.967
 412  312.5707
 413  349.8746
 414  327.3371
 415  244.9889
 416  124.9325
 417  240.2678
 418  261.6558
 419  220.6866
 420  178.4802
 421  270.6425
 422  326.0797
 423  328.4689
 424  334.8203
 425  210.6723
 426  279.8482
 427  277.6005
 428  171.4846
 429  287.8965
 430  359.4127
 431  376.8979
 432  467.6834
 433  473.2298
 434  473.1923
 435  334.3842
 436  195.5232
 437  230.7011
 438  316.3526
 439  407.5257
 440  342.8959
 441  209.9439
 442  371.9906
 443  350.9713
 444  275.3408
 445  289.7395
 446  354.0163
 447  344.4083
 448  474.7672
 449  397.7919
 450  318.4903
 451  332.5277
 452  300.2448
 453  299.4821
 454  274.8197
 455  329.0714
 456  315.978
 457  317.7198
 458  224.1921
 459  392.4222
 460  328.1693
 461  369.6301
 462  359.5831
 463  395.8556
 464  441.337
 465  388.1431
 466  293.1033
 467  239.1611
 468  203.2312
 469  266.4371
 470  300.1035
 471  247.4599
 472  249.5028
 473  400.5632
 474  341.2894
 475  259.1838
 476  284.3105
 477  364.7228
 478  312.6603
 479  351.8081
 480  381.9149
 481  323.7482
 482  337.1509
 483  406.3638
 484  308.0381
 485  313.7897
 486  245.7361
 487  344.4104
 488  388.9145
 489  343.5293
 490  343.5665
 491  379.4029
 492  195.834
 493  159.1093
 494  369.5928
 495  318.4295
 496  374.3152
 497  282.2412
 498  301.4165
 499  324.4243
 500  237.2983
 501  231.943
 502  231.1679
 503  257.3141
 504  260.9588
 505  254.7124
 506  268.3784
 507  247.1954
 508  325.1278
 509  345.7072
 510  290.6343
 511  288.1855
