# Input file       =  1183768721.108474_cleaned.dat
# Candidate        =  PSR_0332+5434
# Telescope        =  AR
# Epoch_topo       =  57945.026656348076
# Epoch_bary       =  N/A
# T_sample         =  0.002
# Data Folded      =  7208960
# Data Avg         =  0.0327590415077239
# Data StdDev      =  1.00007600743151 
# Profile Bins     =  512
# Profile Avg      =  461.252900775177 
# Profile StdDev   =  118.668194772708 
# Reduced chi-sqr  =  1.010
# Prob(Noise)      <  0.426   (~0.2 sigma)
# P_topo (ms)      =  714.481634048321  +/- 0.000185
# P'_topo (s/s)    =  -0                +/- 9.96e-11
# P''_topo (s/s^2) =  0                 +/- 4.48e-14
# P_bary (ms)      =  N/A
# P'_bary (s/s)    =  N/A
# P''_bary (s/s^2) =  N/A
# P_orb (s)        =  N/A
# asin(i)/c (s)    =  N/A
# eccentricity     =  N/A
# w (rad)          =  N/A
# T_peri           =  N/A
######################################################
   0  1035.503
   1  1013.45
   2  796.4134
   3  440.2936
   4  430.8723
   5  417.0471
   6  439.9777
   7  445.414
   8  414.3203
   9  468.8806
  10  473.3384
  11  457.0237
  12  455.7681
  13  539.9762
  14  566.626
  15  526.2847
  16  521.7118
  17  459.2518
  18  365.3994
  19  364.0156
  20  382.7678
  21  413.8318
  22  463.5161
  23  447.489
  24  451.2632
  25  248.1602
  26  340.1793
  27  416.1833
  28  449.5094
  29  414.5802
  30  465.6533
  31  463.2874
  32  430.6759
  33  414.0277
  34  326.0276
  35  397.7997
  36  469.1455
  37  426.1174
  38  416.136
  39  411.2957
  40  346.431
  41  301.6012
  42  412.9578
  43  494.6654
  44  474.0748
  45  298.1476
  46  457.8006
  47  508.7109
  48  553.4191
  49  505.4748
  50  386.1194
  51  361.0567
  52  414.7072
  53  477.6218
  54  507.1547
  55  424.0379
  56  394.2196
  57  399.7882
  58  511.5573
  59  501.1371
  60  446.7742
  61  417.5466
  62  364.3762
  63  328.5388
  64  315.6094
  65  413.9879
  66  467.9829
  67  381.6868
  68  319.1744
  69  348.4749
  70  470.2491
  71  512.6618
  72  490.2698
  73  542.674
  74  511.4673
  75  459.7299
  76  435.2921
  77  327.2663
  78  383.552
  79  333.1038
  80  370.736
  81  465.1741
  82  468.9274
  83  355.6367
  84  479.1434
  85  523.0121
  86  478.0262
  87  443.6828
  88  541.9091
  89  579.8078
  90  475.5186
  91  395.6243
  92  522.4952
  93  487.3275
  94  514.4959
  95  564.1199
  96  491.8444
  97  449.0375
  98  405.7173
  99  364.244
 100  327.3571
 101  346.2639
 102  445.0096
 103  412.8293
 104  479.9898
 105  562.6688
 106  574.5478
 107  435.3962
 108  581.8994
 109  594.3243
 110  569.0372
 111  508.9597
 112  482.1839
 113  511.2053
 114  506.7155
 115  473.6548
 116  460.975
 117  458.0726
 118  505.0979
 119  406.288
 120  359.8369
 121  354.388
 122  331.0959
 123  370.1168
 124  470.7484
 125  417.3149
 126  311.4577
 127  325.5256
 128  387.6342
 129  393.6652
 130  437.8881
 131  535.8081
 132  489.9827
 133  454.0339
 134  378.4376
 135  370.6486
 136  551.0334
 137  575.674
 138  500.5787
 139  413.7938
 140  362.1091
 141  485.5279
 142  405.1129
 143  450.4514
 144  527.8201
 145  498.9993
 146  439.0427
 147  450.2256
 148  453.1031
 149  450.164
 150  432.9764
 151  499.6988
 152  494.7021
 153  411.4205
 154  371.8335
 155  502.8747
 156  382.1842
 157  383.1382
 158  454.2646
 159  368.9499
 160  446.4754
 161  468.9411
 162  394.462
 163  615.0797
 164  539.4636
 165  512.6328
 166  429.442
 167  368.909
 168  473.6446
 169  392.9548
 170  448.7258
 171  564.1703
 172  528.5287
 173  522.9806
 174  473.8849
 175  442.2491
 176  578.5163
 177  462.2492
 178  440.5863
 179  440.7505
 180  454.9047
 181  417.2577
 182  397.377
 183  424.1649
 184  456.6273
 185  453.8797
 186  431.9248
 187  440.4835
 188  490.5719
 189  545.5119
 190  381.5899
 191  331.0097
 192  346.6098
 193  314.4973
 194  436.175
 195  436.8567
 196  413.4962
 197  501.5888
 198  438.4144
 199  408.9763
 200  424.4806
 201  381.8909
 202  445.8344
 203  414.83
 204  475.2497
 205  412.7425
 206  325.3137
 207  336.881
 208  372.6481
 209  376.6591
 210  444.3289
 211  456.3452
 212  448.0733
 213  512.082
 214  533.3754
 215  580.7009
 216  505.5915
 217  444.1353
 218  406.2682
 219  492.9229
 220  627.9116
 221  498.6396
 222  413.2112
 223  545.4908
 224  475.0263
 225  544.7393
 226  523.4688
 227  464.2247
 228  440.4102
 229  414.2475
 230  490.2796
 231  489.4344
 232  489.0523
 233  521.9307
 234  458.6485
 235  418.3586
 236  387.0623
 237  426.7127
 238  409.0643
 239  392.3219
 240  304.4914
 241  329.5633
 242  449.9571
 243  401.081
 244  453.4291
 245  553.4268
 246  481.5706
 247  529.4103
 248  417.3032
 249  437.5166
 250  451.1468
 251  453.4294
 252  450.5088
 253  412.7833
 254  367.1074
 255  334.357
 256  459.5992
 257  466.5282
 258  440.4898
 259  446.4714
 260  447.1888
 261  461.1367
 262  525.2776
 263  486.3366
 264  503.2631
 265  529.6309
 266  443.9486
 267  475.4892
 268  482.4324
 269  505.3906
 270  508.5002
 271  516.8583
 272  480.455
 273  452.9801
 274  395.2802
 275  479.9169
 276  500.1136
 277  498.8036
 278  548.6187
 279  473.0639
 280  557.8282
 281  619.1052
 282  533.1532
 283  536.9326
 284  576.2869
 285  448.7561
 286  532.1851
 287  514.6671
 288  507.9096
 289  440.7478
 290  408.2243
 291  441.6602
 292  506.6925
 293  465.5267
 294  416.6039
 295  445.037
 296  439.1148
 297  431.1855
 298  439.1015
 299  496.4234
 300  521.2675
 301  506.0936
 302  549.6404
 303  495.1069
 304  556.9038
 305  503.3292
 306  527.4957
 307  453.1248
 308  341.4835
 309  403.9217
 310  491.8899
 311  526.0424
 312  532.604
 313  475.4438
 314  408.3549
 315  484.9094
 316  495.882
 317  469.6364
 318  461.1429
 319  529.3273
 320  524.4385
 321  430.2675
 322  412.7754
 323  499.1557
 324  469.8848
 325  550.0253
 326  578.2413
 327  496.4833
 328  388.0268
 329  390.3157
 330  520.724
 331  462.1167
 332  383.6126
 333  364.0564
 334  357.9188
 335  497.4837
 336  568.3383
 337  567.8661
 338  480.2176
 339  483.0126
 340  498.6383
 341  475.1875
 342  484.8254
 343  494.4533
 344  500.5163
 345  513.1014
 346  469.8694
 347  360.724
 348  354.489
 349  584.9581
 350  605.9868
 351  539.3353
 352  596.1879
 353  572.3535
 354  465.3399
 355  506.3787
 356  520.085
 357  468.6192
 358  465.5464
 359  525.3152
 360  474.8239
 361  404.5653
 362  389.2486
 363  404.4354
 364  413.9448
 365  503.5198
 366  528.5131
 367  533.6436
 368  500.5533
 369  493.509
 370  550.8972
 371  479.7294
 372  346.4799
 373  293.9899
 374  421.0262
 375  511.294
 376  400.8594
 377  396.2887
 378  481.6074
 379  568.5496
 380  429.3733
 381  353.6505
 382  392.5392
 383  347.4131
 384  450.0166
 385  489.3829
 386  524.8486
 387  445.3074
 388  454.0378
 389  415.4089
 390  397.7823
 391  350.4389
 392  397.7358
 393  532.9515
 394  541.6499
 395  483.6658
 396  474.0341
 397  445.8363
 398  427.6202
 399  370.7175
 400  411.113
 401  433.909
 402  426.8809
 403  540.8632
 404  490.5769
 405  454.5349
 406  447.5401
 407  562.4463
 408  593.6288
 409  496.3415
 410  488.1861
 411  567.4076
 412  538.8845
 413  515.3171
 414  420.87
 415  377.6154
 416  461.3304
 417  506.4974
 418  514.7067
 419  454.4149
 420  436.3295
 421  317.1314
 422  437.3094
 423  427.0146
 424  404.3951
 425  426.9899
 426  414.8766
 427  393.1692
 428  363.1986
 429  483.0646
 430  498.996
 431  534.4753
 432  588.9476
 433  483.191
 434  397.0249
 435  551.8588
 436  595.4517
 437  506.4834
 438  382.8701
 439  450.7927
 440  484.605
 441  392.0739
 442  482.008
 443  497.1939
 444  531.0778
 445  579.9445
 446  472.2306
 447  417.8019
 448  396.8332
 449  448.5985
 450  503.245
 451  544.7787
 452  599.0042
 453  606.564
 454  475.5728
 455  468.7499
 456  356.217
 457  392.7491
 458  376.8611
 459  387.4357
 460  505.5727
 461  552.5916
 462  420.3162
 463  479.0992
 464  449.7194
 465  347.5092
 466  278.6899
 467  296.6774
 468  401.731
 469  474.5836
 470  460.9534
 471  457.9949
 472  376.6972
 473  393.3966
 474  428.1066
 475  516.2027
 476  565.7311
 477  440.9814
 478  438.53
 479  472.9944
 480  331.0458
 481  526.1786
 482  556.2652
 483  457.2893
 484  494.7665
 485  521.1885
 486  499.7521
 487  458.3109
 488  361.1516
 489  420.7217
 490  407.2745
 491  405.8901
 492  475.5674
 493  478.7719
 494  507.9296
 495  378.0994
 496  360.8719
 497  367.5091
 498  331.5566
 499  392.8289
 500  409.541
 501  407.1381
 502  322.1907
 503  433.7933
 504  411.468
 505  428.351
 506  574.7329
 507  577.8967
 508  596.2534
 509  702.2321
 510  965.8543
 511  1095.76
