# Input file       =  1183941209.125544_cleaned.dat
# Candidate        =  PSR_0332+5434
# Telescope        =  AR
# Epoch_topo       =  57947.023045434536
# Epoch_bary       =  N/A
# T_sample         =  0.002
# Data Folded      =  7143424
# Data Avg         =  0.0272112577403163
# Data StdDev      =  1.00010554677184 
# Profile Bins     =  512
# Profile Avg      =  379.535916317961 
# Profile StdDev   =  118.131051517154 
# Reduced chi-sqr  =  1.283
# Prob(Noise)      <  1.44e-05   (~4.2 sigma)
# P_topo (ms)      =  714.480244491416  +/- 0.000301
# P'_topo (s/s)    =  -0                +/- 1.63e-10
# P''_topo (s/s^2) =  0                 +/- 7.41e-14
# P_bary (ms)      =  N/A
# P'_bary (s/s)    =  N/A
# P''_bary (s/s^2) =  N/A
# P_orb (s)        =  N/A
# asin(i)/c (s)    =  N/A
# eccentricity     =  N/A
# w (rad)          =  N/A
# T_peri           =  N/A
######################################################
   0  272.3929
   1  374.33
   2  385.3206
   3  276.2243
   4  356.2001
   5  385.6216
   6  409.6435
   7  292.2584
   8  265.4696
   9  425.6792
  10  431.4533
  11  341.1569
  12  362.8236
  13  379.7209
  14  293.4357
  15  425.5834
  16  468.8815
  17  346.2969
  18  299.635
  19  352.7267
  20  433.9642
  21  456.3662
  22  485.9271
  23  434.4064
  24  401.0023
  25  270.2771
  26  403.4268
  27  506.1024
  28  446.363
  29  322.4977
  30  309.6861
  31  383.3561
  32  247.185
  33  339.6371
  34  414.6783
  35  413.2335
  36  274.8055
  37  250.0614
  38  184.4962
  39  214.9925
  40  363.2726
  41  452.2517
  42  485.7968
  43  380.3072
  44  253.4324
  45  370.7104
  46  468.6916
  47  380.9445
  48  454.8247
  49  535.2454
  50  465.2702
  51  373.0559
  52  390.4836
  53  512.6895
  54  361.4653
  55  379.7913
  56  376.0361
  57  396.8801
  58  439.9746
  59  442.2744
  60  369.2555
  61  367.9928
  62  345.8145
  63  373.9355
  64  411.8904
  65  384.2714
  66  391.7795
  67  299.0946
  68  311.3558
  69  340.1785
  70  389.1888
  71  364.5769
  72  417.4446
  73  366.7357
  74  380.2993
  75  399.4294
  76  279.6359
  77  344.5562
  78  347.8477
  79  339.3481
  80  407.8058
  81  311.6653
  82  324.3875
  83  290.0049
  84  344.596
  85  450.5001
  86  424.0656
  87  411.303
  88  371.1791
  89  448.062
  90  424.3473
  91  418.2196
  92  327.6269
  93  236.6144
  94  417.2934
  95  347.9649
  96  341.3704
  97  355.712
  98  324.3684
  99  366.5295
 100  298.7074
 101  260.6708
 102  295.8107
 103  372.2882
 104  273.5015
 105  256.3939
 106  281.4772
 107  319.119
 108  451.6824
 109  476.0125
 110  356.566
 111  372.7425
 112  390.4213
 113  484.0135
 114  284.5213
 115  294.4031
 116  402.7521
 117  450.7333
 118  364.6847
 119  399.2881
 120  377.224
 121  410.0813
 122  482.7287
 123  354.4541
 124  397.9614
 125  263.1918
 126  379.0345
 127  443.8844
 128  382.1884
 129  319.9187
 130  264.8464
 131  306.0551
 132  418.3907
 133  522.5717
 134  485.252
 135  406.4705
 136  442.7077
 137  414.8804
 138  411.3579
 139  345.6292
 140  394.0264
 141  329.0461
 142  398.7108
 143  492.8638
 144  474.99
 145  425.5684
 146  555.3065
 147  532.9049
 148  484.1393
 149  371.2994
 150  270.4042
 151  363.9655
 152  517.059
 153  482.6316
 154  480.6594
 155  438.4443
 156  494.5803
 157  536.0503
 158  595.8894
 159  586.8655
 160  461.1125
 161  500.9834
 162  386.7644
 163  379.6075
 164  400.44
 165  332.9722
 166  400.8058
 167  409.8031
 168  513.3466
 169  530.3392
 170  416.9538
 171  452.7368
 172  418.1991
 173  465.2667
 174  489.1471
 175  584.3384
 176  786.3938
 177  978.8746
 178  1109.493
 179  1010.143
 180  878.751
 181  628.0716
 182  601.5728
 183  517.2806
 184  419.9609
 185  343.971
 186  349.8777
 187  407.8561
 188  347.8995
 189  405.8522
 190  380.9323
 191  427.9044
 192  497.0586
 193  475.962
 194  438.0201
 195  438.955
 196  342.7434
 197  342.7169
 198  360.3288
 199  297.0196
 200  312.0921
 201  342.5037
 202  367.0233
 203  375.7985
 204  344.6223
 205  395.1573
 206  362.5659
 207  345.0713
 208  434.5739
 209  481.1405
 210  377.3174
 211  318.0148
 212  482.5977
 213  514.3249
 214  335.2878
 215  355.6964
 216  557.1771
 217  553.695
 218  501.8589
 219  452.4438
 220  344.2781
 221  302.1221
 222  399.7712
 223  407.6235
 224  374.2242
 225  444.6744
 226  406.0971
 227  265.9461
 228  344.0494
 229  391.8286
 230  444.164
 231  454.9741
 232  345.9495
 233  430.8475
 234  424.6858
 235  343.5221
 236  304.31
 237  299.4998
 238  232.4787
 239  213.05
 240  273.7799
 241  384.1635
 242  374.8008
 243  322.7272
 244  357.8031
 245  381.1455
 246  425.3207
 247  373.2456
 248  357.1908
 249  329.1736
 250  400.5035
 251  392.8992
 252  314.4116
 253  329.2508
 254  355.7904
 255  486.322
 256  497.0323
 257  454.8216
 258  387.0889
 259  408.7903
 260  450.7679
 261  398.8255
 262  379.8312
 263  381.127
 264  430.0087
 265  473.974
 266  498.5037
 267  392.0865
 268  398.9924
 269  291.3407
 270  270.3293
 271  286.2719
 272  287.1762
 273  352.5101
 274  360.8421
 275  271.2114
 276  360.2249
 277  444.1868
 278  375.9706
 279  336.1738
 280  324.0399
 281  369.6469
 282  359.3288
 283  294.0507
 284  376.9694
 285  468.7674
 286  451.3393
 287  513.8774
 288  514.1119
 289  449.3463
 290  461.8006
 291  410.9159
 292  356.4057
 293  332.9141
 294  266.5284
 295  320.6429
 296  353.8822
 297  381.994
 298  415.973
 299  374.0671
 300  416.8425
 301  410.4019
 302  405.0509
 303  369.2401
 304  362.4551
 305  366.7099
 306  360.0851
 307  365.1757
 308  304.4139
 309  412.207
 310  375.8549
 311  378.9392
 312  357.6734
 313  294.1209
 314  443.329
 315  441.6612
 316  369.0388
 317  381.2788
 318  348.2474
 319  325.998
 320  253.11
 321  292.7375
 322  324.7028
 323  213.4184
 324  297.6911
 325  294.8816
 326  228.2002
 327  210.6069
 328  157.0912
 329  251.6357
 330  331.4836
 331  342.0828
 332  330.2022
 333  373.3823
 334  375.7619
 335  433.9815
 336  516.9849
 337  505.3279
 338  422.4258
 339  354.6953
 340  292.5354
 341  362.7479
 342  430.2868
 343  246.6277
 344  224.87
 345  390.6185
 346  483.7992
 347  481.8665
 348  366.9727
 349  313.6558
 350  395.3356
 351  365.5371
 352  405.3315
 353  470.4682
 354  433.2179
 355  394.4272
 356  259.5384
 357  189.2879
 358  288.6805
 359  399.1765
 360  413.9136
 361  387.665
 362  469.9662
 363  462.476
 364  307.2287
 365  344.0305
 366  429.2616
 367  403.3907
 368  360.2662
 369  409.6501
 370  456.658
 371  467.0757
 372  355.6252
 373  256.5582
 374  233.1687
 375  447.8748
 376  416.7968
 377  264.324
 378  371.1394
 379  365.2204
 380  380.7953
 381  436.5911
 382  524.7054
 383  536.9491
 384  387.9781
 385  235.797
 386  220.4069
 387  383.8071
 388  476.8157
 389  407.9713
 390  334.2587
 391  385.0399
 392  355.5554
 393  252.6335
 394  324.1604
 395  407.7251
 396  487.2649
 397  424.8165
 398  279.7097
 399  284.91
 400  397.5016
 401  402.4112
 402  328.792
 403  270.72
 404  294.5609
 405  340.4424
 406  367.6774
 407  470.5555
 408  405.3695
 409  256.972
 410  176.1871
 411  228.5071
 412  311.1724
 413  417.6455
 414  369.5102
 415  347.596
 416  303.7637
 417  344.4215
 418  392.7997
 419  397.9257
 420  348.4344
 421  275.735
 422  240.3673
 423  285.3154
 424  357.6761
 425  365.9355
 426  470.5867
 427  481.4722
 428  478.3044
 429  418.5281
 430  436.5246
 431  457.082
 432  404.9163
 433  368.2519
 434  387.3438
 435  429.2973
 436  412.1035
 437  468.0394
 438  394.6229
 439  278.3122
 440  360.2945
 441  370.3635
 442  321.789
 443  401.5255
 444  393.7498
 445  430.635
 446  317.1844
 447  281.8051
 448  379.6388
 449  462.2041
 450  498.1995
 451  429.1418
 452  375.9425
 453  429.9025
 454  392.2276
 455  363.2853
 456  369.6852
 457  191.2493
 458  247.2048
 459  389.8044
 460  408.212
 461  320.9056
 462  232.9832
 463  316.8026
 464  307.7976
 465  443.5422
 466  332.7545
 467  183.3427
 468  191.3356
 469  322.0746
 470  370.4956
 471  291.4384
 472  317.5021
 473  320.8366
 474  242.2323
 475  296.2398
 476  414.5961
 477  362.3457
 478  424.3434
 479  459.9496
 480  292.5575
 481  305.3825
 482  330.9128
 483  308.6102
 484  323.7206
 485  258.0249
 486  320.3591
 487  376.4741
 488  340.1042
 489  324.3618
 490  256.8335
 491  325.2975
 492  330.9544
 493  202.2503
 494  312.7287
 495  387.7687
 496  350.319
 497  303.9206
 498  250.8167
 499  269.7368
 500  360.3798
 501  337.8857
 502  406.3148
 503  266.7079
 504  265.1153
 505  327.3958
 506  413.5756
 507  377.1302
 508  276.675
 509  192.8444
 510  228.3405
 511  319.9373
