# Input file       =  1183510533.099951_cleaned.dat
# Candidate        =  PSR_0332+5434
# Telescope        =  AR
# Epoch_topo       =  57942.038369212394
# Epoch_bary       =  N/A
# T_sample         =  0.002
# Data Folded      =  7405568
# Data Avg         =  0.0247748301343228
# Data StdDev      =  1.00003082643901 
# Profile Bins     =  512
# Profile Avg      =  358.345440455777 
# Profile StdDev   =  120.270078410935 
# Reduced chi-sqr  =  1.447
# Prob(Noise)      <  1.41e-10   (~6.3 sigma)
# P_topo (ms)      =  714.483785555993  +/- 0.000212
# P'_topo (s/s)    =  -0                +/- 1.11e-10
# P''_topo (s/s^2) =  0                 +/- 4.86e-14
# P_bary (ms)      =  N/A
# P'_bary (s/s)    =  N/A
# P''_bary (s/s^2) =  N/A
# P_orb (s)        =  N/A
# asin(i)/c (s)    =  N/A
# eccentricity     =  N/A
# w (rad)          =  N/A
# T_peri           =  N/A
######################################################
   0  1200.548
   1  1177.722
   2  1072.489
   3  749.7205
   4  435.8571
   5  383.8985
   6  440.0002
   7  408.2398
   8  424.5674
   9  373.4632
  10  162.3327
  11  169.1505
  12  298.8238
  13  291.3085
  14  316.2585
  15  377.3434
  16  507.8278
  17  430.6077
  18  270.4547
  19  295.4803
  20  289.3676
  21  229.6942
  22  245.4445
  23  368.0345
  24  420.1922
  25  263.5968
  26  245.441
  27  296.8897
  28  360.0435
  29  249.0933
  30  238.6831
  31  254.1926
  32  208.4712
  33  262.1902
  34  337.6615
  35  316.8211
  36  251.626
  37  309.3575
  38  298.6588
  39  258.7915
  40  349.162
  41  356.9961
  42  320.6775
  43  259.6523
  44  360.9426
  45  421.7793
  46  412.9506
  47  323.7318
  48  410.1566
  49  454.7195
  50  371.3798
  51  384.3613
  52  337.642
  53  315.8895
  54  359.4693
  55  390.7223
  56  340.7858
  57  362.673
  58  332.3639
  59  258.4329
  60  254.2631
  61  361.0695
  62  406.0011
  63  330.3152
  64  404.2855
  65  385.3524
  66  310.1313
  67  283.9549
  68  328.6946
  69  364.4987
  70  379.101
  71  331.1355
  72  328.8007
  73  290.5258
  74  383.1557
  75  388.8169
  76  364.5137
  77  375.9036
  78  386.0403
  79  331.5905
  80  413.0913
  81  433.1911
  82  363.7819
  83  380.7784
  84  305.4017
  85  338.2904
  86  407.4362
  87  463.3088
  88  443.2416
  89  306.5156
  90  501.743
  91  534.7786
  92  372.9126
  93  352.5707
  94  341.0835
  95  450.2851
  96  533.536
  97  495.1129
  98  308.099
  99  293.9521
 100  335.8406
 101  297.7574
 102  330.0605
 103  362.9187
 104  283.421
 105  275.3967
 106  247.33
 107  288.2332
 108  229.6398
 109  346.6119
 110  305.1859
 111  323.3936
 112  326.1727
 113  321.7344
 114  268.9108
 115  371.2577
 116  404.1943
 117  342.0397
 118  304.3582
 119  371.0446
 120  405.554
 121  265.9328
 122  246.0811
 123  366.6935
 124  301.2941
 125  201.1867
 126  184.5304
 127  217.2869
 128  235.9799
 129  163.9391
 130  249.4895
 131  249.0732
 132  285.4875
 133  331.2182
 134  290.7743
 135  153.4652
 136  260.3252
 137  370.3237
 138  362.9383
 139  346.7198
 140  323.68
 141  247.5398
 142  232.1542
 143  317.1713
 144  296.6896
 145  273.7446
 146  380.9826
 147  432.1803
 148  320.3452
 149  274.4427
 150  326.6764
 151  368.2485
 152  329.6635
 153  139.6396
 154  212.284
 155  262.1445
 156  302.4229
 157  419.0274
 158  386.3741
 159  432.6745
 160  300.7248
 161  252.4966
 162  311.868
 163  384.4656
 164  469.2897
 165  415.3736
 166  393.3879
 167  477.8919
 168  435.0433
 169  422.1115
 170  511.4664
 171  458.1519
 172  467.6067
 173  370.2687
 174  452.0014
 175  446.2545
 176  437.1205
 177  380.9344
 178  351.7026
 179  353.4752
 180  346.579
 181  392.3219
 182  440.6695
 183  391.5611
 184  396.5083
 185  447.6356
 186  433.7485
 187  313.8353
 188  283.0037
 189  291.0868
 190  368.2758
 191  310.5441
 192  269.1838
 193  359.5512
 194  257.1296
 195  309.4017
 196  309.7536
 197  341.127
 198  267.3973
 199  297.1651
 200  351.0565
 201  264.5627
 202  264.4063
 203  441.8802
 204  392.1025
 205  296.0692
 206  283.4127
 207  311.5178
 208  314.2646
 209  337.0685
 210  395.1083
 211  410.5606
 212  412.6453
 213  365.058
 214  270.2413
 215  180.2801
 216  279.8206
 217  328.8994
 218  365.8806
 219  321.951
 220  371.3637
 221  473.8805
 222  456.1782
 223  292.7535
 224  270.6786
 225  268.5552
 226  291.8577
 227  262.4213
 228  290.2733
 229  417.1425
 230  456.6893
 231  327.2123
 232  259.0826
 233  239.9572
 234  338.4095
 235  420.5327
 236  420.4735
 237  399.5349
 238  369.2331
 239  380.7428
 240  299.0935
 241  247.925
 242  415.7436
 243  334.4044
 244  396.1962
 245  372.0238
 246  270.3643
 247  343.4604
 248  439.6226
 249  503.6989
 250  399.6555
 251  423.0756
 252  473.9821
 253  389.7173
 254  310.9121
 255  384.4774
 256  368.9684
 257  351.8107
 258  357.6846
 259  448.7004
 260  451.6005
 261  383.7789
 262  320.7354
 263  433.8727
 264  478.9686
 265  386.7634
 266  272.2269
 267  333.9173
 268  293.4694
 269  166.8182
 270  282.8033
 271  381.319
 272  251.1177
 273  191.5789
 274  244.3401
 275  228.2346
 276  277.055
 277  283.3752
 278  339.8867
 279  338.5485
 280  308.0408
 281  253.8003
 282  129.7682
 283  187.6261
 284  271.9391
 285  280.8688
 286  208.4088
 287  215.3956
 288  295.6868
 289  385.8197
 290  254.4913
 291  289.2992
 292  367.2567
 293  392.9489
 294  368.5589
 295  379.9586
 296  434.3818
 297  323.1152
 298  342.0378
 299  325.3261
 300  402.3093
 301  498.0894
 302  381.9986
 303  428.2452
 304  360.9642
 305  403.383
 306  357.7174
 307  297.8368
 308  386.1491
 309  350.3883
 310  361.3224
 311  347.7335
 312  374.0071
 313  510.2683
 314  542.9598
 315  419.6898
 316  427.7568
 317  393.6397
 318  463.7272
 319  387.362
 320  326.061
 321  392.4487
 322  406.6436
 323  422.2488
 324  404.5031
 325  421.2042
 326  342.4547
 327  334.6025
 328  417.1487
 329  401.0391
 330  465.0878
 331  388.4627
 332  339.0558
 333  372.3577
 334  372.9493
 335  432.3287
 336  417.239
 337  333.4567
 338  346.775
 339  462.0759
 340  466.0253
 341  406.9805
 342  308.8805
 343  374.1744
 344  324.0593
 345  321.4737
 346  396.3586
 347  365.2506
 348  355.5108
 349  325.4832
 350  243.9072
 351  379.0248
 352  336.9969
 353  176.9299
 354  298.3754
 355  392.9243
 356  399.5963
 357  321.9865
 358  360.1893
 359  411.1952
 360  288.1202
 361  179.82
 362  326.2833
 363  303.0905
 364  336.9896
 365  335.4485
 366  325.2756
 367  311.6099
 368  222.0043
 369  263.2392
 370  384.9733
 371  302.2883
 372  435.4301
 373  513.1692
 374  414.4072
 375  391.2055
 376  420.7484
 377  468.7408
 378  420.4073
 379  284.7648
 380  279.9048
 381  330.7126
 382  310.439
 383  323.9536
 384  342.7484
 385  357.4475
 386  382.5845
 387  407.476
 388  401.3366
 389  439.8466
 390  371.4868
 391  424.9023
 392  556.0022
 393  444.1397
 394  424.9325
 395  522.367
 396  444.6374
 397  362.7128
 398  288.6449
 399  419.654
 400  431.5614
 401  394.1818
 402  399.4993
 403  394.6928
 404  367.6546
 405  387.1387
 406  276.7863
 407  322.6135
 408  395.1412
 409  369.4757
 410  420.655
 411  428.7479
 412  434.9716
 413  499.1486
 414  435.7769
 415  305.9743
 416  326.7918
 417  401.5154
 418  331.4827
 419  319.4192
 420  314.4956
 421  324.3707
 422  326.0466
 423  388.1341
 424  380.8773
 425  302.8567
 426  319.6309
 427  393.495
 428  414.7156
 429  387.1184
 430  459.1157
 431  385.2634
 432  420.7338
 433  360.6154
 434  393.5616
 435  414.6331
 436  328.2671
 437  242.1888
 438  200.1339
 439  244.0159
 440  387.4242
 441  254.0849
 442  429.2251
 443  296.5756
 444  206.9804
 445  393.0686
 446  303.9136
 447  251.1355
 448  245.7792
 449  331.7082
 450  402.1389
 451  404.2513
 452  406.4801
 453  378.5439
 454  337.8925
 455  243.6017
 456  313.4762
 457  320.8421
 458  385.3364
 459  472.6998
 460  402.8571
 461  287.8446
 462  323.1786
 463  307.9377
 464  324.14
 465  345.2048
 466  335.6089
 467  311.2635
 468  327.9551
 469  273.8416
 470  280.7532
 471  296.6341
 472  312.8711
 473  425.7437
 474  486.1762
 475  410.3647
 476  186.3496
 477  301.1938
 478  454.5992
 479  459.565
 480  367.9113
 481  311.2548
 482  311.8254
 483  298.8149
 484  272.1036
 485  392.8899
 486  569.3265
 487  426.2918
 488  365.0374
 489  291.5921
 490  292.4181
 491  287.8889
 492  362.11
 493  481.218
 494  438.4909
 495  365.7457
 496  412.8888
 497  332.6823
 498  309.3239
 499  330.2683
 500  260.7762
 501  286.1355
 502  454.4268
 503  463.0475
 504  422.8836
 505  471.3399
 506  472.7135
 507  544.2491
 508  426.4107
 509  579.6052
 510  850.7354
 511  992.2603
