# Input file       =  1183195541.119305_cleaned.dat
# Candidate        =  PSR_0332+5434
# Telescope        =  AR
# Epoch_topo       =  57938.392628695656
# Epoch_bary       =  N/A
# T_sample         =  0.002
# Data Folded      =  7340032
# Data Avg         =  0.0379646803962439
# Data StdDev      =  1.00008861746787 
# Profile Bins     =  512
# Profile Avg      =  544.275967702839 
# Profile StdDev   =  119.74364681527  
# Reduced chi-sqr  =  1.163
# Prob(Noise)      <  0.00626   (~2.5 sigma)
# P_topo (ms)      =  714.486893820759  +/- 0.000181
# P'_topo (s/s)    =  -0                +/- 9.54e-11
# P''_topo (s/s^2) =  0                 +/- 4.21e-14
# P_bary (ms)      =  N/A
# P'_bary (s/s)    =  N/A
# P''_bary (s/s^2) =  N/A
# P_orb (s)        =  N/A
# asin(i)/c (s)    =  N/A
# eccentricity     =  N/A
# w (rad)          =  N/A
# T_peri           =  N/A
######################################################
   0  1012.89
   1  966.4888
   2  1008.335
   3  918.6193
   4  687.6317
   5  709.4557
   6  741.4395
   7  664.4796
   8  532.7369
   9  535.3316
  10  658.29
  11  549.783
  12  616.6196
  13  690.6484
  14  564.0222
  15  483.4108
  16  444.4112
  17  658.7609
  18  753.3303
  19  752.2939
  20  618.5776
  21  587.4145
  22  573.2
  23  591.3693
  24  616.9903
  25  622.1091
  26  611.7079
  27  566.9459
  28  548.748
  29  582.2139
  30  490.1935
  31  501.9011
  32  513.3632
  33  494.3328
  34  595.1147
  35  550.7003
  36  403.7613
  37  503.2345
  38  566.7346
  39  659.6395
  40  627.0324
  41  642.7202
  42  654.8358
  43  693.0626
  44  631.0203
  45  675.8672
  46  603.8357
  47  574.2233
  48  629.7099
  49  586.244
  50  595.7515
  51  599.6749
  52  593.2999
  53  580.8853
  54  555.6009
  55  625.4988
  56  707.4111
  57  680.8354
  58  611.3789
  59  566.5427
  60  557.8286
  61  569.7408
  62  602.1828
  63  563.2478
  64  551.012
  65  578.2004
  66  491.3597
  67  527.0244
  68  548.1699
  69  587.0526
  70  476.0198
  71  482.5775
  72  575.6115
  73  573.1891
  74  467.3796
  75  583.4028
  76  641.3719
  77  629.3204
  78  611.6293
  79  592.9141
  80  580.8628
  81  578.753
  82  558.1556
  83  563.1377
  84  540.8187
  85  516.2226
  86  471.691
  87  552.6887
  88  553.1604
  89  650.0767
  90  736.899
  91  729.3405
  92  737.6303
  93  635.5056
  94  599.8717
  95  594.8064
  96  640.7193
  97  664.2259
  98  686.2839
  99  646.457
 100  575.9282
 101  576.9693
 102  608.9575
 103  485.2018
 104  468.2475
 105  531.7166
 106  667.054
 107  668.747
 108  640.8373
 109  464.2903
 110  471.7517
 111  583.2257
 112  597.8045
 113  601.41
 114  585.4841
 115  564.2247
 116  599.7471
 117  587.7457
 118  527.0756
 119  546.3669
 120  563.5701
 121  507.0413
 122  494.2577
 123  505.4133
 124  572.451
 125  634.7817
 126  640.1089
 127  605.4072
 128  539.1473
 129  569.5783
 130  614.5403
 131  623.2496
 132  621.9188
 133  753.2877
 134  683.7502
 135  608.0004
 136  618.5134
 137  621.2343
 138  598.5714
 139  627.3463
 140  659.9872
 141  672.275
 142  704.0274
 143  734.7262
 144  711.9454
 145  608.5049
 146  568.5572
 147  530.462
 148  562.5187
 149  546.8195
 150  512.9431
 151  447.5924
 152  494.5901
 153  449.9367
 154  439.6868
 155  454.775
 156  399.4053
 157  481.7589
 158  532.381
 159  595.0483
 160  550.9435
 161  421.7347
 162  421.0552
 163  495.8291
 164  504.4767
 165  503.3331
 166  478.1517
 167  486.9791
 168  590.5718
 169  605.4405
 170  499.9862
 171  518.4896
 172  536.2163
 173  535.9536
 174  491.191
 175  496.1319
 176  544.281
 177  503.4752
 178  500.7656
 179  542.0649
 180  528.0668
 181  529.3277
 182  615.4623
 183  535.742
 184  504.2213
 185  420.9473
 186  428.5997
 187  446.1798
 188  458.5221
 189  509.7086
 190  508.1688
 191  586.628
 192  641.2225
 193  549.4042
 194  500.4262
 195  408.5009
 196  451.0854
 197  442.8562
 198  517.6046
 199  446.923
 200  485.7299
 201  527.3974
 202  496.0461
 203  425.5392
 204  421.2673
 205  456.4821
 206  510.267
 207  469.3881
 208  503.9372
 209  435.7983
 210  486.3289
 211  547.0031
 212  587.5945
 213  493.5924
 214  499.1812
 215  515.1776
 216  637.0707
 217  610.5266
 218  560.8074
 219  556.5735
 220  534.6475
 221  536.8118
 222  536.1762
 223  487.0287
 224  465.4345
 225  478.8646
 226  461.1462
 227  421.4277
 228  489.2755
 229  513.348
 230  501.2229
 231  476.6087
 232  477.6082
 233  527.7628
 234  575.7619
 235  634.9918
 236  526.9659
 237  505.5641
 238  441.2896
 239  374.1516
 240  521.2421
 241  493.399
 242  431.1673
 243  478.7774
 244  547.3829
 245  548.9073
 246  590.8275
 247  496.6877
 248  612.3869
 249  577.6454
 250  531.5031
 251  592.6683
 252  638.5555
 253  678.5092
 254  669.2053
 255  594.4707
 256  473.515
 257  466.3562
 258  385.6064
 259  485.7222
 260  602.1145
 261  528.9285
 262  480.649
 263  532.5532
 264  520.3307
 265  521.9289
 266  464.7551
 267  495.0735
 268  497.924
 269  413.2724
 270  464.4523
 271  490.4997
 272  576.2872
 273  525.1257
 274  524.2034
 275  455.492
 276  409.8401
 277  462.6267
 278  428.4889
 279  408.5007
 280  463.2938
 281  467.159
 282  530.5674
 283  484.5271
 284  430.8503
 285  323.0369
 286  400.0759
 287  610.4957
 288  622.8822
 289  603.6738
 290  517.6941
 291  469.9797
 292  510.3295
 293  496.8684
 294  454.523
 295  414.5246
 296  649.2757
 297  630.9731
 298  629.8802
 299  524.5253
 300  491.7601
 301  563.0095
 302  575.2353
 303  559.7683
 304  578.9971
 305  679.8499
 306  696.1844
 307  717.2056
 308  684.4372
 309  695.6337
 310  631.7655
 311  621.2578
 312  588.5353
 313  613.1649
 314  585.0403
 315  605.6741
 316  555.9084
 317  579.2966
 318  557.9432
 319  476.8013
 320  483.2362
 321  521.7473
 322  550.1837
 323  548.757
 324  500.6501
 325  550.2312
 326  555.628
 327  532.693
 328  554.6123
 329  543.2
 330  427.422
 331  585.0126
 332  643.0559
 333  543.4365
 334  599.5129
 335  633.7008
 336  643.004
 337  507.7113
 338  506.9975
 339  624.4374
 340  570.9357
 341  536.5502
 342  504.5247
 343  513.7106
 344  521.3171
 345  644.3934
 346  546.6064
 347  510.9745
 348  613.8481
 349  634.0443
 350  603.9083
 351  456.7261
 352  519.4554
 353  599.491
 354  562.6227
 355  570.7616
 356  464.2826
 357  523.7711
 358  575.3586
 359  578.5245
 360  583.9819
 361  674.3231
 362  664.8983
 363  525.2211
 364  398.7937
 365  428.0577
 366  511.8284
 367  433.9695
 368  436.2452
 369  505.885
 370  478.4644
 371  470.9908
 372  491.1488
 373  486.739
 374  343.6725
 375  402.6959
 376  459.6419
 377  475.4406
 378  544.8029
 379  454.7451
 380  496.7878
 381  451.5881
 382  449.7785
 383  448.8148
 384  568.5527
 385  518.0632
 386  452.9625
 387  530.8364
 388  602.6689
 389  571.0877
 390  532.7088
 391  543.1085
 392  636.0803
 393  592.7557
 394  474.3563
 395  535.018
 396  624.7098
 397  563.1062
 398  576.2608
 399  599.0195
 400  592.0419
 401  522.6379
 402  588.3304
 403  522.6525
 404  468.2958
 405  541.1638
 406  529.2396
 407  445.9283
 408  446.7954
 409  476.7835
 410  451.4176
 411  458.123
 412  480.2553
 413  365.8791
 414  302.1429
 415  451.619
 416  518.2022
 417  407.7606
 418  346.0398
 419  373.9665
 420  468.6178
 421  402.0211
 422  452.7691
 423  500.4999
 424  535.4827
 425  600.7465
 426  513.0647
 427  598.3188
 428  522.6279
 429  479.1887
 430  616.9707
 431  655.1882
 432  685.7173
 433  602.8038
 434  503.2667
 435  495.7766
 436  623.8773
 437  631.7794
 438  531.1682
 439  545.8806
 440  491.1606
 441  584.0563
 442  512.077
 443  474.832
 444  497.4473
 445  499.3626
 446  522.7525
 447  502.7684
 448  488.6313
 449  556.3795
 450  492.2222
 451  470.7691
 452  485.4604
 453  440.5002
 454  406.3956
 455  426.642
 456  418.7418
 457  404.7529
 458  442.5599
 459  429.8345
 460  424.4123
 461  358.7175
 462  405.3538
 463  571.0933
 464  594.5919
 465  513.5117
 466  500.9567
 467  360.2596
 468  295.915
 469  363.0537
 470  526.4058
 471  558.1272
 472  478.95
 473  497.6263
 474  557.7361
 475  518.0533
 476  494.1736
 477  512.3887
 478  484.3968
 479  475.0515
 480  451.433
 481  457.7027
 482  478.7254
 483  604.2716
 484  638.8966
 485  509.3628
 486  522.23
 487  477.6177
 488  515.8869
 489  485.3675
 490  409.1218
 491  433.722
 492  476.1402
 493  565.7376
 494  589.1901
 495  506.5565
 496  404.0589
 497  419.3389
 498  475.2313
 499  495.2298
 500  448.8644
 501  417.3837
 502  556.4794
 503  638.1918
 504  704.6864
 505  641.2497
 506  579.7657
 507  584.2258
 508  655.3636
 509  879.9351
 510  862.1069
 511  994.4638
