# Input file       =  1183079651.114455_cleaned.dat
# Candidate        =  PSR_0332+5434
# Telescope        =  AR
# Epoch_topo       =  57937.051309195078
# Epoch_bary       =  N/A
# T_sample         =  0.002
# Data Folded      =  7405568
# Data Avg         =  0.0297603970019698
# Data StdDev      =  1.00007415172094 
# Profile Bins     =  512
# Profile Avg      =  430.469515703227 
# Profile StdDev   =  120.275288985366 
# Reduced chi-sqr  =  1.183
# Prob(Noise)      <  0.0027   (~2.8 sigma)
# P_topo (ms)      =  714.487585299866  +/- 0.000114
# P'_topo (s/s)    =  -0                +/- 5.94e-11
# P''_topo (s/s^2) =  0                 +/- 2.6e-14
# P_bary (ms)      =  N/A
# P'_bary (s/s)    =  N/A
# P''_bary (s/s^2) =  N/A
# P_orb (s)        =  N/A
# asin(i)/c (s)    =  N/A
# eccentricity     =  N/A
# w (rad)          =  N/A
# T_peri           =  N/A
######################################################
   0  479.3931
   1  316.3856
   2  348.3466
   3  406.4441
   4  426.8347
   5  436.4013
   6  453.6635
   7  421.4105
   8  481.7938
   9  381.7354
  10  359.7852
  11  426.0753
  12  363.0836
  13  417.1874
  14  384.877
  15  428.3114
  16  410.176
  17  291.0862
  18  329.0317
  19  249.8341
  20  241.0085
  21  271.8806
  22  325.462
  23  411.3627
  24  490.8421
  25  473.0964
  26  413.8768
  27  474.6028
  28  446.4828
  29  417.6588
  30  371.7671
  31  424.5125
  32  472.8253
  33  447.1839
  34  402.511
  35  465.8591
  36  378.0017
  37  326.5162
  38  330.9683
  39  389.3321
  40  546.3755
  41  550.7237
  42  525.0817
  43  402.9805
  44  398.3972
  45  375.5567
  46  505.1342
  47  527.2161
  48  508.66
  49  450.5985
  50  519.1252
  51  598.0654
  52  435.8058
  53  409.4113
  54  535.0851
  55  539.8915
  56  490.9045
  57  523.4427
  58  520.5155
  59  502.1202
  60  451.7274
  61  338.8115
  62  361.7849
  63  403.8099
  64  385.4664
  65  398.4861
  66  481.1018
  67  323.9526
  68  330.839
  69  282.49
  70  428.0166
  71  479.265
  72  368.155
  73  360.4878
  74  458.5199
  75  416.6985
  76  418.1298
  77  282.2362
  78  337.8093
  79  436.1662
  80  434.7843
  81  394.0024
  82  469.2612
  83  439.1747
  84  449.1496
  85  364.2276
  86  338.859
  87  416.3552
  88  431.9749
  89  421.5234
  90  459.118
  91  422.4687
  92  423.523
  93  342.7549
  94  259.593
  95  326.3593
  96  368.6552
  97  438.0544
  98  384.048
  99  517.092
 100  506.3451
 101  339.7782
 102  345.3083
 103  411.7
 104  406.6324
 105  371.4445
 106  413.2737
 107  421.9521
 108  445.2051
 109  495.7811
 110  410.7698
 111  303.4724
 112  369.3784
 113  399.4352
 114  549.2587
 115  506.0551
 116  496.035
 117  457.5535
 118  446.5506
 119  407.7257
 120  431.9502
 121  443.7087
 122  559.3038
 123  594.8397
 124  645.6234
 125  469.726
 126  392.4301
 127  406.7144
 128  551.9678
 129  389.5457
 130  393.2013
 131  426.9353
 132  473.3898
 133  476.4708
 134  485.7563
 135  444.0864
 136  385.4689
 137  340.1578
 138  437.9738
 139  429.0006
 140  320.0634
 141  397.1169
 142  413.7257
 143  436.0345
 144  502.9001
 145  497.3969
 146  605.8176
 147  580.2352
 148  407.3174
 149  399.7554
 150  463.3107
 151  483.8913
 152  502.286
 153  349.8563
 154  460.1287
 155  500.407
 156  483.0489
 157  424.571
 158  442.3895
 159  434.6701
 160  444.5298
 161  338.6094
 162  388.0846
 163  574.8197
 164  468.7295
 165  411.218
 166  529.4529
 167  486.2811
 168  514.9523
 169  533.9684
 170  563.4346
 171  410.5307
 172  514.9526
 173  499.5338
 174  415.7767
 175  393.476
 176  397.3593
 177  416.4751
 178  470.1721
 179  446.7068
 180  367.0819
 181  429.0248
 182  471.5645
 183  471.4006
 184  523.2638
 185  378.1646
 186  418.0305
 187  427.9585
 188  441.495
 189  538.317
 190  465.9257
 191  354.733
 192  399.2538
 193  340.0858
 194  337.3534
 195  408.0374
 196  523.3206
 197  532.4897
 198  403.5529
 199  368.4636
 200  309.5973
 201  274.853
 202  320.1753
 203  430.8247
 204  460.6215
 205  569.2695
 206  494.743
 207  368.4798
 208  368.5754
 209  474.3701
 210  427.6263
 211  397.5845
 212  448.9262
 213  495.6495
 214  448.0703
 215  473.7256
 216  356.2861
 217  357.3403
 218  326.6912
 219  378.1565
 220  380.5911
 221  328.9823
 222  304.2984
 223  368.9855
 224  383.2802
 225  400.159
 226  315.8168
 227  327.6861
 228  351.783
 229  466.9905
 230  446.2273
 231  319.9162
 232  307.0018
 233  451.1497
 234  472.0911
 235  473.9152
 236  452.6639
 237  329.453
 238  471.7803
 239  470.4564
 240  511.6904
 241  508.901
 242  401.8708
 243  424.6987
 244  463.3851
 245  474.0194
 246  432.3318
 247  420.1423
 248  519.928
 249  468.0974
 250  474.7243
 251  392.4487
 252  365.665
 253  467.6304
 254  487.2703
 255  403.5089
 256  289.0998
 257  379.6376
 258  328.2226
 259  397.0966
 260  404.0953
 261  432.1181
 262  473.1678
 263  591.4065
 264  570.6381
 265  569.1137
 266  487.5351
 267  411.384
 268  354.591
 269  438.202
 270  449.3947
 271  507.1601
 272  514.7733
 273  491.691
 274  438.9191
 275  450.903
 276  511.6279
 277  461.7088
 278  418.3002
 279  526.9834
 280  424.5966
 281  424.8044
 282  444.6945
 283  360.8893
 284  335.217
 285  387.2181
 286  433.0028
 287  423.3873
 288  493.8388
 289  551.7634
 290  644.8464
 291  829.5667
 292  1038.571
 293  1031.848
 294  1064.932
 295  1029.584
 296  795.4341
 297  728.5102
 298  454.4524
 299  298.2316
 300  357.0105
 301  361.2393
 302  373.2615
 303  411.1326
 304  399.0276
 305  386.4894
 306  350.9906
 307  297.3881
 308  433.5019
 309  566.3752
 310  523.527
 311  474.4907
 312  369.0551
 313  360.5324
 314  419.5373
 315  430.63
 316  432.6424
 317  488.5003
 318  478.9124
 319  401.6644
 320  513.5089
 321  516.2577
 322  482.029
 323  322.3462
 324  360.1283
 325  429.1441
 326  395.8156
 327  467.5085
 328  514.9359
 329  439.8438
 330  393.1861
 331  512.3491
 332  470.6165
 333  338.0691
 334  313.8105
 335  268.554
 336  425.0717
 337  463.1418
 338  495.4887
 339  457.2822
 340  544.5853
 341  515.1315
 342  433.3408
 343  441.5739
 344  435.6554
 345  489.6302
 346  539.2628
 347  472.415
 348  412.0476
 349  381.9731
 350  413.9708
 351  362.159
 352  419.0636
 353  428.9537
 354  453.575
 355  301.0437
 356  441.8777
 357  465.9401
 358  368.6201
 359  337.6703
 360  371.8819
 361  366.6006
 362  353.119
 363  398.5627
 364  382.5954
 365  346.4524
 366  353.9863
 367  323.2728
 368  369.3977
 369  285.7232
 370  355.4823
 371  360.2761
 372  327.4569
 373  305.8399
 374  291.9854
 375  356.9791
 376  322.0265
 377  430.8645
 378  458.0501
 379  439.0626
 380  524.5887
 381  536.415
 382  454.5824
 383  370.6717
 384  367.803
 385  309.4206
 386  442.2332
 387  404.5759
 388  275.3148
 389  372.4461
 390  374.6696
 391  412.9097
 392  342.8376
 393  385.3642
 394  332.4077
 395  438.0879
 396  433.4516
 397  329.2313
 398  402.5253
 399  428.4413
 400  435.7681
 401  356.1031
 402  478.3396
 403  476.3019
 404  432.867
 405  469.4734
 406  392.5575
 407  351.3348
 408  465.328
 409  479.4252
 410  491.6301
 411  539.2832
 412  439.3611
 413  402.3134
 414  435.5294
 415  449.4084
 416  389.5534
 417  478.6855
 418  481.3291
 419  443.2396
 420  486.3467
 421  522.0616
 422  423.7758
 423  510.023
 424  387.0258
 425  324.0115
 426  490.1166
 427  539.6948
 428  460.8148
 429  340.1937
 430  449.1539
 431  444.7866
 432  277.6819
 433  180.3064
 434  323.2885
 435  461.6001
 436  460.477
 437  443.1203
 438  425.5979
 439  375.3077
 440  303.0718
 441  370.2985
 442  396.496
 443  466.8828
 444  459.829
 445  421.8171
 446  303.499
 447  313.2905
 448  342.9605
 449  321.7684
 450  339.5238
 451  374.3767
 452  421.6841
 453  458.9255
 454  446.1051
 455  329.1485
 456  387.1183
 457  290.3335
 458  361.6658
 459  490.0188
 460  562.9711
 461  518.7956
 462  521.4899
 463  466.3239
 464  458.6393
 465  451.2897
 466  458.4585
 467  411.1984
 468  337.9326
 469  392.4817
 470  447.6155
 471  350.1374
 472  415.3562
 473  372.875
 474  343.0452
 475  332.5824
 476  238.8817
 477  245.9445
 478  428.2964
 479  517.6481
 480  390.102
 481  330.6942
 482  473.0305
 483  438.8344
 484  365.4807
 485  561.7691
 486  588.4236
 487  473.4058
 488  460.6471
 489  438.7762
 490  445.4077
 491  445.8997
 492  504.3853
 493  384.4419
 494  461.6805
 495  475.7229
 496  508.2612
 497  507.8927
 498  328.7635
 499  390.8265
 500  424.0942
 501  487.5915
 502  538.0808
 503  472.4459
 504  420.614
 505  281.3967
 506  221.6294
 507  391.69
 508  587.0645
 509  407.9097
 510  451.004
 511  550.0488
