# Input file       =  1183338248.11959_cleaned.dat
# Candidate        =  PSR_0332+5434
# Telescope        =  AR
# Epoch_topo       =  57940.044330087847
# Epoch_bary       =  N/A
# T_sample         =  0.002
# Data Folded      =  7340032
# Data Avg         =  0.0255798107115783
# Data StdDev      =  1.00004812467924 
# Profile Bins     =  512
# Profile Avg      =  366.717231073757 
# Profile StdDev   =  119.738798490737 
# Reduced chi-sqr  =  1.113
# Prob(Noise)      <  0.0389   (~1.8 sigma)
# P_topo (ms)      =  714.485274617099  +/- 0.000212
# P'_topo (s/s)    =  -0                +/- 1.12e-10
# P''_topo (s/s^2) =  0                 +/- 4.93e-14
# P_bary (ms)      =  N/A
# P'_bary (s/s)    =  N/A
# P''_bary (s/s^2) =  N/A
# P_orb (s)        =  N/A
# asin(i)/c (s)    =  N/A
# eccentricity     =  N/A
# w (rad)          =  N/A
# T_peri           =  N/A
######################################################
   0  543.8431
   1  585.4164
   2  411.9249
   3  249.5856
   4  343.9587
   5  373.8142
   6  279.2614
   7  261.9853
   8  265.2838
   9  247.6647
  10  416.2045
  11  471.3393
  12  270.7103
  13  315.8923
  14  294.4842
  15  353.5861
  16  331.0724
  17  309.1869
  18  426.3799
  19  486.9405
  20  431.0533
  21  441.4482
  22  430.1912
  23  466.6624
  24  340.6994
  25  367.0419
  26  430.9285
  27  398.4969
  28  388.6217
  29  502.9746
  30  459.0131
  31  462.8987
  32  423.8467
  33  384.1621
  34  275.1365
  35  364.1779
  36  434.1939
  37  354.5569
  38  328.0649
  39  381.1672
  40  347.1354
  41  231.5008
  42  206.6268
  43  324.1752
  44  295.7572
  45  328.0226
  46  231.8009
  47  337.8739
  48  368.6676
  49  456.2875
  50  394.5266
  51  295.5136
  52  334.0329
  53  392.0247
  54  414.7173
  55  413.0154
  56  347.5707
  57  271.2664
  58  293.3911
  59  371.5041
  60  374.6651
  61  301.8607
  62  316.9943
  63  355.5335
  64  519.7285
  65  435.5662
  66  382.8127
  67  334.0838
  68  389.9666
  69  303.1284
  70  332.502
  71  343.688
  72  370.2981
  73  384.5821
  74  451.5198
  75  377.5714
  76  383.5932
  77  382.2357
  78  286.9623
  79  280.6536
  80  399.5978
  81  412.9019
  82  293.0705
  83  290.8729
  84  266.4892
  85  311.5878
  86  282.7468
  87  260.2729
  88  355.7144
  89  319.2241
  90  406.7707
  91  355.1003
  92  271.7197
  93  212.2893
  94  239.5652
  95  201.6158
  96  244.3533
  97  376.8138
  98  400.6825
  99  358.9921
 100  326.9608
 101  305.0896
 102  304.4632
 103  310.912
 104  299.6635
 105  250.1449
 106  248.5471
 107  426.1066
 108  333.7565
 109  358.0987
 110  388.98
 111  419.8613
 112  328.211
 113  166.9115
 114  149.8549
 115  137.5478
 116  331.8003
 117  458.3863
 118  366.4513
 119  280.556
 120  295.3252
 121  259.6018
 122  258.8014
 123  344.4799
 124  290.0748
 125  371.3081
 126  322.4305
 127  346.1721
 128  336.5898
 129  420.2002
 130  409.0844
 131  298.5012
 132  344.8656
 133  317.0764
 134  265.3322
 135  277.1332
 136  272.8431
 137  383.2827
 138  436.18
 139  446.9946
 140  489.7301
 141  403.9658
 142  317.1172
 143  335.2641
 144  317.2495
 145  375.155
 146  352.8109
 147  362.1316
 148  453.623
 149  386.5171
 150  312.2325
 151  339.175
 152  344.6422
 153  292.2447
 154  170.3846
 155  301.9026
 156  442.266
 157  326.1624
 158  344.3331
 159  398.659
 160  294.6758
 161  177.7334
 162  221.0539
 163  300.0186
 164  324.6707
 165  296.8529
 166  395.102
 167  394.9625
 168  266.3522
 169  212.9627
 170  379.8103
 171  359.5933
 172  313.4592
 173  335.1791
 174  354.4917
 175  295.2393
 176  367.3614
 177  321.5934
 178  292.2778
 179  356.2093
 180  412.9377
 181  369.7943
 182  315.875
 183  321.776
 184  287.3062
 185  271.8676
 186  229.0439
 187  259.8993
 188  340.4792
 189  247.5952
 190  301.8459
 191  383.4082
 192  320.6572
 193  254.0621
 194  273.4122
 195  235.0304
 196  228.3775
 197  356.3058
 198  374.5441
 199  345.5255
 200  456.2126
 201  498.7534
 202  521.9
 203  443.0662
 204  428.1279
 205  385.0872
 206  356.9421
 207  389.4127
 208  335.1677
 209  322.3191
 210  326.7654
 211  388.0034
 212  451.638
 213  431.4872
 214  427.9135
 215  375.6881
 216  358.9847
 217  303.6779
 218  317.0102
 219  368.3333
 220  442.4816
 221  385.3772
 222  494.7976
 223  475.3685
 224  449.1631
 225  446.282
 226  417.8613
 227  497.6205
 228  389.64
 229  465.662
 230  439.4933
 231  382.0186
 232  403.588
 233  341.3949
 234  323.6032
 235  287.6923
 236  300.6991
 237  351.5887
 238  429.43
 239  376.8405
 240  320.1149
 241  335.647
 242  248.8675
 243  356.6749
 244  453.2888
 245  419.1291
 246  442.5087
 247  432.4451
 248  389.1791
 249  335.277
 250  338.7552
 251  347.3048
 252  345.7244
 253  382.5113
 254  424.2692
 255  366.4411
 256  309.6461
 257  336.0982
 258  320.6643
 259  385.2956
 260  387.487
 261  326.3066
 262  305.2156
 263  337.1674
 264  291.6621
 265  263.5168
 266  281.5987
 267  346.3559
 268  245.4375
 269  332.6214
 270  373.0413
 271  366.9294
 272  345.487
 273  386.6299
 274  380.9316
 275  413.3557
 276  481.0442
 277  466.3977
 278  297.8466
 279  283.8715
 280  367.3387
 281  414.4517
 282  587.8328
 283  496.3774
 284  504.0405
 285  404.0512
 286  431.7027
 287  537.3263
 288  521.7172
 289  484.0468
 290  518.2068
 291  537.7814
 292  485.4653
 293  416.3062
 294  381.1078
 295  424.2341
 296  439.2454
 297  382.8004
 298  276.4109
 299  339.7881
 300  470.8481
 301  440.0571
 302  505.7713
 303  479.2086
 304  428.3015
 305  304.9902
 306  318.2065
 307  307.7607
 308  277.1436
 309  342.6539
 310  488.2494
 311  421.2996
 312  348.0136
 313  321.1781
 314  365.0503
 315  484.5454
 316  599.485
 317  597.535
 318  630.4188
 319  718.684
 320  821.2629
 321  915.5735
 322  988.1547
 323  842.8504
 324  608.2406
 325  350.2763
 326  246.7698
 327  336.0677
 328  248.5126
 329  167.3199
 330  258.7757
 331  305.4513
 332  315.6729
 333  347.8104
 334  415.1812
 335  495.0608
 336  414.6328
 337  356.959
 338  377.2145
 339  464.1487
 340  425.772
 341  325.1497
 342  259.8376
 343  342.3246
 344  426.984
 345  367.9547
 346  347.8577
 347  313.1541
 348  317.262
 349  353.6245
 350  261.9836
 351  312.1219
 352  460.3123
 353  387.3687
 354  320.6282
 355  449.4281
 356  406.0879
 357  366.426
 358  315.4317
 359  389.9766
 360  364.8375
 361  383.9846
 362  363.4767
 363  324.581
 364  440.7766
 365  503.0182
 366  535.4077
 367  395.1395
 368  289.8455
 369  293.2421
 370  444.52
 371  452.9252
 372  377.757
 373  406.0196
 374  394.135
 375  317.1283
 376  344.9124
 377  446.3397
 378  373.6461
 379  379.273
 380  299.8633
 381  260.8381
 382  289.713
 383  339.004
 384  335.4924
 385  396.4821
 386  339.4116
 387  270.0907
 388  334.8929
 389  244.9712
 390  377.6188
 391  410.1422
 392  319.423
 393  280.7307
 394  318.8379
 395  367.9292
 396  425.8176
 397  370.2775
 398  439.2901
 399  409.3842
 400  425.1359
 401  410.3374
 402  420.3212
 403  371.8206
 404  299.5584
 405  371.159
 406  474.0965
 407  347.0682
 408  309.2372
 409  353.4575
 410  254.2744
 411  315.4977
 412  359.3889
 413  371.5027
 414  346.5929
 415  432.0628
 416  435.8174
 417  378.8101
 418  449.8821
 419  412.8389
 420  348.4241
 421  429.6229
 422  544.1884
 423  477.3296
 424  312.599
 425  320.2868
 426  332.1688
 427  396.2179
 428  457.8921
 429  489.723
 430  498.5204
 431  385.0351
 432  277.6546
 433  257.6414
 434  348.7969
 435  406.3559
 436  408.5082
 437  408.2912
 438  438.2219
 439  462.4578
 440  478.9439
 441  472.8127
 442  360.6987
 443  339.8141
 444  389.0163
 445  323.7484
 446  245.4362
 447  465.2854
 448  445.1034
 449  447.2591
 450  345.1688
 451  350.4124
 452  344.273
 453  325.5083
 454  402.7621
 455  363.8224
 456  380.4167
 457  372.2374
 458  458.3635
 459  531.7831
 460  388.5093
 461  335.6717
 462  381.9746
 463  446.983
 464  418.6779
 465  402.9501
 466  360.689
 467  328.8091
 468  383.5009
 469  375.4561
 470  414.277
 471  361.8755
 472  264.7754
 473  332.665
 474  278.6882
 475  265.9755
 476  331.2635
 477  262.5707
 478  181.4998
 479  99.48676
 480  212.7534
 481  337.2951
 482  311.4225
 483  263.5587
 484  307.4146
 485  314.4966
 486  281.7215
 487  238.8874
 488  231.8575
 489  340.4417
 490  355.8386
 491  322.6275
 492  257.8497
 493  332.9815
 494  337.9198
 495  392.5515
 496  354.9578
 497  313.3172
 498  385.6978
 499  414.4539
 500  365.9615
 501  361.5413
 502  339.4336
 503  377.8118
 504  403.2354
 505  452.4398
 506  367.7876
 507  335.5563
 508  399.5765
 509  371.5724
 510  366.4328
 511  364.5007
