# Input file       =  1183626022.165991_cleaned.dat
# Candidate        =  PSR_0332+5434
# Telescope        =  AR
# Epoch_topo       =  57943.375048217487
# Epoch_bary       =  N/A
# T_sample         =  0.002
# Data Folded      =  7340032
# Data Avg         =  0.0344718388852378
# Data StdDev      =  1.00007174190095 
# Profile Bins     =  512
# Profile Avg      =  494.237797494882 
# Profile StdDev   =  119.741626252403 
# Reduced chi-sqr  =  1.393
# Prob(Noise)      <  8.84e-09   (~5.6 sigma)
# P_topo (ms)      =  714.483159166185  +/- 0.000369
# P'_topo (s/s)    =  -0                +/- 1.95e-10
# P''_topo (s/s^2) =  0                 +/- 8.6e-14
# P_bary (ms)      =  N/A
# P'_bary (s/s)    =  N/A
# P''_bary (s/s^2) =  N/A
# P_orb (s)        =  N/A
# asin(i)/c (s)    =  N/A
# eccentricity     =  N/A
# w (rad)          =  N/A
# T_peri           =  N/A
######################################################
   0  692.0397
   1  586.7977
   2  444.8578
   3  480.339
   4  484.9489
   5  445.7435
   6  579.3417
   7  560.8204
   8  401.7121
   9  364.3889
  10  550.2863
  11  574.838
  12  548.7757
  13  532.6522
  14  413.4402
  15  324.6019
  16  435.7353
  17  392.5628
  18  356.3709
  19  396.367
  20  385.4852
  21  509.9171
  22  470.8286
  23  403.7155
  24  394.7778
  25  435.5195
  26  553.8023
  27  506.2185
  28  475.1882
  29  514.2691
  30  388.5019
  31  478.1068
  32  516.0026
  33  542.2369
  34  481.8378
  35  583.3841
  36  479.2531
  37  395.081
  38  426.6435
  39  547.3605
  40  594.3351
  41  611.585
  42  654.2224
  43  578.2764
  44  569.7285
  45  572.1533
  46  409.4142
  47  478.195
  48  510.02
  49  527.8891
  50  578.0303
  51  560.8281
  52  529.5441
  53  568.6453
  54  464.1692
  55  453.8578
  56  427.0265
  57  449.5174
  58  474.751
  59  511.9526
  60  561.205
  61  451.786
  62  502.5009
  63  518.0457
  64  486.8835
  65  492.8308
  66  494.3786
  67  547.6597
  68  528.1292
  69  534.4041
  70  538.2628
  71  557.9214
  72  427.4218
  73  471.5805
  74  574.4109
  75  609.2528
  76  471.5913
  77  476.8182
  78  484.7898
  79  466.7885
  80  503.3502
  81  550.7316
  82  464.2205
  83  431.8499
  84  453.5227
  85  515.6154
  86  586.3405
  87  603.8804
  88  546.3849
  89  559.8824
  90  500.3051
  91  543.3462
  92  498.3075
  93  448.3701
  94  577.9011
  95  606.4183
  96  470.4484
  97  369.061
  98  385.5287
  99  459.0844
 100  540.1189
 101  559.2769
 102  521.931
 103  587.5748
 104  482.3313
 105  521.6172
 106  534.5936
 107  534.553
 108  534.2606
 109  576.2343
 110  497.8509
 111  508.0041
 112  473.2565
 113  593.4227
 114  652.2797
 115  594.7658
 116  466.3071
 117  344.7696
 118  304.8617
 119  393.2758
 120  534.4467
 121  643.622
 122  577.8799
 123  503.6797
 124  489.7196
 125  451.7914
 126  399.4761
 127  472.0752
 128  456.3834
 129  453.5911
 130  454.6989
 131  413.7044
 132  465.0068
 133  426.4165
 134  388.9811
 135  452.1051
 136  519.409
 137  412.5039
 138  499.8302
 139  408.1992
 140  443.6326
 141  550.1561
 142  532.6777
 143  546.1467
 144  481.2831
 145  478.8535
 146  386.7342
 147  414.9424
 148  329.2718
 149  457.3854
 150  424.2988
 151  378.7777
 152  442.7869
 153  579.4742
 154  482.3998
 155  485.8192
 156  511.0827
 157  426.4885
 158  404.0636
 159  558.9119
 160  613.8133
 161  488.8356
 162  431.6922
 163  332.7752
 164  373.2964
 165  418.5115
 166  494.1146
 167  483.2352
 168  468.9731
 169  442.2595
 170  485.5035
 171  441.6018
 172  327.9529
 173  246.2937
 174  459.998
 175  340.4271
 176  303.3869
 177  262.6754
 178  390.9768
 179  386.2377
 180  352.9793
 181  363.9702
 182  439.0559
 183  430.2343
 184  306.0871
 185  412.7068
 186  495.8082
 187  449.4849
 188  507.535
 189  501.2582
 190  442.1441
 191  463.6761
 192  428.6082
 193  479.9241
 194  540.668
 195  570.519
 196  539.7039
 197  423.0055
 198  314.4863
 199  347.399
 200  453.8548
 201  457.2129
 202  473.9451
 203  483.8616
 204  401.0094
 205  424.4594
 206  473.7619
 207  512.8391
 208  497.0785
 209  462.9381
 210  511.7961
 211  526.6396
 212  577.7278
 213  530.9903
 214  534.1081
 215  517.3354
 216  369.5443
 217  467.733
 218  620.6795
 219  538.8223
 220  530.541
 221  565.6552
 222  388.3589
 223  363.8919
 224  318.9073
 225  454.2611
 226  331.6876
 227  174.7919
 228  283.9023
 229  324.0553
 230  421.8524
 231  438.4247
 232  408.6988
 233  470.3967
 234  408.8962
 235  357.8893
 236  393.7068
 237  444.0196
 238  551.4512
 239  537.2725
 240  544.1678
 241  473.0946
 242  408.8743
 243  453.8758
 244  410.8944
 245  532.3242
 246  528.2565
 247  556.2614
 248  568.6697
 249  513.2372
 250  480.0849
 251  573.7668
 252  602.6714
 253  530.9594
 254  440.5543
 255  603.6128
 256  487.5003
 257  504.8993
 258  494.9221
 259  499.4977
 260  444.8889
 261  353.9618
 262  413.1246
 263  399.9929
 264  486.9506
 265  494.9738
 266  499.9117
 267  355.2116
 268  373.2299
 269  422.8516
 270  415.7161
 271  472.7654
 272  543.6871
 273  470.1154
 274  416.116
 275  431.3992
 276  525.7387
 277  512.177
 278  458.2417
 279  538.6967
 280  457.1123
 281  426.7556
 282  515.4318
 283  519.6435
 284  463.8967
 285  458.6784
 286  611.7034
 287  552.3895
 288  421.7743
 289  368.7964
 290  453.5723
 291  525.1967
 292  424.502
 293  554.0142
 294  623.277
 295  475.1509
 296  443.4413
 297  386.1329
 298  424.728
 299  409.2777
 300  333.8401
 301  341.953
 302  446.8352
 303  491.8593
 304  530.4174
 305  485.672
 306  518.963
 307  561.8893
 308  441.3723
 309  479.5132
 310  537.5445
 311  502.6264
 312  464.0477
 313  499.5216
 314  470.8607
 315  396.4637
 316  415.0214
 317  420.6777
 318  515.3613
 319  497.8125
 320  382.278
 321  484.946
 322  428.0679
 323  443.405
 324  401.8053
 325  442.0926
 326  460.4833
 327  496.7487
 328  422.2054
 329  381.7183
 330  405.7608
 331  306.3794
 332  289.4012
 333  401.7514
 334  402.4503
 335  425.5262
 336  476.3211
 337  513.9745
 338  583.4097
 339  625.8177
 340  550.6863
 341  538.7723
 342  412.9517
 343  393.8772
 344  436.4931
 345  532.3873
 346  567.1718
 347  511.6836
 348  510.5205
 349  494.1537
 350  485.1742
 351  430.7712
 352  579.4125
 353  526.9633
 354  509.4005
 355  473.6392
 356  435.0613
 357  433.4734
 358  494.9873
 359  543.2665
 360  484.276
 361  543.8679
 362  637.8242
 363  651.1396
 364  521.0173
 365  438.301
 366  436.3711
 367  381.1219
 368  404.0675
 369  363.43
 370  428.9792
 371  346.0543
 372  446.7437
 373  404.8754
 374  379.458
 375  405.9987
 376  416.2683
 377  494.8751
 378  588.3176
 379  581.4048
 380  515.7795
 381  429.5316
 382  588.9951
 383  586.6567
 384  512.1068
 385  561.8668
 386  591.5479
 387  564.7014
 388  492.0545
 389  566.3554
 390  598.4258
 391  619.6144
 392  610.0356
 393  496.8929
 394  509.4074
 395  526.8612
 396  596.5642
 397  552.3643
 398  467.7914
 399  490.861
 400  514.8771
 401  531.0899
 402  403.7714
 403  407.3312
 404  447.4594
 405  356.2439
 406  425.1535
 407  486.5786
 408  496.7024
 409  508.4002
 410  566.2145
 411  609.5768
 412  613.6703
 413  513.2114
 414  415.5681
 415  518.3463
 416  578.6425
 417  550.2834
 418  571.3815
 419  571.9046
 420  594.5411
 421  523.0256
 422  497.7325
 423  540.0424
 424  549.0197
 425  478.3872
 426  372.4749
 427  416.4914
 428  531.4886
 429  479.8205
 430  525.563
 431  467.2003
 432  526.7626
 433  539.4672
 434  553.1522
 435  540.6334
 436  385.205
 437  242.5099
 438  330.2224
 439  483.6419
 440  517.0482
 441  426.8924
 442  338.8394
 443  358.3716
 444  423.0184
 445  387.4178
 446  441.3899
 447  503.3945
 448  519.9442
 449  489.3687
 450  536.3788
 451  633.4485
 452  381.7098
 453  449.1177
 454  518.3972
 455  431.0469
 456  401.6622
 457  496.662
 458  564.3234
 459  627.12
 460  709.9788
 461  675.378
 462  618.858
 463  579.9345
 464  553.2503
 465  551.6442
 466  566.7286
 467  630.2404
 468  618.7655
 469  677.9192
 470  680.1917
 471  599.1716
 472  588.2005
 473  531.7239
 474  492.39
 475  547.9573
 476  494.2094
 477  642.7566
 478  645.8927
 479  655.4795
 480  609.5712
 481  518.8052
 482  637.8467
 483  718.3731
 484  735.6946
 485  709.3505
 486  836.5856
 487  912.4424
 488  997.3289
 489  1167.891
 490  1196.988
 491  1022.155
 492  703.5
 493  568.3189
 494  390.2568
 495  484.644
 496  558.9144
 497  518.0302
 498  569.9052
 499  531.7626
 500  463.9409
 501  508.6296
 502  499.2017
 503  664.9583
 504  706.6213
 505  535.4725
 506  524.3856
 507  525.2973
 508  662.1781
 509  567.1266
 510  461.551
 511  581.3112
