# Input file       =  1183854874.114862_cleaned.dat
# Candidate        =  PSR_0332+5434
# Telescope        =  AR
# Epoch_topo       =  57946.023797625719
# Epoch_bary       =  N/A
# T_sample         =  0.002
# Data Folded      =  7274496
# Data Avg         =  0.0240073172740897
# Data StdDev      =  1.00011453616858 
# Profile Bins     =  512
# Profile Avg      =  341.101282462524 
# Profile StdDev   =  119.210967809822 
# Reduced chi-sqr  =  1.086
# Prob(Noise)      <  0.0884   (~1.4 sigma)
# P_topo (ms)      =  714.480936650693  +/- 0.000229
# P'_topo (s/s)    =  -0                +/- 1.22e-10
# P''_topo (s/s^2) =  0                 +/- 5.42e-14
# P_bary (ms)      =  N/A
# P'_bary (s/s)    =  N/A
# P''_bary (s/s^2) =  N/A
# P_orb (s)        =  N/A
# asin(i)/c (s)    =  N/A
# eccentricity     =  N/A
# w (rad)          =  N/A
# T_peri           =  N/A
######################################################
   0  476.622
   1  482.1042
   2  338.9231
   3  278.1111
   4  379.3866
   5  383.7133
   6  361.6614
   7  421.6472
   8  367.181
   9  344.1316
  10  395.4162
  11  314.8134
  12  336.3167
  13  363.7205
  14  255.5998
  15  292.2635
  16  457.0693
  17  426.1552
  18  416.0298
  19  308.055
  20  310.3947
  21  254.5272
  22  169.3673
  23  257.1391
  24  399.4902
  25  410.3472
  26  327.594
  27  290.0682
  28  326.8447
  29  371.1958
  30  370.5218
  31  276.091
  32  287.4902
  33  359.6516
  34  373.9496
  35  373.8782
  36  322.2404
  37  274.593
  38  282.3245
  39  281.3866
  40  343.6141
  41  365.2905
  42  327.5308
  43  371.0359
  44  403.0743
  45  342.7516
  46  423.7418
  47  422.0751
  48  413.4465
  49  329.4633
  50  227.4637
  51  254.6907
  52  355.1992
  53  338.7988
  54  353.8073
  55  444.3589
  56  447.0793
  57  353.1528
  58  357.8741
  59  326.509
  60  421.6053
  61  300.8683
  62  368.2097
  63  393.953
  64  315.9346
  65  214.2084
  66  309.4579
  67  241.6682
  68  360.3098
  69  462.4002
  70  364.5528
  71  271.3732
  72  235.686
  73  334.3965
  74  357.7726
  75  306.0031
  76  393.504
  77  380.4133
  78  325.3642
  79  268.1413
  80  251.0361
  81  282.1588
  82  309.6391
  83  365.037
  84  511.45
  85  407.6537
  86  358.938
  87  290.7252
  88  354.7777
  89  381.2783
  90  381.0971
  91  357.9961
  92  307.744
  93  221.2104
  94  230.7709
  95  299.542
  96  440.2715
  97  363.9471
  98  210.0894
  99  189.1331
 100  335.5233
 101  314.4453
 102  185.814
 103  285.7213
 104  344.4892
 105  296.1602
 106  319.4587
 107  319.1361
 108  310.1849
 109  274.3331
 110  282.471
 111  308.0168
 112  313.8186
 113  299.2039
 114  288.6318
 115  314.7182
 116  439.3828
 117  385.7917
 118  355.1499
 119  287.3385
 120  225.2691
 121  240.8334
 122  357.8596
 123  364.3464
 124  392.9172
 125  369.3268
 126  272.6281
 127  283.961
 128  239.8249
 129  293.1741
 130  276.3399
 131  347.3418
 132  304.8218
 133  235.2328
 134  252.0857
 135  266.3138
 136  317.4137
 137  206.266
 138  139.9254
 139  228.7307
 140  264.9021
 141  279.4741
 142  352.8485
 143  337.1608
 144  202.9663
 145  239.4903
 146  341.4882
 147  230.2197
 148  278.9075
 149  360.7776
 150  395.4064
 151  352.1055
 152  323.8406
 153  292.6136
 154  310.2379
 155  338.9343
 156  322.6364
 157  429.8979
 158  415.8067
 159  284.4342
 160  333.1631
 161  355.2424
 162  325.4396
 163  368.4384
 164  314.8664
 165  233.3627
 166  155.0759
 167  251.8522
 168  299.8517
 169  313.5593
 170  378.3087
 171  575.2847
 172  659.1338
 173  668.2206
 174  732.1711
 175  869.9251
 176  927.8456
 177  768.0336
 178  664.1081
 179  468.6537
 180  311.9956
 181  306.1646
 182  237.3239
 183  95.2115
 184  242.9653
 185  268.8804
 186  281.2361
 187  223.6173
 188  279.5094
 189  449.3742
 190  478.8376
 191  453.7517
 192  398.6749
 193  377.8204
 194  259.9272
 195  166.0454
 196  299.5575
 197  352.8413
 198  280.2176
 199  257.6521
 200  244.188
 201  415.3528
 202  385.3506
 203  174.577
 204  199.2794
 205  284.0592
 206  247.1669
 207  305.4085
 208  432.7326
 209  390.4586
 210  315.4625
 211  294.2186
 212  356.1089
 213  285.2812
 214  232.6159
 215  178.7708
 216  238.927
 217  387.5315
 218  315.2451
 219  130.9693
 220  161.0469
 221  339.3911
 222  284.6782
 223  409.9055
 224  415.4729
 225  258.8581
 226  281.7632
 227  264.488
 228  249.32
 229  227.7479
 230  251.2299
 231  360.2108
 232  215.4042
 233  265.5302
 234  304.8282
 235  252.2403
 236  361.744
 237  300.0762
 238  224.7028
 239  219.8702
 240  200.1101
 241  245.7709
 242  305.0703
 243  342.9991
 244  366.9586
 245  387.857
 246  410.7137
 247  372.8817
 248  389.8173
 249  407.1122
 250  271.3456
 251  359.9086
 252  387.129
 253  346.0764
 254  245.8147
 255  238.0436
 256  308.8559
 257  474.63
 258  322.5894
 259  400.9588
 260  473.4925
 261  393.4093
 262  273.4167
 263  337.3296
 264  359.6663
 265  412.614
 266  391.8693
 267  505.0561
 268  372.0952
 269  326.341
 270  341.4678
 271  323.3215
 272  285.5538
 273  385.4101
 274  317.8402
 275  439.3694
 276  467.101
 277  337.5312
 278  392.6233
 279  388.6265
 280  353.0904
 281  352.4602
 282  378.5306
 283  354.4882
 284  456.6433
 285  435.1094
 286  413.364
 287  456.8459
 288  456.7323
 289  416.3695
 290  268.5754
 291  246.704
 292  361.7577
 293  412.789
 294  436.55
 295  364.7461
 296  350.0796
 297  386.2847
 298  403.2418
 299  393.0933
 300  494.3341
 301  365.8907
 302  264.551
 303  265.4305
 304  345.2384
 305  373.1709
 306  363.5282
 307  402.9763
 308  449.4007
 309  345.2549
 310  406.0961
 311  363.3566
 312  279.7782
 313  329.0416
 314  260.8327
 315  195.9351
 316  278.3929
 317  350.4094
 318  340.2706
 319  407.4746
 320  296.3534
 321  141.5377
 322  220.6538
 323  270.9543
 324  253.4945
 325  229.0148
 326  274.4116
 327  310.5874
 328  259.4361
 329  257.428
 330  374.7327
 331  188.5318
 332  189.9299
 333  337.9046
 334  468.2337
 335  395.1532
 336  304.136
 337  172.6166
 338  198.3738
 339  402.494
 340  316.4551
 341  339.1354
 342  251.2553
 343  247.3911
 344  288.2507
 345  335.7414
 346  288.8333
 347  275.0396
 348  372.7097
 349  441.3564
 350  428.331
 351  338.5787
 352  351.544
 353  347.1662
 354  300.8463
 355  369.5084
 356  253.8383
 357  228.5359
 358  348.0257
 359  427.9477
 360  532.17
 361  460.1082
 362  336.4954
 363  376.9081
 364  306.1882
 365  277.1173
 366  371.4446
 367  362.2502
 368  291.2773
 369  263.6403
 370  369.6751
 371  362.5556
 372  354.8509
 373  230.4308
 374  377.1137
 375  426.0475
 376  444.5856
 377  357.8376
 378  262.7631
 379  291.9916
 380  235.8232
 381  431.4287
 382  499.332
 383  416.5046
 384  368.2077
 385  426.8436
 386  511.0273
 387  443.7599
 388  398.3816
 389  467.4272
 390  432.8464
 391  422.0572
 392  525.0679
 393  409.9328
 394  389.8391
 395  311.1188
 396  400.4252
 397  358.298
 398  195.4318
 399  262.4469
 400  421.5516
 401  490.7536
 402  385.0226
 403  375.7844
 404  324.1838
 405  284.9323
 406  264.7476
 407  283.6531
 408  458.8246
 409  381.6576
 410  269.2941
 411  369.5058
 412  351.3506
 413  291.1854
 414  375.8571
 415  482.3705
 416  397.7008
 417  374.6106
 418  285.9716
 419  243.4534
 420  294.6315
 421  300.7774
 422  385.6494
 423  405.1637
 424  397.8705
 425  424.6621
 426  412.5863
 427  302.5526
 428  305.2054
 429  341.003
 430  458.4593
 431  433.3791
 432  440.9084
 433  476.5986
 434  478.8787
 435  401.2807
 436  325.1202
 437  284.8025
 438  403.105
 439  374.5887
 440  394.2562
 441  340.732
 442  275.2997
 443  342.776
 444  389.1577
 445  408.6315
 446  508.9376
 447  439.7913
 448  348.5092
 449  314.4585
 450  357.4038
 451  335.9001
 452  308.593
 453  356.5124
 454  396.2488
 455  345.2882
 456  397.4058
 457  366.8194
 458  335.6114
 459  263.5878
 460  256.6103
 461  208.9787
 462  241.0154
 463  336.1182
 464  396.466
 465  349.9619
 466  254.6905
 467  316.7538
 468  372.6898
 469  383.9568
 470  331.7424
 471  335.1869
 472  384.8101
 473  295.9435
 474  225.819
 475  221.6303
 476  309.9825
 477  331.8466
 478  303.7245
 479  323.4687
 480  292.3366
 481  361.2001
 482  320.5609
 483  289.1446
 484  316.4359
 485  342.0875
 486  396.0477
 487  427.2877
 488  373.9795
 489  326.1618
 490  398.5167
 491  317.6627
 492  268.1932
 493  268.0839
 494  346.3834
 495  271.2571
 496  361.0297
 497  312.823
 498  178.9717
 499  410.748
 500  437.688
 501  412.19
 502  300.997
 503  406.4849
 504  383.7064
 505  421.2002
 506  458.9038
 507  366.7384
 508  298.6154
 509  321.9883
 510  360.0224
 511  349.5494
