# Input file       =  1183768721.108474_cleaned.dat
# Candidate        =  PSR_0332+5434
# Telescope        =  AR
# Epoch_topo       =  57945.026656348076
# Epoch_bary       =  N/A
# T_sample         =  0.002
# Data Folded      =  7208960
# Data Avg         =  0.0327590415077239
# Data StdDev      =  1.00007600743151 
# Profile Bins     =  512
# Profile Avg      =  461.252906755155 
# Profile StdDev   =  118.668194772708 
# Reduced chi-sqr  =  1.009
# Prob(Noise)      <  0.434   (~0.2 sigma)
# P_topo (ms)      =  714.481635480221  +/- 0.000183
# P'_topo (s/s)    =  -0                +/- 9.84e-11
# P''_topo (s/s^2) =  0                 +/- 4.42e-14
# P_bary (ms)      =  N/A
# P'_bary (s/s)    =  N/A
# P''_bary (s/s^2) =  N/A
# P_orb (s)        =  N/A
# asin(i)/c (s)    =  N/A
# eccentricity     =  N/A
# w (rad)          =  N/A
# T_peri           =  N/A
######################################################
   0  489.4431
   1  538.9971
   2  470.5298
   3  453.8104
   4  485.6786
   5  498.1546
   6  510.1999
   7  513.88
   8  495.2496
   9  451.7761
  10  408.8856
  11  450.4667
  12  510.633
  13  496.6405
  14  540.4735
  15  491.6904
  16  511.4572
  17  621.6588
  18  561.3334
  19  514.5918
  20  589.958
  21  473.5937
  22  493.637
  23  536.1087
  24  513.8748
  25  467.4889
  26  421.7863
  27  408.9849
  28  498.4457
  29  478.6786
  30  425.7807
  31  437.9518
  32  443.7908
  33  441.4483
  34  412.3026
  35  498.3654
  36  497.7746
  37  519.1795
  38  530.73
  39  524.915
  40  532.6378
  41  529.5253
  42  506.5791
  43  500.7211
  44  361.5213
  45  368.0581
  46  466.721
  47  517.9016
  48  538.8319
  49  499.5345
  50  421.3826
  51  456.4802
  52  500.6538
  53  477.2457
  54  454.2219
  55  506.1284
  56  539.4538
  57  464.0714
  58  387.8093
  59  481.9261
  60  480.4761
  61  518.2247
  62  586.5085
  63  525.5638
  64  418.5027
  65  377.5609
  66  485.0298
  67  508.9066
  68  382.4868
  69  380.1073
  70  333.3848
  71  455.9303
  72  555.8114
  73  570.1522
  74  518.7578
  75  474.1525
  76  491.2812
  77  484.5963
  78  473.2082
  79  511.581
  80  488.3027
  81  512.8153
  82  492.2569
  83  390.1487
  84  328.2224
  85  512.0253
  86  628.008
  87  556.0089
  88  567.2348
  89  595.4311
  90  494.3659
  91  483.0403
  92  535.749
  93  465.8567
  94  471.1425
  95  499.2266
  96  519.5397
  97  404.8677
  98  402.9847
  99  397.0116
 100  399.3294
 101  476.3326
 102  530.4725
 103  519.7024
 104  525.2868
 105  470.1122
 106  557.2634
 107  509.4042
 108  395.6753
 109  288.7938
 110  367.3204
 111  500.2787
 112  437.3697
 113  377.9705
 114  451.3168
 115  571.5609
 116  481.3124
 117  349.2128
 118  398.3051
 119  349.3698
 120  405.9985
 121  483.0126
 122  509.4449
 123  486.2433
 124  444.3038
 125  435.3263
 126  402.5614
 127  357.9739
 128  365.4311
 129  506.8153
 130  556.0173
 131  495.3445
 132  474.0875
 133  448.653
 134  457.0292
 135  362.5118
 136  406.6489
 137  429.4617
 138  422.2247
 139  501.8839
 140  512.3712
 141  460.2845
 142  433.8789
 143  539.5541
 144  592.6724
 145  545.524
 146  458.9859
 147  567.8124
 148  534.5569
 149  531.8788
 150  458.2428
 151  368.0351
 152  432.7288
 153  480.8439
 154  537.6793
 155  457.9072
 156  458.3777
 157  334.7511
 158  401.4713
 159  447.2979
 160  411.2739
 161  420.6171
 162  417.0499
 163  394.7133
 164  355.0689
 165  456.922
 166  499.8174
 167  522.6705
 168  574.7455
 169  537.5445
 170  389.346
 171  507.8577
 172  589.1776
 173  563.8713
 174  397.4941
 175  419.6808
 176  477.9199
 177  430.6423
 178  432.4238
 179  513.6138
 180  494.9863
 181  590.126
 182  509.2516
 183  424.317
 184  396.1607
 185  436.1769
 186  487.8345
 187  540.6741
 188  570.0165
 189  621.1839
 190  508.2158
 191  464.1795
 192  394.0997
 193  375.2003
 194  393.4882
 195  377.2115
 196  444.0971
 197  581.9889
 198  433.3277
 199  474.6365
 200  457.6582
 201  387.6514
 202  286.4342
 203  288.3539
 204  366.4893
 205  462.76
 206  466.5447
 207  456.2939
 208  400.3247
 209  375.2362
 210  430.2943
 211  478.2387
 212  579.1597
 213  480.4879
 214  405.3597
 215  497.4118
 216  354.0748
 217  443.4456
 218  589.6668
 219  474.911
 220  475.398
 221  520.6136
 222  490.4316
 223  497.6395
 224  375.189
 225  402.6295
 226  423.0084
 227  384.4964
 228  461.2579
 229  474.8436
 230  514.7684
 231  423.4597
 232  348.7923
 233  370.4159
 234  330.9802
 235  381.4993
 236  397.6488
 237  431.6967
 238  315.0779
 239  410.0815
 240  429.7901
 241  400.977
 242  528.1777
 243  593.252
 244  581.1043
 245  660.6831
 246  880.3331
 247  1088.3
 248  1053.075
 249  1023.523
 250  891.8542
 251  527.7481
 252  409.4001
 253  429.037
 254  428.3812
 255  448.1224
 256  414.8992
 257  460.4785
 258  468.7381
 259  471.0031
 260  441.4492
 261  516.9717
 262  561.2926
 263  547.7643
 264  512.3323
 265  490.9094
 266  392.9838
 267  353.0566
 268  387.3802
 269  384.5934
 270  477.9078
 271  435.0751
 272  475.6051
 273  300.339
 274  271.2632
 275  423.3321
 276  423.5875
 277  446.4553
 278  422.8765
 279  487.7272
 280  434.3813
 281  434.012
 282  339.2892
 283  358.6139
 284  460.1907
 285  457.2206
 286  401.4753
 287  425.7636
 288  368.1264
 289  290.8205
 290  377.9732
 291  479.5279
 292  511.0251
 293  327.6856
 294  384.526
 295  517.0946
 296  529.3316
 297  542.9591
 298  412.4997
 299  361.0976
 300  392.8445
 301  467.5561
 302  499.0992
 303  463.2496
 304  395.2388
 305  385.6694
 306  484.3855
 307  511.2915
 308  458.6766
 309  424.1785
 310  388.7747
 311  344.2298
 312  304.0761
 313  375.0242
 314  458.8578
 315  418.4654
 316  322.9451
 317  338.1129
 318  428.6676
 319  527.9047
 320  463.8246
 321  551.0168
 322  509.9195
 323  481.0763
 324  444.8349
 325  363.5911
 326  366.7997
 327  345.4325
 328  354.1783
 329  420.6799
 330  508.5258
 331  364.272
 332  427.9669
 333  526.9354
 334  499.6075
 335  438.1226
 336  505.8248
 337  589.3559
 338  514.8935
 339  392.4655
 340  487.6711
 341  516.7674
 342  487.6748
 343  551.4648
 344  533.169
 345  441.8602
 346  432.1027
 347  377.0467
 348  343.3079
 349  326.2968
 350  417.994
 351  423.745
 352  446.9022
 353  539.5297
 354  606.7602
 355  458.8468
 356  514.9421
 357  616.3343
 358  561.5143
 359  538.1193
 360  475.2754
 361  502.8268
 362  510.4138
 363  494.2657
 364  463.7843
 365  443.9016
 366  510.2298
 367  428.1177
 368  373.0799
 369  342.736
 370  352.3146
 371  338.3825
 372  456.8524
 373  450.6767
 374  338.0308
 375  312.912
 376  360.9198
 377  416.6094
 378  394.7218
 379  541.0228
 380  475.0739
 381  493.5418
 382  376.4441
 383  375.8224
 384  481.7833
 385  593.9886
 386  519.1311
 387  446.7666
 388  360.0352
 389  445.486
 390  451.0476
 391  403.4594
 392  527.7228
 393  517.0164
 394  440.404
 395  459.1904
 396  433.5985
 397  475.5854
 398  399.0499
 399  501.6877
 400  495.7687
 401  461.6778
 402  357.9964
 403  476.1618
 404  439.1978
 405  344.7344
 406  452.08
 407  385.9838
 408  412.8578
 409  496.076
 410  381.7023
 411  545.4636
 412  574.0255
 413  519.0579
 414  466.3224
 415  373.7253
 416  436.8604
 417  431.0632
 418  400.6234
 419  554.4746
 420  548.8743
 421  506.7026
 422  510.293
 423  415.2769
 424  570.3847
 425  499.384
 426  441.2084
 427  434.5852
 428  444.9549
 429  437.1095
 430  399.9001
 431  414.9579
 432  450.8157
 433  458.476
 434  435.3793
 435  434.7338
 436  472.7434
 437  543.0225
 438  444.2033
 439  308.1155
 440  367.7002
 441  296.4028
 442  411.4866
 443  445.9039
 444  416.327
 445  470.2582
 446  474.5839
 447  413.6581
 448  409.2275
 449  398.5554
 450  417.5532
 451  441.0801
 452  438.6332
 453  461.3969
 454  340.3736
 455  323.0536
 456  372.0619
 457  351.8748
 458  438.1554
 459  455.2856
 460  456.4783
 461  478.5642
 462  535.0417
 463  555.9549
 464  557.5801
 465  439.5399
 466  435.0021
 467  419.8089
 468  623.9449
 469  548.9477
 470  405.0668
 471  523.1298
 472  497.6277
 473  508.1429
 474  541.1918
 475  473.739
 476  452.333
 477  418.6581
 478  469.2057
 479  495.0261
 480  484.8771
 481  513.3075
 482  485.692
 483  433.5249
 484  385.5869
 485  427.8821
 486  412.4498
 487  401.2679
 488  338.7381
 489  287.3005
 490  434.6259
 491  427.4159
 492  407.9948
 493  543.6564
 494  497.3428
 495  512.6519
 496  459.4144
 497  413.9986
 498  453.1441
 499  449.3636
 500  456.9871
 501  421.6659
 502  400.5309
 503  321.455
 504  433.0673
 505  461.7411
 506  465.9862
 507  421.5746
 508  442.6394
 509  449.8632
 510  520.4949
 511  499.0175
