# Input file       =  1183884525.141243_cleaned.dat
# Candidate        =  PSR_0332+5434
# Telescope        =  AR
# Epoch_topo       =  57946.366980801424
# Epoch_bary       =  N/A
# T_sample         =  0.002
# Data Folded      =  7340032
# Data Avg         =  0.0183327340188811
# Data StdDev      =  1.0000829480908  
# Profile Bins     =  512
# Profile Avg      =  262.812308361188 
# Profile StdDev   =  119.742968003539 
# Reduced chi-sqr  =  1.350
# Prob(Noise)      <  1.95e-07   (~5.1 sigma)
# P_topo (ms)      =  714.481041552869  +/- 0.000503
# P'_topo (s/s)    =  -0                +/- 2.65e-10
# P''_topo (s/s^2) =  0                 +/- 1.17e-13
# P_bary (ms)      =  N/A
# P'_bary (s/s)    =  N/A
# P''_bary (s/s^2) =  N/A
# P_orb (s)        =  N/A
# asin(i)/c (s)    =  N/A
# eccentricity     =  N/A
# w (rad)          =  N/A
# T_peri           =  N/A
######################################################
   0  774.5173
   1  861.5983
   2  784.2717
   3  522.3599
   4  306.2741
   5  165.4516
   6  238.1564
   7  404.6984
   8  323.1818
   9  308.7359
  10  158.5674
  11  302.4264
  12  486.3974
  13  295.2874
  14  249.6451
  15  255.7998
  16  298.0822
  17  308.9913
  18  245.5755
  19  306.5105
  20  281.1674
  21  178.198
  22  115.6316
  23  263.4477
  24  262.5897
  25  275.4227
  26  233.4487
  27  268.0617
  28  268.3821
  29  139.2749
  30  121.8211
  31  162.2058
  32  259.4152
  33  353.3158
  34  197.5438
  35  52.44672
  36  117.3838
  37  189.284
  38  289.8789
  39  336.4179
  40  348.2405
  41  146.0106
  42  201.3449
  43  325.6708
  44  266.8582
  45  179.9473
  46  159.3823
  47  201.645
  48  216.6555
  49  233.188
  50  179.4091
  51  263.3522
  52  252.9446
  53  230.4763
  54  205.3751
  55  210.9745
  56  312.267
  57  354.7562
  58  123.7838
  59  99.04298
  60  261.0122
  61  347.04
  62  225.0258
  63  117.2392
  64  139.6495
  65  196.3458
  66  279.9343
  67  305.8298
  68  291.3481
  69  244.0259
  70  353.7145
  71  324.8273
  72  318.5642
  73  297.2253
  74  404.7512
  75  405.3049
  76  216.6794
  77  304.4639
  78  360.2453
  79  309.1282
  80  260.3421
  81  267.8064
  82  334.0612
  83  397.1139
  84  356.4327
  85  325.0305
  86  245.0003
  87  152.2791
  88  127.4498
  89  129.7143
  90  240.6779
  91  134.8588
  92  14.63307
  93  47.08625
  94  282.5446
  95  236.1078
  96  139.7125
  97  159.9482
  98  177.3929
  99  195.0397
 100  242.487
 101  334.47
 102  296.0228
 103  257.2217
 104  119.8192
 105  225.7658
 106  316.0172
 107  299.5476
 108  202.156
 109  235.2621
 110  299.1128
 111  300.4499
 112  212.0401
 113  301.3293
 114  493.4624
 115  324.9801
 116  198.5643
 117  220.9526
 118  312.7947
 119  362.8911
 120  218.702
 121  139.1479
 122  192.7391
 123  345.1872
 124  383.9988
 125  224.6653
 126  210.7588
 127  193.1099
 128  224.8906
 129  212.6233
 130  303.659
 131  388.2491
 132  339.1048
 133  333.3628
 134  300.2432
 135  290.0703
 136  171.1401
 137  117.4028
 138  268.0803
 139  303.6642
 140  188.7382
 141  289.6507
 142  320.9347
 143  208.1251
 144  213.0149
 145  144.2147
 146  121.9677
 147  219.62
 148  190.3794
 149  201.7903
 150  326.9295
 151  224.3525
 152  205.4272
 153  295.662
 154  304.9146
 155  213.3883
 156  78.32001
 157  104.8521
 158  161.3737
 159  300.9847
 160  313.9028
 161  351.9537
 162  253.5784
 163  254.6775
 164  271.5555
 165  229.2744
 166  221.7432
 167  192.8767
 168  323.8163
 169  361.8304
 170  265.4758
 171  291.0837
 172  354.3232
 173  455.9813
 174  250.9654
 175  296.0256
 176  391.0143
 177  293.487
 178  258.8153
 179  221.7442
 180  385.852
 181  220.2889
 182  245.622
 183  167.2197
 184  223.1445
 185  275.7969
 186  214.2763
 187  240.6628
 188  305.8874
 189  189.9275
 190  219.3179
 191  118.9373
 192  53.73727
 193  218.5797
 194  316.428
 195  204.3609
 196  191.0046
 197  291.6082
 198  187.5145
 199  185.6198
 200  109.4756
 201  42.94078
 202  129.6544
 203  266.1952
 204  212.8523
 205  280.1699
 206  216.5005
 207  79.97237
 208  130.9713
 209  206.6068
 210  127.8661
 211  126.0806
 212  134.2469
 213  165.203
 214  184.7793
 215  220.7661
 216  333.6125
 217  322.2573
 218  270.0063
 219  249.8295
 220  290.2869
 221  248.2598
 222  219.503
 223  227.724
 224  269.0441
 225  264.4155
 226  193.9632
 227  175.207
 228  155.5105
 229  270.2254
 230  234.1261
 231  152.1043
 232  152.3501
 233  14.06794
 234  90.10384
 235  278.3159
 236  327.0033
 237  171.4344
 238  237.7929
 239  289.1214
 240  290.4414
 241  264.2749
 242  231.8463
 243  168.911
 244  154.9624
 245  178.2127
 246  196.649
 247  97.56814
 248  57.61771
 249  215.8447
 250  160.0015
 251  163.6384
 252  276.2724
 253  332.306
 254  168.4651
 255  183.0497
 256  303.887
 257  362.7276
 258  387.2375
 259  488.8139
 260  363.612
 261  282.2976
 262  283.3211
 263  259.1131
 264  216.052
 265  248.7509
 266  235.1437
 267  248.2821
 268  179.6695
 269  200.414
 270  163.3763
 271  264.3571
 272  333.1021
 273  184.1856
 274  142.8816
 275  215.5601
 276  287.6998
 277  252.9567
 278  293.8141
 279  295.0904
 280  222.0907
 281  310.7198
 282  274.0026
 283  299.5358
 284  387.0491
 285  411.7568
 286  235.1027
 287  279.7106
 288  351.2067
 289  362.7032
 290  348.6935
 291  277.4699
 292  230.515
 293  157.3101
 294  225.1808
 295  258.6544
 296  262.2964
 297  328.7052
 298  189.6826
 299  264.7105
 300  312.9579
 301  225.7785
 302  255.5448
 303  264.506
 304  305.5406
 305  339.7464
 306  254.4616
 307  233.719
 308  258.6332
 309  378.4933
 310  409.964
 311  232.4012
 312  292.6929
 313  234.5577
 314  280.7001
 315  255.4322
 316  184.7627
 317  281.7314
 318  379.5191
 319  317.2788
 320  380.3267
 321  409.7174
 322  450.0285
 323  397.1908
 324  363.3693
 325  329.7749
 326  177.3462
 327  254.8565
 328  373.2854
 329  310.6843
 330  358.282
 331  483.1033
 332  364.4341
 333  375.0974
 334  351.9528
 335  269.0022
 336  158.5049
 337  136.1142
 338  224.7988
 339  283.9453
 340  297.5167
 341  246.2846
 342  253.5836
 343  355.9696
 344  349.8539
 345  250.1387
 346  305.3974
 347  286.4529
 348  299.9626
 349  278.0125
 350  303.7119
 351  197.3682
 352  248.1005
 353  244.4201
 354  121.8809
 355  126.3814
 356  223.0779
 357  268.0399
 358  236.4212
 359  245.2346
 360  148.2494
 361  222.0869
 362  257.2544
 363  128.8628
 364  137.6235
 365  46.0094
 366  108.9237
 367  211.1008
 368  184.7245
 369  179.7725
 370  269.7449
 371  170.7178
 372  157.0324
 373  303.118
 374  289.703
 375  379.7279
 376  309.7307
 377  283.2834
 378  244.2785
 379  309.7962
 380  302.0823
 381  135.7897
 382  139.4172
 383  273.5246
 384  368.6427
 385  283.17
 386  354.5252
 387  209.6822
 388  206.3856
 389  225.584
 390  321.785
 391  357.7112
 392  381.7237
 393  334.3757
 394  309.312
 395  215.5118
 396  229.0137
 397  219.3665
 398  167.7478
 399  242.2404
 400  258.7413
 401  183.9012
 402  217.2767
 403  335.4683
 404  310.9412
 405  290.663
 406  378.4678
 407  372.0848
 408  413.4501
 409  377.4003
 410  237.1568
 411  295.7806
 412  148.2193
 413  286.0167
 414  273.4498
 415  348.284
 416  322.2813
 417  282.6392
 418  158.1436
 419  57.16785
 420  75.32632
 421  108.2437
 422  233.5488
 423  295.0508
 424  306.8937
 425  170.3634
 426  192.7646
 427  234.7233
 428  246.6873
 429  255.9021
 430  232.1878
 431  266.5331
 432  227.0491
 433  134.1639
 434  147.4706
 435  286.0367
 436  236.4569
 437  214.0193
 438  253.3546
 439  292.8149
 440  285.1143
 441  283.3375
 442  187.3393
 443  211.2091
 444  111.8253
 445  195.3892
 446  236.3477
 447  268.0224
 448  258.0351
 449  163.5751
 450  209.1693
 451  317.146
 452  186.0756
 453  131.1571
 454  278.4695
 455  312.0321
 456  265.2531
 457  159.6567
 458  164.7587
 459  208.8078
 460  258.6413
 461  305.1089
 462  265.3723
 463  296.1443
 464  304.0082
 465  324.7336
 466  255.8669
 467  374.7492
 468  332.1817
 469  295.2117
 470  327.6735
 471  336.089
 472  427.6817
 473  266.9374
 474  223.8202
 475  278.0589
 476  273.3207
 477  317.1864
 478  355.9816
 479  228.8759
 480  184.8489
 481  186.9969
 482  212.0476
 483  324.7663
 484  317.8055
 485  355.7293
 486  224.4907
 487  255.7365
 488  312.1766
 489  353.5387
 490  354.7731
 491  276.5108
 492  399.8698
 493  326.9109
 494  255.84
 495  313.6654
 496  411.7165
 497  506.5839
 498  528.1384
 499  403.9281
 500  495.1179
 501  387.257
 502  295.7868
 503  443.9879
 504  471.725
 505  446.0398
 506  333.5432
 507  295.5735
 508  371.3584
 509  525.1021
 510  711.0118
 511  812.9332
