# Input file       =  1183165821.120904_cleaned.dat
# Candidate        =  PSR_0332+5434
# Telescope        =  AR
# Epoch_topo       =  57938.048647232688
# Epoch_bary       =  N/A
# T_sample         =  0.002
# Data Folded      =  7405568
# Data Avg         =  0.0237573104823456
# Data StdDev      =  1.00008670251355 
# Profile Bins     =  512
# Profile Avg      =  343.908429843863 
# Profile StdDev   =  120.276798423647 
# Reduced chi-sqr  =  1.693
# Prob(Noise)      <  1.23e-20   (~9.2 sigma)
# P_topo (ms)      =  714.486805663342  +/- 0.000244
# P'_topo (s/s)    =  -0                +/- 1.27e-10
# P''_topo (s/s^2) =  0                 +/- 5.57e-14
# P_bary (ms)      =  N/A
# P'_bary (s/s)    =  N/A
# P''_bary (s/s^2) =  N/A
# P_orb (s)        =  N/A
# asin(i)/c (s)    =  N/A
# eccentricity     =  N/A
# w (rad)          =  N/A
# T_peri           =  N/A
######################################################
   0  478.461
   1  413.002
   2  366.7572
   3  373.0373
   4  320.4694
   5  300.0119
   6  322.0602
   7  180.0245
   8  311.2416
   9  344.9837
  10  256.5502
  11  193.3601
  12  279.1941
  13  404.9815
  14  316.4052
  15  355.5388
  16  255.3772
  17  358.1027
  18  361.6122
  19  323.8925
  20  285.6675
  21  323.1203
  22  371.1095
  23  320.2849
  24  417.3904
  25  396.9236
  26  292.3743
  27  166.2015
  28  215.9046
  29  256.9678
  30  286.962
  31  336.4705
  32  235.7833
  33  219.6763
  34  297.5815
  35  214.655
  36  229.214
  37  343.9158
  38  498.4203
  39  453.8611
  40  364.2119
  41  283.8289
  42  435.652
  43  436.1906
  44  369.8486
  45  451.1675
  46  377.4001
  47  337.8554
  48  269.3524
  49  392.9306
  50  422.7669
  51  462.7209
  52  348.7588
  53  360.627
  54  216.0023
  55  251.5273
  56  224.6445
  57  268.317
  58  256.2731
  59  246.692
  60  349.5717
  61  311.0617
  62  316.5215
  63  201.9547
  64  198.9884
  65  301.6942
  66  301.3918
  67  343.8399
  68  356.7906
  69  350.2325
  70  433.3739
  71  416.5368
  72  279.8206
  73  332.4271
  74  379.0353
  75  315.687
  76  349.0905
  77  277.1267
  78  414.0015
  79  410.0734
  80  342.9161
  81  345.6316
  82  365.6707
  83  327.2857
  84  223.2807
  85  343.8609
  86  373.5039
  87  251.6104
  88  192.8335
  89  321.9472
  90  355.4043
  91  400.9005
  92  405.9848
  93  355.4959
  94  392.7254
  95  390.4596
  96  272.7323
  97  331.4879
  98  379.5952
  99  373.7133
 100  331.9427
 101  267.9751
 102  313.911
 103  336.9164
 104  360.7231
 105  401.1618
 106  336.5205
 107  350.8009
 108  350.6699
 109  310.2294
 110  351.4088
 111  293.2764
 112  300.274
 113  320.6939
 114  357.4831
 115  332.848
 116  254.2661
 117  241.8105
 118  298.4608
 119  326.8646
 120  287.5112
 121  281.3144
 122  198.4561
 123  303.5341
 124  349.6884
 125  234.1169
 126  362.4605
 127  483.3436
 128  497.2863
 129  305.4144
 130  263.2004
 131  225.8808
 132  233.6767
 133  352.6833
 134  354.111
 135  453.5113
 136  343.6481
 137  303.0463
 138  359.1814
 139  329.5819
 140  283.0097
 141  215.9562
 142  208.8941
 143  369.8671
 144  375.4178
 145  422.494
 146  423.4993
 147  426.8802
 148  454.3302
 149  463.4614
 150  437.0835
 151  354.1629
 152  374.3975
 153  304.6583
 154  284.2617
 155  342.108
 156  375.7005
 157  466.4831
 158  438.9717
 159  444.4445
 160  390.5928
 161  373.5395
 162  325.9023
 163  395.2084
 164  356.6837
 165  296.2119
 166  299.332
 167  316.4166
 168  284.6188
 169  228.1317
 170  269.2668
 171  351.9756
 172  268.0937
 173  316.2212
 174  451.525
 175  441.2461
 176  361.0426
 177  392.5238
 178  438.092
 179  362.7908
 180  324.2402
 181  421.8218
 182  335.5062
 183  234.5942
 184  363.8193
 185  353.929
 186  318.1619
 187  255.8146
 188  355.5663
 189  323.724
 190  286.862
 191  154.4033
 192  210.8265
 193  299.8808
 194  299.9222
 195  320.3893
 196  328.8272
 197  343.1426
 198  272.3186
 199  220.7395
 200  221.5549
 201  234.2693
 202  369.1196
 203  285.0458
 204  191.1058
 205  246.5899
 206  338.6115
 207  336.4704
 208  316.2397
 209  388.0737
 210  382.0127
 211  398.679
 212  299.9086
 213  321.4338
 214  294.3164
 215  327.3906
 216  377.3036
 217  371.7036
 218  354.097
 219  330.0666
 220  351.7578
 221  176.0589
 222  262.5064
 223  381.1309
 224  355.5834
 225  347.512
 226  358.3484
 227  429.7157
 228  368.1895
 229  332.3289
 230  218.8712
 231  284.6392
 232  249.607
 233  280.0421
 234  209.5944
 235  179.8074
 236  141.0168
 237  300.3884
 238  209.722
 239  216.3629
 240  371.6641
 241  370.5893
 242  361.4409
 243  327.0018
 244  227.8643
 245  177.6752
 246  244.9249
 247  334.2931
 248  240.0164
 249  234.6466
 250  260.9558
 251  330.182
 252  418.4934
 253  440.1079
 254  347.8555
 255  316.4311
 256  276
 257  280.8865
 258  319.9929
 259  341.4808
 260  454.5233
 261  448.185
 262  355.8718
 263  312.9344
 264  370.5717
 265  353.1206
 266  355.7187
 267  367.9649
 268  360.8899
 269  278.3424
 270  296.9844
 271  357.6833
 272  332.1816
 273  316.7129
 274  264.9578
 275  203.6817
 276  260.8718
 277  243.4801
 278  306.6836
 279  295.5619
 280  207.014
 281  206.7695
 282  220.2468
 283  337.4793
 284  370.6115
 285  324.0702
 286  363.6735
 287  353.4229
 288  234.3416
 289  194.7934
 290  246.0967
 291  208.8848
 292  328.2768
 293  394.4283
 294  454.9467
 295  347.9284
 296  327.9293
 297  361.9282
 298  443.853
 299  315.714
 300  287.5179
 301  287.1998
 302  341.7542
 303  411.8242
 304  420.4442
 305  448.1111
 306  442.9447
 307  398.1436
 308  434.315
 309  399.3577
 310  422.0421
 311  319.9017
 312  458.2977
 313  328.9704
 314  393.7509
 315  472.0674
 316  469.8376
 317  354.3754
 318  507.3584
 319  548.0716
 320  511.3067
 321  646.321
 322  804.8262
 323  827.8162
 324  1032.411
 325  1208.477
 326  1285.031
 327  1163.884
 328  1018.006
 329  587.4285
 330  451.6347
 331  374.3416
 332  389.9326
 333  338.2885
 334  418.7574
 335  384.9083
 336  195.4699
 337  317.4574
 338  421.6186
 339  410.9296
 340  372.1255
 341  356.1444
 342  415.6709
 343  390.3831
 344  367.8131
 345  323.3466
 346  237.3033
 347  287.5239
 348  285.012
 349  231.1692
 350  276.8618
 351  288.2747
 352  299.3856
 353  354.5648
 354  322.4396
 355  398.0238
 356  362.2504
 357  409.3088
 358  404.0316
 359  345.933
 360  434.4331
 361  404.8414
 362  367.0411
 363  277.0412
 364  268.1364
 365  285.7166
 366  325.8512
 367  381.5431
 368  415.8976
 369  420.0262
 370  475.4474
 371  361.889
 372  241.5731
 373  226.5911
 374  279.1465
 375  262.8332
 376  434.183
 377  512.3353
 378  251.3012
 379  119.6311
 380  263.4321
 381  313.4951
 382  380.5833
 383  379.6373
 384  319.4209
 385  276.7398
 386  261.5024
 387  304.4931
 388  290.9919
 389  293.2153
 390  324.6076
 391  287.2715
 392  348.5863
 393  339.6754
 394  326.1649
 395  390.7138
 396  308.5663
 397  411.9077
 398  372.9012
 399  363.5684
 400  427.6871
 401  330.5777
 402  439.1979
 403  325.9475
 404  212.0399
 405  334.5613
 406  315.1013
 407  381.3162
 408  345.3976
 409  397.0149
 410  413.6988
 411  344.6704
 412  304.2723
 413  336.0504
 414  325.5414
 415  269.3605
 416  392.0588
 417  426.9355
 418  404.0961
 419  323.9834
 420  353.2012
 421  338.0196
 422  303.1642
 423  358.7108
 424  435.2407
 425  444.8596
 426  344.6324
 427  280.6946
 428  234.6026
 429  328.7992
 430  381.2684
 431  347.9335
 432  372.7202
 433  302.3715
 434  316.5758
 435  392.1026
 436  386.971
 437  315.9168
 438  272.5332
 439  304.872
 440  361.5905
 441  304.366
 442  333.8663
 443  379.1108
 444  397.2823
 445  331.2182
 446  370.4793
 447  362.6651
 448  393.3352
 449  379.081
 450  373.9499
 451  250.8011
 452  166.3907
 453  292.5699
 454  411.5899
 455  482.1913
 456  372.642
 457  292.5726
 458  262.8279
 459  307.6737
 460  281.4549
 461  171.9331
 462  130.4136
 463  208.2601
 464  393.9993
 465  355.5866
 466  314.7847
 467  393.5824
 468  279.9305
 469  410.4631
 470  330.0586
 471  372.6837
 472  367.089
 473  307.3497
 474  260.6401
 475  284.1505
 476  476.2124
 477  454.2651
 478  391.4955
 479  352.5026
 480  211.3119
 481  216.4408
 482  226.0097
 483  371.2227
 484  402.1236
 485  444.5088
 486  357.7281
 487  387.8069
 488  253.0152
 489  333.1313
 490  446.8146
 491  304.8899
 492  261.9857
 493  255.561
 494  413.0329
 495  434.76
 496  265.4299
 497  307.0973
 498  339.8565
 499  423.9848
 500  524.3488
 501  363.3866
 502  346.3002
 503  326.6707
 504  419.5555
 505  175.2321
 506  169.7473
 507  369.8602
 508  409.8059
 509  205.7898
 510  282.99
 511  387.8741
