# Input file       =  1183370233.240542_cleaned.dat
# Candidate        =  PSR_0332+5434
# Telescope        =  AR
# Epoch_topo       =  57940.414528247013
# Epoch_bary       =  N/A
# T_sample         =  0.002
# Data Folded      =  7340032
# Data Avg         =  0.0373759008474134
# Data StdDev      =  1.0001084656783  
# Profile Bins     =  512
# Profile Avg      =  535.749432662078 
# Profile StdDev   =  119.746023301772 
# Reduced chi-sqr  =  1.606
# Prob(Noise)      <  8.44e-17   (~8.2 sigma)
# P_topo (ms)      =  714.485413479298  +/- 1.77e-05
# P'_topo (s/s)    =  -0                +/- 9.35e-12
# P''_topo (s/s^2) =  0                 +/- 4.13e-15
# P_bary (ms)      =  N/A
# P'_bary (s/s)    =  N/A
# P''_bary (s/s^2) =  N/A
# P_orb (s)        =  N/A
# asin(i)/c (s)    =  N/A
# eccentricity     =  N/A
# w (rad)          =  N/A
# T_peri           =  N/A
######################################################
   0  601.2739
   1  619.034
   2  478.1006
   3  523.9228
   4  513.5195
   5  431.3969
   6  544.7916
   7  535.9934
   8  490.9313
   9  580.06
  10  704.2903
  11  745.2921
  12  591.7365
  13  560.3022
  14  593.467
  15  655.2877
  16  697.4736
  17  516.1228
  18  470.1226
  19  622.1672
  20  642.4452
  21  466.6052
  22  414.7355
  23  518.093
  24  574.0941
  25  548.0099
  26  558.9748
  27  436.3933
  28  351.1518
  29  541.5222
  30  572.9039
  31  392.1574
  32  338.6578
  33  490.5103
  34  687.0388
  35  647.0651
  36  545.5149
  37  479.2854
  38  561.8984
  39  639.97
  40  544.5004
  41  369.9189
  42  385.1627
  43  592.7653
  44  720.9801
  45  670.5353
  46  623.9196
  47  508.4263
  48  590.0262
  49  635.2816
  50  528.2325
  51  415.7196
  52  521.4521
  53  613.2003
  54  508.7449
  55  449.3686
  56  373.1435
  57  448.093
  58  502.5459
  59  573.7781
  60  420.4872
  61  466.3603
  62  525.3096
  63  586.0226
  64  532.6199
  65  347.3408
  66  354.4174
  67  615.5943
  68  706.8586
  69  640.3984
  70  548.1957
  71  451.3318
  72  503.8054
  73  510.5902
  74  426.7086
  75  333.3159
  76  552.2393
  77  696.0349
  78  559.4539
  79  366.1111
  80  297.6646
  81  346.218
  82  426.0811
  83  433.1827
  84  419.1436
  85  469.2166
  86  558.6345
  87  617.35
  88  556.2805
  89  355.141
  90  376.1552
  91  474.3116
  92  543.6891
  93  395.4139
  94  249.4729
  95  290.4744
  96  435.2549
  97  440.2843
  98  342.7848
  99  318.0016
 100  368.1918
 101  506.7085
 102  611.9786
 103  533.4101
 104  373.8808
 105  460.3668
 106  506.6081
 107  509.267
 108  385.2061
 109  530.1588
 110  647.2779
 111  710.2464
 112  483.0507
 113  370.3857
 114  374.3993
 115  511.4751
 116  592.0711
 117  520.4847
 118  434.7292
 119  404.2203
 120  636.6327
 121  548.964
 122  378.0572
 123  424.3163
 124  451.0872
 125  576.2166
 126  592.8266
 127  492.5399
 128  447.8346
 129  485.3417
 130  499.1349
 131  544.0725
 132  508.0009
 133  528.747
 134  666.4237
 135  711.5654
 136  496.5636
 137  344.3994
 138  468.9822
 139  643.2589
 140  667.2785
 141  570.6808
 142  436.8438
 143  447.0134
 144  521.7139
 145  598.9801
 146  523.1777
 147  385.6752
 148  538.6332
 149  536.1206
 150  634.6772
 151  551.4085
 152  465.899
 153  531.8441
 154  591.597
 155  556.3676
 156  406.1701
 157  365.1572
 158  480.9949
 159  561.4148
 160  466.9403
 161  452.3846
 162  433.2184
 163  385.25
 164  476.5798
 165  596.0422
 166  552.5962
 167  510.3648
 168  595.2684
 169  560.3721
 170  433.7705
 171  343.6507
 172  536.7798
 173  585.9266
 174  554.4954
 175  492.6948
 176  497.768
 177  641.4938
 178  689.1112
 179  570.0905
 180  435.536
 181  528.9172
 182  620.7839
 183  604.3903
 184  575.9024
 185  425.2919
 186  480.535
 187  438.8907
 188  529.2468
 189  468.9629
 190  381.1523
 191  477.2163
 192  509.2005
 193  502.9958
 194  512.7353
 195  526.8217
 196  556.3891
 197  580.7562
 198  575.9056
 199  434.2685
 200  393.3076
 201  500.314
 202  531.9763
 203  465.4124
 204  395.5755
 205  440.1778
 206  497.6656
 207  537.4518
 208  450.5834
 209  362.1303
 210  521.9405
 211  588.9402
 212  589.9793
 213  342.201
 214  211.7628
 215  484.7514
 216  674.8791
 217  623.4539
 218  484.2137
 219  495.5039
 220  584.7657
 221  504.6556
 222  520.2242
 223  363.4579
 224  360.8498
 225  532.5833
 226  504.4072
 227  456.8278
 228  328.8728
 229  394.3151
 230  456.521
 231  492.761
 232  491.561
 233  440.8567
 234  545.1305
 235  614.5617
 236  684.908
 237  618.3112
 238  420.4643
 239  404.0093
 240  431.761
 241  408.3556
 242  353.1646
 243  400.1246
 244  508.6509
 245  580.7842
 246  513.4559
 247  398.8734
 248  408.6644
 249  615.1678
 250  732.9393
 251  646.1277
 252  599.7341
 253  611.4434
 254  664.1553
 255  601.6712
 256  482.4915
 257  402.1978
 258  458.3922
 259  624.2261
 260  635.1791
 261  497.611
 262  521.7334
 263  559.879
 264  603.6243
 265  452.1248
 266  401.3898
 267  483.0416
 268  575.2298
 269  549.5784
 270  485.7298
 271  426.8837
 272  496.8158
 273  569.5125
 274  547.0988
 275  412.5624
 276  309.9391
 277  442.4374
 278  553.903
 279  530.3551
 280  393.8193
 281  326.5141
 282  362.5528
 283  555.5634
 284  653.6049
 285  555.1036
 286  458.1058
 287  522.0803
 288  575.0793
 289  553.603
 290  334.9119
 291  336.8135
 292  451.7408
 293  533.7899
 294  527.3441
 295  514.9435
 296  655.6253
 297  551.2206
 298  420.068
 299  403.413
 300  445.6869
 301  438.7049
 302  586.0026
 303  584.4802
 304  484.6497
 305  583.9373
 306  662.3852
 307  640.4212
 308  604.8967
 309  566.0077
 310  520.0685
 311  665.0954
 312  594.637
 313  526.8026
 314  418.3319
 315  540.782
 316  686.9117
 317  675.9937
 318  637.0602
 319  524.1379
 320  489.6541
 321  602.3293
 322  631.1743
 323  552.6445
 324  570.471
 325  605.4456
 326  685.1307
 327  695.1475
 328  516.9951
 329  382.8917
 330  489.6939
 331  645.2831
 332  597.5702
 333  423.5462
 334  346.0564
 335  501.6944
 336  566.5949
 337  486.5175
 338  372.6162
 339  423.8057
 340  456.2479
 341  516.6765
 342  611.0995
 343  482.3209
 344  409.1269
 345  576.3141
 346  616.4201
 347  454.291
 348  397.5795
 349  505.5327
 350  523.7318
 351  465.6025
 352  502.3802
 353  559.7708
 354  606.4146
 355  697.2079
 356  555.5367
 357  606.8569
 358  579.3276
 359  652.1038
 360  699.83
 361  544.3035
 362  415.0511
 363  508.6379
 364  747.959
 365  673.2061
 366  560.6147
 367  545.5029
 368  672.8881
 369  673.8748
 370  493.5416
 371  479.9956
 372  468.2525
 373  560.0013
 374  631.6616
 375  542.86
 376  485.6777
 377  537.4681
 378  638.1735
 379  596.6096
 380  512.9335
 381  582.1363
 382  574.0967
 383  658.7756
 384  658.8619
 385  665.8096
 386  636.0894
 387  576.8691
 388  657.4736
 389  604.2869
 390  576.9227
 391  551.663
 392  516.0886
 393  662.2141
 394  593.7914
 395  401.6196
 396  483.5446
 397  647.384
 398  656.0041
 399  692.6927
 400  631.0259
 401  535.8425
 402  527.8389
 403  627.4644
 404  552.9548
 405  432.2229
 406  505.5884
 407  598.6083
 408  680.6728
 409  652.1036
 410  560.7396
 411  556.9138
 412  666.5436
 413  656.072
 414  542.4911
 415  447.3922
 416  421.7974
 417  534.9523
 418  672.1044
 419  543.9529
 420  613.1635
 421  559.9631
 422  553.7482
 423  442.3531
 424  435.6179
 425  563.1104
 426  616.3757
 427  644.3517
 428  706.0767
 429  572.7076
 430  479.5332
 431  549.4221
 432  548.0204
 433  614.9219
 434  601.8802
 435  573.4904
 436  707.0936
 437  591.0291
 438  498.1297
 439  544.1615
 440  488.7515
 441  516.5752
 442  655.5688
 443  446.9824
 444  452.5616
 445  589.8395
 446  812.2991
 447  614.7755
 448  439.0873
 449  528.6055
 450  647.5735
 451  630.717
 452  633.2748
 453  546.541
 454  539.8172
 455  572.3237
 456  638.1191
 457  534.0001
 458  518.2879
 459  619.4088
 460  749.1456
 461  629.1366
 462  492.4232
 463  487.9354
 464  541.4213
 465  749.7209
 466  565.1151
 467  482.055
 468  525.5132
 469  576.8975
 470  635.2371
 471  473.7468
 472  453.7161
 473  449.5843
 474  642.9138
 475  684.2129
 476  462.3564
 477  477.2588
 478  544.3898
 479  481.452
 480  528.8523
 481  453.1306
 482  447.822
 483  662.4901
 484  742.088
 485  617.8615
 486  578.1579
 487  620.9966
 488  742.2529
 489  853.4034
 490  870.2019
 491  1002.603
 492  1090.252
 493  1069.997
 494  1044.548
 495  878.4058
 496  667.5287
 497  548.092
 498  594.8001
 499  584.1224
 500  440.2857
 501  464.0081
 502  455.1938
 503  640.3148
 504  690.0289
 505  602.8276
 506  537.6799
 507  543.0982
 508  601.2515
 509  624.6103
 510  535.5851
 511  514.6274
