# Input file       =  1183596519.103687_cleaned.dat
# Candidate        =  PSR_0332+5434
# Telescope        =  AR
# Epoch_topo       =  57943.033577588969
# Epoch_bary       =  N/A
# T_sample         =  0.002
# Data Folded      =  7143424
# Data Avg         =  0.0228819120269129
# Data StdDev      =  1.00002009201467 
# Profile Bins     =  512
# Profile Avg      =  319.249492476009 
# Profile StdDev   =  118.120957722199 
# Reduced chi-sqr  =  1.491
# Prob(Noise)      <  3.38e-12   (~6.9 sigma)
# P_topo (ms)      =  714.48306112945   +/- 0.000272
# P'_topo (s/s)    =  -0                +/- 1.47e-10
# P''_topo (s/s^2) =  0                 +/- 6.68e-14
# P_bary (ms)      =  N/A
# P'_bary (s/s)    =  N/A
# P''_bary (s/s^2) =  N/A
# P_orb (s)        =  N/A
# asin(i)/c (s)    =  N/A
# eccentricity     =  N/A
# w (rad)          =  N/A
# T_peri           =  N/A
######################################################
   0  274.5938
   1  301.9429
   2  208.5972
   3  264.6916
   4  254.84
   5  299.2324
   6  380.7773
   7  413.3269
   8  355.7602
   9  222.6179
  10  360.6971
  11  308.4564
  12  307.128
  13  284.7286
  14  194.8058
  15  210.1555
  16  312.1746
  17  304.5174
  18  233.924
  19  169.8975
  20  159.8566
  21  176.0998
  22  255.7442
  23  252.5253
  24  268.2244
  25  337.9272
  26  368.256
  27  219.2144
  28  179.8887
  29  336.9031
  30  286.332
  31  228.1295
  32  397.5164
  33  328.0807
  34  257.8491
  35  303.2168
  36  272.3022
  37  219.8145
  38  294.0524
  39  281.8333
  40  383.5902
  41  293.6218
  42  327.3108
  43  366.8301
  44  156.7257
  45  212.9642
  46  218.7489
  47  354.6255
  48  363.1877
  49  337.9242
  50  456.7007
  51  422.4828
  52  319.8229
  53  346.7683
  54  338.2168
  55  234.6975
  56  315.1683
  57  284.9871
  58  339.2935
  59  298.4763
  60  367.2058
  61  448.0316
  62  456.7929
  63  354.6791
  64  264.101
  65  318.0555
  66  341.8898
  67  357.6574
  68  304.83
  69  279.8242
  70  230.0746
  71  369.0319
  72  388.1922
  73  351.3345
  74  199.5386
  75  285.1971
  76  338.475
  77  347.2819
  78  394.5909
  79  321.389
  80  468.9178
  81  430.3225
  82  334.962
  83  356.2337
  84  344.2442
  85  396.4917
  86  442.2729
  87  415.9442
  88  340.4232
  89  286.6964
  90  211.7575
  91  330.5016
  92  370.3212
  93  221.1581
  94  183.0636
  95  333.959
  96  557.692
  97  305.1051
  98  278.8306
  99  406.8093
 100  402.7406
 101  373.5919
 102  393.5847
 103  327.9888
 104  271.3351
 105  331.2147
 106  284.7582
 107  207.3433
 108  254.8243
 109  254.7036
 110  205.5526
 111  281.1005
 112  342.3465
 113  452.9969
 114  489.3297
 115  441.2893
 116  435.6122
 117  442.257
 118  285.9268
 119  253.217
 120  341.405
 121  432.8852
 122  437.9612
 123  481.0366
 124  527.5134
 125  417.3721
 126  411.6364
 127  349.5947
 128  190.4417
 129  240.507
 130  288.8902
 131  373.1474
 132  341.1288
 133  301.4224
 134  344.9572
 135  304.0778
 136  229.6777
 137  241.4388
 138  329.9337
 139  411.016
 140  384.6489
 141  390.9246
 142  227.864
 143  391.4458
 144  453.9745
 145  356.3899
 146  325.2629
 147  429.3265
 148  363.0128
 149  373.9657
 150  421.5305
 151  400.148
 152  375.0777
 153  344.7324
 154  413.433
 155  367.2592
 156  315.6908
 157  374.164
 158  359.753
 159  236.3259
 160  205.4796
 161  249.4593
 162  271.4059
 163  282.4552
 164  333.6353
 165  372.4052
 166  416.9514
 167  231.748
 168  232.5027
 169  297.5234
 170  408.8523
 171  446.0122
 172  369.3658
 173  303.8872
 174  403.4272
 175  253.1468
 176  236.9795
 177  307.2028
 178  220.8943
 179  327.8576
 180  317.2432
 181  372.1205
 182  164.9572
 183  147.6377
 184  201.7683
 185  348.6593
 186  268.2353
 187  293.5616
 188  307.512
 189  282.8783
 190  243.2069
 191  173.212
 192  248.9028
 193  348.3843
 194  494.8637
 195  331.7718
 196  356.9321
 197  274.0123
 198  374.6408
 199  315.5958
 200  294.8315
 201  320.9315
 202  251.8158
 203  353.6811
 204  324.4654
 205  351.5125
 206  321.5005
 207  382.1733
 208  386.534
 209  470.7926
 210  364.7227
 211  305.1065
 212  328.6573
 213  280.0749
 214  265.4467
 215  232.9927
 216  238.1213
 217  212.7408
 218  233.0892
 219  231.5386
 220  240.511
 221  312.9015
 222  334.9081
 223  337.8256
 224  274.0933
 225  314.4719
 226  257.6758
 227  415.8917
 228  335.6287
 229  239.0149
 230  294.8966
 231  295.2113
 232  258.1775
 233  244.469
 234  312.9256
 235  345.5748
 236  253.5985
 237  265.9923
 238  378.124
 239  353.3082
 240  284.7193
 241  276.7942
 242  304.2628
 243  237.0865
 244  343.14
 245  347.9943
 246  268.9098
 247  270.7672
 248  406.8322
 249  330.7018
 250  235.823
 251  158.0018
 252  198.3167
 253  331.8011
 254  322.2516
 255  267.9041
 256  148.4666
 257  268.5891
 258  243.9194
 259  419.6441
 260  443.5241
 261  279.8018
 262  227.7525
 263  205.1642
 264  308.0703
 265  368.5353
 266  386.8573
 267  303.9796
 268  271.4764
 269  273.6926
 270  365.1283
 271  206.7443
 272  239.2392
 273  206.9088
 274  235.8968
 275  341.7491
 276  282.407
 277  137.9176
 278  124.4379
 279  209.528
 280  343.5393
 281  411.0481
 282  498.1441
 283  383.9533
 284  191.7647
 285  241.8185
 286  374.4522
 287  305.6862
 288  243.882
 289  302.9907
 290  353.0606
 291  166.5731
 292  267.5508
 293  347.0817
 294  448.345
 295  367.561
 296  277.6041
 297  280.8665
 298  293.401
 299  221.2608
 300  365.9637
 301  335.1633
 302  199.676
 303  262.3854
 304  177.3167
 305  199.8536
 306  237.7864
 307  228.2307
 308  171.7661
 309  318.2611
 310  372.7905
 311  277.136
 312  235.8465
 313  255.0673
 314  310.6068
 315  318.9258
 316  244.9907
 317  271.2321
 318  250.5126
 319  247.7688
 320  357.0177
 321  375.7034
 322  285.7091
 323  210.2733
 324  211.7228
 325  280.2952
 326  227.7214
 327  267.2869
 328  332.4042
 329  199.1873
 330  195.554
 331  254.6302
 332  209.9805
 333  368.3578
 334  322.3575
 335  241.7339
 336  85.72128
 337  204.5331
 338  385.9856
 339  397.8355
 340  329.863
 341  366.7428
 342  254.4824
 343  343.2581
 344  337.3897
 345  372.2578
 346  420.3878
 347  380.0292
 348  232.4048
 349  254.6123
 350  258.6992
 351  268.0705
 352  347.8343
 353  323.5312
 354  281.4894
 355  325.6231
 356  257.892
 357  226.4724
 358  284.3792
 359  380.4843
 360  244.3918
 361  212.7595
 362  264.9673
 363  317.8895
 364  292.6352
 365  309.779
 366  348.4207
 367  379.6828
 368  388.0268
 369  282.1482
 370  231.4284
 371  243.7914
 372  222.448
 373  295.0776
 374  257.243
 375  305.8581
 376  356.7819
 377  289.9212
 378  326.5409
 379  308.4384
 380  267.1254
 381  320.9994
 382  291.7156
 383  271.1085
 384  299.857
 385  382.2744
 386  415.8924
 387  270.1683
 388  312.0114
 389  352.9262
 390  327.0896
 391  215.6095
 392  195.6184
 393  216.3377
 394  336.6667
 395  391.1679
 396  357.7232
 397  391.3348
 398  267.3351
 399  275.5115
 400  310.1274
 401  276.162
 402  190.8822
 403  198.404
 404  258.5503
 405  163.5102
 406  113.0817
 407  333.9272
 408  417.334
 409  303.5102
 410  254.7677
 411  243.502
 412  161.28
 413  300.0597
 414  381.9519
 415  251.321
 416  238.0266
 417  188.253
 418  360.5296
 419  275.0732
 420  345.1009
 421  530.6997
 422  453.3453
 423  450.251
 424  546.4714
 425  577.2372
 426  773.7983
 427  1019.263
 428  984.9897
 429  1070.579
 430  960.874
 431  816.415
 432  490.3452
 433  455.5071
 434  552.2976
 435  452.4797
 436  304.211
 437  349.7095
 438  385.0299
 439  288.7731
 440  246.2416
 441  355.4205
 442  324.2767
 443  302.8639
 444  276.6086
 445  405.5948
 446  372.8925
 447  321.2838
 448  447.1063
 449  382.9368
 450  285.1846
 451  250.9851
 452  304.3458
 453  301.7539
 454  200.3393
 455  199.3512
 456  58.43685
 457  236.3566
 458  321.0103
 459  419.1089
 460  352.2444
 461  405.9232
 462  325.9183
 463  352.7128
 464  422.0858
 465  330.6273
 466  362.2337
 467  498.4853
 468  452.7906
 469  359.1467
 470  376.2284
 471  407.6762
 472  288.3339
 473  321.58
 474  323.955
 475  279.5034
 476  333.6114
 477  429.3935
 478  331.2125
 479  228.4871
 480  238.9623
 481  323.0185
 482  389.5399
 483  400.902
 484  310.906
 485  274.3789
 486  204.1965
 487  296.8212
 488  283.8599
 489  311.212
 490  334.6853
 491  307.1798
 492  291.2881
 493  324.4759
 494  277.6075
 495  269.3257
 496  323.317
 497  391.8388
 498  399.1813
 499  307.0483
 500  433.7069
 501  405.4008
 502  332.5621
 503  476.8102
 504  475.305
 505  385.3463
 506  363.9725
 507  276.4189
 508  295.3977
 509  312.3608
 510  185.3441
 511  169.7141
