# Input file       =  1183510533.099951_cleaned.dat
# Candidate        =  PSR_0332+5434
# Telescope        =  AR
# Epoch_topo       =  57942.038369212394
# Epoch_bary       =  N/A
# T_sample         =  0.002
# Data Folded      =  7405568
# Data Avg         =  0.0247748301343228
# Data StdDev      =  1.00003082643901 
# Profile Bins     =  512
# Profile Avg      =  358.345452617654 
# Profile StdDev   =  120.270078410935 
# Reduced chi-sqr  =  1.457
# Prob(Noise)      <  6.13e-11   (~6.4 sigma)
# P_topo (ms)      =  714.483786740623  +/- 0.000225
# P'_topo (s/s)    =  -0                +/- 1.18e-10
# P''_topo (s/s^2) =  0                 +/- 5.15e-14
# P_bary (ms)      =  N/A
# P'_bary (s/s)    =  N/A
# P''_bary (s/s^2) =  N/A
# P_orb (s)        =  N/A
# asin(i)/c (s)    =  N/A
# eccentricity     =  N/A
# w (rad)          =  N/A
# T_peri           =  N/A
######################################################
   0  341.7573
   1  380.7845
   2  410.1967
   3  328.7747
   4  272.4936
   5  314.9161
   6  359.3475
   7  385.8074
   8  337.7404
   9  331.7397
  10  288.5788
  11  356.9809
  12  409.3666
  13  372.1779
  14  358.5451
  15  397.0108
  16  329.5242
  17  396.0793
  18  428.7572
  19  377.9103
  20  378.0704
  21  338.8979
  22  303.9407
  23  410.5299
  24  436.9505
  25  478.0233
  26  307.4191
  27  448.5202
  28  554.1476
  29  408.5942
  30  351.9446
  31  338.7039
  32  420.9214
  33  514.629
  34  522.2973
  35  342.6286
  36  292.9946
  37  320.356
  38  321.3421
  39  297.5056
  40  382.3682
  41  287.4559
  42  283.7644
  43  239.7445
  44  302.9389
  45  221.0463
  46  332.4877
  47  311.9344
  48  318.9774
  49  330.2351
  50  322.4774
  51  280.0638
  52  333.8964
  53  423.4679
  54  333.9161
  55  324.7672
  56  341.4267
  57  422.146
  58  298.2756
  59  228.9893
  60  331.0865
  61  360.7979
  62  184.9765
  63  203.3211
  64  199.2755
  65  242.9171
  66  177.6729
  67  223.3768
  68  259.2183
  69  270.1667
  70  313.1133
  71  330.4766
  72  156.0403
  73  222.7481
  74  354.4998
  75  373.4271
  76  342.4582
  77  342.3764
  78  265.3811
  79  222.4828
  80  295.6411
  81  320.1336
  82  265.8233
  83  348.5067
  84  440.3691
  85  343.4831
  86  275.6609
  87  299.744
  88  373.5322
  89  351.4128
  90  190.7428
  91  164.3306
  92  275.3087
  93  262.5566
  94  422.2605
  95  381.4873
  96  425.9115
  97  346.4764
  98  230.9342
  99  318.6385
 100  339.647
 101  469.5867
 102  434.2104
 103  395.7535
 104  453.6682
 105  461.2125
 106  403.483
 107  502.7673
 108  468.7737
 109  462.744
 110  401.9822
 111  419.7829
 112  462.9928
 113  427.0265
 114  402.5058
 115  346.6428
 116  361.1556
 117  347.3341
 118  375.7959
 119  435.5941
 120  399.6702
 121  393.1051
 122  433.546
 123  459.8524
 124  321.2161
 125  295.5207
 126  275.1988
 127  364.2635
 128  328.5603
 129  256.8742
 130  363.9526
 131  274.0856
 132  299.0999
 133  302.2888
 134  341.9522
 135  279.884
 136  284.0405
 137  347.969
 138  295.5443
 139  241.4381
 140  399.0989
 141  424.7262
 142  309.9681
 143  286.6519
 144  304.351
 145  313.7211
 146  334.2748
 147  380.3779
 148  401.6877
 149  417.75
 150  376.2999
 151  303.7949
 152  186.6289
 153  246.6694
 154  324.187
 155  354.0608
 156  336.4259
 157  341.3067
 158  465.4868
 159  479.7971
 160  329.0168
 161  256.0086
 162  266.1249
 163  295.6429
 164  268.0786
 165  274.0561
 166  394.5829
 167  454.5414
 168  369.5146
 169  252.3925
 170  254.5896
 171  290.3725
 172  426.9135
 173  404.0712
 174  423.0939
 175  371.5676
 176  369.1189
 177  343.4377
 178  231.2235
 179  393.3883
 180  353.9179
 181  371.0544
 182  393.8238
 183  283.4758
 184  309.9081
 185  425.7479
 186  489.3271
 187  434.7385
 188  400.5796
 189  474.6985
 190  428.3456
 191  308.6935
 192  367.9138
 193  377.4046
 194  349.4709
 195  354.0696
 196  431.9501
 197  460.5897
 198  399.621
 199  324.4455
 200  397.0584
 201  486.7676
 202  399.9795
 203  303.6381
 204  302.9472
 205  351.0531
 206  145.9996
 207  267.1105
 208  363.606
 209  301.2426
 210  171.4608
 211  242.3959
 212  227.8174
 213  269.252
 214  280.4587
 215  328.2153
 216  352.3279
 217  309.9229
 218  288.4204
 219  142.3611
 220  165.6616
 221  248.2049
 222  289.0901
 223  217.0148
 224  217.8042
 225  256.5402
 226  404.2462
 227  260.2104
 228  279.9749
 229  347.4708
 230  388.8509
 231  382.3022
 232  361.4456
 233  446.8788
 234  336.4684
 235  329.4297
 236  331.5066
 237  369.0201
 238  506.749
 239  394.7728
 240  417.2698
 241  382.627
 242  393.1167
 243  390.4743
 244  286.8968
 245  365.0177
 246  363.98
 247  340.4357
 248  367.2609
 249  360.1744
 250  471.1008
 251  558.4735
 252  432.7127
 253  433.9558
 254  395.3354
 255  456.1335
 256  415.6562
 257  319.0698
 258  374.6425
 259  405.89
 260  426.6601
 261  406.4945
 262  423.1279
 263  366.6733
 264  316.278
 265  403.261
 266  414.5043
 267  438.4514
 268  433.9164
 269  318.3443
 270  380.1022
 271  363.5796
 272  420.1654
 273  430.9333
 274  353.8147
 275  334.3636
 276  439.023
 277  456.9861
 278  436.0692
 279  318.4003
 280  356.5584
 281  342.4712
 282  304.4086
 283  400.4545
 284  372.7605
 285  352.2112
 286  345.786
 287  245.7401
 288  346.1734
 289  376.3186
 290  191.3382
 291  254.4082
 292  379.8825
 293  413.3322
 294  333.2961
 295  349.9202
 296  397.0682
 297  342.0747
 298  169.2998
 299  292.0915
 300  327.2537
 301  307.1753
 302  363.7661
 303  305.1926
 304  337.4807
 305  228.3207
 306  253.3584
 307  358.6569
 308  322.7591
 309  374.1298
 310  531.3337
 311  443.9082
 312  377.3129
 313  412.927
 314  459.3369
 315  449.6789
 316  310.6357
 317  266.7545
 318  329.4886
 319  309.2304
 320  318.9657
 321  334.2935
 322  361.7532
 323  369.5657
 324  416.1941
 325  388.1889
 326  444.6775
 327  378.1255
 328  411.7924
 329  521.5496
 330  489.0323
 331  400.3802
 332  524.5396
 333  452.0569
 334  396.2209
 335  285.7726
 336  387.7159
 337  451.4265
 338  380.1812
 339  407.1671
 340  389.2787
 341  379.3383
 342  390.2571
 343  305.2144
 344  287.1138
 345  399.6433
 346  373.8007
 347  397.464
 348  440.3128
 349  413.7522
 350  514.5117
 351  436.5893
 352  346.6862
 353  291.2888
 354  406.4163
 355  348.6215
 356  317.0614
 357  319.4183
 358  326.2769
 359  306.584
 360  386.7853
 361  394.3645
 362  310.238
 363  309.619
 364  372.2062
 365  418.5399
 366  372.0261
 367  471.4251
 368  395.0893
 369  420.4578
 370  360.0893
 371  381.0948
 372  423.5274
 373  350.3325
 374  254.1957
 375  217.3798
 376  203.3433
 377  398.7953
 378  254.9686
 379  388.7926
 380  365.563
 381  183.6454
 382  375.5166
 383  333.4873
 384  253.1841
 385  236.0616
 386  306.9001
 387  395.52
 388  396.3874
 389  417.6133
 390  377.2423
 391  365.7249
 392  248.3869
 393  295.3115
 394  321.1514
 395  364.0708
 396  465.829
 397  425.4474
 398  311.693
 399  300.8582
 400  322.9343
 401  302.0067
 402  349.6653
 403  345.1503
 404  320.6556
 405  319.2244
 406  297.1924
 407  264.3721
 408  297.0905
 409  299.4591
 410  396.7314
 411  472.0161
 412  455.8062
 413  219.5044
 414  251.7582
 415  439.8436
 416  465.6097
 417  390.8456
 418  307.2498
 419  322.9066
 420  298.2725
 421  293.4112
 422  317.9824
 423  572.4398
 424  454.5823
 425  382.1949
 426  302.1358
 427  289.3248
 428  291.0617
 429  331.1162
 430  463.7662
 431  474.0759
 432  359.486
 433  408.5661
 434  353.2116
 435  302.2392
 436  335.817
 437  276.1764
 438  266.4211
 439  411.0833
 440  483.2591
 441  417.354
 442  467.3902
 443  465.3019
 444  537.8886
 445  453.686
 446  509.0799
 447  803.9921
 448  953.8663
 449  1162.84
 450  1204.447
 451  1093.192
 452  857.6326
 453  484.1363
 454  370.9237
 455  445.4145
 456  394.578
 457  429.0535
 458  398.318
 459  210.6093
 460  139.0847
 461  279.4416
 462  291.3414
 463  312.5039
 464  354.1096
 465  479.4045
 466  485.2374
 467  283.0648
 468  293.4275
 469  292.2203
 470  245.9996
 471  232.1998
 472  330.647
 473  443.6077
 474  275.6185
 475  253.0432
 476  250.5269
 477  384.401
 478  266.9238
 479  241.0104
 480  262.7443
 481  196.9834
 482  258.878
 483  314.3206
 484  342.4225
 485  249.8121
 486  288.5978
 487  322.8258
 488  247.0459
 489  340.144
 490  352.8809
 491  344.3156
 492  246.0946
 493  351.4625
 494  397.4484
 495  436.6608
 496  325.5122
 497  380.7079
 498  458.2799
 499  389.3278
 500  390.489
 501  335.5977
 502  331.8016
 503  331.3971
 504  407.055
 505  335.3177
 506  362.553
 507  340.4423
 508  284.2458
 509  237.9065
 510  346.9192
 511  397.5302
