# Input file       =  1183768721.108474_cleaned.dat
# Candidate        =  PSR_0332+5434
# Telescope        =  AR
# Epoch_topo       =  57945.026656348076
# Epoch_bary       =  N/A
# T_sample         =  0.002
# Data Folded      =  7208960
# Data Avg         =  0.0327590415077239
# Data StdDev      =  1.00007600743151 
# Profile Bins     =  512
# Profile Avg      =  461.252900714643 
# Profile StdDev   =  118.668194772708 
# Reduced chi-sqr  =  1.016
# Prob(Noise)      <  0.393   (~0.3 sigma)
# P_topo (ms)      =  714.481634424881  +/- 0.000187
# P'_topo (s/s)    =  -0                +/- 1e-10
# P''_topo (s/s^2) =  0                 +/- 4.51e-14
# P_bary (ms)      =  N/A
# P'_bary (s/s)    =  N/A
# P''_bary (s/s^2) =  N/A
# P_orb (s)        =  N/A
# asin(i)/c (s)    =  N/A
# eccentricity     =  N/A
# w (rad)          =  N/A
# T_peri           =  N/A
######################################################
   0  1073.542
   1  1027.549
   2  952.5124
   3  613.2307
   4  401.6316
   5  436.5558
   6  422.1147
   7  443.2013
   8  424.4012
   9  444.0475
  10  469.2701
  11  481.782
  12  441.5446
  13  502.549
  14  547.7958
  15  551.3503
  16  510.9313
  17  517.7202
  18  415.278
  19  349.1819
  20  384.597
  21  372.2607
  22  464.0749
  23  442.518
  24  472.7687
  25  360.7236
  26  231.7268
  27  418.0791
  28  414.9016
  29  450.8285
  30  406.0215
  31  492.8131
  32  444.2755
  33  435.6444
  34  362.7523
  35  336.1836
  36  436.765
  37  480.8405
  38  401.3381
  39  424.497
  40  384.67
  41  303.6888
  42  343.088
  43  462.4701
  44  518.7076
  45  380.4964
  46  325.9046
  47  516.3653
  48  510.7386
  49  556.7241
  50  444.5608
  51  365.9058
  52  383.274
  53  453.7987
  54  488.0566
  55  492.398
  56  388.7484
  57  386.6932
  58  451.8721
  59  526.2619
  60  467.257
  61  430.8159
  62  402.7146
  63  354.1189
  64  309.9707
  65  345.6035
  66  439.2236
  67  449.0708
  68  343.6276
  69  328.2327
  70  388.6156
  71  526.0641
  72  473.1399
  73  541.2516
  74  513.1703
  75  494.827
  76  441.4704
  77  395.9784
  78  353.6293
  79  362.358
  80  338.1916
  81  397.5641
  82  513.7714
  83  389.868
  84  393.4369
  85  510.4433
  86  513.337
  87  449.3373
  88  477.976
  89  579.564
  90  551.7438
  91  415.2714
  92  439.3771
  93  530.5072
  94  481.9453
  95  542.0844
  96  557.917
  97  445.6764
  98  442.6904
  99  379.2045
 100  349.0635
 101  329.8073
 102  390.8489
 103  433.6476
 104  427.1397
 105  520.4664
 106  603.9208
 107  502.5503
 108  465.565
 109  624.9907
 110  568.4758
 111  546.326
 112  483.0638
 113  504.9693
 114  511.778
 115  499.8397
 116  460.7432
 117  451.4542
 118  489.7993
 119  457.0126
 120  386.6582
 121  342.5442
 122  361.7672
 123  317.0995
 124  429.9902
 125  466.2533
 126  361.4818
 127  307.1676
 128  349.7373
 129  420.9321
 130  377.8099
 131  523.7684
 132  481.7368
 133  507.2642
 134  389.0957
 135  385.6096
 136  419.0149
 137  606.3781
 138  536.7758
 139  467.4804
 140  370.4261
 141  406.1169
 142  482.3782
 143  383.6224
 144  515.9858
 145  517.0143
 146  462.6895
 147  457.2475
 148  427.1151
 149  478.8057
 150  396.3763
 151  489.9102
 152  493.3493
 153  491.6613
 154  358.7598
 155  439.9135
 156  473.8738
 157  350.8731
 158  434.8003
 159  414.4333
 160  378.5528
 161  495.534
 162  402.9719
 163  478.5729
 164  605.4561
 165  523.4797
 166  495.912
 167  389.9352
 168  398.4297
 169  456.1576
 170  382.2854
 171  522.9086
 172  564.137
 173  508.4788
 174  521.1407
 175  420.4681
 176  528.3138
 177  533.8796
 178  445.3012
 179  436.5536
 180  447.7289
 181  444.7582
 182  403.4291
 183  414.2483
 184  440.4813
 185  459.1837
 186  441.9859
 187  428.7252
 188  456.9341
 189  524.5206
 190  500.4716
 191  313.0124
 192  365.1302
 193  307.6213
 194  379.3225
 195  446.8608
 196  424.8204
 197  436.4062
 198  495.533
 199  418.5403
 200  410.7682
 201  415.5634
 202  380.7156
 203  462.6661
 204  412.7178
 205  486.3302
 206  351.7958
 207  324.3717
 208  363.4062
 209  353.8817
 210  421.1942
 211  450.4604
 212  468.4409
 213  452.8809
 214  537.9249
 215  543.8915
 216  583.1192
 217  441.9395
 218  448.0424
 219  394.6136
 220  588.2431
 221  585.9209
 222  426.2851
 223  483.075
 224  526.5479
 225  486.3621
 226  551.0762
 227  487.0331
 228  460.1695
 229  424.1644
 230  449.1393
 231  501.7018
 232  479.8971
 233  504.7978
 234  504.0964
 235  440.2885
 236  390.9771
 237  413.5844
 238  416.955
 239  406.2616
 240  357.6015
 241  281.7091
 242  402.6358
 243  442.9391
 244  395.8052
 245  513.5624
 246  520.5307
 247  497.1153
 248  497.9291
 249  402.1458
 250  454.0401
 251  446.6589
 252  460.2657
 253  429.9361
 254  401.2625
 255  333.3841
 256  398.8387
 257  473.9311
 258  464.4312
 259  429.3875
 260  441.4531
 261  431.9956
 262  503.3157
 263  521.8384
 264  483.7358
 265  525.2031
 266  499.1013
 267  445.1527
 268  478.7444
 269  491.899
 270  504.2267
 271  514.3715
 272  508.9497
 273  458.714
 274  416.1994
 275  428.5533
 276  511.248
 277  499.2004
 278  519.2017
 279  521.178
 280  486.4961
 281  612.1879
 282  586.4783
 283  505.1035
 284  580.892
 285  510.0446
 286  469.5976
 287  540.3969
 288  515.054
 289  484.4237
 290  430.0581
 291  393.8007
 292  486.8259
 293  485.3716
 294  449.7209
 295  425.3831
 296  440.7532
 297  448.3387
 298  414.4856
 299  480.0607
 300  489.9109
 301  526.3561
 302  511.1211
 303  554.1274
 304  500.4612
 305  552.3453
 306  501.3023
 307  519.078
 308  387.3054
 309  351.9713
 310  442.7098
 311  507.5944
 312  534.4707
 313  509.0184
 314  442.6324
 315  442.2951
 316  497.8424
 317  485.9684
 318  450.3971
 319  496.3788
 320  536.7811
 321  490.0392
 322  390.0531
 323  461.2712
 324  489.553
 325  500.2563
 326  578.968
 327  550.4177
 328  446.1316
 329  371.1465
 330  446.4875
 331  525.899
 332  398.99
 333  395.3711
 334  333.188
 335  419.3026
 336  538.9146
 337  572.7711
 338  538.6566
 339  469.8111
 340  490.2392
 341  498.3045
 342  451.2805
 343  521.8555
 344  488.6483
 345  513.1146
 346  491.6673
 347  417.0466
 348  326.6128
 349  452.1521
 350  636.5095
 351  573.0786
 352  553.2522
 353  602.8249
 354  511.6904
 355  470.2704
 356  545.6617
 357  479.902
 358  470.1435
 359  479.4984
 360  536.0846
 361  414.2183
 362  407.4444
 363  387.7081
 364  408.6832
 365  436.5517
 366  523.9338
 367  525.0112
 368  536.4077
 369  468.5225
 370  552.8866
 371  524.6047
 372  438.0229
 373  295.671
 374  336.7583
 375  468.8376
 376  477.1817
 377  373.7632
 378  424.0616
 379  551.5515
 380  522.1816
 381  368.5555
 382  385.3654
 383  364.7298
 384  373.2851
 385  480.653
 386  496.8072
 387  511.2247
 388  434.5804
 389  444.2242
 390  409.403
 391  368.1492
 392  352.464
 393  467.4335
 394  552.409
 395  518.0506
 396  476.9219
 397  453.5026
 398  473.0347
 399  379.6126
 400  389.6809
 401  423.7522
 402  423.5376
 403  466.0067
 404  531.2247
 405  461.5288
 406  441.9989
 407  513.0657
 408  588.6374
 409  579.7744
 410  444.3241
 411  554.0539
 412  537.157
 413  542.8575
 414  469.3735
 415  381.1182
 416  412.596
 417  468.2505
 418  534.5454
 419  483.2164
 420  458.1058
 421  362.2991
 422  360.1566
 423  461.8633
 424  418.7678
 425  407.4138
 426  428.1128
 427  397.806
 428  357.7769
 429  423.0684
 430  507.2373
 431  514.9158
 432  568.636
 433  562.4067
 434  401.9424
 435  458.4569
 436  585.4822
 437  595.2904
 438  417.9066
 439  411.9532
 440  467.6552
 441  448.271
 442  407.1546
 443  515.5807
 444  484.4616
 445  578.1423
 446  536.3717
 447  436.7469
 448  399.8137
 449  423.5308
 450  477.0539
 451  529.0318
 452  557.5454
 453  618.1987
 454  543.4453
 455  462.2678
 456  428.9514
 457  355.7901
 458  402.4225
 459  371.537
 460  417.6271
 461  575.3636
 462  473.4407
 463  441.9946
 464  467.9533
 465  424.0018
 466  304.6135
 467  276.567
 468  338.9543
 469  444.1068
 470  475.5553
 471  459.4366
 472  417.5528
 473  368.4448
 474  420.6079
 475  451.0798
 476  568.0831
 477  516.8784
 478  405.889
 479  487.5283
 480  400.1692
 481  375.4439
 482  593.7357
 483  495.9537
 484  469.0765
 485  517.6863
 486  498.3256
 487  502.4013
 488  395.6318
 489  382.1159
 490  432.143
 491  391.1012
 492  437.9345
 493  479.9894
 494  504.032
 495  457.3772
 496  353.0281
 497  371.3429
 498  340.9525
 499  353.5431
 500  395.1331
 501  438.8132
 502  340.4509
 503  373.4088
 504  440.0006
 505  391.9423
 506  488.3711
 507  594.9243
 508  581.7977
 509  633.8994
 510  809.1071
 511  1060.166
