# Input file       =  1183510533.099951_cleaned.dat
# Candidate        =  PSR_0332+5434
# Telescope        =  AR
# Epoch_topo       =  57942.038369212394
# Epoch_bary       =  N/A
# T_sample         =  0.002
# Data Folded      =  7405568
# Data Avg         =  0.0247748301343228
# Data StdDev      =  1.00003082643901 
# Profile Bins     =  512
# Profile Avg      =  358.345440464351 
# Profile StdDev   =  120.270078410935 
# Reduced chi-sqr  =  1.457
# Prob(Noise)      <  5.88e-11   (~6.4 sigma)
# P_topo (ms)      =  714.483785537583  +/- 0.000215
# P'_topo (s/s)    =  -0                +/- 1.13e-10
# P''_topo (s/s^2) =  0                 +/- 4.92e-14
# P_bary (ms)      =  N/A
# P'_bary (s/s)    =  N/A
# P''_bary (s/s^2) =  N/A
# P_orb (s)        =  N/A
# asin(i)/c (s)    =  N/A
# eccentricity     =  N/A
# w (rad)          =  N/A
# T_peri           =  N/A
######################################################
   0  1224.928
   1  1114.411
   2  932.0422
   3  544.7184
   4  373.4269
   5  432.7802
   6  405.3271
   7  426.8223
   8  414.6746
   9  257.7372
  10  124.5796
  11  252.8069
  12  302.2267
  13  304.6393
  14  337.5656
  15  447.6794
  16  510.7957
  17  320.4363
  18  279.9825
  19  298.7237
  20  253.3639
  21  233.029
  22  295.765
  23  437.6747
  24  306.8048
  25  256.6536
  26  236.869
  27  382.3402
  28  289.4691
  29  241.9356
  30  250.9987
  31  210.7143
  32  245.2814
  33  290.0813
  34  361.02
  35  256.0894
  36  278.3086
  37  335.98
  38  248.3435
  39  318.305
  40  348.0515
  41  357.4078
  42  257.2795
  43  325.3021
  44  384.8555
  45  444.9849
  46  351.5766
  47  355.5275
  48  457.567
  49  401.298
  50  377.8606
  51  360.2405
  52  330.3828
  53  317.5175
  54  400.4479
  55  346.1063
  56  360.278
  57  348.488
  58  308.5437
  59  225.6452
  60  325.7236
  61  382.4779
  62  362.2823
  63  352.3636
  64  422.2719
  65  347.9313
  66  280.1739
  67  300.2355
  68  354.7368
  69  377.2686
  70  350.4803
  71  337.6996
  72  299.7805
  73  336.0137
  74  410.1637
  75  374.4424
  76  354.7863
  77  397.4279
  78  332.4564
  79  381.9487
  80  430.9104
  81  395.9166
  82  365.7889
  83  363.8699
  84  282.9356
  85  401.3322
  86  412.929
  87  499.5439
  88  326.7763
  89  405.0549
  90  558.1009
  91  452.3924
  92  330.8312
  93  349.2898
  94  393.4794
  95  501.4192
  96  541.1393
  97  374.9465
  98  297.5835
  99  311.8655
 100  331.8518
 101  281.882
 102  382.5907
 103  312.0243
 104  284.5676
 105  236.7119
 106  291.7406
 107  230.8929
 108  307.8455
 109  327.6715
 110  313.7388
 111  328.4632
 112  329.1505
 113  299.3148
 114  300.2371
 115  424.0152
 116  337.9379
 117  330.4865
 118  322.6823
 119  428.4318
 120  323.3627
 121  227.2662
 122  305.7426
 123  389.4887
 124  191.6763
 125  217.3237
 126  178.1688
 127  250.9411
 128  193.4808
 129  194.0653
 130  271.2351
 131  255.0312
 132  306.6864
 133  345.5083
 134  178.5047
 135  192.1059
 136  327.8675
 137  384.7349
 138  343.6744
 139  347.3873
 140  282.2397
 141  225.3137
 142  280.208
 143  325.7821
 144  263.3044
 145  329.2958
 146  435.4465
 147  358.7269
 148  284.9985
 149  279.8595
 150  378.7063
 151  363.1065
 152  234.3394
 153  134.9794
 154  273.4296
 155  247.8584
 156  399.2459
 157  393.3985
 158  410.1066
 159  386.2778
 160  223.1278
 161  318.2694
 162  317.0171
 163  465.7695
 164  440.0822
 165  397.4102
 166  429.6873
 167  472.7574
 168  398.5111
 169  484.1877
 170  489.922
 171  456.1969
 172  427.3373
 173  394.545
 174  479.8787
 175  420.6755
 176  422.5956
 177  340.7976
 178  366.8819
 179  353.3463
 180  357.8155
 181  431.1185
 182  407.3896
 183  390.7818
 184  424.1874
 185  471.4903
 186  345.6697
 187  304.9174
 188  257.7792
 189  350.3744
 190  345.752
 191  262.6002
 192  335.0473
 193  313.4583
 194  269.5881
 195  315.3034
 196  331.44
 197  297.959
 198  275.3196
 199  332.0165
 200  321.7634
 201  232.6515
 202  360.1664
 203  445.4458
 204  334.5064
 205  284.0858
 206  305.344
 207  302.5145
 208  331.3792
 209  363.5891
 210  410.3885
 211  409.1097
 212  385.7234
 213  326.8536
 214  201.6004
 215  225.3602
 216  314.1045
 217  348.4497
 218  351.6362
 219  326.7852
 220  431.3855
 221  497.6549
 222  359.5343
 223  261.8398
 224  269.7534
 225  284.3413
 226  284.9528
 227  262.7038
 228  361.6011
 229  449.1989
 230  410.8921
 231  251.8707
 232  261.9336
 233  257.295
 234  427.6412
 235  405.4231
 236  425.441
 237  374.7732
 238  361.7304
 239  374.3188
 240  221.3364
 241  365.067
 242  380.5668
 243  341.0637
 244  412.0567
 245  302.9316
 246  284.1084
 247  412.4122
 248  472.5546
 249  462.2891
 250  387.3142
 251  474.0804
 252  451.0482
 253  319.6091
 254  350.6705
 255  387.5896
 256  348.2209
 257  344.7773
 258  405.7159
 259  470.2672
 260  418.1467
 261  338.4138
 262  365.3096
 263  490.1101
 264  419.2629
 265  325.7991
 266  275.9488
 267  380.2645
 268  161.6595
 269  241.2842
 270  336.8784
 271  346.4591
 272  166.4954
 273  229.124
 274  237.6013
 275  259.291
 276  281.9184
 277  307.0114
 278  360.4413
 279  317.0032
 280  303.6116
 281  165.0132
 282  145.0122
 283  235.3317
 284  294.42
 285  235.426
 286  214.9373
 287  227.7182
 288  393.3811
 289  289.3539
 290  267.5899
 291  325.9788
 292  398.4834
 293  386.3565
 294  353.1774
 295  437.9563
 296  360.116
 297  321.843
 298  332.8164
 299  357.623
 300  490.9266
 301  420.2728
 302  399.6927
 303  399.2391
 304  378.6827
 305  399.6651
 306  303.7022
 307  340.0201
 308  377.7268
 309  339.4048
 310  371.3599
 311  341.8929
 312  444.1429
 313  562.2726
 314  460.6113
 315  426.5078
 316  403.1833
 317  439.0732
 318  440.2134
 319  322.5021
 320  361.5585
 321  404.0994
 322  418.9818
 323  422.3029
 324  414.8127
 325  389.9369
 326  309.7351
 327  386.4292
 328  409.7907
 329  428.1977
 330  456.9966
 331  322.0709
 332  373.5897
 333  363.552
 334  413.7339
 335  435.584
 336  372.5394
 337  325.5764
 338  412.5043
 339  460.9396
 340  448.6865
 341  333.3548
 342  340.6799
 343  357.1826
 344  311.111
 345  381.6407
 346  377.4093
 347  356.9637
 348  359.1634
 349  257.6211
 350  307.0305
 351  392.2014
 352  224.758
 353  217.6872
 354  370.1063
 355  416.4156
 356  353.2996
 357  331.9137
 358  382.7969
 359  378.2097
 360  185.3425
 361  268.0909
 362  331.919
 363  287.2498
 364  373.8188
 365  301.053
 366  351.4777
 367  244.9108
 368  243.5245
 369  320.9928
 370  358.0343
 371  327.0552
 372  529.6252
 373  460.2502
 374  380.0054
 375  407.6985
 376  449.9769
 377  461.2171
 378  343.271
 379  260.6978
 380  315.3621
 381  318.335
 382  319.4079
 383  328.715
 384  355.6866
 385  362.3631
 386  409.6646
 387  387.2626
 388  445.1619
 389  392.9574
 390  394.8494
 391  489.7133
 392  528.9257
 393  385.8246
 394  509.4222
 395  480.2749
 396  419.4832
 397  295.8245
 398  345.655
 399  454.7625
 400  383.7124
 401  412.6718
 402  385.7429
 403  391.2293
 404  381.2574
 405  334.7501
 406  274.8689
 407  382.9629
 408  380.7234
 409  378.4844
 410  440.7735
 411  410.0753
 412  503.9044
 413  460.0732
 414  378.0688
 415  268.76
 416  400.3079
 417  364.055
 418  314.3164
 419  321.5741
 420  325.5554
 421  312.5105
 422  372.7296
 423  399.4059
 424  327.7782
 425  293.7798
 426  350.1465
 427  422.9385
 428  375.5491
 429  450.5819
 430  418.7216
 431  409.1688
 432  387.5299
 433  361.0413
 434  424.922
 435  366.9658
 436  269.7912
 437  224.8345
 438  188.8734
 439  364.4877
 440  301.2571
 441  338.9351
 442  411.6933
 443  185.8997
 444  329.2621
 445  370.2979
 446  262.5447
 447  233.0372
 448  284.6169
 449  369.0651
 450  407.1038
 451  421.8727
 452  385.2937
 453  382.1577
 454  265.2602
 455  279.3518
 456  322.0336
 457  347.1923
 458  448.605
 459  436.3574
 460  338.3479
 461  282.2611
 462  338.9323
 463  289.9063
 464  347.3605
 465  346.5646
 466  326.2546
 467  312.4815
 468  319.4699
 469  248.791
 470  305.8778
 471  292.8807
 472  372.2635
 473  457.863
 474  477.459
 475  269.1155
 476  212.463
 477  407.5759
 478  469.8085
 479  416.2458
 480  313.5581
 481  326.8069
 482  297.6844
 483  302.1017
 484  283.5844
 485  546.2182
 486  487.5465
 487  391.5904
 488  322.7668
 489  280.4951
 490  294.3103
 491  315.4917
 492  435.8112
 493  486.2748
 494  374.3345
 495  392.3613
 496  377.6308
 497  299.5294
 498  336.5904
 499  292.415
 500  258.985
 501  373.4491
 502  484.9713
 503  419.5493
 504  460.5587
 505  470.5142
 506  517.8724
 507  486.8661
 508  456.087
 509  753.6987
 510  922.6265
 511  1115.512
