# Input file       =  1183596519.103687_cleaned.dat
# Candidate        =  PSR_0332+5434
# Telescope        =  AR
# Epoch_topo       =  57943.033577588969
# Epoch_bary       =  N/A
# T_sample         =  0.002
# Data Folded      =  7143424
# Data Avg         =  0.0228819120269129
# Data StdDev      =  1.00002009201467 
# Profile Bins     =  512
# Profile Avg      =  319.249504694877 
# Profile StdDev   =  118.120957722199 
# Reduced chi-sqr  =  1.488
# Prob(Noise)      <  4.29e-12   (~6.8 sigma)
# P_topo (ms)      =  714.483060182514  +/- 0.000209
# P'_topo (s/s)    =  -0                +/- 1.13e-10
# P''_topo (s/s^2) =  0                 +/- 5.15e-14
# P_bary (ms)      =  N/A
# P'_bary (s/s)    =  N/A
# P''_bary (s/s^2) =  N/A
# P_orb (s)        =  N/A
# asin(i)/c (s)    =  N/A
# eccentricity     =  N/A
# w (rad)          =  N/A
# T_peri           =  N/A
######################################################
   0  1015.661
   1  1044.838
   2  908.4296
   3  694.731
   4  430.2318
   5  516.9446
   6  527.3113
   7  379.0407
   8  287.5158
   9  392.6965
  10  358.1458
  11  251.3637
  12  294.4845
  13  353.7809
  14  315.8607
  15  281.3952
  16  318.4198
  17  431.2462
  18  311.8435
  19  389.321
  20  426.9494
  21  342.063
  22  264.7839
  23  260.5938
  24  327.4266
  25  242.9803
  26  216.3827
  27  134.3685
  28  87.60065
  29  314.817
  30  348.1745
  31  420.766
  32  342.7823
  33  405.2633
  34  296.764
  35  403.0511
  36  395.7098
  37  311.2556
  38  437.7072
  39  495.7853
  40  392.6458
  41  364.3917
  42  403.519
  43  367.5047
  44  279.8373
  45  326.4703
  46  309.8118
  47  290.1049
  48  387.239
  49  412.6725
  50  263.9767
  51  220.9563
  52  275.469
  53  349.61
  54  412.688
  55  354.8391
  56  307.6974
  57  225.5103
  58  245.009
  59  302.0074
  60  287.8664
  61  327.4203
  62  334.6285
  63  270.9123
  64  328.2053
  65  284.0729
  66  288.549
  67  264.9321
  68  367.975
  69  395.7929
  70  363.2704
  71  337.3792
  72  449.0816
  73  363.4843
  74  377.5522
  75  530.384
  76  404.2018
  77  391.48
  78  317.9066
  79  273.7749
  80  318.7474
  81  273.2367
  82  158.4908
  83  196.6925
  84  309.6864
  85  258.9868
  86  214.6072
  87  282.7234
  88  243.5654
  89  349.6772
  90  389.6195
  91  411.4355
  92  281.8962
  93  273.1414
  94  360.2697
  95  308.8499
  96  294.9747
  97  259.033
  98  157.0747
  99  280.8597
 100  301.8292
 101  291.4364
 102  194.6009
 103  170.9952
 104  168.7658
 105  208.1392
 106  247.5581
 107  247.8804
 108  285.861
 109  388.0233
 110  321.007
 111  175.4543
 112  224.6167
 113  378.4042
 114  212.245
 115  310.0023
 116  386.0936
 117  284.0939
 118  270.112
 119  303.3533
 120  240.1286
 121  237.2475
 122  301.5749
 123  316.2907
 124  381.0052
 125  244.0145
 126  397.6722
 127  279.4421
 128  149.3155
 129  226.5997
 130  249.785
 131  406.4036
 132  315.1918
 133  384.1936
 134  466.4465
 135  374.5185
 136  327.7638
 137  361.0641
 138  295.7492
 139  249.4961
 140  321.2874
 141  292.8863
 142  317.1223
 143  307.1319
 144  402.0339
 145  479.193
 146  421.2405
 147  299.5843
 148  279.4164
 149  330.1385
 150  356.6194
 151  334.388
 152  309.9304
 153  240.2025
 154  285.7464
 155  375.8784
 156  405.7968
 157  274.2741
 158  224.5526
 159  313.4375
 160  323.2502
 161  392.1903
 162  358.2117
 163  360.6427
 164  483.7152
 165  359.6017
 166  363.282
 167  340.3724
 168  372.1608
 169  416.1144
 170  460.2686
 171  361.096
 172  322.9377
 173  236.2336
 174  248.7504
 175  381.4799
 176  317.7636
 177  190.9989
 178  199.7696
 179  477.5328
 180  475.507
 181  251.0651
 182  326.8239
 183  417.6659
 184  366.4102
 185  416.2938
 186  364.4501
 187  309.8114
 188  266.6785
 189  351.0592
 190  237.4359
 191  223.1411
 192  260.198
 193  230.7488
 194  216.712
 195  315.9493
 196  377.6041
 197  492.5368
 198  468.8211
 199  420.4547
 200  470.3522
 201  374.0552
 202  269.3523
 203  258.9115
 204  388.5834
 205  445.8337
 206  430.2098
 207  531.8502
 208  479.6607
 209  412.1369
 210  397.3189
 211  284.985
 212  177.6141
 213  272.0007
 214  315.2998
 215  383.7788
 216  306.4266
 217  315.6321
 218  348.4868
 219  265.6855
 220  230.9691
 221  263.9981
 222  393.8259
 223  386.3493
 224  404.5062
 225  313.8632
 226  251.4125
 227  458.2051
 228  417.8268
 229  331.4843
 230  365.2581
 231  419.5365
 232  341.5227
 233  404.5239
 234  417.7864
 235  398.6053
 236  367.0215
 237  366.6854
 238  399.0512
 239  317.8509
 240  337.3922
 241  391.2726
 242  321.9114
 243  202.8922
 244  224.1301
 245  263.9878
 246  271.607
 247  309.0333
 248  338.7068
 249  408.7975
 250  339.7737
 251  200.8396
 252  269.1506
 253  332.0044
 254  445.7306
 255  423.3509
 256  326.9671
 257  338.6186
 258  383.1949
 259  197.1113
 260  298.7099
 261  251.1124
 262  263.8703
 263  315.6538
 264  364.5933
 265  298.4368
 266  144.1505
 267  151.6488
 268  273.4174
 269  328.7868
 270  252.8718
 271  315.5386
 272  300.5733
 273  264.2655
 274  225.4328
 275  174.2487
 276  293.4333
 277  435.8771
 278  418.6134
 279  346.7127
 280  310.5538
 281  305.2759
 282  380.7003
 283  277.3062
 284  320.6862
 285  291.5743
 286  281.3671
 287  370.3711
 288  306.7235
 289  345.1753
 290  338.7444
 291  383.2141
 292  426.1194
 293  453.2912
 294  319.9796
 295  310.6573
 296  322.7067
 297  258.0865
 298  267.7968
 299  221.6489
 300  244.8911
 301  205.9633
 302  245.226
 303  211.3685
 304  286.9894
 305  311.7146
 306  371.2685
 307  280.5444
 308  317.3326
 309  257.7354
 310  321.545
 311  406.4085
 312  286.5188
 313  245.2645
 314  313.1624
 315  274.504
 316  243.4428
 317  277.0627
 318  326.1989
 319  336.8269
 320  208.588
 321  341.9014
 322  367.5346
 323  335.5242
 324  261.9429
 325  309.3662
 326  267.0331
 327  262.8672
 328  369.5168
 329  321.1763
 330  245.4277
 331  324.6883
 332  413.5034
 333  277.911
 334  198.1333
 335  157.0665
 336  247.8034
 337  346.4351
 338  300.5876
 339  208.5895
 340  184.7518
 341  269.8583
 342  293.0475
 343  478.128
 344  370.4727
 345  241.0939
 346  213.8091
 347  230.3435
 348  350.2896
 349  376.0498
 350  383.3423
 351  267.7741
 352  258.7956
 353  323.5691
 354  319.6193
 355  195.6758
 356  251.7277
 357  183.9971
 358  300.8675
 359  339.3148
 360  205.0681
 361  133.0185
 362  122.9882
 363  287.7502
 364  353.8545
 365  463.2724
 366  481.046
 367  282.875
 368  191.0397
 369  308.5232
 370  377.0698
 371  257.0927
 372  256.2248
 373  353.7845
 374  269.358
 375  183.8627
 376  300.7666
 377  393.355
 378  436.2496
 379  324.9707
 380  272.3672
 381  301.7308
 382  239.9079
 383  270.8531
 384  383.5518
 385  263.9853
 386  211.1564
 387  262.388
 388  156.8047
 389  231.0847
 390  233.0788
 391  191.6106
 392  220.5417
 393  376.1729
 394  340.4321
 395  242.7892
 396  243.4194
 397  251.7645
 398  342.7295
 399  270.0732
 400  262.2568
 401  268.6359
 402  242.4015
 403  288.3415
 404  379.2809
 405  348.0097
 406  232.193
 407  218.219
 408  225.0344
 409  290.1395
 410  202.2042
 411  339.2451
 412  276.8877
 413  176.3975
 414  227.2009
 415  231.231
 416  261.0027
 417  383.1975
 418  288.0146
 419  172.1984
 420  95.69864
 421  285.8716
 422  432.0242
 423  337.9272
 424  367.8423
 425  306.6718
 426  273.2138
 427  355.6466
 428  345.8086
 429  397.6431
 430  431.4284
 431  295.4389
 432  246.2655
 433  247.1102
 434  272.2698
 435  282.4404
 436  360.7577
 437  284.1285
 438  316.8543
 439  315.5614
 440  243.2038
 441  219.1409
 442  335.9668
 443  339.5974
 444  200.4658
 445  240.5246
 446  288.6848
 447  316.414
 448  293.604
 449  319.1052
 450  371.5862
 451  384.3784
 452  355.057
 453  242.0807
 454  244.524
 455  224.8625
 456  255.6194
 457  282.9102
 458  270.5187
 459  334.5584
 460  333.5901
 461  292.3841
 462  335.2646
 463  299.0178
 464  281.6638
 465  329.2491
 466  255.4305
 467  288.0871
 468  305.3405
 469  438.0078
 470  343.6387
 471  266.5234
 472  345.7693
 473  340.0906
 474  301.6494
 475  181.3246
 476  222.2158
 477  233.7208
 478  387.8385
 479  362.7962
 480  380.1217
 481  349.2753
 482  249.2051
 483  291.377
 484  307.8633
 485  238.676
 486  185.9541
 487  218.1998
 488  255.337
 489  97.27341
 490  198.573
 491  404.7748
 492  372.8459
 493  283.9534
 494  244.5387
 495  208.5455
 496  177.386
 497  379.3315
 498  322.4005
 499  266.1651
 500  193.2028
 501  260.3497
 502  356.3755
 503  245.3941
 504  449.1159
 505  492.6664
 506  445.3429
 507  481.4692
 508  573.3307
 509  605.8639
 510  926.3781
 511  1005.941
