# Input file       =  1183854874.114862_cleaned.dat
# Candidate        =  PSR_0332+5434
# Telescope        =  AR
# Epoch_topo       =  57946.023797625719
# Epoch_bary       =  N/A
# T_sample         =  0.002
# Data Folded      =  7274496
# Data Avg         =  0.0240073172740897
# Data StdDev      =  1.00011453616858 
# Profile Bins     =  512
# Profile Avg      =  341.101320701916 
# Profile StdDev   =  119.210967809822 
# Reduced chi-sqr  =  1.086
# Prob(Noise)      <  0.087   (~1.4 sigma)
# P_topo (ms)      =  714.48093561831   +/- 0.000228
# P'_topo (s/s)    =  -0                +/- 1.21e-10
# P''_topo (s/s^2) =  0                 +/- 5.4e-14
# P_bary (ms)      =  N/A
# P'_bary (s/s)    =  N/A
# P''_bary (s/s^2) =  N/A
# P_orb (s)        =  N/A
# asin(i)/c (s)    =  N/A
# eccentricity     =  N/A
# w (rad)          =  N/A
# T_peri           =  N/A
######################################################
   0  916.4134
   1  746.8035
   2  645.9873
   3  442.1574
   4  302.4774
   5  305.8269
   6  213.9865
   7  101.4199
   8  263.3973
   9  262.6004
  10  283.3116
  11  215.4141
  12  299.4443
  13  459.4461
  14  479.1312
  15  448.763
  16  394.5617
  17  370.8989
  18  234.8178
  19  173.7408
  20  321.6706
  21  348.6862
  22  265.2935
  23  259.2494
  24  262.0126
  25  431.6423
  26  351.6225
  27  159.2722
  28  218.5827
  29  284.2715
  30  237.3751
  31  332.2673
  32  430.7061
  33  386.0547
  34  302.6066
  35  316.3273
  36  343.2906
  37  275.1693
  38  229.1141
  39  175.2539
  40  260.1941
  41  393.7569
  42  276.8915
  43  129.5708
  44  178.3449
  45  354.0099
  46  274.5779
  47  442.2733
  48  379.8694
  49  259.1438
  50  281.4973
  51  256.5139
  52  261.2079
  53  211.2642
  54  283.9746
  55  339.5428
  56  212.3315
  57  280.1399
  58  293.3458
  59  264.2678
  60  368.3198
  61  280.1591
  62  218.062
  63  219.9483
  64  197.5794
  65  260.5932
  66  307.7607
  67  351.4877
  68  374.6525
  69  390.9164
  70  402.9073
  71  367.5862
  72  398.5729
  73  386.8354
  74  283.4683
  75  366.1612
  76  385.1724
  77  332.3304
  78  242.1171
  79  233.1714
  80  341.0642
  81  468.6196
  82  307.2448
  83  431.7118
  84  464.3378
  85  379.9741
  86  270.5052
  87  342.118
  88  360.8155
  89  416.3298
  90  398.3795
  91  512.3451
  92  346.6162
  93  331.9228
  94  343.4701
  95  310.5737
  96  295.3239
  97  388.2647
  98  315.3987
  99  465.8297
 100  447.5469
 101  332.8456
 102  399.3062
 103  383.2847
 104  344.3239
 105  363.9473
 106  369.5235
 107  363.2021
 108  461.711
 109  429.8545
 110  421.3611
 111  458.7565
 112  460.3895
 113  399.2855
 114  249.5864
 115  264.0873
 116  369.1565
 117  417.1428
 118  435.0762
 119  346.9441
 120  355.5063
 121  397.9921
 122  397.0373
 123  406.7674
 124  484.4671
 125  353.4484
 126  248.0175
 127  282.7942
 128  349.2324
 129  378.1774
 130  362.3214
 131  411.9991
 132  448.0201
 133  332.9846
 134  417.7488
 135  344.6249
 136  277.3221
 137  334.1359
 138  240.8144
 139  205.2757
 140  290.1187
 141  349.5634
 142  342.5005
 143  417.4824
 144  261.9233
 145  139.5914
 146  232.0437
 147  281.9147
 148  233.6359
 149  243.6516
 150  272.5864
 151  320.7655
 152  240.6238
 153  286.9592
 154  353.1735
 155  170.9937
 156  200.413
 157  371.516
 158  466.1061
 159  390.3314
 160  275.2717
 161  167.8907
 162  226.3139
 163  403.2076
 164  315.4576
 165  333.2634
 166  247.7267
 167  245.9011
 168  297.4
 169  338.806
 170  275.0865
 171  290.4034
 172  381.2732
 173  441.1798
 174  416.2284
 175  334.2592
 176  363.1096
 177  330.3806
 178  309.1068
 179  369.9415
 180  230.8175
 181  247.4562
 182  355.6669
 183  444.3254
 184  536.079
 185  435.3486
 186  340.275
 187  372.2714
 188  294.6294
 189  289.5719
 190  377.8214
 191  352.1598
 192  286.5176
 193  268.7993
 194  382.921
 195  361.3507
 196  339.1443
 197  236.6079
 198  386.5507
 199  434.7264
 200  442.4808
 201  341.948
 202  258.0833
 203  288.6875
 204  243.9262
 205  460.3437
 206  485.4324
 207  411.502
 208  362.7721
 209  447.1967
 210  505.8757
 211  427.434
 212  412.8651
 213  463.6238
 214  428.7477
 215  438.7339
 216  516.5545
 217  412.018
 218  371.5517
 219  312.439
 220  417.7586
 221  324.2365
 222  197.9184
 223  276.7161
 224  448.7308
 225  474.2124
 226  382.0849
 227  368.2076
 228  322.1003
 229  280.3232
 230  261.437
 231  299.9472
 232  465.7999
 233  362.85
 234  266.0849
 235  385.9739
 236  333.4382
 237  298.5657
 238  397.1406
 239  475.2471
 240  390.7255
 241  373.388
 242  270.3237
 243  248.0296
 244  298.1346
 245  301.3774
 246  401.3124
 247  395.069
 248  404.2893
 249  425.6642
 250  397.8287
 251  297.611
 252  315.4422
 253  349.3229
 254  474.5089
 255  420.4823
 256  442.4285
 257  485.5285
 258  468.4821
 259  387.2632
 260  318.4563
 261  292.5905
 262  402.8423
 263  373.0419
 264  392.8396
 265  340.5773
 266  272.5125
 267  359.1554
 268  383.6655
 269  426.882
 270  510.2717
 271  421.2987
 272  337.4287
 273  322.1199
 274  355.3382
 275  338.4122
 276  302.0952
 277  378.075
 278  378.7933
 279  355.6871
 280  391.1459
 281  367.1023
 282  315.187
 283  268.5124
 284  253.448
 285  200.5206
 286  259.6583
 287  346.4967
 288  398.9931
 289  331.5467
 290  247.5939
 291  338.8532
 292  368.2979
 293  392.9348
 294  306.1842
 295  358.1629
 296  375.6935
 297  285.0992
 298  216.381
 299  231.2183
 300  319.3489
 301  327.9427
 302  307.5084
 303  318.9997
 304  292.9433
 305  373.4233
 306  307.9472
 307  299.5088
 308  313.0849
 309  348.2076
 310  404.2395
 311  419.9735
 312  373.2222
 313  324.7226
 314  396.0014
 315  304.996
 316  259.3597
 317  291.0042
 318  331.0263
 319  278.233
 320  366.3483
 321  289.6378
 322  193.1088
 323  438.1354
 324  430.4215
 325  392.5348
 326  309.6509
 327  414.2405
 328  384.7849
 329  429.2567
 330  452.0275
 331  358.4326
 332  293.7745
 333  327.8696
 334  361.2409
 335  354.3425
 336  496.1266
 337  463.7347
 338  315.9548
 339  295.9471
 340  378.9163
 341  384.0568
 342  363.171
 343  427.2414
 344  354.9473
 345  354.3175
 346  386.0356
 347  306.229
 348  343.1365
 349  359.2938
 350  239.2956
 351  326.9522
 352  457.8403
 353  434.4013
 354  395.7742
 355  299.3728
 356  308.9398
 357  239.3204
 358  159.9016
 359  290.2948
 360  410.6528
 361  404.7075
 362  315.778
 363  289.2923
 364  331.5333
 365  382.5714
 366  355.6003
 367  271.3719
 368  293.8925
 369  368.7847
 370  375.7548
 371  372.3494
 372  318.0089
 373  267.7659
 374  281.425
 375  287.1168
 376  345.9952
 377  366.0515
 378  315.8651
 379  401.8423
 380  385.0934
 381  347.921
 382  419.5406
 383  426.4976
 384  410.156
 385  313.3811
 386  220.134
 387  272.4587
 388  362.5262
 389  333.9783
 390  361.8144
 391  452.6719
 392  431.1727
 393  351.3823
 394  347.2695
 395  346.3751
 396  407.4782
 397  302.8247
 398  368.4398
 399  398.9927
 400  289.6274
 401  223.4545
 402  313.2805
 403  237.5621
 404  391.4319
 405  448.5157
 406  352.988
 407  259.9335
 408  247.2241
 409  350.0191
 410  343.3947
 411  319.5132
 412  390.4792
 413  380.0782
 414  314.5144
 415  257.0752
 416  261.4041
 417  287.2994
 418  316.1106
 419  381.9619
 420  508.2338
 421  393.3353
 422  355.8523
 423  286.8866
 424  362.5844
 425  381.4178
 426  386.9201
 427  348.0132
 428  291.2024
 429  219.5042
 430  235.2953
 431  327.291
 432  443.8394
 433  332.1642
 434  202.5211
 435  195.5851
 436  356.7631
 437  287.6099
 438  190.3641
 439  306.1791
 440  337.3878
 441  294.3546
 442  325.4431
 443  309.989
 444  308.1004
 445  276.4291
 446  288.5022
 447  311.7526
 448  301.0457
 449  304.1378
 450  280.7539
 451  338.2157
 452  438.339
 453  381.3296
 454  352.2321
 455  274.7753
 456  213.0453
 457  262.7123
 458  363.2725
 459  364.7433
 460  391.2136
 461  364.7833
 462  263.4156
 463  291.2252
 464  234.9754
 465  292.8738
 466  277.0204
 467  359.1907
 468  287.8326
 469  242.6898
 470  247.4266
 471  278.232
 472  310.6104
 473  184.9265
 474  145.8233
 475  236.6548
 476  265.7774
 477  281.3927
 478  371.9176
 479  317.7959
 480  190.3281
 481  258.7797
 482  336.0123
 483  223.9724
 484  292.5
 485  367.8887
 486  398.0113
 487  339.0332
 488  330.9564
 489  283.2333
 490  319.3519
 491  334.8639
 492  326.9398
 493  450.5555
 494  386.0142
 495  288.3712
 496  337.1952
 497  352.8488
 498  332.0836
 499  364.3138
 500  310.2816
 501  209.4604
 502  162.9679
 503  261.0157
 504  306.9932
 505  311.6263
 506  403.118
 507  595.89
 508  666.2488
 509  675.8846
 510  740.2583
 511  889.0306
