# Input file       =  1183079651.114455_cleaned.dat
# Candidate        =  PSR_0332+5434
# Telescope        =  AR
# Epoch_topo       =  57937.051309195078
# Epoch_bary       =  N/A
# T_sample         =  0.002
# Data Folded      =  7405568
# Data Avg         =  0.0297603970019698
# Data StdDev      =  1.00007415172094 
# Profile Bins     =  512
# Profile Avg      =  430.469524012615 
# Profile StdDev   =  120.275288985366 
# Reduced chi-sqr  =  1.183
# Prob(Noise)      <  0.00272   (~2.8 sigma)
# P_topo (ms)      =  714.487584150536  +/- 0.000113
# P'_topo (s/s)    =  -0                +/- 5.89e-11
# P''_topo (s/s^2) =  0                 +/- 2.58e-14
# P_bary (ms)      =  N/A
# P'_bary (s/s)    =  N/A
# P''_bary (s/s^2) =  N/A
# P_orb (s)        =  N/A
# asin(i)/c (s)    =  N/A
# eccentricity     =  N/A
# w (rad)          =  N/A
# T_peri           =  N/A
######################################################
   0  1049.023
   1  1060.819
   2  867.9803
   3  742.3759
   4  566.1394
   5  310.1677
   6  342.6017
   7  355.5498
   8  367.4624
   9  392.0332
  10  413.665
  11  397.4241
  12  363.2335
  13  309.3838
  14  358.3439
  15  557.806
  16  526.4905
  17  515.2863
  18  385.2693
  19  371.5238
  20  385.515
  21  442.2661
  22  416.5827
  23  479.9088
  24  487.9036
  25  417.6845
  26  457.6521
  27  537.4332
  28  496.5014
  29  375.7905
  30  309.1115
  31  449.9423
  32  388.5835
  33  442.7487
  34  503.0433
  35  479.7262
  36  384.5903
  37  479.3835
  38  505.269
  39  376.3251
  40  312.7466
  41  278.0709
  42  360.0008
  43  474.8109
  44  477.3305
  45  474.9876
  46  499.8641
  47  546.4249
  48  444.9541
  49  451.8557
  50  437.8552
  51  452.1494
  52  544.5479
  53  492.2084
  54  436.501
  55  374.9531
  56  415.9101
  57  363.3451
  58  403.0101
  59  420.7551
  60  478.3435
  61  321.7643
  62  398.6784
  63  469.8824
  64  410.6164
  65  325.4588
  66  346.8839
  67  395.8854
  68  330.1272
  69  419.6376
  70  364.584
  71  375.6254
  72  341.2858
  73  337.846
  74  359.6898
  75  310.7249
  76  321.9324
  77  375.8292
  78  330.1114
  79  311.0099
  80  284.3895
  81  343.2428
  82  336.6156
  83  381.5253
  84  463.8862
  85  434.7568
  86  496.6183
  87  539.9233
  88  498.6926
  89  381.8634
  90  376.9998
  91  310.9335
  92  396.0149
  93  448.4111
  94  288.3745
  95  339.4806
  96  379.7202
  97  410.2514
  98  363.8687
  99  365.3229
 100  342.4548
 101  401.7483
 102  461.3377
 103  339.6718
 104  375.7404
 105  424.0042
 106  444.886
 107  370.2013
 108  437.1751
 109  492.5255
 110  440.9438
 111  442.3651
 112  447.4092
 113  321.194
 114  452.6744
 115  476.8527
 116  480.9813
 117  534.3865
 118  475.1563
 119  412.1663
 120  422.7008
 121  451.6142
 122  399.2628
 123  442.1025
 124  488.4571
 125  463.8708
 126  446.6164
 127  549.5676
 128  423.7825
 129  491.4755
 130  449.4118
 131  309.6371
 132  445.7877
 133  534.4647
 134  513.6266
 135  334.5599
 136  415.3237
 137  460.3152
 138  338.6784
 139  183.9969
 140  266.2448
 141  442.8204
 142  466.2897
 143  453.4084
 144  417.804
 145  411.3795
 146  301.802
 147  359.5173
 148  380.8217
 149  446.2428
 150  460.6284
 151  455.6676
 152  329.6448
 153  308.9792
 154  329.3964
 155  340.9214
 156  319.2234
 157  355.4919
 158  416.3686
 159  447.855
 160  471.6079
 161  352.5836
 162  369.9248
 163  318.6159
 164  306.9532
 165  457.2048
 166  569.7297
 167  511.714
 168  539.0292
 169  477.6669
 170  464.5321
 171  453.4213
 172  449.8806
 173  435.599
 174  346.0698
 175  373.7926
 176  444.8928
 177  372.2776
 178  389.7421
 179  403.5724
 180  340.2291
 181  342.6223
 182  272.0938
 183  221.5368
 184  358.3519
 185  522.6376
 186  435.0177
 187  329.0687
 188  437.9481
 189  472.5656
 190  364.0584
 191  476.676
 192  621.8774
 193  493.848
 194  459.275
 195  449.9995
 196  445.1472
 197  425.8217
 198  508.5312
 199  419.7598
 200  428.1973
 201  481.4873
 202  482.5919
 203  535.8407
 204  372.9029
 205  357.5982
 206  419.1433
 207  468.2775
 208  525.4962
 209  510.3084
 210  424.7603
 211  338.363
 212  213.6625
 213  309.4198
 214  564.0317
 215  472.8112
 216  402.3606
 217  535.1202
 218  527.5515
 219  351.855
 220  322.8566
 221  393.3832
 222  426.8659
 223  434.5616
 224  455.0784
 225  426.2287
 226  461.362
 227  425.9248
 228  338.9565
 229  433.0515
 230  364.7937
 231  408.3758
 232  386.0373
 233  405.8043
 234  436.4147
 235  321.1094
 236  316.7781
 237  281.7223
 238  229.6337
 239  268.581
 240  297.7855
 241  382.5349
 242  479.703
 243  497.3239
 244  421.2018
 245  446.3968
 246  464.418
 247  420.4896
 248  388.5464
 249  393.9617
 250  470.2177
 251  468.7289
 252  402.4703
 253  443.4409
 254  426.305
 255  322.4057
 256  336.8545
 257  337.2521
 258  534.8273
 259  527.5372
 260  574.2627
 261  402.3932
 262  408.9495
 263  374.8479
 264  459.9602
 265  545.6816
 266  504.6845
 267  476.6213
 268  461.5515
 269  601.0758
 270  487.0008
 271  398.0343
 272  498.1292
 273  558.8036
 274  496.5444
 275  507.7642
 276  529.4404
 277  494.1518
 278  489.3437
 279  374.7264
 280  335.1739
 281  405.2999
 282  398.3038
 283  364.1241
 284  487.7101
 285  366.6003
 286  334.5695
 287  283.8228
 288  372.1746
 289  472.9998
 290  415.4642
 291  335.8996
 292  457.3495
 293  420.0415
 294  433.3103
 295  310.1307
 296  302.4655
 297  417.3716
 298  438.3314
 299  405.7052
 300  439.4798
 301  468.7604
 302  433.0916
 303  414.3601
 304  321.0674
 305  399.0276
 306  416.3068
 307  417.7865
 308  459.2571
 309  435.4756
 310  425.2861
 311  373.2069
 312  276.0317
 313  300.6127
 314  346.3518
 315  438.7561
 316  395.3252
 317  465.3877
 318  543.5709
 319  373.6974
 320  336.688
 321  380.8363
 322  430.2596
 323  360.425
 324  408.0318
 325  419.2744
 326  425.1955
 327  498.7665
 328  446.3911
 329  330.9814
 330  339.5398
 331  390.5187
 332  494.6837
 333  545.4671
 334  482.6551
 335  474.1916
 336  453.6043
 337  413.9846
 338  419.0288
 339  437.1922
 340  522.1821
 341  583.0381
 342  645.6052
 343  525.9715
 344  411.4044
 345  383.3876
 346  531.7302
 347  449.5067
 348  362.5835
 349  423.9319
 350  450.2333
 351  499.0968
 352  468.6894
 353  468.5668
 354  386.6348
 355  351.898
 356  400.8509
 357  470.2035
 358  329.3851
 359  374.8427
 360  414.8044
 361  416.6472
 362  489.1713
 363  488.2387
 364  568.2351
 365  621.6534
 366  467.9202
 367  369.3132
 368  466.3033
 369  436.912
 370  548.7548
 371  372.5014
 372  421.4995
 373  498.7493
 374  494.5958
 375  434.476
 376  435.7072
 377  421.4402
 378  471.0986
 379  363.6682
 380  355.3894
 381  516.4122
 382  534.7582
 383  382.519
 384  505.0867
 385  505.7901
 386  508.6187
 387  525.5641
 388  576.6492
 389  433.8538
 390  488.4435
 391  518.6196
 392  448.064
 393  376.904
 394  410.5187
 395  385.9459
 396  471.9261
 397  452.5206
 398  395.1743
 399  377.3901
 400  490.1503
 401  458.4203
 402  530.1497
 403  425.7872
 404  369.3727
 405  458.6682
 406  398.4895
 407  544.6585
 408  482.4049
 409  383.1727
 410  374.915
 411  368.5034
 412  333.5593
 413  372.1696
 414  501.4445
 415  529.8279
 416  464.9866
 417  358.1281
 418  340.5628
 419  265.5166
 420  296.1699
 421  404.5704
 422  455.8523
 423  542.905
 424  531.7935
 425  401.5685
 426  335.4667
 427  462.6837
 428  443.9556
 429  411.3864
 430  412.2328
 431  503.5424
 432  438.7189
 433  500.0816
 434  378.5977
 435  369.8703
 436  316.483
 437  366.8682
 438  384.3272
 439  350.7426
 440  306.4342
 441  341.2503
 442  385.5806
 443  397.8689
 444  340.8315
 445  324.4283
 446  325.2326
 447  441.3133
 448  471.0693
 449  357.7905
 450  283.2124
 451  417.5265
 452  466.8426
 453  468.3417
 454  472.3558
 455  352.9999
 456  422.931
 457  488.4473
 458  480.3636
 459  535.1345
 460  423.8205
 461  412.0017
 462  464.7265
 463  454.1176
 464  465.0599
 465  396.3025
 466  506.9625
 467  479.4425
 468  476.4635
 469  425.8258
 470  360.1963
 471  433.6606
 472  504.5328
 473  437.6386
 474  294.7625
 475  363.7999
 476  339.1925
 477  383.663
 478  393.3572
 479  432.4742
 480  434.7726
 481  573.3134
 482  573.0204
 483  581.4948
 484  514.1928
 485  437.775
 486  348.1602
 487  422.6964
 488  433.3401
 489  504.102
 490  506.0349
 491  512.9028
 492  427.7456
 493  457.7313
 494  485.5406
 495  508.8346
 496  394.7406
 497  508.8774
 498  467.7079
 499  399.1458
 500  472.7363
 501  370.2922
 502  350.4864
 503  340.2625
 504  450.3089
 505  414.0132
 506  470.5787
 507  533.5201
 508  602.622
 509  763.0991
 510  1000.284
 511  1035.612
