# Input file       =  1183540492.120483_cleaned.dat
# Candidate        =  PSR_0332+5434
# Telescope        =  AR
# Epoch_topo       =  57942.385117135222
# Epoch_bary       =  N/A
# T_sample         =  0.002
# Data Folded      =  7340032
# Data Avg         =  0.0401033972825707
# Data StdDev      =  1.00026859485334 
# Profile Bins     =  512
# Profile Avg      =  574.842071985425 
# Profile StdDev   =  119.765196054112 
# Reduced chi-sqr  =  1.203
# Prob(Noise)      <  0.00106   (~3.1 sigma)
# P_topo (ms)      =  714.483895279872  +/- 0.000255
# P'_topo (s/s)    =  -0                +/- 1.35e-10
# P''_topo (s/s^2) =  0                 +/- 5.94e-14
# P_bary (ms)      =  N/A
# P'_bary (s/s)    =  N/A
# P''_bary (s/s^2) =  N/A
# P_orb (s)        =  N/A
# asin(i)/c (s)    =  N/A
# eccentricity     =  N/A
# w (rad)          =  N/A
# T_peri           =  N/A
######################################################
   0  1308.641
   1  1147.61
   2  912.2733
   3  641.9612
   4  630.5264
   5  681.0491
   6  577.7925
   7  548.0653
   8  548.8987
   9  584.201
  10  645.232
  11  640.8409
  12  532.0549
  13  587.8737
  14  643.0579
  15  739.5002
  16  684.2165
  17  653.2023
  18  584.5361
  19  489.2305
  20  496.9777
  21  405.6994
  22  485.377
  23  586.166
  24  578.8099
  25  502.5605
  26  574.2053
  27  545.7628
  28  586.0652
  29  551.7169
  30  555.7916
  31  528.0481
  32  562.437
  33  607.2356
  34  645.8299
  35  518.4728
  36  576.722
  37  566.905
  38  598.7259
  39  643.2056
  40  655.2143
  41  604.4738
  42  577.8677
  43  555.5568
  44  522.2405
  45  516.7842
  46  622.3454
  47  596.463
  48  552.0874
  49  601.3912
  50  525.5646
  51  538.2066
  52  482.0844
  53  562.7603
  54  596.9094
  55  595.2475
  56  604.9656
  57  603.4305
  58  593.3257
  59  591.1907
  60  592.2454
  61  601.7553
  62  669.8775
  63  598.1267
  64  619.3842
  65  731.7346
  66  608.1456
  67  658.5848
  68  688.6539
  69  645.3241
  70  655.3046
  71  641.4625
  72  620.6358
  73  699.3594
  74  798.3327
  75  750.5352
  76  585.4223
  77  552.3406
  78  539.741
  79  580.2082
  80  457.9423
  81  492.2919
  82  574.8547
  83  550.7734
  84  599.1566
  85  501.7676
  86  558.2042
  87  526.4651
  88  605.3084
  89  643.1304
  90  520.5627
  91  473.4131
  92  469.0372
  93  463.9989
  94  523.8479
  95  431.8892
  96  616.8989
  97  533.0392
  98  524.3503
  99  597.1932
 100  612.7087
 101  626.9514
 102  530.6605
 103  471.4029
 104  407.3772
 105  577.6946
 106  592.7232
 107  485.2058
 108  581.468
 109  678.8531
 110  529.2714
 111  517.9121
 112  523.0096
 113  512.6341
 114  589.0613
 115  688.7455
 116  562.264
 117  499.6176
 118  564.757
 119  530.5146
 120  459.827
 121  533.3018
 122  510.5775
 123  499.3668
 124  549.1859
 125  617.1478
 126  571.3737
 127  521.4048
 128  617.9253
 129  572.0132
 130  676.7962
 131  589.9141
 132  531.1409
 133  510.0994
 134  472.223
 135  465.6651
 136  537.7268
 137  542.4562
 138  530.9739
 139  509.9144
 140  590.9059
 141  571.0697
 142  461.8262
 143  489.2293
 144  565.0609
 145  540.1144
 146  583.764
 147  582.8792
 148  508.4071
 149  504.2729
 150  545.3554
 151  477.2458
 152  440.5353
 153  556.8693
 154  641.4672
 155  623.9529
 156  592.0939
 157  608.2104
 158  615.3265
 159  684.4889
 160  686.2894
 161  526.1141
 162  562.3594
 163  707.5054
 164  747.6041
 165  651.8383
 166  623.9287
 167  610.0467
 168  479.6781
 169  536.5884
 170  594.9753
 171  567.4061
 172  515.1616
 173  602.3487
 174  768.7021
 175  635.288
 176  596.3983
 177  588.4877
 178  493.4656
 179  492.6272
 180  574.8602
 181  636.6632
 182  622.7344
 183  571.0017
 184  574.6699
 185  572.9898
 186  574.564
 187  641.9015
 188  494.3479
 189  505.8591
 190  599.4644
 191  541.7786
 192  478.8404
 193  553.6589
 194  689.6055
 195  833.0435
 196  577.5651
 197  654.7926
 198  653.2101
 199  685.8195
 200  663.2888
 201  551.226
 202  595.5725
 203  642.6675
 204  490.3538
 205  540.6133
 206  570.2269
 207  670.1816
 208  583.7695
 209  436.9141
 210  460.2174
 211  512.0517
 212  555.2381
 213  576.959
 214  606.2425
 215  573.6673
 216  492.7066
 217  449.7921
 218  470.78
 219  573.2854
 220  548.121
 221  422.0319
 222  538.5723
 223  522.2296
 224  542.4562
 225  643.7382
 226  548.1883
 227  658.0935
 228  645.2767
 229  661.0201
 230  634.3864
 231  511.2308
 232  495.9486
 233  538.8033
 234  496.5191
 235  419.4067
 236  458.9868
 237  542.1702
 238  517.8152
 239  569.3148
 240  527.032
 241  563.2243
 242  518.1813
 243  633.1392
 244  613.8325
 245  700.246
 246  607.9829
 247  686.5663
 248  578.6126
 249  569.7039
 250  551.3586
 251  617.2615
 252  667.1653
 253  671.1088
 254  649.1665
 255  600.9546
 256  527.6556
 257  549.9604
 258  615.9659
 259  581.2112
 260  575.8525
 261  543.6191
 262  512.6259
 263  547.0557
 264  682.6094
 265  693.874
 266  657.8637
 267  627.2644
 268  521.6597
 269  570.2417
 270  661.1663
 271  569.0004
 272  562.736
 273  604.1042
 274  551.9268
 275  599.2148
 276  626.5311
 277  671.9182
 278  630.0585
 279  519.9372
 280  591.3107
 281  572.2847
 282  638.7624
 283  557.4848
 284  576.8238
 285  538.2057
 286  513.9955
 287  598.6606
 288  567.2336
 289  546.2993
 290  573.6335
 291  690.5894
 292  597.6646
 293  614.6767
 294  670.472
 295  619.4503
 296  623.5994
 297  605.673
 298  581.7576
 299  562.53
 300  563.4271
 301  588.3422
 302  555.2099
 303  538.918
 304  567.9189
 305  530.0236
 306  657.4674
 307  587.4655
 308  431.1114
 309  542.0217
 310  584.0156
 311  542.6882
 312  569.2602
 313  517.5699
 314  545.4791
 315  582.101
 316  487.7493
 317  457.0974
 318  513.3255
 319  516.9276
 320  582.8973
 321  711.5214
 322  650.3392
 323  501.6528
 324  331.5819
 325  321.6519
 326  349.2362
 327  482.6432
 328  496.1804
 329  589.0556
 330  557.7999
 331  647.6611
 332  615.2122
 333  646.9222
 334  517.8228
 335  516.7988
 336  524.7703
 337  348.7902
 338  257.1577
 339  501.2054
 340  555.7161
 341  503.9658
 342  464.988
 343  493.5357
 344  535.5413
 345  564.1382
 346  428.746
 347  466.3265
 348  440.8221
 349  477.2235
 350  535.8689
 351  594.2778
 352  596.588
 353  454.4589
 354  499.61
 355  574.2385
 356  549.7128
 357  599.0518
 358  551.0818
 359  543.8182
 360  577.4073
 361  593.4859
 362  554.3778
 363  577.3765
 364  643.8516
 365  558.5761
 366  537.79
 367  563.0916
 368  553.6335
 369  640.928
 370  651.7083
 371  650.9288
 372  551.6168
 373  564.3659
 374  665.8192
 375  695.004
 376  573.642
 377  656.5864
 378  604.0264
 379  572.7836
 380  646.846
 381  739.1436
 382  717.3389
 383  685.9335
 384  636.2523
 385  584.8596
 386  556.373
 387  548.1924
 388  542.3671
 389  668.6981
 390  677.1075
 391  570.2213
 392  529.2744
 393  410.1602
 394  521.0383
 395  584.2659
 396  617.0087
 397  530.3381
 398  516.5695
 399  511.7917
 400  545.9428
 401  460.7853
 402  438.4855
 403  496.2889
 404  600.5549
 405  512.9685
 406  483.0696
 407  519.4543
 408  635.7086
 409  698.5781
 410  653.3713
 411  560.6026
 412  638.8174
 413  657.6502
 414  633.457
 415  602.0074
 416  598.3181
 417  647.5845
 418  669.8253
 419  593.097
 420  599.613
 421  597.2794
 422  692.3358
 423  662.0652
 424  578.3573
 425  480.6123
 426  545.3436
 427  553.3873
 428  440.1636
 429  388.6125
 430  546.8845
 431  559.7321
 432  606.0648
 433  456.849
 434  398.7321
 435  469.8228
 436  551.723
 437  560.9402
 438  596.6609
 439  514.6077
 440  499.1245
 441  559.1568
 442  581.4695
 443  536.3698
 444  495.517
 445  583.4461
 446  593.1439
 447  495.993
 448  524.6318
 449  677.7612
 450  642.8322
 451  557.5814
 452  460.6741
 453  608.5494
 454  603.2553
 455  537.1293
 456  571.6381
 457  558.4186
 458  528.5051
 459  526.9305
 460  494.8844
 461  561.2364
 462  504.3583
 463  543.2833
 464  647.757
 465  571.1213
 466  528.7126
 467  390.3776
 468  438.4764
 469  633.9966
 470  572.1162
 471  680.9783
 472  674.7972
 473  548.1091
 474  551.809
 475  473.1188
 476  563.2908
 477  610.8183
 478  551.423
 479  421.6753
 480  517.5016
 481  418.6201
 482  422.1116
 483  465.5292
 484  532.726
 485  514.9227
 486  421.4388
 487  445.045
 488  619.3457
 489  570.1729
 490  602.6094
 491  535.0269
 492  532.25
 493  584.8441
 494  609.1179
 495  576.1655
 496  647.6377
 497  586.7225
 498  483.3762
 499  478.7704
 500  517.5959
 501  516.2193
 502  580.2332
 503  659.7899
 504  794.789
 505  714.8092
 506  696.4836
 507  830.5099
 508  744.6302
 509  901.1591
 510  1060.164
 511  1211.72
