# Input file       =  1183884525.141243_cleaned.dat
# Candidate        =  PSR_0332+5434
# Telescope        =  AR
# Epoch_topo       =  57946.366980801424
# Epoch_bary       =  N/A
# T_sample         =  0.002
# Data Folded      =  7340032
# Data Avg         =  0.0183327340188811
# Data StdDev      =  1.0000829480908  
# Profile Bins     =  512
# Profile Avg      =  262.812308365847 
# Profile StdDev   =  119.742968003539 
# Reduced chi-sqr  =  1.352
# Prob(Noise)      <  1.79e-07   (~5.1 sigma)
# P_topo (ms)      =  714.481041482439  +/- 0.000497
# P'_topo (s/s)    =  -0                +/- 2.62e-10
# P''_topo (s/s^2) =  0                 +/- 1.16e-13
# P_bary (ms)      =  N/A
# P'_bary (s/s)    =  N/A
# P''_bary (s/s^2) =  N/A
# P_orb (s)        =  N/A
# asin(i)/c (s)    =  N/A
# eccentricity     =  N/A
# w (rad)          =  N/A
# T_peri           =  N/A
######################################################
   0  810.7125
   1  867.8371
   2  643.1074
   3  391.0085
   4  213.0788
   5  175.5051
   6  346.1017
   7  371.0432
   8  311.8099
   9  227.3983
  10  178.656
  11  447.1115
  12  397.8774
  13  248.4348
  14  278.3636
  15  261.874
  16  317.7257
  17  272.4888
  18  251.0435
  19  316.6734
  20  208.1349
  21  141.2062
  22  184.4318
  23  294.0809
  24  271.3056
  25  262.0381
  26  249.3217
  27  260.3293
  28  212.9368
  29  102.3476
  30  146.1895
  31  198.1377
  32  326.4424
  33  318.1698
  34  76.23812
  35  91.81635
  36  134.2801
  37  268.4552
  38  299.6523
  39  376.291
  40  225.8486
  41  129.0361
  42  279.0657
  43  315.8959
  44  217.8214
  45  183.5795
  46  173.3974
  47  208.6608
  48  239.0173
  49  174.9716
  50  239.9384
  51  254.1345
  52  242.9161
  53  221.1802
  54  199.1367
  55  268.1142
  56  362.147
  57  238.4208
  58  71.22398
  59  183.1241
  60  336.5533
  61  291.7205
  62  144.4059
  63  114.5174
  64  172.7279
  65  229.4151
  66  320.1898
  67  295.1664
  68  269.2356
  69  291.6776
  70  367.1109
  71  299.9578
  72  312.9224
  73  315.835
  74  456.7293
  75  278.4567
  76  248.8463
  77  356.8848
  78  341.1102
  79  284.0693
  80  259.2798
  81  290.8018
  82  385.8079
  83  389.933
  84  325.7351
  85  286.1553
  86  177.4362
  87  143.4562
  88  114.2599
  89  203.1894
  90  207.371
  91  65.01325
  92  -3.978523
  93  182.0261
  94  277.5114
  95  160.665
  96  144.4579
  97  174.2275
  98  198.102
  99  213.3461
 100  309.4173
 101  316.5326
 102  274.2044
 103  173.9661
 104  150.1772
 105  294.6127
 106  313.833
 107  252.9884
 108  201.5192
 109  269.2021
 110  333.9297
 111  236.6516
 112  250.9772
 113  396.1834
 114  451.7418
 115  205.6976
 116  227.8048
 117  248.3967
 118  374.7588
 119  290.7495
 120  147.411
 121  159.7227
 122  271.431
 123  409.4093
 124  295.9743
 125  190.892
 126  193.9048
 127  212.2834
 128  225.3173
 129  237.3319
 130  382.148
 131  341.9286
 132  358.2894
 133  304.5971
 134  304.2217
 135  226.3716
 136  123.386
 137  179.5022
 138  335.8337
 139  218.6192
 140  227.6648
 141  329.7702
 142  264.7735
 143  185.0176
 144  210.8226
 145  93.08395
 146  192.0505
 147  220.0273
 148  154.6289
 149  293.137
 150  282.7646
 151  191.5066
 152  266.6923
 153  315.6267
 154  273.3047
 155  120.2157
 156  83.87349
 157  128.0788
 158  236.2001
 159  304.6765
 160  337.4953
 161  306.7004
 162  244.3384
 163  282.4613
 164  243.0627
 165  230.9723
 166  194.0541
 167  250.8308
 168  365.778
 169  295.308
 170  282.4434
 171  308.9513
 172  456.0941
 173  342.4417
 174  246.9771
 175  366.4399
 176  341.5911
 177  273.5407
 178  202.4377
 179  332.8676
 180  302.973
 181  229.188
 182  197.6613
 183  190.9663
 184  250.0762
 185  270.1032
 186  198.0596
 187  314.5136
 188  223.4876
 189  193.6523
 190  172.8297
 191  58.45698
 192  127.3455
 193  305.8728
 194  279.9645
 195  153.3901
 196  285.0548
 197  225.8183
 198  190.5876
 199  143.0307
 200  67.23084
 201  66.80743
 202  223.1447
 203  241.4895
 204  244.1613
 205  276.7479
 206  129.9344
 207  68.81599
 208  195.3493
 209  162.5557
 210  108.7917
 211  143.4709
 212  147.8616
 213  175.594
 214  197.9269
 215  283.9092
 216  341.744
 217  296.7971
 218  256.3279
 219  271.7496
 220  282.4021
 221  210.172
 222  221.994
 223  241.9226
 224  284.4433
 225  214.3623
 226  204.1313
 227  158.3749
 228  220.3989
 229  275.9796
 230  152.8603
 231  169.3082
 232  72.04446
 233  18.85284
 234  189.5542
 235  359.6083
 236  219.8553
 237  201.4311
 238  268.6625
 239  306.6152
 240  273.6003
 241  254.1279
 242  179.3536
 243  165.5649
 244  156.5025
 245  199.1974
 246  151.4583
 247  44.76265
 248  154.5067
 249  208.6457
 250  138.2615
 251  203.1022
 252  357.119
 253  233.1306
 254  165.4199
 255  224.0456
 256  362.3661
 257  351.5433
 258  462.5853
 259  452.1113
 260  299.1545
 261  289.8199
 262  262.3922
 263  234.3479
 264  219.3907
 265  258.9559
 266  225.4274
 267  229.4168
 268  175.966
 269  187.0601
 270  193.1692
 271  337.1613
 272  259.968
 273  126.4694
 274  182.7758
 275  261.0815
 276  270.9187
 277  248.0165
 278  349.0477
 279  209.6866
 280  295.8339
 281  285.7961
 282  288.3431
 283  335.6603
 284  434.4697
 285  308.1682
 286  232.5399
 287  332.5216
 288  350.0433
 289  371.262
 290  300.4516
 291  272.4035
 292  164.2658
 293  193.8293
 294  246.1635
 295  259.7332
 296  305.7574
 297  266.9424
 298  187.5925
 299  332.7436
 300  247.2193
 301  240.1337
 302  272.0829
 303  273.5498
 304  348.113
 305  279.1776
 306  246.9323
 307  224.3832
 308  322.6591
 309  429.7331
 310  311.6058
 311  242.9013
 312  281.7771
 313  235.3788
 314  293.0859
 315  203.9597
 316  216.4689
 317  357.3323
 318  346.79
 319  334.7609
 320  403.4676
 321  428.4953
 322  427.8132
 323  379.1879
 324  362.6883
 325  253.6606
 326  169.2155
 327  343.5117
 328  349.5531
 329  292.1015
 330  476.3835
 331  409.5215
 332  360.8107
 333  375.6978
 334  302.1904
 335  226.6696
 336  103.0305
 337  193.5156
 338  258.7827
 339  290.6038
 340  292.6407
 341  215.9513
 342  339.581
 343  359.7518
 344  294.099
 345  273.6714
 346  297.8147
 347  301.5147
 348  273.0618
 349  309.9497
 350  247.1045
 351  188.7019
 352  283.6847
 353  141.4393
 354  135.8978
 355  149.1436
 356  305.1947
 357  225.7674
 358  262.2971
 359  188.3795
 360  162.2957
 361  268.7136
 362  178.1854
 363  121.6708
 364  105.6011
 365  41.67884
 366  193.9294
 367  187.9682
 368  170.511
 369  241.9979
 370  240.4885
 371  124.6974
 372  241.8722
 373  306.6086
 374  325.6946
 375  363.8467
 376  286.719
 377  280.9635
 378  249.661
 379  338.4009
 380  198.6627
 381  113.9239
 382  212.2253
 383  338.4931
 384  325.3679
 385  311.0951
 386  311.2262
 387  166.0423
 388  244.6844
 389  250.9492
 390  369.2753
 391  358.1516
 392  357.225
 393  325.6788
 394  258.0415
 395  206.1742
 396  236.4754
 397  178.5785
 398  214.0179
 399  281.6009
 400  208.7429
 401  182.1961
 402  273.9469
 403  361.3138
 404  250.8655
 405  358.3226
 406  364.7736
 407  402.5125
 408  425.794
 409  275.318
 410  280.2487
 411  212.6695
 412  204.0548
 413  298.8415
 414  304.6584
 415  330.317
 416  320.9359
 417  208.2168
 418  100.4034
 419  53.33333
 420  90.85565
 421  188.7178
 422  263.3403
 423  318.8228
 424  215.7782
 425  163.2726
 426  224.4868
 427  232.272
 428  271.6354
 429  234.4188
 430  265.705
 431  245.1639
 432  190.7539
 433  90.44983
 434  255.6834
 435  252.2067
 436  229.7579
 437  212.2596
 438  300.9163
 439  276.5879
 440  304.7058
 441  215.9414
 442  207.8527
 443  159.1224
 444  133.0861
 445  223.3738
 446  255.3826
 447  275.0854
 448  209.3584
 449  154.7786
 450  296.9457
 451  275.8719
 452  109.4627
 453  215.6548
 454  306.5655
 455  303.8469
 456  197.2904
 457  142.7017
 458  195.8094
 459  236.8256
 460  296.4033
 461  296.539
 462  269.9547
 463  295.2907
 464  323.5126
 465  280.2156
 466  310.6228
 467  369.122
 468  288.4036
 469  316.1657
 470  316.2825
 471  395.4507
 472  372.7817
 473  212.6721
 474  283.4879
 475  269.1305
 476  282.3535
 477  349.731
 478  290.6312
 479  189.0305
 480  187.2967
 481  189.6188
 482  290.5921
 483  315.9814
 484  359.4604
 485  273.373
 486  225.0704
 487  294.5964
 488  333.2818
 489  373.4446
 490  288.1782
 491  336.3282
 492  401.3793
 493  251.4552
 494  275.1553
 495  362.3933
 496  469.7162
 497  553.8063
 498  446.5209
 499  441.1615
 500  461.5507
 501  304.205
 502  367.7608
 503  492.2225
 504  451.0862
 505  421.0052
 506  278.9444
 507  334.9097
 508  434.6893
 509  639.3367
 510  772.5272
 511  796.072
