# Input file       =  1184544337.111032_cleaned.dat
# Candidate        =  PSR_0332+5434
# Telescope        =  AR
# Epoch_topo       =  57954.003693414721
# Epoch_bary       =  N/A
# T_sample         =  0.002
# Data Folded      =  7208960
# Data Avg         =  0.0266210293485327
# Data StdDev      =  0.999988538917699
# Profile Bins     =  512
# Profile Avg      =  374.551239370967 
# Profile StdDev   =  118.657815830951 
# Reduced chi-sqr  =  1.450
# Prob(Noise)      <  1.1e-10   (~6.3 sigma)
# P_topo (ms)      =  714.475724748968  +/- 0.000344
# P'_topo (s/s)    =  -0                +/- 1.85e-10
# P''_topo (s/s^2) =  0                 +/- 8.31e-14
# P_bary (ms)      =  N/A
# P'_bary (s/s)    =  N/A
# P''_bary (s/s^2) =  N/A
# P_orb (s)        =  N/A
# asin(i)/c (s)    =  N/A
# eccentricity     =  N/A
# w (rad)          =  N/A
# T_peri           =  N/A
######################################################
   0  1189.322
   1  1189.871
   2  994.2601
   3  865.7645
   4  544.6663
   5  410.8618
   6  445.8304
   7  453.5087
   8  433.9649
   9  510.6963
  10  418.7022
  11  373.2733
  12  276.9991
  13  492.6845
  14  552.541
  15  495.4022
  16  486.7564
  17  413.9037
  18  323.3618
  19  298.0734
  20  266.1595
  21  293.8092
  22  398.3573
  23  454.2991
  24  374.5148
  25  325.4467
  26  355.8917
  27  391.8795
  28  411.5257
  29  412.7019
  30  452.2774
  31  460.3677
  32  375.6504
  33  367.6348
  34  382.1486
  35  364.8295
  36  369.4808
  37  470.3899
  38  409.5203
  39  355.7266
  40  411.9528
  41  364.1223
  42  435.7787
  43  398.5166
  44  246.9767
  45  237.3163
  46  307.0988
  47  411.6632
  48  303.1494
  49  421.1257
  50  564.2349
  51  462.2338
  52  344.1913
  53  330.0338
  54  370.8483
  55  420.4016
  56  453.5815
  57  394.3409
  58  359.0276
  59  385.9926
  60  360.77
  61  265.9826
  62  354.231
  63  326.8827
  64  384.2742
  65  324.5933
  66  311.6696
  67  381.7448
  68  336.3795
  69  367.2166
  70  353.3256
  71  332.4293
  72  348.1703
  73  393.0363
  74  368.4926
  75  482.492
  76  403.0471
  77  429.3589
  78  411.593
  79  395.7749
  80  343.7576
  81  297.7799
  82  327.9095
  83  290.2301
  84  325.9129
  85  346.7066
  86  316.644
  87  366.6614
  88  321.3794
  89  391.2513
  90  329.8107
  91  329.8393
  92  389.8777
  93  298.0137
  94  323.2764
  95  409.3306
  96  355.4894
  97  275.5196
  98  314.4194
  99  344.0393
 100  360.478
 101  232.7021
 102  257.6831
 103  225.4894
 104  265.5522
 105  334.3281
 106  288.2627
 107  348.3681
 108  440.3031
 109  450.4904
 110  473.9333
 111  397.6365
 112  403.8083
 113  399.1216
 114  435.0564
 115  356.8393
 116  356.3324
 117  432.2279
 118  331.9714
 119  329.0413
 120  315.6566
 121  345.8904
 122  333.9804
 123  317.4568
 124  377.1277
 125  368.6691
 126  388.6888
 127  329.1088
 128  287.6778
 129  323.0411
 130  399.4302
 131  394.7243
 132  435.1243
 133  434.9777
 134  261.4576
 135  295.183
 136  357.3124
 137  429.8703
 138  338.1756
 139  276.1683
 140  422.3804
 141  341.1038
 142  326.6515
 143  293.744
 144  248.7221
 145  226.1993
 146  220.9051
 147  312.3881
 148  426.8021
 149  411.2251
 150  462.712
 151  368.7785
 152  344.2278
 153  338.6147
 154  271.8985
 155  345.7554
 156  293.0789
 157  399.4911
 158  433.1328
 159  306.6238
 160  282.5255
 161  203.2646
 162  238.3042
 163  355.6378
 164  391.6274
 165  362.8326
 166  235.0928
 167  320.5026
 168  351.4391
 169  375.5434
 170  268.9462
 171  294.773
 172  362.7325
 173  415.4165
 174  399.3434
 175  548.8043
 176  500.3147
 177  323.0468
 178  299.7488
 179  324.6238
 180  299.1511
 181  319.216
 182  286.8848
 183  432.0712
 184  519.1719
 185  478.8847
 186  437.8473
 187  423.8978
 188  389.5376
 189  359.2675
 190  362.3232
 191  350.597
 192  320.5872
 193  504.3661
 194  444.7888
 195  317.5405
 196  308.9671
 197  305.3326
 198  275.6042
 199  507.8966
 200  369.65
 201  346.691
 202  437.4335
 203  521.3848
 204  307.0202
 205  338.2199
 206  330.693
 207  495.3854
 208  479.4694
 209  338.6964
 210  280.4091
 211  384.8475
 212  458.6791
 213  425.9865
 214  335.2497
 215  327.5258
 216  253.5974
 217  358.8823
 218  403.3197
 219  443.7467
 220  423.8232
 221  592.6098
 222  530.0863
 223  383.7185
 224  377.6744
 225  400.7658
 226  394.4296
 227  464.2245
 228  412.6847
 229  345.3996
 230  381.6241
 231  471.5242
 232  562.6259
 233  407.6094
 234  397.3874
 235  406.6053
 236  401.8163
 237  437.3788
 238  503.2421
 239  480.1086
 240  411.5925
 241  442.6521
 242  374.143
 243  275.3951
 244  311.0582
 245  311.2981
 246  395.348
 247  423.3392
 248  489.7946
 249  451.9693
 250  305.84
 251  272.7992
 252  261.5099
 253  277.2383
 254  335.7935
 255  381.4677
 256  339.178
 257  373.8382
 258  408.1509
 259  390.5603
 260  345.6362
 261  332.2757
 262  369.8228
 263  475.5513
 264  399.5359
 265  314.3135
 266  419.9496
 267  424.6552
 268  375.6228
 269  334.8111
 270  301.2126
 271  292.9218
 272  311.9293
 273  360.2628
 274  368.2482
 275  411.4155
 276  442.5874
 277  497.9075
 278  398.6277
 279  321.2384
 280  263.8329
 281  235.9442
 282  332.4058
 283  399.1809
 284  415.9276
 285  282.6928
 286  301.2832
 287  294.2446
 288  419.6799
 289  401.6155
 290  419.4633
 291  428.2714
 292  366.0073
 293  407.8032
 294  550.3477
 295  350.3909
 296  340.1014
 297  354.9916
 298  419.9832
 299  400.2829
 300  334.7654
 301  280.6334
 302  272.2497
 303  345.2801
 304  313.665
 305  345.7091
 306  422.1447
 307  381.987
 308  467.2194
 309  427.5184
 310  394.4076
 311  363.4357
 312  433.8717
 313  461.9119
 314  422.8549
 315  447.3913
 316  398.3154
 317  373.0341
 318  400.0863
 319  421.691
 320  388.5968
 321  469.0116
 322  473.792
 323  348.8779
 324  335.0494
 325  323.6492
 326  282.161
 327  397.6869
 328  309.4399
 329  336.7798
 330  391.4641
 331  441.7168
 332  388.6584
 333  361.8657
 334  382.3224
 335  465.78
 336  414.5854
 337  299.9691
 338  344.9106
 339  383.2668
 340  409.4872
 341  430.5077
 342  335.2248
 343  351.6058
 344  348.7981
 345  335.7584
 346  288.3055
 347  278.4938
 348  373.7029
 349  370.0645
 350  334.6842
 351  322.5682
 352  303.1363
 353  338.1164
 354  488.4897
 355  442.1532
 356  278.7986
 357  255.4942
 358  358.2924
 359  473.4099
 360  264.2394
 361  304.9702
 362  359.3561
 363  424.3201
 364  401.3894
 365  380.7213
 366  395.1784
 367  366.261
 368  426.1786
 369  417.449
 370  346.8629
 371  423.1908
 372  335.2625
 373  293.1582
 374  296.6041
 375  425.3846
 376  329.9785
 377  299.7721
 378  394.5138
 379  364.7307
 380  322.4646
 381  336.8493
 382  320.0432
 383  359.4702
 384  319.6791
 385  369.9077
 386  389.8385
 387  298.4836
 388  361.3227
 389  271.8262
 390  223.1311
 391  321.3515
 392  403.7449
 393  234.6817
 394  376.8609
 395  406.1205
 396  338.1187
 397  317.1929
 398  359.3284
 399  460.341
 400  388.9414
 401  413.0757
 402  352.9387
 403  381.4298
 404  343.4845
 405  360.5708
 406  371.0823
 407  310.5768
 408  349.6803
 409  374.2302
 410  512.2202
 411  460.4773
 412  370.1067
 413  253.8988
 414  354.5728
 415  360.4087
 416  397.6273
 417  417.2316
 418  311.3734
 419  315.6361
 420  246.3151
 421  379.9048
 422  425.8774
 423  300.3849
 424  227.9327
 425  303.2486
 426  432.6867
 427  432.763
 428  509.9891
 429  365.7736
 430  221.3545
 431  318.8006
 432  375.9313
 433  384.9027
 434  338.5219
 435  390.9406
 436  384.397
 437  336.2604
 438  227.2078
 439  215.618
 440  340.3895
 441  338.4048
 442  266.548
 443  251.4988
 444  230.5858
 445  365.4952
 446  341.5007
 447  479.6496
 448  452.16
 449  252.4258
 450  273.5534
 451  392.4437
 452  429.7424
 453  334.2379
 454  266.1631
 455  270.7053
 456  331.1274
 457  327.0519
 458  420.9192
 459  312.3956
 460  197.3487
 461  256.6659
 462  269.7375
 463  378.797
 464  303.8901
 465  218.8117
 466  165.3239
 467  257.2844
 468  368.3639
 469  385.7285
 470  404.2544
 471  520.6735
 472  471.2874
 473  339.0759
 474  248.4588
 475  329.6117
 476  252.4691
 477  257.8783
 478  265.7065
 479  349.1279
 480  374.0749
 481  371.3616
 482  356.8127
 483  427.3242
 484  394.8212
 485  388.0012
 486  302.9568
 487  379.0139
 488  460.1654
 489  249.9668
 490  282.6663
 491  331.0368
 492  345.094
 493  423.6491
 494  446.0068
 495  292.0654
 496  378.0953
 497  363.1547
 498  340.2336
 499  296.8784
 500  335.6342
 501  321.4114
 502  419.7167
 503  413.1927
 504  384.7872
 505  402.6609
 506  410.3376
 507  528.8826
 508  587.438
 509  663.6238
 510  985.5103
 511  1107.309
