# Input file       =  1184487677.105509_cleaned.dat
# Candidate        =  PSR_0332+5434
# Telescope        =  AR
# Epoch_topo       =  57953.347906313764
# Epoch_bary       =  N/A
# T_sample         =  0.002
# Data Folded      =  7340032
# Data Avg         =  0.0302492524103305
# Data StdDev      =  1.00020651104266 
# Profile Bins     =  512
# Profile Avg      =  433.505396909749 
# Profile StdDev   =  119.757762570949 
# Reduced chi-sqr  =  1.327
# Prob(Noise)      <  9.59e-07   (~4.8 sigma)
# P_topo (ms)      =  714.476471214645  +/- 0.000243
# P'_topo (s/s)    =  -0                +/- 1.28e-10
# P''_topo (s/s^2) =  0                 +/- 5.65e-14
# P_bary (ms)      =  N/A
# P'_bary (s/s)    =  N/A
# P''_bary (s/s^2) =  N/A
# P_orb (s)        =  N/A
# asin(i)/c (s)    =  N/A
# eccentricity     =  N/A
# w (rad)          =  N/A
# T_peri           =  N/A
######################################################
   0  1073.945
   1  1017.916
   2  999.822
   3  855.6047
   4  638.8236
   5  482.1374
   6  536.7917
   7  461.4036
   8  483.0112
   9  587.4372
  10  569.8687
  11  544.3693
  12  520.4088
  13  454.8343
  14  488.0814
  15  469.6548
  16  489.0013
  17  545.475
  18  494.1703
  19  409.5915
  20  452.0306
  21  403.3054
  22  481.1472
  23  359.1926
  24  532.2435
  25  580.4072
  26  448.5646
  27  487.8075
  28  538.7723
  29  438.0576
  30  396.0187
  31  315.9653
  32  400.5242
  33  488.3116
  34  385.4384
  35  369.0089
  36  458.9987
  37  510.0385
  38  563.3954
  39  479.7522
  40  558.2372
  41  509.6718
  42  538.3661
  43  519.4754
  44  493.4488
  45  551.8305
  46  496.3901
  47  549.7252
  48  626.2239
  49  510.3509
  50  491.4236
  51  403.3864
  52  382.6971
  53  442.5596
  54  490.6091
  55  487.0373
  56  467.598
  57  489.7055
  58  533.317
  59  361.9575
  60  356.8993
  61  390.4218
  62  497.6338
  63  487.7642
  64  434.7404
  65  454.2731
  66  389.7712
  67  454.2417
  68  456.2809
  69  405.3824
  70  400.8767
  71  441.4875
  72  387.5321
  73  405.4382
  74  417.7047
  75  480.3234
  76  397.559
  77  417.9846
  78  470.0277
  79  463.4534
  80  392.8922
  81  350.0293
  82  377.8244
  83  379.2014
  84  325.1818
  85  402.6064
  86  467.727
  87  476.7958
  88  407.7723
  89  321.5536
  90  395.9119
  91  379.3923
  92  447.9953
  93  476.0724
  94  486.0046
  95  455.68
  96  468.7877
  97  483.3929
  98  431.0253
  99  460.6471
 100  546.9079
 101  519.9305
 102  583.672
 103  583.9955
 104  506.5994
 105  346.6102
 106  357.108
 107  442.237
 108  499.2465
 109  544.1192
 110  512.8613
 111  444.0109
 112  508.1007
 113  513.127
 114  357.1997
 115  366.5716
 116  465.8317
 117  521.7578
 118  450.9379
 119  512.1451
 120  500.0591
 121  365.6198
 122  400.4466
 123  488.5613
 124  475.736
 125  485.3037
 126  543.9379
 127  562.3511
 128  437.1199
 129  624.3954
 130  509.0174
 131  344.4885
 132  518.7275
 133  598.0077
 134  401.617
 135  465.2914
 136  593.7072
 137  524.3668
 138  455.2911
 139  330.1656
 140  354.3799
 141  345.6217
 142  323.4953
 143  334.7256
 144  399.1449
 145  408.0136
 146  359.6843
 147  307.1281
 148  372.2598
 149  292.4684
 150  276.7746
 151  239.6534
 152  261.6908
 153  312.8447
 154  255.2943
 155  194.7905
 156  255.7114
 157  296.1664
 158  337.6759
 159  446.8423
 160  511.9331
 161  534.9312
 162  474.74
 163  344.3616
 164  340.7937
 165  516.8796
 166  526.4996
 167  478.7614
 168  402.0301
 169  468.9095
 170  462.9514
 171  473.1953
 172  557.7091
 173  545.7271
 174  446.7881
 175  392.2239
 176  514.5697
 177  588.1346
 178  472.9983
 179  455.5394
 180  464.5703
 181  328.6101
 182  376.6926
 183  442.4442
 184  445.8701
 185  330.6306
 186  348.6555
 187  349.6557
 188  191.692
 189  231.4399
 190  250.4722
 191  361.7582
 192  432.7405
 193  456.7018
 194  435.6815
 195  414.6613
 196  327.8641
 197  256.3284
 198  291.0798
 199  245.5891
 200  284.3141
 201  398.9458
 202  318.0251
 203  242.862
 204  295.2076
 205  308.5626
 206  351.6286
 207  393.4775
 208  335.5847
 209  292.6632
 210  347.4302
 211  351.5222
 212  443.8912
 213  320.7542
 214  320.2902
 215  515.7846
 216  476.3854
 217  362.9411
 218  252.7056
 219  294.5068
 220  393.7764
 221  387.9841
 222  293.4857
 223  479.9136
 224  524.7253
 225  493.0276
 226  291.3809
 227  304.4971
 228  341.8687
 229  252.5538
 230  276.6117
 231  266.2069
 232  387.0204
 233  461.6594
 234  406.4995
 235  346.6059
 236  367.0851
 237  432.1226
 238  424.6465
 239  393.3563
 240  428.6987
 241  401.6913
 242  467.4045
 243  475.0793
 244  550.9646
 245  702.4968
 246  514.3358
 247  403.5957
 248  507.1722
 249  383.7274
 250  317.4529
 251  312.5354
 252  401.653
 253  370.2538
 254  379.7424
 255  503.2289
 256  405.2913
 257  412.4435
 258  456.7857
 259  278.8159
 260  369.8525
 261  507.038
 262  459.7536
 263  392.219
 264  364.6252
 265  352.0934
 266  452.6122
 267  426.5677
 268  483.988
 269  562.7639
 270  515.5045
 271  390.6642
 272  456.3633
 273  425.2518
 274  360.137
 275  359.824
 276  472.4076
 277  485.0957
 278  411.8139
 279  412.6468
 280  477.1879
 281  381.6939
 282  368.0079
 283  323.5442
 284  387.6458
 285  448.6048
 286  462.0741
 287  412.3337
 288  448.1935
 289  500.7698
 290  501.4429
 291  431.0756
 292  387.1229
 293  407.313
 294  368.6705
 295  302.6958
 296  362.3887
 297  404.4489
 298  388.639
 299  473.6031
 300  477.9356
 301  336.3019
 302  351.5948
 303  379.5619
 304  435.3823
 305  410.2334
 306  234.4122
 307  299.5359
 308  307.9182
 309  357.0761
 310  390.0594
 311  447.7086
 312  495.5471
 313  564.9138
 314  374.937
 315  346.9084
 316  428.8796
 317  430.7727
 318  331.8173
 319  404.9918
 320  381.9279
 321  361.2975
 322  448.8915
 323  490.9568
 324  504.5085
 325  417.7751
 326  424.5733
 327  403.2943
 328  456.8635
 329  509.5866
 330  493.1826
 331  523.3732
 332  457.2307
 333  406.6061
 334  480.5539
 335  461.0623
 336  465.0432
 337  538.1491
 338  411.6551
 339  391.8929
 340  419.4748
 341  457.1003
 342  485.5402
 343  356.7758
 344  429.5797
 345  542.3059
 346  511.5746
 347  544.595
 348  320.3978
 349  399.9412
 350  374.4822
 351  500.2729
 352  376.9347
 353  465.7024
 354  505.3243
 355  492.4883
 356  510.748
 357  468.5479
 358  451.3943
 359  356.2588
 360  444.9018
 361  469.7768
 362  538.6663
 363  536.5687
 364  437.6425
 365  446.2748
 366  408.9242
 367  366.0459
 368  283.914
 369  324.1609
 370  425.7783
 371  401.0507
 372  366.7902
 373  415.9661
 374  464.2143
 375  449.757
 376  437.2722
 377  354.0878
 378  330.7581
 379  395.8457
 380  419.1197
 381  403.8159
 382  400.2036
 383  526.714
 384  377.1435
 385  364.4395
 386  401.2242
 387  504.1844
 388  521.7443
 389  541.3849
 390  492.8802
 391  513.2902
 392  460.8896
 393  392.7128
 394  486.9114
 395  510.7762
 396  382.4998
 397  408.0101
 398  339.7653
 399  319.4326
 400  346.9542
 401  511.9926
 402  608.7787
 403  384.0676
 404  345.9712
 405  231.7468
 406  320.2638
 407  380.7547
 408  380.7346
 409  398.0395
 410  441.7122
 411  445.265
 412  386.2041
 413  430.4754
 414  456.115
 415  483.7728
 416  407.5676
 417  323.8725
 418  252.7536
 419  339.0616
 420  516.6796
 421  436.5841
 422  444.8682
 423  558.9203
 424  469.3715
 425  444.2835
 426  455.3372
 427  464.2151
 428  425.4553
 429  433.1057
 430  431.5838
 431  478.6023
 432  399.0671
 433  388.7864
 434  303.815
 435  304.4142
 436  354.4861
 437  426.7481
 438  486.5351
 439  323.5648
 440  266.8883
 441  357.6758
 442  253.5695
 443  332.2216
 444  412.8315
 445  388.2176
 446  435.3595
 447  425.8409
 448  364.7232
 449  434.3135
 450  426.7847
 451  390.6012
 452  444.0226
 453  522.5511
 454  586.4069
 455  398.2771
 456  369.18
 457  441.6029
 458  477.2592
 459  433.2328
 460  341.3299
 461  461.196
 462  504.7272
 463  407.1807
 464  396.0459
 465  495.5502
 466  547.351
 467  447.2513
 468  381.6773
 469  436.2159
 470  388.9441
 471  433.5359
 472  426.2914
 473  350.9328
 474  387.2004
 475  366.1137
 476  410.9215
 477  374.6268
 478  345.7372
 479  448.2157
 480  428.432
 481  424.1412
 482  367.344
 483  353.6408
 484  405.6852
 485  482.844
 486  464.0258
 487  531.3024
 488  504.4653
 489  296.9917
 490  381.3406
 491  399.625
 492  440.6599
 493  494.6663
 494  494.6542
 495  445.8015
 496  477.0626
 497  514.5978
 498  500.5238
 499  402.0967
 500  403.2485
 501  441.8215
 502  458.0182
 503  499.8145
 504  572.0338
 505  570.3987
 506  520.5248
 507  554.8275
 508  603.7791
 509  712.1157
 510  824.7029
 511  988.0076
