# Input file       =  1184630491.118226_cleaned.dat
# Candidate        =  PSR_0332+5434
# Telescope        =  AR
# Epoch_topo       =  57955.000846275761
# Epoch_bary       =  N/A
# T_sample         =  0.002
# Data Folded      =  7208960
# Data Avg         =  0.0346188262076994
# Data StdDev      =  1.00017823122745 
# Profile Bins     =  512
# Profile Avg      =  487.448724447782 
# Profile StdDev   =  118.68032456408  
# Reduced chi-sqr  =  1.253
# Prob(Noise)      <  8.19e-05   (~3.8 sigma)
# P_topo (ms)      =  714.475126580432  +/- 0.000159
# P'_topo (s/s)    =  -0                +/- 8.54e-11
# P''_topo (s/s^2) =  0                 +/- 3.84e-14
# P_bary (ms)      =  N/A
# P'_bary (s/s)    =  N/A
# P''_bary (s/s^2) =  N/A
# P_orb (s)        =  N/A
# asin(i)/c (s)    =  N/A
# eccentricity     =  N/A
# w (rad)          =  N/A
# T_peri           =  N/A
######################################################
   0  1240.325
   1  1143.522
   2  994.0324
   3  816.2867
   4  595.0506
   5  554.5009
   6  628.1917
   7  540.1136
   8  516.6614
   9  504.8992
  10  588.3526
  11  649.0557
  12  569.9705
  13  608.1372
  14  607.3221
  15  706.2387
  16  708.0367
  17  526.537
  18  447.7291
  19  422.0505
  20  485.8014
  21  447.3954
  22  429.3696
  23  457.219
  24  451.5512
  25  423.5309
  26  478.3073
  27  464.639
  28  546.0523
  29  540.5234
  30  529.7672
  31  641.2941
  32  485.3853
  33  514.4315
  34  544.4177
  35  553.8622
  36  538.6298
  37  602.1314
  38  589.3995
  39  625.6302
  40  594.1318
  41  619.0192
  42  563.0953
  43  510.3927
  44  413.5344
  45  377.0522
  46  372.6047
  47  386.2888
  48  537.2076
  49  561.1353
  50  418.9722
  51  370.8202
  52  469.8297
  53  540.5276
  54  619.373
  55  583.6785
  56  574.6654
  57  513.5612
  58  586.3046
  59  660.3257
  60  554.5677
  61  462.806
  62  336.9185
  63  387.1016
  64  533.1565
  65  632.6497
  66  515.0125
  67  360.1081
  68  410.8686
  69  516.2689
  70  361.5056
  71  433.4862
  72  461.1352
  73  401.0115
  74  485.2904
  75  513.1782
  76  480.2472
  77  397.2022
  78  347.6514
  79  286.8672
  80  445.597
  81  554.7472
  82  508.0175
  83  449.6194
  84  561.8992
  85  540.6135
  86  367.864
  87  390.2949
  88  477.2472
  89  427.5975
  90  553.122
  91  503.636
  92  414.4401
  93  536.035
  94  439.6928
  95  418.7875
  96  484.0635
  97  577.0807
  98  433.7086
  99  481.4084
 100  481.9062
 101  526.1881
 102  518.407
 103  533.7458
 104  607.9803
 105  522.9244
 106  500.0156
 107  434.066
 108  414.3006
 109  488.5286
 110  446.6546
 111  509.2672
 112  428.579
 113  514.3045
 114  497.5036
 115  444.395
 116  483.5362
 117  446.0124
 118  475.4383
 119  501.1126
 120  527.5126
 121  508.685
 122  496.2326
 123  495.9527
 124  518.9548
 125  497.16
 126  402.9413
 127  445.1064
 128  426.0225
 129  363.0747
 130  321.7106
 131  448.7094
 132  466.3164
 133  485.7526
 134  474.0847
 135  426.2487
 136  397.899
 137  295.5827
 138  435.0246
 139  529.6945
 140  597.5668
 141  452.7826
 142  363.1056
 143  275.3777
 144  337.0374
 145  425.0889
 146  472.3078
 147  413.6864
 148  311.2304
 149  471.9724
 150  481.2527
 151  456.6924
 152  407.7454
 153  423.9019
 154  424.8585
 155  417.5664
 156  504.413
 157  552.2156
 158  551.1785
 159  520.7739
 160  530.6255
 161  511.4714
 162  506.8774
 163  422.3124
 164  431.2251
 165  450.1057
 166  473.3022
 167  519.8495
 168  508.1284
 169  386.5695
 170  483.4482
 171  500.1955
 172  471.2375
 173  465.1473
 174  553.5199
 175  488.009
 176  407.0926
 177  415.5392
 178  401.7373
 179  444.2024
 180  454.8621
 181  392.845
 182  467.7747
 183  535.012
 184  462.8813
 185  418.4348
 186  447.1107
 187  470.2128
 188  486.5851
 189  471.2408
 190  403.6849
 191  406.9324
 192  479.3586
 193  464.5577
 194  530.4899
 195  498.8627
 196  519.8695
 197  430.2205
 198  434.8226
 199  595.6151
 200  558.0094
 201  598.1271
 202  522.3755
 203  398.2006
 204  465.5935
 205  582.2367
 206  458.7153
 207  368.3709
 208  330.1409
 209  316.8014
 210  455.1461
 211  527.8766
 212  461.0722
 213  363.2494
 214  433.8221
 215  400.5176
 216  412.0174
 217  492.3969
 218  459.9147
 219  373.214
 220  365.9332
 221  456.9751
 222  491.4188
 223  481.6495
 224  490.8781
 225  428.3036
 226  375.5078
 227  358.6084
 228  388.6786
 229  407.2596
 230  488.0658
 231  517.9839
 232  564.4654
 233  586.3232
 234  436.8669
 235  404.5678
 236  459.0568
 237  469.4611
 238  414.3952
 239  491.6143
 240  531.3364
 241  486.3675
 242  479.7411
 243  430.2118
 244  341.1406
 245  422.8439
 246  432.3542
 247  449.1456
 248  525.6286
 249  475.9752
 250  504.9144
 251  489.6378
 252  499.4655
 253  638.9929
 254  463.864
 255  459.9663
 256  501.8589
 257  408.6928
 258  454.4038
 259  450.1116
 260  487.9092
 261  457.6667
 262  413.157
 263  453.9908
 264  494.8186
 265  399.8195
 266  451.5858
 267  500.1241
 268  496.8661
 269  401.5065
 270  443.562
 271  477.7181
 272  501.1311
 273  438.3922
 274  494.0141
 275  630.5917
 276  496.9648
 277  464.9039
 278  489.0923
 279  441.3958
 280  342.7375
 281  382.2861
 282  434.2423
 283  448.1367
 284  491.662
 285  502.3124
 286  406.7617
 287  371.2973
 288  426.1608
 289  371.5138
 290  352.7144
 291  354.7057
 292  474.8359
 293  549.3585
 294  499.6206
 295  422.7274
 296  412.8464
 297  498.0039
 298  582.2061
 299  490.9638
 300  416.8109
 301  429.9113
 302  442.6679
 303  318.3882
 304  460.1971
 305  552.1855
 306  430.9123
 307  341.997
 308  506.6117
 309  505.1225
 310  479.5882
 311  433.5594
 312  447.9661
 313  551.4842
 314  537.2723
 315  537.7479
 316  508.1765
 317  558.9501
 318  521.3226
 319  480.8571
 320  458.8341
 321  517.3483
 322  556.816
 323  517.0776
 324  340.1396
 325  261.4737
 326  395.6035
 327  392.3737
 328  550.6568
 329  524.5474
 330  439.8409
 331  425.0871
 332  498.1598
 333  518.1494
 334  478.9831
 335  492.0248
 336  507.4036
 337  500.1789
 338  536.8914
 339  518.2635
 340  530.2881
 341  607.782
 342  486.7995
 343  332.5879
 344  435.4744
 345  495.3666
 346  453.1851
 347  368.9376
 348  551.8744
 349  518.7401
 350  497.2807
 351  547.3777
 352  448.7974
 353  428.549
 354  458.706
 355  417.039
 356  588.4904
 357  537.285
 358  479.1479
 359  395.968
 360  545.7524
 361  581.6755
 362  609.9352
 363  528.2026
 364  465.3562
 365  374.5857
 366  472.617
 367  554.0667
 368  541.0631
 369  463.3795
 370  462.5996
 371  500.7589
 372  487.8394
 373  395.0579
 374  466.2442
 375  461.6268
 376  600.4253
 377  589.8716
 378  383.6294
 379  372.2776
 380  462.4877
 381  530.4503
 382  573.0027
 383  634.9277
 384  564.6125
 385  497.1274
 386  453.7917
 387  526.6901
 388  535.9687
 389  537.9946
 390  650.1982
 391  452.916
 392  476.2088
 393  458.1254
 394  548.7722
 395  607.4021
 396  532.2648
 397  442.3924
 398  425.1533
 399  516.8854
 400  398.0212
 401  307.7297
 402  469.5341
 403  582.7959
 404  462.5237
 405  441.4848
 406  502.7977
 407  443.1869
 408  452.2322
 409  342.3672
 410  333.438
 411  356.1614
 412  493.4125
 413  527.4797
 414  471.6747
 415  504.3921
 416  449.2435
 417  420.9155
 418  466.4822
 419  556.0302
 420  543.426
 421  452.8336
 422  392.9997
 423  389.7531
 424  369.9085
 425  447.3156
 426  501.9984
 427  414.1891
 428  432.6192
 429  502.9083
 430  411.1548
 431  466.6556
 432  456.9231
 433  559.1848
 434  553.9609
 435  439.6208
 436  359.7773
 437  402.7809
 438  531.1115
 439  497.2012
 440  539.4523
 441  513.8015
 442  534.9454
 443  471.0622
 444  450.8372
 445  432.5799
 446  574.5572
 447  614.4165
 448  434.9762
 449  387.4904
 450  527.4884
 451  518.5092
 452  470.8266
 453  520.1064
 454  503.3973
 455  479.5298
 456  497.4837
 457  462.0937
 458  473.8548
 459  547.8091
 460  449.8354
 461  445.2596
 462  493.2888
 463  512.335
 464  425.8178
 465  486.4723
 466  590.459
 467  560.8322
 468  552.1036
 469  607.5803
 470  502.6468
 471  466.9149
 472  380.1941
 473  573.3671
 474  595.0292
 475  614.0633
 476  550.2255
 477  551.1771
 478  580.5734
 479  513.1258
 480  488.926
 481  479.6953
 482  500.7071
 483  560.3259
 484  509.9116
 485  460.5312
 486  511.9268
 487  441.3718
 488  492.7644
 489  455.2823
 490  480.6653
 491  640.5569
 492  544.6907
 493  548.5739
 494  554.8668
 495  576.8834
 496  468.8199
 497  482.1476
 498  603.504
 499  436.6444
 500  357.8852
 501  489.8532
 502  577.5454
 503  637.9116
 504  552.1229
 505  476.6536
 506  508.917
 507  631.1006
 508  510.0686
 509  681.4805
 510  962.082
 511  1154.591
