# Input file       =  1184903540.128384_cleaned.dat
# Candidate        =  PSR_0332+5434
# Telescope        =  AR
# Epoch_topo       =  57958.161135745184
# Epoch_bary       =  N/A
# T_sample         =  0.002
# Data Folded      =  7340032
# Data Avg         =  0.032819082628953
# Data StdDev      =  1.00014556496707 
# Profile Bins     =  512
# Profile Avg      =  470.29792038439  
# Profile StdDev   =  119.750465312263 
# Reduced chi-sqr  =  1.373
# Prob(Noise)      <  3.89e-08   (~5.4 sigma)
# P_topo (ms)      =  714.473332172375  +/- 0.000499
# P'_topo (s/s)    =  -0                +/- 2.63e-10
# P''_topo (s/s^2) =  0                 +/- 1.16e-13
# P_bary (ms)      =  N/A
# P'_bary (s/s)    =  N/A
# P''_bary (s/s^2) =  N/A
# P_orb (s)        =  N/A
# asin(i)/c (s)    =  N/A
# eccentricity     =  N/A
# w (rad)          =  N/A
# T_peri           =  N/A
######################################################
   0  1313.084
   1  1106.389
   2  837.8377
   3  593.6877
   4  550.6373
   5  561.3104
   6  420.7889
   7  363.5465
   8  494.806
   9  463.355
  10  392.9343
  11  347.7681
  12  463.3612
  13  570.8623
  14  577.0535
  15  556.3109
  16  546.2399
  17  504.8424
  18  431.1044
  19  462.3434
  20  506.7909
  21  442.4753
  22  389.2712
  23  393.8338
  24  365.2023
  25  341.6816
  26  452.7278
  27  520.5187
  28  515.7574
  29  365.9815
  30  392.4813
  31  418.0604
  32  325.3371
  33  381.1701
  34  354.5948
  35  404.9256
  36  385.5688
  37  331.6201
  38  455.0293
  39  438.0178
  40  373.6816
  41  429.3948
  42  355.4822
  43  316.018
  44  275.1388
  45  389.7248
  46  497.5789
  47  381.0771
  48  331.2585
  49  500.9714
  50  565.3367
  51  368.4563
  52  302.8121
  53  373.1005
  54  377.0497
  55  299.5887
  56  340.8032
  57  437.3241
  58  437.0598
  59  514.1865
  60  401.0653
  61  320.6229
  62  485.2146
  63  573.5189
  64  515.0623
  65  437.8253
  66  443.4777
  67  489.527
  68  471.5775
  69  546.4239
  70  563.768
  71  414.8353
  72  401.054
  73  448.7931
  74  531.4185
  75  448.5419
  76  441.8839
  77  482.1392
  78  505.6219
  79  477.1387
  80  299.0715
  81  261.1432
  82  402.8272
  83  570.0604
  84  468.6172
  85  464.654
  86  487.5346
  87  414.7518
  88  413.9897
  89  482.1918
  90  570.7659
  91  536.5872
  92  405.2947
  93  520.4543
  94  572.7264
  95  484.0953
  96  503.3888
  97  452.444
  98  482.6513
  99  406.4451
 100  360.8461
 101  456.2358
 102  499.2369
 103  432.2653
 104  454.4453
 105  485.1345
 106  506.7662
 107  439.692
 108  403.3769
 109  427.9704
 110  416.0474
 111  458.3995
 112  455.5698
 113  343.4571
 114  357.1111
 115  420.8025
 116  414.1991
 117  417.2896
 118  272.3806
 119  429.4847
 120  352.8303
 121  457.4417
 122  543.3769
 123  594.0736
 124  438.333
 125  435.9891
 126  510.0878
 127  467.2553
 128  452.4241
 129  373.3605
 130  383.4656
 131  451.3484
 132  382.6296
 133  482.9568
 134  487.6557
 135  504.4128
 136  561.756
 137  558.3047
 138  510.2832
 139  458.1344
 140  424.593
 141  429.0306
 142  458.9586
 143  505.9124
 144  640.3638
 145  462.8001
 146  430.506
 147  484.4637
 148  533.038
 149  496.2756
 150  449.5715
 151  590.3378
 152  598.9692
 153  411.2502
 154  461.9501
 155  531.0601
 156  501.2437
 157  611.7245
 158  458.1367
 159  448.3477
 160  457.2357
 161  398.8028
 162  454.1239
 163  484.9247
 164  448.0758
 165  465.0877
 166  483.7466
 167  526.7443
 168  517.3668
 169  440.9276
 170  507.0924
 171  485.5437
 172  449.7372
 173  487.7239
 174  465.9418
 175  467.9061
 176  414.2233
 177  479.5879
 178  499.6165
 179  415.1254
 180  417.0181
 181  471.5015
 182  462.7608
 183  498.3516
 184  470.8187
 185  519.0188
 186  416.7695
 187  438.1323
 188  504.4254
 189  448.1865
 190  521.1514
 191  406.8491
 192  411.5477
 193  414.837
 194  458.1844
 195  488.9651
 196  547.2003
 197  523.2573
 198  544.8729
 199  520.8685
 200  547.7531
 201  501.6737
 202  522.9618
 203  400.8479
 204  511.0094
 205  520.4446
 206  460.7957
 207  537.884
 208  629.8442
 209  592.0065
 210  560.7887
 211  503.1312
 212  489.2864
 213  427.2074
 214  407.8195
 215  559.4874
 216  570.1796
 217  622.5311
 218  548.1079
 219  571.1099
 220  509.8637
 221  514.9217
 222  469.555
 223  351.9524
 224  341.1589
 225  353.438
 226  454.5045
 227  489.9278
 228  506.3909
 229  516.9276
 230  435.0959
 231  449.0855
 232  492.7131
 233  509.3105
 234  641.9168
 235  584.7534
 236  535.8694
 237  522.827
 238  513.228
 239  609.517
 240  494.3635
 241  502.3212
 242  499.2532
 243  502.0963
 244  589.8743
 245  456.2562
 246  516.6921
 247  509.8573
 248  462.0424
 249  367.9355
 250  427.3263
 251  493.8201
 252  512.8879
 253  480.2931
 254  351.2635
 255  306.9844
 256  392.5921
 257  480.2279
 258  453.072
 259  499.0135
 260  428.9512
 261  395.0105
 262  425.2244
 263  460.1388
 264  530.897
 265  456.6338
 266  502.3326
 267  433.605
 268  489.9836
 269  459.6884
 270  485.2747
 271  497.7688
 272  535.1062
 273  534.9487
 274  468.9314
 275  583.7271
 276  497.1657
 277  450.6043
 278  478.6721
 279  604.6808
 280  615.611
 281  552.3983
 282  582.2277
 283  599.7555
 284  591.1618
 285  638.0702
 286  606.8937
 287  621.6951
 288  560.3646
 289  510.2064
 290  480.7664
 291  476.1952
 292  432.25
 293  450.6703
 294  474.8959
 295  569.5406
 296  538.5111
 297  563.1573
 298  506.4769
 299  386.7337
 300  486.0871
 301  508.7968
 302  476.6043
 303  475.4928
 304  421.1152
 305  448.7276
 306  449.6917
 307  420.9918
 308  458.3634
 309  440.2803
 310  467.5546
 311  424.5022
 312  413.8494
 313  450.0637
 314  453.0623
 315  455.2687
 316  516.9041
 317  611.1375
 318  534.6515
 319  430.2788
 320  510.5153
 321  536.4083
 322  472.7055
 323  414.0776
 324  493.9614
 325  546.874
 326  465.6761
 327  443.9709
 328  482.1451
 329  462.5667
 330  591.8826
 331  533.9799
 332  416.7713
 333  415.0753
 334  449.2612
 335  467.9952
 336  463.8764
 337  513.3173
 338  541.61
 339  481.5528
 340  475.1074
 341  489.9788
 342  586.7872
 343  443.2539
 344  342.7372
 345  524.2502
 346  537.3199
 347  478.78
 348  453.8997
 349  477.4945
 350  536.8727
 351  583.0445
 352  444.5097
 353  410.914
 354  400.4449
 355  529.085
 356  529.9321
 357  494.2831
 358  540.7169
 359  488.3564
 360  419.8057
 361  423.3968
 362  449.3286
 363  496.7441
 364  528.5583
 365  499.3378
 366  400.0178
 367  496.4527
 368  413.9015
 369  452.573
 370  558.0735
 371  548.4062
 372  477.1472
 373  441.9036
 374  483.4219
 375  321.7886
 376  415.1163
 377  553.6459
 378  438.393
 379  427.497
 380  418.5051
 381  388.3517
 382  408.4481
 383  411.8159
 384  483.1241
 385  391.5231
 386  351.1495
 387  425.3719
 388  481.333
 389  476.7107
 390  423.9704
 391  429.7299
 392  512.3849
 393  452.2505
 394  469.1575
 395  466.6849
 396  436.7114
 397  401.9865
 398  399.6631
 399  397.7817
 400  292.2026
 401  371.2751
 402  400.6139
 403  385.3091
 404  423.5077
 405  382.6531
 406  427.7933
 407  330.8106
 408  299.1972
 409  276.6913
 410  304.5065
 411  326.5872
 412  465.6095
 413  583.5875
 414  367.4953
 415  284.1828
 416  328.7003
 417  378.3947
 418  386.792
 419  405.3524
 420  452.9082
 421  463.6906
 422  424.068
 423  422.4876
 424  425.8403
 425  438.0833
 426  492.5549
 427  408.553
 428  422.5728
 429  385.323
 430  468.4591
 431  584.19
 432  494.1989
 433  401.6566
 434  421.1369
 435  292.3259
 436  364.6915
 437  359.2116
 438  456.9783
 439  494.41
 440  419.5755
 441  476.6358
 442  443.0444
 443  476.4943
 444  451.1656
 445  479.9338
 446  467.091
 447  538.1607
 448  441.5662
 449  401.145
 450  471.6853
 451  452.4843
 452  400.6831
 453  425.8616
 454  386.108
 455  495.9095
 456  571.0953
 457  601.7086
 458  454.627
 459  332.4513
 460  322.5638
 461  353.5412
 462  330.9642
 463  392.987
 464  527.2282
 465  585.4681
 466  396.6417
 467  421.0972
 468  394.8438
 469  456.5611
 470  383.4281
 471  316.7838
 472  445.4556
 473  516.5679
 474  487.2023
 475  402.5578
 476  462.8973
 477  441.582
 478  279.5377
 479  372.0793
 480  376.5573
 481  379.168
 482  370.9356
 483  339.8202
 484  437.8929
 485  388.7458
 486  387.4516
 487  362.0899
 488  398.5787
 489  577.3806
 490  546.2936
 491  456.7737
 492  373.6696
 493  391.4967
 494  522.0277
 495  514.2273
 496  548.1572
 497  464.8806
 498  530.4645
 499  535.0283
 500  492.4561
 501  502.1263
 502  581.4636
 503  587.0793
 504  571.3932
 505  648.9506
 506  705.8874
 507  757.9037
 508  771.9326
 509  808.4158
 510  1036.811
 511  1279.782
