# Input file       =  1184558949.114869_cleaned.dat
# Candidate        =  PSR_0332+5434
# Telescope        =  AR
# Epoch_topo       =  57954.172813829500
# Epoch_bary       =  N/A
# T_sample         =  0.002
# Data Folded      =  7340032
# Data Avg         =  0.0353336007154636
# Data StdDev      =  1.00033031861798 
# Profile Bins     =  512
# Profile Avg      =  506.582268839987 
# Profile StdDev   =  119.772586427868 
# Reduced chi-sqr  =  1.595
# Prob(Noise)      <  2.53e-16   (~8.1 sigma)
# P_topo (ms)      =  714.475634949648  +/- 0.000156
# P'_topo (s/s)    =  -0                +/- 8.24e-11
# P''_topo (s/s^2) =  0                 +/- 3.64e-14
# P_bary (ms)      =  N/A
# P'_bary (s/s)    =  N/A
# P''_bary (s/s^2) =  N/A
# P_orb (s)        =  N/A
# asin(i)/c (s)    =  N/A
# eccentricity     =  N/A
# w (rad)          =  N/A
# T_peri           =  N/A
######################################################
   0  1291.733
   1  1144.815
   2  1023.674
   3  815.217
   4  679.0059
   5  610.8438
   6  421.6121
   7  464.6261
   8  471.1924
   9  444.2244
  10  468.4924
  11  467.5975
  12  534.3123
  13  577.2743
  14  500.2704
  15  542.9304
  16  697.404
  17  646.3876
  18  533.2521
  19  558.168
  20  659.9025
  21  530.8334
  22  635.1174
  23  617.9407
  24  558.0383
  25  565.2614
  26  573.1669
  27  611.8881
  28  609.585
  29  570.1529
  30  437.7935
  31  637.7151
  32  629.1819
  33  636.577
  34  760.041
  35  623.5386
  36  495.8262
  37  367.2809
  38  484.3621
  39  545.2722
  40  535.6229
  41  519.5754
  42  500.6097
  43  480.93
  44  481.4407
  45  465.0343
  46  511.0598
  47  504.6329
  48  528.5938
  49  468.3993
  50  568.5622
  51  478.6552
  52  446.8651
  53  488.3185
  54  483.3325
  55  583.2563
  56  415.8933
  57  422.4549
  58  428.4366
  59  438.248
  60  380.1714
  61  468.7921
  62  496.5061
  63  483.0849
  64  437.7339
  65  576.1487
  66  539.6306
  67  494.7154
  68  484.0594
  69  574.1598
  70  484.3134
  71  523.8804
  72  655.6981
  73  594.0925
  74  592.8028
  75  475.9393
  76  407.6785
  77  469.0015
  78  455.0163
  79  490.8871
  80  587.4653
  81  475.5104
  82  485.4905
  83  426.7755
  84  570.4935
  85  614.7126
  86  641.8703
  87  561.8842
  88  473.5596
  89  420.6869
  90  357.1644
  91  505.1779
  92  501.172
  93  489.7814
  94  564.4113
  95  529.9611
  96  654.3521
  97  563.5555
  98  463.7249
  99  532.8666
 100  542.7715
 101  482.0565
 102  390.17
 103  469.1916
 104  510.6471
 105  576.5401
 106  488.9961
 107  473.1084
 108  370.1268
 109  351.3315
 110  357.9317
 111  479.3955
 112  500.4013
 113  481.8238
 114  554.1281
 115  464.8191
 116  441.2293
 117  539.4076
 118  574.5644
 119  544.0571
 120  561.3584
 121  535.5114
 122  437.0721
 123  428.6718
 124  420.1818
 125  594.3817
 126  588.145
 127  486.5418
 128  466.9628
 129  512.5527
 130  505.9313
 131  467.877
 132  635.9999
 133  602.5372
 134  607.1716
 135  568.1616
 136  692.3718
 137  608.197
 138  541.8795
 139  448.4636
 140  456.2564
 141  370.6176
 142  507.33
 143  544.4947
 144  579.316
 145  489.3301
 146  448.2643
 147  326.6618
 148  431.1747
 149  475.5002
 150  589.1432
 151  551.1627
 152  470.8385
 153  398.0591
 154  378.5161
 155  426.9142
 156  465.7551
 157  593.1194
 158  616.0035
 159  708.7966
 160  629.1002
 161  516.965
 162  581.5442
 163  613.0729
 164  529.1992
 165  463.7231
 166  579.0513
 167  569.3218
 168  504.6831
 169  523.2146
 170  440.8246
 171  467.6867
 172  470.8323
 173  476.994
 174  458.332
 175  352.403
 176  435.4263
 177  571.391
 178  489.3106
 179  429.2556
 180  408.548
 181  408.6592
 182  347.6444
 183  440.5693
 184  448.0221
 185  528.0209
 186  467.9302
 187  411.2289
 188  425.1525
 189  370.0184
 190  451.9763
 191  633.9421
 192  578.1749
 193  458.3271
 194  478.5834
 195  518.199
 196  611.3599
 197  467.7314
 198  378.8412
 199  357.9241
 200  348.7655
 201  500.5155
 202  469.9643
 203  322.4942
 204  397.7484
 205  369.5031
 206  366.0664
 207  470.9278
 208  365.036
 209  377.412
 210  508.9705
 211  467.3173
 212  498.1867
 213  449.6628
 214  433.6413
 215  543.4576
 216  466.5726
 217  407.452
 218  450.5782
 219  536.6628
 220  575.3253
 221  475.2412
 222  538.2966
 223  536.4572
 224  410.6692
 225  418.8662
 226  491.1892
 227  535.5897
 228  543.7842
 229  558.2109
 230  435.1582
 231  570.0815
 232  509.0793
 233  424.4873
 234  412.9035
 235  454.4964
 236  325.5529
 237  331.8634
 238  547.3652
 239  507.8329
 240  556.1495
 241  539.4645
 242  487.3302
 243  414.7899
 244  319.4647
 245  459.4874
 246  497.8532
 247  480.4485
 248  610.3743
 249  613.9713
 250  543.4198
 251  354.9512
 252  438.1266
 253  523.1143
 254  587.5804
 255  492.0652
 256  483.9939
 257  564.1498
 258  500.1684
 259  481.9656
 260  447.6543
 261  545.6171
 262  491.3515
 263  407.9916
 264  417.4414
 265  433.9702
 266  441.5884
 267  471.422
 268  437.013
 269  372.9899
 270  258.0276
 271  485.7057
 272  552.998
 273  535.1241
 274  417.6832
 275  444.0358
 276  358.4362
 277  360.6194
 278  470.4604
 279  348.6476
 280  298.8089
 281  500.0066
 282  478.3117
 283  369.556
 284  373.3391
 285  497.7061
 286  564.0659
 287  533.5975
 288  443.3388
 289  408.1365
 290  498.2466
 291  454.1481
 292  410.0504
 293  350.9728
 294  489.0465
 295  476.6936
 296  374.568
 297  348.8236
 298  437.5579
 299  443.3205
 300  446.3596
 301  565.0416
 302  542.874
 303  548.4265
 304  487.7008
 305  565.0046
 306  502.1937
 307  475.5554
 308  514.3021
 309  582.3202
 310  568.0181
 311  456.1219
 312  452.1622
 313  563.3398
 314  477.955
 315  420.8991
 316  420.6347
 317  416.2529
 318  441.4198
 319  449.77
 320  505.419
 321  605.9861
 322  605.1094
 323  552.9382
 324  541.2328
 325  563.1716
 326  507.3253
 327  566.8273
 328  550.1975
 329  485.6337
 330  538.6044
 331  461.965
 332  508.1667
 333  426.2614
 334  493.9219
 335  626.3661
 336  593.4213
 337  509.7461
 338  437.5803
 339  361.9011
 340  440.8803
 341  514.2775
 342  341.3077
 343  398.6065
 344  465.2248
 345  444.675
 346  433.0382
 347  423.9217
 348  491.2776
 349  483.7059
 350  514.0343
 351  371.6281
 352  399.8497
 353  463.327
 354  502.9277
 355  430.7993
 356  457.8584
 357  434.4582
 358  510.6709
 359  577.6453
 360  400.4222
 361  465.3982
 362  625.9125
 363  515.0465
 364  479.4958
 365  501.3294
 366  463.7978
 367  418.744
 368  366.591
 369  496.7872
 370  494.6686
 371  481.8055
 372  593.2244
 373  521.7432
 374  502.2252
 375  435.5258
 376  560.7783
 377  663.0596
 378  643.4364
 379  501.335
 380  488.4706
 381  552.6403
 382  382.4402
 383  328.6324
 384  435.6968
 385  614.2139
 386  580.0786
 387  495.2044
 388  481.9759
 389  487.4351
 390  501.9784
 391  566.5378
 392  566.9772
 393  472.074
 394  369.1133
 395  442.2565
 396  486.2648
 397  395.3989
 398  384.0329
 399  423.7889
 400  401.087
 401  406.7521
 402  384.8853
 403  425.3382
 404  486.4102
 405  227.8595
 406  283.4823
 407  487.4968
 408  543.1522
 409  453.5606
 410  511.2064
 411  576.6999
 412  538.5392
 413  431.1205
 414  542.6753
 415  500.9335
 416  465.5344
 417  512.4034
 418  624.5336
 419  613.1362
 420  585.4875
 421  522.7703
 422  463.8735
 423  657.1783
 424  614.8749
 425  604.7711
 426  593.5464
 427  549.2238
 428  511.1756
 429  538.7459
 430  562.6075
 431  464.9538
 432  602.1487
 433  613.3553
 434  582.8845
 435  519.7545
 436  551.5344
 437  433.2738
 438  440.0728
 439  534.0479
 440  621.9959
 441  581.5765
 442  642.5897
 443  607.3671
 444  452.3852
 445  564.6021
 446  656.6518
 447  548.7406
 448  478.4681
 449  439.8214
 450  371.169
 451  366.0668
 452  445.0356
 453  396.5651
 454  454.0038
 455  651.5114
 456  567.3068
 457  420.8024
 458  459.7516
 459  517.2786
 460  522.4425
 461  540.7491
 462  466.496
 463  578.4902
 464  644.2587
 465  480.5511
 466  470.1639
 467  609.6173
 468  546.6725
 469  386.6518
 470  338.5498
 471  431.8949
 472  452.9278
 473  460.5635
 474  522.8724
 475  501.6949
 476  521.0819
 477  573.6862
 478  530.0573
 479  445.5782
 480  420.7598
 481  431.6884
 482  533.7123
 483  572.6434
 484  562.2831
 485  527.5655
 486  487.2446
 487  414.0073
 488  561.3772
 489  520.4922
 490  569.7863
 491  673.2983
 492  612.1913
 493  699.6703
 494  696.9808
 495  672.9614
 496  518.5375
 497  412.8602
 498  473.4806
 499  450.999
 500  595.2369
 501  496.015
 502  500.0374
 503  569.1702
 504  623.4486
 505  658.2188
 506  725.446
 507  791.6749
 508  783.5244
 509  827.138
 510  1137.315
 511  1322.012
