# Input file       =  1184888937.102792_cleaned.dat
# Candidate        =  PSR_0332+5434
# Telescope        =  AR
# Epoch_topo       =  57957.992119245275
# Epoch_bary       =  N/A
# T_sample         =  0.002
# Data Folded      =  7143424
# Data Avg         =  0.0248521278569136
# Data StdDev      =  1.00005849615485 
# Profile Bins     =  512
# Profile Avg      =  346.731870778559 
# Profile StdDev   =  118.125493964875 
# Reduced chi-sqr  =  1.664
# Prob(Noise)      <  2.57e-19   (~8.9 sigma)
# P_topo (ms)      =  714.47341530563   +/- 0.000339
# P'_topo (s/s)    =  -0                +/- 1.84e-10
# P''_topo (s/s^2) =  0                 +/- 8.34e-14
# P_bary (ms)      =  N/A
# P'_bary (s/s)    =  N/A
# P''_bary (s/s^2) =  N/A
# P_orb (s)        =  N/A
# asin(i)/c (s)    =  N/A
# eccentricity     =  N/A
# w (rad)          =  N/A
# T_peri           =  N/A
######################################################
   0  285.4333
   1  337.776
   2  363.9694
   3  385.9901
   4  488.308
   5  520.2982
   6  421.2187
   7  359.8394
   8  435.9616
   9  315.356
  10  267.1381
  11  484.7476
  12  516.2142
  13  499.4136
  14  410.6897
  15  342.8611
  16  267.1729
  17  350.673
  18  420.1292
  19  369.8313
  20  263.7286
  21  303.5346
  22  315.2748
  23  369.8304
  24  408.7268
  25  423.2843
  26  337.7785
  27  331.8546
  28  443.2744
  29  453.4677
  30  455.1158
  31  390.9435
  32  363.2146
  33  409.6282
  34  354.1487
  35  414.9247
  36  456.9351
  37  455.1798
  38  378.528
  39  442.1395
  40  357.6314
  41  286.7046
  42  373.2936
  43  406.8363
  44  343.5628
  45  324.2372
  46  442.5931
  47  507.7429
  48  464.5518
  49  296.275
  50  245.7339
  51  252.9886
  52  246.7663
  53  278.3831
  54  389.1614
  55  322.4688
  56  412.9017
  57  425.9846
  58  366.3989
  59  464.4707
  60  497.6598
  61  407.78
  62  385.2735
  63  445.2779
  64  392.6725
  65  269.3211
  66  321.8786
  67  408.8867
  68  422.7743
  69  329.6131
  70  295.4902
  71  406.2721
  72  442.5946
  73  334.7933
  74  364.598
  75  337.1941
  76  262.5914
  77  209.8219
  78  225.071
  79  155.6879
  80  269.1121
  81  326.0172
  82  316.8679
  83  345.318
  84  314.1842
  85  321.681
  86  350.5653
  87  395.0519
  88  278.3112
  89  351.4452
  90  363.1144
  91  278.7167
  92  244.7045
  93  321.9886
  94  344.1757
  95  365.3121
  96  203.8552
  97  226.3139
  98  346.2872
  99  411.0285
 100  205.9245
 101  259.7041
 102  363.8201
 103  385.529
 104  388.8757
 105  358.3982
 106  313.8831
 107  340.2683
 108  285.1182
 109  331.679
 110  287.1601
 111  442.7418
 112  431.1762
 113  348.0153
 114  296.7296
 115  288.8238
 116  276.1541
 117  342.1388
 118  373.0556
 119  379.9379
 120  379.9101
 121  207.5526
 122  187.8857
 123  262.0978
 124  322.0608
 125  411.7519
 126  403.0073
 127  302.8718
 128  261.6103
 129  232.3507
 130  283.3042
 131  206.6614
 132  164.4381
 133  214.2325
 134  234.2061
 135  320.4135
 136  279.3853
 137  174.4841
 138  163.2189
 139  187.1835
 140  222.7378
 141  183.6724
 142  51.83663
 143  186.2268
 144  418.114
 145  369.06
 146  289.9659
 147  291.1429
 148  221.6673
 149  200.2839
 150  392.5389
 151  418.0591
 152  473.5107
 153  468.2086
 154  303.3894
 155  262.8585
 156  345.865
 157  337.0078
 158  147.2136
 159  192.171
 160  258.6367
 161  281.6242
 162  295.832
 163  266.7585
 164  337.2819
 165  244.0265
 166  253.8995
 167  362.613
 168  440.5907
 169  411.5362
 170  332.3969
 171  205.3968
 172  223.7915
 173  203.1605
 174  179.5435
 175  319.7114
 176  353.8496
 177  259.2556
 178  375.1758
 179  319.4952
 180  250.7784
 181  262.6086
 182  252.3041
 183  303.4784
 184  377.6931
 185  515.0112
 186  500.8883
 187  367.0012
 188  297.5069
 189  367.3212
 190  309.9048
 191  324.1752
 192  373.3131
 193  316.3161
 194  214.6839
 195  225.3892
 196  180.3101
 197  193.9397
 198  269.3636
 199  213.7227
 200  337.4745
 201  310.1945
 202  222.1937
 203  240.4517
 204  273.3746
 205  274.2245
 206  198.8852
 207  248.6174
 208  332.0089
 209  351.4626
 210  400.4501
 211  232.6808
 212  198.108
 213  288.6121
 214  332.0242
 215  411.4272
 216  291.4609
 217  399.5146
 218  361.3141
 219  342.2945
 220  334.1092
 221  300.9851
 222  452.8019
 223  554.0039
 224  444.3106
 225  530.6464
 226  522.6708
 227  617.8344
 228  835.3358
 229  975.232
 230  1056.464
 231  1138.296
 232  1184.353
 233  974.4514
 234  643.5898
 235  421.1377
 236  320.0623
 237  344.5242
 238  401.8888
 239  272.6084
 240  379.3263
 241  393.2491
 242  503.786
 243  455.144
 244  338.4634
 245  309.0343
 246  324.6646
 247  385.614
 248  434.1173
 249  342.3612
 250  355.0536
 251  394.5566
 252  394.4517
 253  465.3761
 254  416.1685
 255  338.5352
 256  323.1312
 257  327.9636
 258  323.889
 259  461.0685
 260  403.0757
 261  423.675
 262  495.2489
 263  373.6067
 264  287.6826
 265  504.2422
 266  555.8687
 267  392.3312
 268  372.2849
 269  433.1391
 270  339.6748
 271  190.2181
 272  389.9296
 273  546.9798
 274  443.6126
 275  349.8841
 276  285.8811
 277  397.7857
 278  275.166
 279  334.2877
 280  289.9784
 281  432.8463
 282  441.1635
 283  283.6597
 284  392.7558
 285  337.4733
 286  422.3916
 287  410.3274
 288  336.5024
 289  449.8291
 290  274.5844
 291  323.4112
 292  419.4558
 293  341.2414
 294  271.9235
 295  300.4339
 296  183.7998
 297  242.5653
 298  328.202
 299  421.7239
 300  327.1861
 301  394.4274
 302  455.1377
 303  412.9641
 304  431.5068
 305  363.8076
 306  320.4978
 307  217.9908
 308  192.4363
 309  375.4525
 310  388.9374
 311  439.9256
 312  413.3912
 313  463.7742
 314  369.659
 315  320.2326
 316  394.3964
 317  378.5585
 318  353.8872
 319  401.3178
 320  379.2926
 321  359.955
 322  453.9675
 323  376.7861
 324  431.5267
 325  338.4274
 326  380.1664
 327  374.0442
 328  458.6611
 329  378.4496
 330  304.9483
 331  261.2758
 332  283.8954
 333  326.7633
 334  402.7932
 335  392.1777
 336  351.6385
 337  383.1183
 338  333.8073
 339  381.535
 340  475.5258
 341  390.8905
 342  330.227
 343  353.644
 344  426.541
 345  325.6805
 346  407.4869
 347  398.2992
 348  325.5735
 349  352.969
 350  346.1795
 351  407.824
 352  361.0406
 353  354.1958
 354  381.0083
 355  318.3608
 356  354.5367
 357  434.7437
 358  425.2229
 359  381.6829
 360  350.0473
 361  244.5543
 362  271.2718
 363  351.4525
 364  319.8947
 365  291.2193
 366  332.2315
 367  358.4329
 368  202.2466
 369  227.158
 370  279.7516
 371  300.2239
 372  207.3109
 373  196.2082
 374  262.9772
 375  256.7459
 376  176.3772
 377  312.5025
 378  378.7589
 379  301.9882
 380  283.1498
 381  195.8124
 382  218.1756
 383  329.6268
 384  422.435
 385  356.0401
 386  274.3672
 387  287.8409
 388  355.1012
 389  342.3709
 390  279.3438
 391  208.8355
 392  215.6332
 393  200.4901
 394  302.1604
 395  336.5146
 396  330.3403
 397  257.3656
 398  353.6627
 399  357.5009
 400  397.2424
 401  362.7944
 402  398.7729
 403  336.9388
 404  175.2659
 405  226.7529
 406  182.3087
 407  293.4805
 408  380.5015
 409  374.0766
 410  336.0364
 411  258.032
 412  249.2985
 413  255.7022
 414  398.963
 415  367.7522
 416  350.2409
 417  290.052
 418  247.4566
 419  319.0901
 420  338.0661
 421  395.3873
 422  329.0947
 423  262.3589
 424  242.181
 425  192.7364
 426  226.6074
 427  310.2949
 428  325.9921
 429  368.3212
 430  380.3938
 431  293.7929
 432  157.9906
 433  225.3508
 434  238.2972
 435  247.6261
 436  340.5051
 437  296.6209
 438  430.7585
 439  447.7864
 440  393.9386
 441  360.9414
 442  386.9325
 443  362.6018
 444  394.3726
 445  353.037
 446  345.1635
 447  348.5302
 448  313.1804
 449  307.6187
 450  323.647
 451  298.2986
 452  296.5787
 453  316.2683
 454  410.7141
 455  409.4855
 456  242.5238
 457  305.1087
 458  341.4398
 459  324.4157
 460  286.5576
 461  265.1989
 462  232.8228
 463  328.4373
 464  308.7525
 465  338.4843
 466  298.8842
 467  319.4731
 468  426.0441
 469  363.3112
 470  369.2606
 471  399.644
 472  288.0642
 473  276.9436
 474  389.5354
 475  381.7391
 476  416.9771
 477  372.8472
 478  267.3631
 479  449.3581
 480  449.5122
 481  422.4941
 482  322.4452
 483  278.5139
 484  370.7937
 485  293.4199
 486  290.8899
 487  317.2518
 488  316.2862
 489  387.4902
 490  331.3371
 491  276.6505
 492  343.1624
 493  373.698
 494  287.8966
 495  306.1676
 496  309.3231
 497  263.1449
 498  334.1845
 499  313.9529
 500  339.5723
 501  417.7019
 502  355.4417
 503  351.8108
 504  396.2846
 505  494.1745
 506  455.6186
 507  356.8317
 508  240.48
 509  363.0522
 510  486.2162
 511  404.0559
