# Input file       =  1184989753.099401_cleaned.dat
# Candidate        =  PSR_0332+5434
# Telescope        =  AR
# Epoch_topo       =  57959.158971057885
# Epoch_bary       =  N/A
# T_sample         =  0.002
# Data Folded      =  7340032
# Data Avg         =  0.0361319625305238
# Data StdDev      =  1.00065625185139 
# Profile Bins     =  512
# Profile Avg      =  517.953025785923 
# Profile StdDev   =  119.811611403561 
# Reduced chi-sqr  =  1.525
# Prob(Noise)      <  1.74e-13   (~7.3 sigma)
# P_topo (ms)      =  714.472792748633  +/- 0.000288
# P'_topo (s/s)    =  -0                +/- 1.52e-10
# P''_topo (s/s^2) =  0                 +/- 6.71e-14
# P_bary (ms)      =  N/A
# P'_bary (s/s)    =  N/A
# P''_bary (s/s^2) =  N/A
# P_orb (s)        =  N/A
# asin(i)/c (s)    =  N/A
# eccentricity     =  N/A
# w (rad)          =  N/A
# T_peri           =  N/A
######################################################
   0  1253.889
   1  1193.583
   2  1021.078
   3  618.776
   4  492.4771
   5  477.3199
   6  483.4692
   7  481.5413
   8  461.5957
   9  575.0316
  10  674.7704
  11  618.4274
  12  504.2691
  13  486.8195
  14  648.5836
  15  619.7783
  16  549.0339
  17  483.0937
  18  481.2398
  19  440.682
  20  523.2977
  21  472.2613
  22  453.7592
  23  555.4908
  24  484.4729
  25  374.7699
  26  461.4323
  27  476.1432
  28  404.0354
  29  422.1646
  30  459.0827
  31  519.993
  32  550.8583
  33  517.0624
  34  466.0848
  35  467.3819
  36  543.2794
  37  533.9978
  38  569.3913
  39  504.058
  40  497.8761
  41  485.9377
  42  465.369
  43  417.5189
  44  541.7067
  45  620.0319
  46  540.6202
  47  549.9209
  48  527.1294
  49  532.8018
  50  489.0192
  51  470.6664
  52  464.6428
  53  489.2354
  54  426.6074
  55  492.9191
  56  537.9167
  57  534.7735
  58  494.8098
  59  484.0153
  60  596.7809
  61  594.4295
  62  427.4722
  63  376.4323
  64  450.1608
  65  566.7263
  66  701.6288
  67  634.2081
  68  573.439
  69  611.9355
  70  683.9517
  71  591.9638
  72  640.4899
  73  612.9177
  74  638.8857
  75  617.6587
  76  516.2548
  77  567.4059
  78  648.236
  79  585.6732
  80  505.2495
  81  596.0298
  82  502.9351
  83  413.9623
  84  565.3259
  85  599.5703
  86  555.3311
  87  498.109
  88  581.2203
  89  567.1752
  90  461.9233
  91  561.0327
  92  584.8303
  93  613.1018
  94  532.9196
  95  571.4065
  96  565.3898
  97  564.4553
  98  477.2987
  99  401.8217
 100  379.7697
 101  435.4093
 102  428.3383
 103  509.077
 104  446.2944
 105  424.369
 106  541.9071
 107  521.385
 108  466.4004
 109  566.5642
 110  498.6556
 111  556.1013
 112  537.1738
 113  529.9319
 114  559.5851
 115  485.0544
 116  447.0667
 117  571.4827
 118  654.0626
 119  678.5363
 120  608.151
 121  607.6555
 122  616.6727
 123  617.3057
 124  486.1754
 125  597.1177
 126  484.1208
 127  473.6964
 128  590.7945
 129  505.4438
 130  469.5374
 131  463.8722
 132  416.2057
 133  470.2218
 134  483.706
 135  580.3658
 136  586.1183
 137  508.5158
 138  550.5027
 139  504.6681
 140  514.7043
 141  463.8062
 142  457.2856
 143  580.1364
 144  493.5811
 145  535.4527
 146  554.1927
 147  446.4491
 148  493.7635
 149  459.3001
 150  438.0211
 151  396.2844
 152  479.1317
 153  561.7333
 154  587.5679
 155  520.5279
 156  463.6624
 157  365.1001
 158  430.9271
 159  461.032
 160  493.6838
 161  454.1802
 162  432.6751
 163  437.0337
 164  396.1106
 165  419.4166
 166  369.8408
 167  416.3896
 168  410.8866
 169  447.862
 170  510.1413
 171  370.5457
 172  352.8795
 173  336.3976
 174  386.8519
 175  406.2781
 176  477.4246
 177  519.1075
 178  484.0803
 179  554.7122
 180  635.2734
 181  518.4861
 182  430.6789
 183  501.6098
 184  626.9697
 185  641.3403
 186  546.9551
 187  606.4755
 188  514.8553
 189  644.8802
 190  661.3609
 191  649.5961
 192  622.9057
 193  487.249
 194  521.4996
 195  532.9598
 196  558.8062
 197  572.5675
 198  594.598
 199  537.8225
 200  481.355
 201  542.7967
 202  583.136
 203  535.6617
 204  522.7337
 205  494.2511
 206  555.3891
 207  668.7209
 208  630.5814
 209  556.2851
 210  593.9775
 211  562.1392
 212  558.796
 213  539.7097
 214  388.7735
 215  471.5017
 216  498.4961
 217  390.1356
 218  428.101
 219  517.0993
 220  531.7378
 221  426.5318
 222  497.655
 223  512.3808
 224  486.7885
 225  433.2566
 226  599.7037
 227  631.1099
 228  451.605
 229  436.5365
 230  514.3742
 231  565.2316
 232  585.032
 233  620.3729
 234  540.8313
 235  524.267
 236  579.6678
 237  630.2516
 238  747.8705
 239  679.763
 240  623.5032
 241  645.2503
 242  665.0203
 243  551.9474
 244  603.7644
 245  663.7531
 246  578.5756
 247  525.5095
 248  585.9531
 249  574.4726
 250  479.378
 251  409.9483
 252  468.4286
 253  473.8809
 254  551.8412
 255  607.9901
 256  608.3524
 257  589.7993
 258  598.5303
 259  635.9756
 260  584.3898
 261  598.2509
 262  593.088
 263  596.4526
 264  714.0861
 265  673.6865
 266  677.8475
 267  585.539
 268  550.8339
 269  640.9727
 270  656.2688
 271  658.5925
 272  600.1044
 273  703.851
 274  659.778
 275  573.7267
 276  609.1942
 277  540.291
 278  568.0216
 279  509.1806
 280  608.5729
 281  684.6456
 282  620.7921
 283  606.7457
 284  692.3115
 285  687.735
 286  691.2024
 287  661.3069
 288  577.2145
 289  646.9982
 290  670.38
 291  558.3316
 292  614.6417
 293  655.4614
 294  696.2416
 295  652.1647
 296  668.9868
 297  511.9308
 298  458.8483
 299  587.5471
 300  612.2321
 301  570.7662
 302  476.4471
 303  589.3178
 304  648.4996
 305  553.8641
 306  561.2073
 307  618.9071
 308  664.8658
 309  582.452
 310  558.7149
 311  613.2382
 312  474.8238
 313  412.1293
 314  378.7298
 315  496.5655
 316  459.8951
 317  442.7527
 318  483.1839
 319  458.1604
 320  602.2042
 321  484.349
 322  447.4897
 323  540.3017
 324  528.8274
 325  643.8057
 326  558.5679
 327  509.4846
 328  469.2831
 329  425.0667
 330  489.8492
 331  423.581
 332  392.5284
 333  558.7043
 334  560.9771
 335  536.0208
 336  510.2852
 337  470.4821
 338  473.864
 339  516.0143
 340  557.4784
 341  464.0036
 342  334.6277
 343  377.8624
 344  425.4018
 345  540.1053
 346  523.2659
 347  530.6273
 348  472.6048
 349  594.9731
 350  680.9443
 351  543.5295
 352  469.7299
 353  448.8354
 354  487.1031
 355  536.459
 356  565.4738
 357  526.4855
 358  530.9678
 359  376.2206
 360  471.0956
 361  462.4605
 362  604.8233
 363  688.4758
 364  512.2073
 365  425.9325
 366  502.7461
 367  560.6789
 368  418.0547
 369  444.5581
 370  354.8639
 371  367.4615
 372  439.8562
 373  411.0471
 374  523.917
 375  467.8112
 376  516.7457
 377  489.4562
 378  423.6164
 379  440.5948
 380  271.3143
 381  338.5709
 382  420.9614
 383  444.3215
 384  403.7071
 385  480.0444
 386  480.9771
 387  497.8997
 388  447.3842
 389  442.0098
 390  531.1595
 391  545.0312
 392  483.8107
 393  537.9809
 394  538.6127
 395  462.6657
 396  413.8214
 397  423.0502
 398  518.918
 399  468.4024
 400  494.8771
 401  510.1774
 402  380.839
 403  329.2004
 404  376.6434
 405  394.1178
 406  342.3715
 407  407.8837
 408  355.6137
 409  355.1423
 410  454.2142
 411  431.4305
 412  428.2872
 413  358.448
 414  395.9655
 415  455.4879
 416  491.895
 417  399.6531
 418  468.9882
 419  505.105
 420  551.6912
 421  524.996
 422  394.0386
 423  442.1805
 424  355.5063
 425  393.2751
 426  430.355
 427  362.3831
 428  436.4941
 429  560.6644
 430  493.0947
 431  327.241
 432  313.8641
 433  330.674
 434  384.6805
 435  461.382
 436  538.5123
 437  502.0318
 438  506.0539
 439  489.8518
 440  511.0381
 441  382.2346
 442  359.1426
 443  414.4106
 444  430.331
 445  320.6091
 446  319.4868
 447  448.3822
 448  496.6862
 449  458.8459
 450  445.1938
 451  411.0628
 452  522.8409
 453  433.3818
 454  361.5291
 455  433.2488
 456  453.5764
 457  435.0105
 458  362.0507
 459  485.3069
 460  587.2292
 461  580.5592
 462  496.8445
 463  518.0842
 464  555.1851
 465  553.3824
 466  436.8664
 467  479.2899
 468  481.6555
 469  581.9428
 470  587.7298
 471  630.0077
 472  702.0594
 473  530.929
 474  433.47
 475  341.8994
 476  590.0912
 477  649.277
 478  458.7427
 479  463.3294
 480  453.8463
 481  407.3292
 482  421.1038
 483  475.91
 484  479.5139
 485  562.3376
 486  533.5018
 487  339.4841
 488  288.3392
 489  367.0271
 490  451.1202
 491  491.9918
 492  371.0289
 493  430.6367
 494  412.4397
 495  456.541
 496  502.0947
 497  438.6486
 498  385.575
 499  460.8621
 500  504.2733
 501  478.0564
 502  391.987
 503  409.1194
 504  417.0603
 505  429.0264
 506  630.8031
 507  653.5949
 508  611.7986
 509  849.9415
 510  1049.677
 511  1106.352
