# Input file       =  1184199632.104209_cleaned.dat
# Candidate        =  PSR_0332+5434
# Telescope        =  AR
# Epoch_topo       =  57950.014052132050
# Epoch_bary       =  N/A
# T_sample         =  0.002
# Data Folded      =  7143424
# Data Avg         =  0.0244660218418796
# Data StdDev      =  1.0000133317667  
# Profile Bins     =  512
# Profile Avg      =  341.346257149666 
# Profile StdDev   =  118.120159211279 
# Reduced chi-sqr  =  1.400
# Prob(Noise)      <  5.37e-09   (~5.7 sigma)
# P_topo (ms)      =  714.478241634303  +/- 0.000292
# P'_topo (s/s)    =  -0                +/- 1.58e-10
# P''_topo (s/s^2) =  0                 +/- 7.17e-14
# P_bary (ms)      =  N/A
# P'_bary (s/s)    =  N/A
# P''_bary (s/s^2) =  N/A
# P_orb (s)        =  N/A
# asin(i)/c (s)    =  N/A
# eccentricity     =  N/A
# w (rad)          =  N/A
# T_peri           =  N/A
######################################################
   0  1031.117
   1  936.4011
   2  843.6669
   3  705.6158
   4  539.3173
   5  443.9826
   6  340.2498
   7  249.2554
   8  288.0237
   9  317.3441
  10  339.4885
  11  318.5392
  12  315.6522
  13  457.8615
  14  406.489
  15  301.6872
  16  361.7861
  17  401.2982
  18  434.9532
  19  273.4068
  20  205.6235
  21  355.2841
  22  393.6388
  23  315.3243
  24  290.8984
  25  310.3928
  26  256.8497
  27  332.2221
  28  253.7022
  29  271.9707
  30  298.1931
  31  395.9523
  32  331.7437
  33  357.2756
  34  419.8394
  35  446.1488
  36  286.7153
  37  279.0263
  38  317.688
  39  235.7052
  40  229.7979
  41  235.467
  42  304.2843
  43  256.9742
  44  300.5421
  45  397.6426
  46  362.8816
  47  313.687
  48  324.146
  49  353.6681
  50  278.879
  51  371.8163
  52  385.0784
  53  429.324
  54  394.4734
  55  324.1218
  56  301.6108
  57  373.6107
  58  400.3426
  59  402.441
  60  454.9104
  61  439.8562
  62  525.1318
  63  468.017
  64  435.5835
  65  367.4741
  66  418.2585
  67  437.0309
  68  316.16
  69  406.099
  70  487.278
  71  439.1074
  72  410.725
  73  315.5692
  74  254.7504
  75  232.581
  76  265.6443
  77  353.8295
  78  355.1613
  79  347.6666
  80  355.0284
  81  293.8768
  82  299.0141
  83  334.8916
  84  342.7762
  85  395.9425
  86  339.8877
  87  219.3753
  88  322.7166
  89  444.0273
  90  401.9791
  91  288.8062
  92  293.8085
  93  190.6128
  94  255.9952
  95  322.728
  96  331.7185
  97  311.112
  98  401.563
  99  462.1818
 100  386.3763
 101  426.0213
 102  403.273
 103  389.5587
 104  328.2814
 105  344.0344
 106  280.9001
 107  213.3812
 108  274.4672
 109  269.3905
 110  247.3256
 111  268.2365
 112  385.5872
 113  471.2693
 114  395.2672
 115  300.089
 116  308.5729
 117  320.2768
 118  242.1011
 119  308.7854
 120  262.6463
 121  272.7685
 122  245.9135
 123  242.5722
 124  309.6376
 125  320.6684
 126  360.9865
 127  374.0568
 128  310.5391
 129  259.1828
 130  317.0491
 131  377.4423
 132  360.2821
 133  523.8287
 134  444.6172
 135  386.3738
 136  305.7088
 137  345.4993
 138  372.2411
 139  301.9651
 140  427.4353
 141  359.4998
 142  311.4691
 143  349.429
 144  348.2285
 145  384.1186
 146  386.4146
 147  373.959
 148  399.0257
 149  498.8853
 150  292.5255
 151  246.5666
 152  281.2829
 153  356.2132
 154  317.1843
 155  326.2093
 156  440.0385
 157  428.3715
 158  288.3571
 159  341.2415
 160  277.6522
 161  309.805
 162  217.0084
 163  271.1882
 164  374.1514
 165  340.8772
 166  275.9895
 167  399.3791
 168  335.1929
 169  226.9484
 170  313.5791
 171  262.2065
 172  314.9505
 173  334.9629
 174  272.488
 175  181.9231
 176  325.1478
 177  435.6961
 178  374.0614
 179  356.4313
 180  213.6766
 181  274.4398
 182  332.8585
 183  311.2857
 184  283.6508
 185  301.9496
 186  275.412
 187  253.198
 188  300.8535
 189  277.3724
 190  248.3169
 191  242.4427
 192  342.0508
 193  289.9396
 194  207.4113
 195  323.1628
 196  367.9304
 197  425.503
 198  425.2937
 199  407.0876
 200  351.5786
 201  341.7209
 202  337.1638
 203  292.0009
 204  293.2805
 205  346.8956
 206  342.8914
 207  387.2812
 208  295.8865
 209  309.4229
 210  330.8698
 211  388.6894
 212  427.535
 213  425.1002
 214  513.7493
 215  404.9545
 216  480.5219
 217  459.368
 218  422.2349
 219  368.7591
 220  310.4918
 221  321.4694
 222  300.0896
 223  285.7547
 224  259.4692
 225  241.808
 226  222.1899
 227  311.2003
 228  313.7394
 229  409.4057
 230  321.7672
 231  315.8789
 232  255.2367
 233  339.3445
 234  364.2882
 235  316.2899
 236  324.5948
 237  309.8311
 238  294.6049
 239  386.3521
 240  326.0336
 241  224.9061
 242  226.1
 243  351.6354
 244  378.1328
 245  358.8439
 246  436.9415
 247  366.0398
 248  368.8695
 249  322.8806
 250  306.654
 251  274.1177
 252  345.3851
 253  290.2074
 254  324.35
 255  304.2857
 256  333.5607
 257  244.6611
 258  204.9607
 259  336.7805
 260  413.148
 261  396.9637
 262  333.4444
 263  391.8834
 264  262.6146
 265  140.104
 266  203.447
 267  198.6181
 268  222.8099
 269  375.2203
 270  371.0384
 271  380.3431
 272  316.1288
 273  347.8102
 274  372.1383
 275  313.5048
 276  377.1058
 277  277.1799
 278  386.5688
 279  384.6157
 280  440.5738
 281  387.65
 282  323.0319
 283  221.4102
 284  220.3421
 285  322.1604
 286  330.4864
 287  382.5804
 288  431.6871
 289  329.3513
 290  242.3177
 291  381.1217
 292  425.3005
 293  423.4658
 294  388.4678
 295  375.3568
 296  384.6233
 297  277.1419
 298  270.5644
 299  307.4942
 300  386.2304
 301  257.8309
 302  230.5809
 303  202.3366
 304  330.8349
 305  395.7599
 306  400.6688
 307  293.5099
 308  369.1106
 309  367.671
 310  254.5444
 311  225.9546
 312  255.9138
 313  378.2033
 314  345.7392
 315  268.7897
 316  246.2943
 317  239.8447
 318  126.3857
 319  136.8223
 320  234.444
 321  306.1257
 322  295.6173
 323  288.8137
 324  295.0072
 325  263.7423
 326  356.0852
 327  376.0848
 328  346.9347
 329  335.4757
 330  323.4182
 331  385.5951
 332  382.8249
 333  468.8912
 334  458.1104
 335  386.6083
 336  417.5626
 337  268.4686
 338  242.2843
 339  323.7583
 340  282.1825
 341  286.9494
 342  322.4648
 343  395.4613
 344  348.361
 345  257.7386
 346  269.7568
 347  252.7711
 348  311.8152
 349  457.119
 350  433.0182
 351  378.8038
 352  403.4618
 353  435.464
 354  351.7039
 355  297.7744
 356  392.6082
 357  402.1099
 358  326.5729
 359  371.6416
 360  344.4242
 361  359.1668
 362  339.0769
 363  377.6263
 364  489.4211
 365  418.9055
 366  368.4833
 367  346.3957
 368  384.3451
 369  409.8521
 370  336.5175
 371  350.7042
 372  455.9403
 373  381.4867
 374  379.8856
 375  280.5062
 376  236.2457
 377  189.4512
 378  311.9854
 379  306.3245
 380  171.9661
 381  195.6052
 382  194.8518
 383  229.944
 384  217.7681
 385  344.8282
 386  409.2143
 387  390.8187
 388  333.1035
 389  312.377
 390  246.3466
 391  278.4977
 392  169.4527
 393  197.2504
 394  256.8162
 395  273.5748
 396  429.4407
 397  362.4794
 398  390.2872
 399  388.3517
 400  281.9308
 401  304.2674
 402  258.0654
 403  216.3372
 404  320.6414
 405  294.2716
 406  247.2148
 407  199.4482
 408  190.7755
 409  221.3347
 410  336.6013
 411  277.7193
 412  275.6007
 413  354.3378
 414  427.7675
 415  373.0451
 416  203.9556
 417  255.5259
 418  337.2349
 419  453.8812
 420  464.4131
 421  321.3472
 422  381.7255
 423  389.1777
 424  445.8389
 425  452.6167
 426  456.5232
 427  339.8267
 428  284.6244
 429  415.8723
 430  452.8771
 431  453.691
 432  395.9398
 433  369.8849
 434  329.0179
 435  462.4666
 436  368.4231
 437  343.6344
 438  298.4602
 439  350.7854
 440  379.8306
 441  396.973
 442  359.3849
 443  357.187
 444  319.1463
 445  374.7539
 446  345.2025
 447  368.8337
 448  172.5004
 449  238.0372
 450  330.567
 451  237.7059
 452  340.8191
 453  315.5456
 454  338.7896
 455  350.5777
 456  330.7278
 457  313.4012
 458  261.5468
 459  193.6098
 460  186.4514
 461  317.5566
 462  418.4878
 463  365.4762
 464  364.6744
 465  320.8052
 466  312.8401
 467  307.4581
 468  176.125
 469  242.0274
 470  421.0561
 471  453.144
 472  315.7741
 473  140.6
 474  160.9217
 475  303.5915
 476  372.4153
 477  310.647
 478  285.8894
 479  279.7659
 480  197.8699
 481  285.3228
 482  325.197
 483  251.1601
 484  234.2698
 485  294.9895
 486  347.9149
 487  267.2758
 488  150.5568
 489  115.438
 490  315.3137
 491  449.6592
 492  454.3483
 493  429.4475
 494  326.7428
 495  376.8214
 496  406.616
 497  451.6263
 498  518.7842
 499  398.7841
 500  349.3395
 501  454.2419
 502  443.1465
 503  504.4459
 504  483.6692
 505  380.3008
 506  415.9651
 507  539.1334
 508  721.3884
 509  844.3122
 510  898.9036
 511  1006.004
