# Input file       =  1184731253.101969_cleaned.dat
# Candidate        =  PSR_0332+5434
# Telescope        =  AR
# Epoch_topo       =  57956.167072939454
# Epoch_bary       =  N/A
# T_sample         =  0.002
# Data Folded      =  7340032
# Data Avg         =  0.0298849167435483
# Data StdDev      =  1.00002676799039 
# Profile Bins     =  512
# Profile Avg      =  428.221657789093 
# Profile StdDev   =  119.736241389533 
# Reduced chi-sqr  =  1.663
# Prob(Noise)      <  2.82e-19   (~8.9 sigma)
# P_topo (ms)      =  714.474456867708  +/- 0.000339
# P'_topo (s/s)    =  -0                +/- 1.79e-10
# P''_topo (s/s^2) =  0                 +/- 7.89e-14
# P_bary (ms)      =  N/A
# P'_bary (s/s)    =  N/A
# P''_bary (s/s^2) =  N/A
# P_orb (s)        =  N/A
# asin(i)/c (s)    =  N/A
# eccentricity     =  N/A
# w (rad)          =  N/A
# T_peri           =  N/A
######################################################
   0  457.0024
   1  399.8548
   2  306.5396
   3  198.7675
   4  255.9408
   5  280.9601
   6  410.8688
   7  435.1334
   8  388.7077
   9  320.614
  10  352.9733
  11  385.119
  12  405.2689
  13  515.0594
  14  453.6242
  15  325.456
  16  405.8008
  17  478.15
  18  427.4413
  19  410.5002
  20  351.2045
  21  402.6704
  22  316.8845
  23  387.8477
  24  419.3705
  25  396.8991
  26  304.5456
  27  268.4141
  28  429.2473
  29  481.2899
  30  325.4724
  31  414.0846
  32  332.2313
  33  487.6973
  34  444.7289
  35  368.1938
  36  392.319
  37  443.4072
  38  366.9291
  39  386.9032
  40  449.1627
  41  398.2467
  42  330.4484
  43  432.767
  44  388.2731
  45  314.9293
  46  321.7342
  47  323.741
  48  464.1591
  49  489.763
  50  475.8194
  51  262.6467
  52  436.6628
  53  489.7744
  54  513.6317
  55  470.2535
  56  558.0944
  57  424
  58  385.5213
  59  537.925
  60  659.1148
  61  538.3659
  62  499.3616
  63  447.7105
  64  469.9509
  65  528.8837
  66  546.6138
  67  601.3723
  68  586.6996
  69  505.8771
  70  547.1956
  71  562.4795
  72  685.2734
  73  590.6006
  74  472.35
  75  550.4363
  76  502.8929
  77  481.6231
  78  534.027
  79  557.529
  80  569.2927
  81  466.0118
  82  406.1211
  83  465.913
  84  419.5043
  85  354.4588
  86  372.0411
  87  445.5783
  88  333.953
  89  322.9297
  90  393.2597
  91  508.8532
  92  444.9252
  93  403.8839
  94  386.9585
  95  413.0021
  96  333.7776
  97  243.782
  98  381.9835
  99  380.8125
 100  374.1029
 101  264.1828
 102  368.9391
 103  432.5459
 104  334.7959
 105  338.1008
 106  221.5712
 107  360.708
 108  489.2248
 109  444.7023
 110  362.5598
 111  338.8589
 112  319.9557
 113  335.9092
 114  354.3747
 115  273.9256
 116  202.6542
 117  321.6411
 118  376.0269
 119  371.0323
 120  391.9936
 121  424.9895
 122  241.2065
 123  245.8496
 124  399.584
 125  385.0918
 126  358.1645
 127  293.5025
 128  344.2138
 129  458.4309
 130  487.3202
 131  394.189
 132  340.0869
 133  360.741
 134  400.1826
 135  325.4831
 136  289.4557
 137  354.123
 138  347.8779
 139  357.5769
 140  439.3327
 141  365.5282
 142  267.325
 143  382.8652
 144  397.2585
 145  395.4639
 146  355.1398
 147  372.7516
 148  356.9907
 149  346.5399
 150  306.9717
 151  287.7623
 152  307.445
 153  286.1988
 154  266.7935
 155  240.6667
 156  377.9144
 157  422.7641
 158  313.6381
 159  317.2971
 160  333.1698
 161  352.0521
 162  264.714
 163  220.0602
 164  420.5441
 165  491.2457
 166  335.4772
 167  307.1476
 168  414.5172
 169  387.439
 170  394.7752
 171  393.5387
 172  460.4243
 173  419.1559
 174  279.9808
 175  312.3072
 176  447.6183
 177  394.6457
 178  375.1292
 179  433.1774
 180  309.9034
 181  283.7141
 182  327.3556
 183  502.1451
 184  508.4677
 185  489.2766
 186  575.5134
 187  554.1348
 188  422.4091
 189  292.6762
 190  306.2052
 191  364.8215
 192  401.7638
 193  369.6356
 194  398.7731
 195  444.9509
 196  320.2713
 197  413.6963
 198  502.6802
 199  307.1886
 200  359.4948
 201  355.9516
 202  241.8671
 203  423.275
 204  367.3053
 205  391.2267
 206  314.663
 207  387.178
 208  472.8915
 209  454.8201
 210  461.121
 211  436.9457
 212  508.0397
 213  463.3916
 214  347.4255
 215  358.3349
 216  548.3426
 217  454.1841
 218  352.9285
 219  463.8683
 220  495.5018
 221  434.4908
 222  340.6153
 223  380.8079
 224  473.4418
 225  378.2771
 226  347.114
 227  352.4127
 228  265.1727
 229  219.5628
 230  296.2301
 231  458.9172
 232  335.2819
 233  244.1979
 234  348.0844
 235  442.2476
 236  388.9935
 237  352.5674
 238  303.916
 239  492.8128
 240  395.8907
 241  377.7976
 242  428.6617
 243  354.1162
 244  350.3472
 245  310.1289
 246  252.5814
 247  233.8661
 248  328.1541
 249  393.0437
 250  559.8321
 251  487.6357
 252  315.0752
 253  381.5702
 254  406.0341
 255  385.2942
 256  388.5161
 257  356.0502
 258  487.7795
 259  504.545
 260  423.7926
 261  431.9915
 262  382.139
 263  449.715
 264  456.9411
 265  410.1074
 266  565.8781
 267  526.4117
 268  522.3941
 269  535.4472
 270  571.4344
 271  498.1606
 272  422.6007
 273  519.6227
 274  508.8907
 275  552.7181
 276  567.4388
 277  535.1685
 278  517.1827
 279  498.8462
 280  604.3604
 281  551.9088
 282  450.5447
 283  510.7309
 284  421.7816
 285  494.9514
 286  522.5963
 287  556.0373
 288  432.3115
 289  438.7246
 290  420.8726
 291  456.3545
 292  585.9807
 293  602.1735
 294  444.5506
 295  386.7476
 296  434.0288
 297  477.6897
 298  419.0495
 299  484.0104
 300  492.7766
 301  493.2181
 302  391.6267
 303  406.1774
 304  544.0568
 305  422.7288
 306  389.7515
 307  424.6717
 308  481.7105
 309  398.6256
 310  565.6955
 311  542.2624
 312  391.6007
 313  402.2242
 314  498.7444
 315  438.1668
 316  463.9031
 317  430.8629
 318  521.0988
 319  391.0194
 320  463.5229
 321  551.5331
 322  481.3776
 323  401.1397
 324  391.1577
 325  496.8385
 326  487.0625
 327  461.6812
 328  484.3992
 329  494.243
 330  347.4843
 331  356.5515
 332  387.8643
 333  350.1572
 334  482.0873
 335  507.5597
 336  564.5027
 337  558.8881
 338  618.9836
 339  563.9131
 340  526.5925
 341  488.4798
 342  446.4864
 343  398.5405
 344  486.0948
 345  391.5282
 346  356.8456
 347  531.957
 348  485.399
 349  476.196
 350  486.5532
 351  354.0564
 352  299.981
 353  327.256
 354  496.9188
 355  426.9574
 356  401.0753
 357  362.7411
 358  386.7717
 359  503.8488
 360  483.1172
 361  430.0519
 362  411.0406
 363  387.4717
 364  403.9004
 365  484.6013
 366  572.7391
 367  590.9869
 368  499.8933
 369  438.1907
 370  486.1898
 371  517.6085
 372  353.0005
 373  494.8033
 374  614.2316
 375  533.0952
 376  527.6956
 377  594.4821
 378  629.7393
 379  485.6159
 380  480.0161
 381  448.1374
 382  540.4131
 383  503.577
 384  444.4762
 385  390.8387
 386  437.835
 387  430.032
 388  510.2384
 389  488.6006
 390  385.3823
 391  429.046
 392  417.1305
 393  391.1663
 394  624.4908
 395  718.6819
 396  501.979
 397  440.0595
 398  549.9161
 399  526.2313
 400  576.339
 401  643.7219
 402  805.2435
 403  941.8254
 404  1075.771
 405  1215.013
 406  1149.142
 407  1008.23
 408  851.9037
 409  753.6345
 410  592.103
 411  549.4796
 412  494.5785
 413  376.0486
 414  384.0657
 415  439.3412
 416  471.5959
 417  449.2673
 418  473.0187
 419  470.8133
 420  501.7905
 421  458.91
 422  417.1891
 423  435.7382
 424  391.0358
 425  359.675
 426  377.8198
 427  448.3316
 428  362.4273
 429  483.9255
 430  529.7063
 431  485.8618
 432  496.9656
 433  401.1835
 434  477.4443
 435  478.62
 436  365.4127
 437  326.3664
 438  287.9156
 439  288.648
 440  418.9221
 441  361.8975
 442  346.3143
 443  291.4818
 444  311.281
 445  316.3433
 446  366.538
 447  395.6841
 448  362.4296
 449  395.2529
 450  342.3106
 451  364.3779
 452  340.6193
 453  440.6816
 454  349.4871
 455  274.1179
 456  262.1201
 457  308.3282
 458  327.8647
 459  414.3937
 460  465.6978
 461  414.4538
 462  368.9804
 463  296.8467
 464  422.6206
 465  454.3928
 466  447.3059
 467  347.9354
 468  392.2828
 469  431.0753
 470  443.7511
 471  394.0842
 472  379.569
 473  357.8225
 474  444.7719
 475  422.5634
 476  386.7465
 477  449.7093
 478  451.4316
 479  495.6382
 480  405.9981
 481  329.7462
 482  429.5329
 483  458.9689
 484  475.7548
 485  511.0681
 486  489.7899
 487  447.8331
 488  513.4999
 489  470.301
 490  509.1832
 491  416.7194
 492  332.3792
 493  403.2054
 494  448.2772
 495  464.8546
 496  523.1464
 497  472.7339
 498  440.8457
 499  448.1763
 500  396.588
 501  407.5745
 502  285.4958
 503  272.8525
 504  347.7493
 505  394.8783
 506  305.006
 507  332.9196
 508  348.5338
 509  306.7033
 510  392.6662
 511  394.021
