# Input file       =  1184458115.111231_cleaned.dat
# Candidate        =  PSR_0332+5434
# Telescope        =  AR
# Epoch_topo       =  57953.005753602214
# Epoch_bary       =  N/A
# T_sample         =  0.002
# Data Folded      =  7208960
# Data Avg         =  0.0221703388244682
# Data StdDev      =  1.00000965481512 
# Profile Bins     =  512
# Profile Avg      =  312.180082958325 
# Profile StdDev   =  118.660321425935 
# Reduced chi-sqr  =  1.371
# Prob(Noise)      <  4.7e-08   (~5.3 sigma)
# P_topo (ms)      =  714.476337192105  +/- 0.00018
# P'_topo (s/s)    =  -0                +/- 9.7e-11
# P''_topo (s/s^2) =  0                 +/- 4.36e-14
# P_bary (ms)      =  N/A
# P'_bary (s/s)    =  N/A
# P''_bary (s/s^2) =  N/A
# P_orb (s)        =  N/A
# asin(i)/c (s)    =  N/A
# eccentricity     =  N/A
# w (rad)          =  N/A
# T_peri           =  N/A
######################################################
   0  1150.914
   1  1036.653
   2  931.8467
   3  619.798
   4  344.1852
   5  304.3689
   6  251.2087
   7  326.6122
   8  275.4211
   9  406.1567
  10  407.4234
  11  272.9243
  12  281.3803
  13  264.23
  14  275.3332
  15  299.5737
  16  306.046
  17  283.032
  18  346.5785
  19  437.5647
  20  314.9808
  21  214.0464
  22  305.632
  23  369.9041
  24  255.3524
  25  316.8816
  26  415.8569
  27  415.8047
  28  370.9274
  29  443.036
  30  435.041
  31  363.7712
  32  279.9003
  33  196.6584
  34  350.3775
  35  465.8824
  36  383.0747
  37  349.3961
  38  428.8228
  39  388.7956
  40  365.8466
  41  393.0168
  42  374.1059
  43  329.5052
  44  333.2099
  45  321.2343
  46  307.7915
  47  288.4199
  48  372.0526
  49  295.1683
  50  171.3096
  51  186.0684
  52  299.9463
  53  388.0585
  54  320.0573
  55  300.2627
  56  313.7478
  57  342.5239
  58  222.793
  59  247.7677
  60  294.1566
  61  348.235
  62  462.8144
  63  402.0751
  64  303.8256
  65  260.5523
  66  212.0724
  67  195.2553
  68  211.8306
  69  376.239
  70  214.8724
  71  248.9389
  72  362.3025
  73  216.0647
  74  246.9519
  75  412.5872
  76  319.9331
  77  279.7318
  78  334.5131
  79  269.0204
  80  264.2419
  81  328.3115
  82  193.9227
  83  213.836
  84  299.1356
  85  313.1667
  86  168.8952
  87  177.1036
  88  267.5626
  89  237.4643
  90  276.2175
  91  190.104
  92  284.8977
  93  288.5107
  94  269.6349
  95  285.5867
  96  408.2417
  97  437.11
  98  270.5075
  99  209.1864
 100  271.3416
 101  281.3925
 102  212.3013
 103  317.8166
 104  363.1948
 105  348.1783
 106  368.2551
 107  355.2431
 108  374.3936
 109  216.2216
 110  291.3029
 111  350.345
 112  447.7246
 113  349.4214
 114  373.7537
 115  391.8771
 116  282.484
 117  328.6263
 118  286.0214
 119  292.412
 120  407.7609
 121  351.41
 122  336.7181
 123  144.0106
 124  193.1111
 125  171.0845
 126  283.5808
 127  295.6748
 128  231.8735
 129  112.4176
 130  140.9526
 131  325.4043
 132  343.2965
 133  266.9218
 134  366.3439
 135  309.675
 136  378.4611
 137  375.2322
 138  318.1691
 139  260.3038
 140  250.4055
 141  295.4292
 142  362.0417
 143  346.247
 144  300.8457
 145  312.3568
 146  264.2819
 147  241.9757
 148  212.6389
 149  165.486
 150  296.0423
 151  286.5374
 152  291.0243
 153  157.2268
 154  137.3321
 155  325.2239
 156  321.3859
 157  310.3862
 158  328.0012
 159  268.1231
 160  168.1629
 161  129.8242
 162  233.082
 163  329.8397
 164  332.5924
 165  252.255
 166  331.9965
 167  343.8349
 168  321.6307
 169  207.7653
 170  126.7892
 171  256.3912
 172  270.0216
 173  221.4443
 174  369.8835
 175  550.4628
 176  386.3873
 177  386.8262
 178  331.9151
 179  215.6747
 180  131.0959
 181  183.5985
 182  267.5457
 183  252.63
 184  237.7324
 185  257.4561
 186  151.6087
 187  233.05
 188  369.657
 189  295.4182
 190  345.4023
 191  325.9566
 192  265.2465
 193  201.0428
 194  226.2467
 195  242.9848
 196  368.7441
 197  328.9899
 198  275.6922
 199  312.7319
 200  285.3373
 201  278.4652
 202  189.6182
 203  227.9818
 204  355.1956
 205  196.8549
 206  171.2499
 207  274.9142
 208  392.5854
 209  220.71
 210  222.9016
 211  283.665
 212  400.3596
 213  223.1068
 214  351.0013
 215  436.8563
 216  393.6346
 217  330.6477
 218  210.1366
 219  236.1169
 220  253.1311
 221  211.8921
 222  221.1864
 223  353.4476
 224  266.9533
 225  246.9898
 226  385.644
 227  346.4739
 228  278.7304
 229  365.1528
 230  228.8907
 231  247.0604
 232  216.6531
 233  254.2148
 234  238.1804
 235  427.0307
 236  402.3795
 237  288.2889
 238  290.895
 239  237.1114
 240  274.3082
 241  346.0016
 242  426.0035
 243  415.1569
 244  227.3999
 245  152.6063
 246  163.128
 247  240.8491
 248  265.1492
 249  261.6678
 250  379.314
 251  323.7251
 252  233.8483
 253  122.0563
 254  76.34499
 255  208.1921
 256  291.1584
 257  309.8158
 258  216.9278
 259  230.3206
 260  321.055
 261  196.3933
 262  230.2379
 263  248.9781
 264  109.4984
 265  199.1582
 266  305.895
 267  314.8049
 268  412.1511
 269  360.6371
 270  292.6475
 271  213.8875
 272  302.3254
 273  270.0647
 274  300.9123
 275  314.5544
 276  296.6208
 277  291.0912
 278  209.497
 279  234.2746
 280  202.568
 281  242.8088
 282  276.9643
 283  332.0368
 284  230.9365
 285  162.1175
 286  307.9296
 287  269.3156
 288  364.5979
 289  316.6371
 290  261.116
 291  375.0896
 292  375.5898
 293  307.4413
 294  390.2775
 295  402.5425
 296  337.0797
 297  250.2507
 298  273.6153
 299  368.6154
 300  300.8972
 301  293.3748
 302  296.5268
 303  230.7176
 304  197.6483
 305  262.3233
 306  264.9423
 307  324.1851
 308  422.237
 309  355.7036
 310  310.6467
 311  301.8224
 312  231.1483
 313  227.3615
 314  330.0045
 315  387.8028
 316  386.3542
 317  314.9819
 318  277.3137
 319  416.8804
 320  352.4799
 321  318.7067
 322  351.4813
 323  315.9498
 324  363.8874
 325  303.5811
 326  373.4583
 327  326.2777
 328  258.7013
 329  266.0493
 330  337.9605
 331  341.9218
 332  338.819
 333  421.0759
 334  385.8288
 335  266.5559
 336  314.5153
 337  313.3328
 338  263.5443
 339  333.4691
 340  269.8091
 341  323.891
 342  332.1131
 343  383.0398
 344  474.439
 345  506.5528
 346  492.877
 347  348.4732
 348  291.5497
 349  283.4433
 350  278.2027
 351  247.9245
 352  339.4815
 353  400.9077
 354  297.8429
 355  273.2166
 356  287.7552
 357  304.8267
 358  323.4742
 359  399.683
 360  340.4651
 361  183.6674
 362  118.6582
 363  346.88
 364  359.9567
 365  336.626
 366  330.4638
 367  266.5032
 368  265.2266
 369  404.693
 370  338.242
 371  375.8693
 372  335.7997
 373  355.6021
 374  403.645
 375  280.1513
 376  244.0235
 377  217.3476
 378  325.5073
 379  334.2073
 380  272.1075
 381  403.7835
 382  364.628
 383  293.2164
 384  248.1737
 385  355.8911
 386  307.406
 387  298.6201
 388  334.5716
 389  303.6104
 390  227.2391
 391  330.1728
 392  282.2363
 393  254.906
 394  342.5294
 395  336.2041
 396  241.3162
 397  261.4427
 398  404.6219
 399  375.7803
 400  351.3942
 401  328.5466
 402  319.3493
 403  257.7577
 404  258.9262
 405  359.0435
 406  436.9439
 407  398.4677
 408  393.975
 409  466.8829
 410  435.5292
 411  379.6643
 412  283.2638
 413  299.6602
 414  246.4577
 415  239.684
 416  315.5385
 417  269.9583
 418  245.7101
 419  232.4179
 420  266.9987
 421  269.6824
 422  331.8937
 423  306.834
 424  330.8413
 425  292.4512
 426  150.4313
 427  181.3222
 428  173.9792
 429  332.7117
 430  344.1269
 431  351.3654
 432  290.7537
 433  292.0551
 434  306.3816
 435  302.8607
 436  426.5427
 437  479.228
 438  425.2208
 439  387.0262
 440  427.2432
 441  339.8451
 442  351.5284
 443  414.9073
 444  417.4002
 445  328.1216
 446  332.9319
 447  285.3339
 448  279.1103
 449  312.6557
 450  294.6287
 451  237.0356
 452  266.411
 453  356.6184
 454  372.0094
 455  340.3272
 456  420.3014
 457  484.8138
 458  226.3938
 459  289.0164
 460  272.9034
 461  280.4907
 462  266.8613
 463  307.4288
 464  213.6661
 465  228.6528
 466  288.5292
 467  272.9294
 468  238.9474
 469  273.4201
 470  351.3878
 471  293.9335
 472  253.0998
 473  354.6352
 474  377.8386
 475  252.9333
 476  237.9009
 477  340.762
 478  288.1695
 479  374.4131
 480  417.7659
 481  347.1778
 482  334.1266
 483  396.2681
 484  295.4141
 485  227.6732
 486  351.2702
 487  451.7953
 488  344.8719
 489  350.8337
 490  371.544
 491  265.9998
 492  259.8892
 493  312.2104
 494  494.0428
 495  342.8583
 496  344.5698
 497  329.2108
 498  337.1422
 499  292.2051
 500  315.9463
 501  357.0191
 502  269.5508
 503  170.6969
 504  400.6131
 505  490.538
 506  487.0004
 507  396.2562
 508  447.5787
 509  582.4964
 510  724.4052
 511  958.824
