# Input file       =  1184746163.112572_cleaned.dat
# Candidate        =  PSR_0332+5434
# Telescope        =  AR
# Epoch_topo       =  57956.339642506617
# Epoch_bary       =  N/A
# T_sample         =  0.002
# Data Folded      =  7340032
# Data Avg         =  0.0357114303785759
# Data StdDev      =  1.00018474283135 
# Profile Bins     =  512
# Profile Avg      =  511.997076377221 
# Profile StdDev   =  119.755156196913 
# Reduced chi-sqr  =  1.394
# Prob(Noise)      <  8.56e-09   (~5.6 sigma)
# P_topo (ms)      =  714.474690091234  +/- 0.000285
# P'_topo (s/s)    =  -0                +/- 1.51e-10
# P''_topo (s/s^2) =  0                 +/- 6.65e-14
# P_bary (ms)      =  N/A
# P'_bary (s/s)    =  N/A
# P''_bary (s/s^2) =  N/A
# P_orb (s)        =  N/A
# asin(i)/c (s)    =  N/A
# eccentricity     =  N/A
# w (rad)          =  N/A
# T_peri           =  N/A
######################################################
   0  1188.637
   1  1072.947
   2  811.9133
   3  637.0493
   4  484.5391
   5  436.9077
   6  464.2547
   7  567.4312
   8  549.5127
   9  529.3447
  10  588.9453
  11  628.3926
  12  668.6594
  13  575.6934
  14  483.7752
  15  588.4966
  16  680.0612
  17  601.16
  18  544.7646
  19  588.3616
  20  549.403
  21  511.3941
  22  411.58
  23  620.3965
  24  607.574
  25  692.2387
  26  699.4276
  27  696.8647
  28  654.8468
  29  639.9585
  30  602.0826
  31  607.8445
  32  621.5246
  33  581.2811
  34  480.2443
  35  560.6097
  36  592.757
  37  638.3945
  38  462.7234
  39  534.9503
  40  458.5078
  41  408.904
  42  452.5966
  43  377.7646
  44  365.4141
  45  352.8823
  46  398.0857
  47  539.9999
  48  546.6904
  49  459.8652
  50  684.8202
  51  640.3257
  52  534.6383
  53  512.8691
  54  541.6354
  55  700.9166
  56  630.8089
  57  631.7406
  58  636.8358
  59  530.1588
  60  562.4025
  61  531.6898
  62  534.5248
  63  550.7885
  64  557.8885
  65  524.2513
  66  550.7162
  67  563.3663
  68  579.9218
  69  573.1497
  70  548.0167
  71  583.156
  72  591.2004
  73  627.5396
  74  592.5289
  75  536.6222
  76  513.152
  77  455.0484
  78  596.3769
  79  748.637
  80  632.8358
  81  557.5344
  82  625.8417
  83  694.2617
  84  562.521
  85  454.5663
  86  547.867
  87  632.2915
  88  597.3823
  89  615.1276
  90  559.5101
  91  516.7492
  92  563.1331
  93  678.8727
  94  650.6698
  95  547.6059
  96  574.0192
  97  524.1945
  98  476.9192
  99  595.7556
 100  689.511
 101  726.2094
 102  572.5675
 103  519.624
 104  656.9051
 105  746.4974
 106  649.2171
 107  550.1738
 108  580.7546
 109  606.0919
 110  539.1612
 111  531.2598
 112  521.3464
 113  501.944
 114  515.0581
 115  512.0513
 116  504.273
 117  440.7537
 118  472.88
 119  540.0885
 120  478.9104
 121  485.438
 122  555.805
 123  531.5018
 124  401.959
 125  497.1385
 126  482.0371
 127  391.3463
 128  403.0808
 129  523.0448
 130  470.164
 131  530.3199
 132  576.3654
 133  610.3537
 134  495.2693
 135  475.5873
 136  537.3662
 137  523.0659
 138  455.4016
 139  364.4182
 140  405.4452
 141  539.8803
 142  501.1341
 143  451.1209
 144  415.2797
 145  405.2968
 146  473.8756
 147  489.9772
 148  484.6566
 149  336.2176
 150  338.6433
 151  358.707
 152  353.2365
 153  474.7785
 154  538.8242
 155  383.5893
 156  487.7505
 157  395.6577
 158  492.3396
 159  555.0208
 160  601.0155
 161  422.5354
 162  433.4152
 163  518.8168
 164  382.5613
 165  441.2941
 166  433.3229
 167  432
 168  390.617
 169  440.8283
 170  516.9185
 171  368.3512
 172  483.1799
 173  518.4563
 174  468.7256
 175  476.7314
 176  508.0479
 177  490.2926
 178  445.4099
 179  496.4508
 180  468.0667
 181  505.0519
 182  467.2942
 183  578.2676
 184  503.5417
 185  480.4469
 186  431.7398
 187  463.1393
 188  465.8922
 189  450.0885
 190  452.2119
 191  518.7374
 192  570.3624
 193  551.652
 194  402.4722
 195  491.3363
 196  537.1049
 197  531.7405
 198  382.5979
 199  373.702
 200  415.1982
 201  526.9227
 202  545.066
 203  441.8476
 204  341.695
 205  238.4327
 206  418.2
 207  451.0907
 208  424.7034
 209  440.8254
 210  413.705
 211  457.1682
 212  495.154
 213  396.9274
 214  451.0899
 215  564.5462
 216  432.2868
 217  444.9803
 218  465.0731
 219  456.937
 220  582.9568
 221  508.6142
 222  460.6787
 223  351.2093
 224  544.0409
 225  524.0905
 226  426.4492
 227  408.0268
 228  473.4238
 229  489.1794
 230  447.4987
 231  426.9702
 232  489.8263
 233  549.4149
 234  426.311
 235  374.1556
 236  494.1437
 237  536.6605
 238  519.5437
 239  529.7663
 240  566.9893
 241  551.8892
 242  484.5361
 243  443.1164
 244  501.731
 245  556.611
 246  639.6329
 247  533.8802
 248  683.9526
 249  625.8369
 250  567.6121
 251  510.0124
 252  545.2616
 253  517.0312
 254  520.6833
 255  512.8276
 256  457.2459
 257  451.8273
 258  483.3962
 259  409.3448
 260  454.8031
 261  399.2912
 262  441.4614
 263  517.0812
 264  487.5092
 265  440.5558
 266  504.1515
 267  574.0773
 268  418.4406
 269  396.3963
 270  357.0562
 271  458.1494
 272  460.2738
 273  629.6469
 274  495.3161
 275  458.1128
 276  451.6444
 277  391.7217
 278  456.9792
 279  490.9958
 280  475.14
 281  453.3456
 282  549.088
 283  471.2761
 284  380.9522
 285  472.1864
 286  432.3031
 287  520.7134
 288  562.9321
 289  440.3491
 290  440.6662
 291  415.666
 292  390.2595
 293  437.6521
 294  459.7672
 295  579.0568
 296  521.0446
 297  493.2751
 298  652.692
 299  455.5542
 300  422.0362
 301  418.4199
 302  541.5684
 303  452.7677
 304  454.9566
 305  428.8399
 306  476.7999
 307  484.8588
 308  553.5491
 309  510.9015
 310  571.2502
 311  520.2599
 312  615.6588
 313  561.6143
 314  481.5942
 315  486.3854
 316  606.317
 317  627.4078
 318  514.5549
 319  543.6586
 320  574.3182
 321  502.7979
 322  512.5289
 323  545.147
 324  580.3898
 325  674.8806
 326  612.3773
 327  661.8765
 328  704.2852
 329  672.7714
 330  687.1021
 331  593.9216
 332  495.0704
 333  715.4146
 334  707.8264
 335  708.6887
 336  608.1133
 337  596.312
 338  593.7161
 339  620.9662
 340  569.4248
 341  482.7213
 342  409.3839
 343  540.2597
 344  583.2123
 345  583.5915
 346  491.6643
 347  460.6983
 348  520.9881
 349  650.4494
 350  656.8441
 351  680.6297
 352  599.6432
 353  625.0036
 354  530.3565
 355  632.014
 356  562.5273
 357  571.9284
 358  515.5392
 359  436.0511
 360  500.4909
 361  459.7856
 362  592.2334
 363  637.0239
 364  567.2736
 365  555.6988
 366  553.1698
 367  401.9704
 368  508.3532
 369  508.9251
 370  468.4188
 371  468.6188
 372  423.9772
 373  566.3466
 374  524.3278
 375  445.087
 376  491.8279
 377  438.4936
 378  581.1942
 379  552.6245
 380  470.2345
 381  458.3999
 382  482.9638
 383  507.0243
 384  487.6466
 385  338.9692
 386  428.6315
 387  489.5807
 388  516.8742
 389  498.5295
 390  450.5638
 391  477.1602
 392  484.7465
 393  407.5952
 394  379.0791
 395  507.99
 396  557.5405
 397  480.2358
 398  543.7053
 399  562.3568
 400  567.3088
 401  492.4173
 402  549.5145
 403  587.05
 404  476.5903
 405  502.8083
 406  514.8198
 407  491.6267
 408  540.0649
 409  531.3747
 410  555.3077
 411  550.1722
 412  580.0463
 413  502.0004
 414  453.7278
 415  405.594
 416  436.2514
 417  459.4832
 418  464.4423
 419  470.1558
 420  488.2308
 421  459.1477
 422  501.2289
 423  449.0593
 424  480.7796
 425  543.9746
 426  494.3203
 427  487.4625
 428  446.7249
 429  405.9788
 430  461.2036
 431  527.1438
 432  520.2502
 433  459.6889
 434  435.7017
 435  366.0712
 436  401.2209
 437  315.5021
 438  321.2193
 439  408.271
 440  410.185
 441  369.2385
 442  337.4277
 443  371.5379
 444  565.5595
 445  451.9729
 446  345.6309
 447  406.5186
 448  344.2995
 449  362.9641
 450  446.0862
 451  469.9272
 452  533.4692
 453  443.1859
 454  415.9847
 455  341.5515
 456  451.5117
 457  444.5806
 458  386.766
 459  447.7003
 460  482.302
 461  501.5704
 462  458.1154
 463  484.9485
 464  468.2335
 465  390.5609
 466  326.7074
 467  341.9919
 468  466.7386
 469  494.2256
 470  489.1454
 471  508.4393
 472  593.7673
 473  518.8677
 474  545.6335
 475  451.3618
 476  456.6126
 477  495.1649
 478  541.308
 479  502.1468
 480  477.0009
 481  469.9703
 482  465.1403
 483  464.9505
 484  471.8907
 485  465.3836
 486  563.5029
 487  466.5905
 488  366.2582
 489  419.6648
 490  493.1419
 491  547.6088
 492  540.8514
 493  416.8384
 494  270.7289
 495  424.4373
 496  576.1666
 497  403.1545
 498  378.3069
 499  539.7064
 500  492.9731
 501  570.2889
 502  480.4117
 503  530.2932
 504  425.3303
 505  500.5885
 506  471.1916
 507  535.5698
 508  653.3002
 509  952.0113
 510  1064.858
 511  1188.373
