# Input file       =  1184558949.114869_cleaned.dat
# Candidate        =  PSR_0332+5434
# Telescope        =  AR
# Epoch_topo       =  57954.172813829500
# Epoch_bary       =  N/A
# T_sample         =  0.002
# Data Folded      =  7340032
# Data Avg         =  0.0353336007154636
# Data StdDev      =  1.00033031861798 
# Profile Bins     =  512
# Profile Avg      =  506.58226884648  
# Profile StdDev   =  119.772586427868 
# Reduced chi-sqr  =  1.581
# Prob(Noise)      <  9.49e-16   (~7.9 sigma)
# P_topo (ms)      =  714.475634889054  +/- 0.000155
# P'_topo (s/s)    =  -0                +/- 8.2e-11
# P''_topo (s/s^2) =  0                 +/- 3.62e-14
# P_bary (ms)      =  N/A
# P'_bary (s/s)    =  N/A
# P''_bary (s/s^2) =  N/A
# P_orb (s)        =  N/A
# asin(i)/c (s)    =  N/A
# eccentricity     =  N/A
# w (rad)          =  N/A
# T_peri           =  N/A
######################################################
   0  1310.643
   1  1240.012
   2  1093.173
   3  945.104
   4  738.1517
   5  647.5134
   6  527.8517
   7  396.2553
   8  495.8361
   9  464.4464
  10  451.5522
  11  477.2603
  12  478.2837
  13  571.0157
  14  548.3865
  15  481.6331
  16  610.5106
  17  715.9909
  18  585.2534
  19  516.4017
  20  629.3539
  21  613.4362
  22  557.686
  23  656.4227
  24  570.5729
  25  546.9493
  26  590.102
  27  577.3138
  28  625.5569
  29  600.7872
  30  493.1547
  31  506.006
  32  681.3259
  33  596.4794
  34  694.1115
  35  723.456
  36  547.3719
  37  450.8365
  38  380.8709
  39  542.6761
  40  529.8635
  41  537.6017
  42  511.9464
  43  485.1591
  44  498.3551
  45  462.3972
  46  489.5792
  47  504.5602
  48  516.5061
  49  499.562
  50  500.6334
  51  563.9565
  52  424.1729
  53  483.167
  54  463.2492
  55  552.8448
  56  527.6773
  57  397.1037
  58  424.7658
  59  437.9517
  60  413.1121
  61  408.9255
  62  495.0942
  63  496.644
  64  445.7957
  65  496.3787
  66  571.9515
  67  529.2139
  68  445.9765
  69  547.5751
  70  535.7193
  71  481.6314
  72  609.7239
  73  628.4689
  74  596.5632
  75  559.498
  76  415.6093
  77  428.9089
  78  464.1967
  79  460.9902
  80  548.1628
  81  553.2409
  82  474.5796
  83  450.7515
  84  484.7359
  85  585.4754
  86  641.2508
  87  612.8936
  88  512.6719
  89  463.8717
  90  367.3336
  91  426.8257
  92  519.9105
  93  479.8382
  94  536.5197
  95  539.1219
  96  586.4803
  97  635.806
  98  505.1483
  99  483.4802
 100  545.3881
 101  530.4051
 102  422.3313
 103  432.5328
 104  483.5418
 105  549.2127
 106  539.7137
 107  482.0528
 108  421.0917
 109  364.7041
 110  325.3795
 111  426.4745
 112  498.4689
 113  491.0157
 114  514.5248
 115  525.2614
 116  438.6954
 117  466.0989
 118  589.5641
 119  544.3419
 120  560.9956
 121  546.4484
 122  493.0815
 123  428.586
 124  409.5595
 125  492.7393
 126  625.3873
 127  537.7313
 128  473.1972
 129  472.8364
 130  527.9806
 131  452.3275
 132  552.7866
 133  641.5462
 134  611.2816
 135  578.4688
 136  616.2772
 137  674.2084
 138  582.5315
 139  488.3541
 140  462.9806
 141  401.9777
 142  402.4131
 143  561.0413
 144  552.2839
 145  556.2651
 146  457.9617
 147  393.9815
 148  356.5079
 149  463.9648
 150  517.1065
 151  593.1944
 152  518.6972
 153  435.9503
 154  379.5318
 155  391.6888
 156  441.0291
 157  526.1622
 158  607.295
 159  651.5306
 160  709.8369
 161  565.2019
 162  529.0998
 163  603.2422
 164  589.5793
 165  485.2843
 166  499.9229
 167  606.7335
 168  505.4288
 169  532.2705
 170  485.4453
 171  430.7214
 172  497.4196
 173  446.9724
 174  500.6808
 175  405.3392
 176  357.2908
 177  506.9194
 178  556.8757
 179  445.2732
 180  436.755
 181  404.8373
 182  377.5443
 183  383.5456
 184  460.3992
 185  480.5974
 186  514.2881
 187  424.3092
 188  414.1362
 189  410.4479
 190  370.7005
 191  544.5298
 192  639.7794
 193  498.4202
 194  474.0938
 195  482.0023
 196  585.1325
 197  567.5944
 198  419.7243
 199  364.4619
 200  344.1536
 201  392.9972
 202  534.3494
 203  370.5425
 204  346.3362
 205  406.5849
 206  354.5681
 207  414.1028
 208  438.0363
 209  345.597
 210  436.1332
 211  524.9662
 212  437.3907
 213  534.041
 214  392.5357
 215  498.6552
 216  520.5334
 217  436.1106
 218  412.9044
 219  489.3582
 220  565.537
 221  541.4012
 222  469.8676
 223  575.1813
 224  458.8136
 225  412.365
 226  436.259
 227  536.5393
 228  519.5055
 229  577.9673
 230  492.4804
 231  480.4983
 232  573.9799
 233  460.9453
 234  397.0865
 235  449.8217
 236  410.7101
 237  280.9774
 238  445.4411
 239  551.7402
 240  500.9612
 241  570.5472
 242  508.1634
 243  480.698
 244  362.4562
 245  357.7856
 246  509.3636
 247  454.3629
 248  558.1402
 249  601.0305
 250  618.7281
 251  430.0957
 252  375.1967
 253  479.7514
 254  560.7998
 255  562.2335
 256  459.9403
 257  534.3508
 258  552.1826
 259  494.6215
 260  459.4194
 261  487.482
 262  533.9389
 263  438.1899
 264  400.7661
 265  429.6106
 266  431.5648
 267  455.5873
 268  467.0366
 269  429.8629
 270  297.9176
 271  329.8043
 272  548.9861
 273  562.8298
 274  466.7311
 275  425.1722
 276  414.4515
 277  335.086
 278  416.6885
 279  454.128
 280  284.7768
 281  385.2833
 282  516.5426
 283  417.5061
 284  364.1255
 285  415.2094
 286  560.3062
 287  541.7544
 288  513.3463
 289  396.9013
 290  455.5184
 291  464.6516
 292  473.3403
 293  342.3699
 294  425.7276
 295  499.387
 296  435.9949
 297  345.9033
 298  377.8499
 299  451.69
 300  425.4913
 301  504.6758
 302  575.2429
 303  542.4744
 304  519.3534
 305  511.6859
 306  568.7221
 307  469.6519
 308  487.2661
 309  527.5607
 310  602.3447
 311  515.986
 312  445.7967
 313  496.9935
 314  551.1964
 315  433.0612
 316  426.4848
 317  399.9144
 318  445.0205
 319  420.4152
 320  499.1263
 321  528.3234
 322  642.4304
 323  568.2621
 324  533.787
 325  553.8403
 326  546.1093
 327  514.3229
 328  589.8177
 329  495.484
 330  521.713
 331  503.7521
 332  470.544
 333  489.7578
 334  412.4858
 335  585.8146
 336  629.7064
 337  574.1868
 338  470.3158
 339  393.8196
 340  373.0196
 341  496.6794
 342  463.6215
 343  310.1113
 344  459.3051
 345  424.2693
 346  466.2769
 347  416.1133
 348  463.753
 349  491.1049
 350  489.205
 351  482.1708
 352  334.4963
 353  441.306
 354  465.8024
 355  496.5764
 356  431.7905
 357  463.4442
 358  431.1758
 359  573.7717
 360  521.7355
 361  369.4534
 362  573.3024
 363  598.0699
 364  482.0677
 365  482.5488
 366  493.2504
 367  428.7038
 368  411.0999
 369  382.4272
 370  550.0822
 371  438.0958
 372  546.261
 373  567.759
 374  508.2395
 375  478.9618
 376  483.8594
 377  617.8649
 378  677.66
 379  567.9187
 380  474.7244
 381  536.3342
 382  494.7884
 383  334.669
 384  345.3489
 385  535.5518
 386  615.2875
 387  528.7678
 388  493.9282
 389  478.9714
 390  503.7599
 391  525.5694
 392  567.7153
 393  548.6896
 394  399.3572
 395  405.2516
 396  460.5842
 397  459.8966
 398  367.0427
 399  415.8487
 400  411.9301
 401  397.5169
 402  409.7812
 403  368.3988
 404  499.3321
 405  370.9669
 406  218.3111
 407  371.0385
 408  537.0286
 409  497.3123
 410  455.653
 411  563.0738
 412  571.7849
 413  474.6342
 414  462.638
 415  550.3035
 416  480.4515
 417  481.458
 418  563.3699
 419  621.4299
 420  593.5463
 421  575.7741
 422  486.4622
 423  540.2316
 424  678.7523
 425  582.4787
 426  606.925
 427  569.1241
 428  521.3935
 429  520.0483
 430  562.2812
 431  514.9325
 432  506.3764
 433  628.728
 434  601.9472
 435  543.6929
 436  543.0833
 437  508.3602
 438  421.1865
 439  462.391
 440  603.9758
 441  585.8724
 442  618.9555
 443  634.941
 444  533.0018
 445  466.6351
 446  635.3413
 447  627.4376
 448  492.4972
 449  473.999
 450  406.3761
 451  358.1895
 452  411.9765
 453  422.2014
 454  405.5402
 455  537.0278
 456  671.1606
 457  470.2892
 458  436.1276
 459  480.4175
 460  532.9503
 461  519.788
 462  520.2949
 463  469.5508
 464  662.4616
 465  570.8929
 466  448.3764
 467  540.7377
 468  604.7729
 469  473.9792
 470  338.741
 471  378.5724
 472  456.9712
 473  456.1651
 474  476.2417
 475  521.6322
 476  504.4664
 477  540.1169
 478  578.8981
 479  473.0236
 480  439.5501
 481  409.656
 482  479.4629
 483  559.5938
 484  571.4891
 485  550.1849
 486  521.9125
 487  434.9678
 488  467.4019
 489  578.1154
 490  503.3578
 491  644.0415
 492  638.6908
 493  640.5206
 494  720.1662
 495  684.4225
 496  622.0397
 497  434.7681
 498  463.4957
 499  436.4249
 500  524.0077
 501  561.2057
 502  478.6267
 503  541.6606
 504  587.6875
 505  633.8757
 506  683.8733
 507  769.4705
 508  800.3998
 509  779.854
 510  936.146
 511  1255.689
