# Input file       =  1184143011.101692_cleaned.dat
# Candidate        =  PSR_0332+5434
# Telescope        =  AR
# Epoch_topo       =  57949.358716454772
# Epoch_bary       =  N/A
# T_sample         =  0.002
# Data Folded      =  7340032
# Data Avg         =  0.0349499351615279
# Data StdDev      =  1.00004222955648 
# Profile Bins     =  512
# Profile Avg      =  501.082279417549 
# Profile StdDev   =  119.738092649788 
# Reduced chi-sqr  =  1.013
# Prob(Noise)      <  0.411   (~0.2 sigma)
# P_topo (ms)      =  714.479017347802  +/- 0.000376
# P'_topo (s/s)    =  -0                +/- 1.99e-10
# P''_topo (s/s^2) =  0                 +/- 8.77e-14
# P_bary (ms)      =  N/A
# P'_bary (s/s)    =  N/A
# P''_bary (s/s^2) =  N/A
# P_orb (s)        =  N/A
# asin(i)/c (s)    =  N/A
# eccentricity     =  N/A
# w (rad)          =  N/A
# T_peri           =  N/A
######################################################
   0  1179.986
   1  1060.271
   2  905.0175
   3  715.5653
   4  620.2559
   5  549.486
   6  490.4086
   7  426.0299
   8  525.107
   9  547.9844
  10  565.6835
  11  590.4691
  12  548.0399
  13  537.5547
  14  602.5401
  15  571.6171
  16  519.0732
  17  481.2507
  18  577.1924
  19  513.577
  20  435.7318
  21  500.8217
  22  496.5958
  23  486.9255
  24  376.3724
  25  394.4077
  26  484.2108
  27  487.1827
  28  571.7585
  29  598.5026
  30  466.488
  31  494.474
  32  461.5447
  33  567.8888
  34  619.5845
  35  595.8782
  36  510.498
  37  400.241
  38  462.5733
  39  581.191
  40  475.8294
  41  406.7837
  42  429.2252
  43  426.2965
  44  508.0052
  45  386.8737
  46  479.8429
  47  466.4859
  48  489.5494
  49  482.7832
  50  486.7317
  51  514.5326
  52  565.4156
  53  556.9
  54  491.2185
  55  443.5085
  56  476.1298
  57  519.8675
  58  541.2638
  59  600.9459
  60  588.095
  61  459.5309
  62  528.6379
  63  585.0318
  64  550.5006
  65  421.2634
  66  527.3265
  67  475.0315
  68  587.3622
  69  587.6805
  70  498.9767
  71  459.0712
  72  355.719
  73  446.9585
  74  477.9266
  75  553.2089
  76  490.9851
  77  463.2673
  78  484.452
  79  464.5117
  80  408.9502
  81  502.6318
  82  579.3157
  83  624.3172
  84  511.2732
  85  379.2868
  86  438.2973
  87  422.507
  88  465.4795
  89  431.2798
  90  520.1263
  91  481.5951
  92  395.0664
  93  505.2518
  94  542.6647
  95  418.1263
  96  604.0324
  97  598.9037
  98  514.238
  99  435.9987
 100  462.8008
 101  375.2926
 102  347.1455
 103  411.0898
 104  526.0854
 105  564.28
 106  581.6952
 107  446.7448
 108  372.0941
 109  497.7784
 110  530.2931
 111  479.3817
 112  576.8683
 113  559.1331
 114  559.3278
 115  556.3455
 116  564.9675
 117  583.0153
 118  598.8068
 119  690.2095
 120  623.6427
 121  530.4835
 122  533.3848
 123  533.1331
 124  589.0032
 125  525.4257
 126  486.9891
 127  517.0508
 128  469.0793
 129  549.4128
 130  547.1556
 131  449.2189
 132  373.2739
 133  344.2672
 134  451.0634
 135  560.9261
 136  505.6802
 137  520.798
 138  515.5994
 139  436.745
 140  463.736
 141  385.758
 142  429.9909
 143  498.8228
 144  421.6702
 145  401.1419
 146  397.1959
 147  454.111
 148  441.61
 149  402.1649
 150  403.196
 151  487.5385
 152  486.8907
 153  475.3036
 154  482.4498
 155  484.1841
 156  492.0027
 157  515.356
 158  494.1402
 159  498.3654
 160  533.8594
 161  530.5604
 162  588.9495
 163  674.2206
 164  690.7162
 165  532.7439
 166  523.3802
 167  523.287
 168  488.0198
 169  449.8491
 170  448.9747
 171  595.5218
 172  607.7353
 173  590.072
 174  509.1654
 175  459.7338
 176  506.4107
 177  586.3038
 178  555.2674
 179  444.5034
 180  580.6458
 181  646.9535
 182  528.2501
 183  529.2363
 184  480.2881
 185  465.0437
 186  491.6401
 187  449.4689
 188  554.2499
 189  590.9301
 190  566.4297
 191  436.8134
 192  528.6313
 193  558.9061
 194  431.8875
 195  326.5676
 196  499.4663
 197  576.8978
 198  607.4608
 199  624.5089
 200  602.257
 201  689.3027
 202  690.4255
 203  486.5149
 204  557.4088
 205  528.636
 206  461.5397
 207  568.2491
 208  487.7125
 209  528.5007
 210  491.4448
 211  471.2801
 212  449.9333
 213  571.1171
 214  481.5544
 215  457.0805
 216  446.3875
 217  543.6747
 218  556.1172
 219  616.0527
 220  591.4596
 221  565.6791
 222  551.6396
 223  548.8901
 224  581.7892
 225  608.8215
 226  504.2257
 227  423.7873
 228  469.7891
 229  450.7864
 230  440.1034
 231  518.892
 232  471.8961
 233  446.035
 234  450.9086
 235  468.4897
 236  464.0042
 237  610.5459
 238  599.9362
 239  548.0057
 240  597.898
 241  635.8177
 242  543.7693
 243  461.5166
 244  557.5607
 245  493.5681
 246  564.0206
 247  622.0081
 248  606.5246
 249  617.81
 250  440.8226
 251  414.3185
 252  438.6638
 253  475.8362
 254  563.6584
 255  506.9161
 256  342.4489
 257  388.8329
 258  420.0642
 259  501.8175
 260  517.1993
 261  565.4358
 262  596.2169
 263  532.1873
 264  482.8467
 265  582.3884
 266  529.5537
 267  567.1411
 268  602.264
 269  499.7834
 270  403.5833
 271  437.7177
 272  485.0775
 273  501.1419
 274  534.6785
 275  578.6924
 276  613.1317
 277  545.4428
 278  541.7011
 279  454.514
 280  472.153
 281  485.1555
 282  565.7054
 283  477.0037
 284  471.0226
 285  554.4497
 286  463.9009
 287  448.6259
 288  582.2086
 289  551.8161
 290  441.5948
 291  498.3668
 292  549.7365
 293  512.0013
 294  516.9658
 295  622.1144
 296  517.009
 297  434.5737
 298  453.9702
 299  452.2032
 300  443.4109
 301  516.5789
 302  508.6683
 303  421.4644
 304  495.5726
 305  602.1141
 306  476.8744
 307  393.3324
 308  421.656
 309  482.2411
 310  533.1281
 311  560.3063
 312  498.2348
 313  591.6605
 314  477.6238
 315  422.9279
 316  413.4593
 317  483.0614
 318  452.9779
 319  389.8614
 320  447.5138
 321  541.7705
 322  511.2759
 323  542.4435
 324  423.8395
 325  406.8387
 326  467.3662
 327  423.4357
 328  411.0203
 329  441.7173
 330  496.6412
 331  412.9726
 332  433.4261
 333  381.1467
 334  468.5074
 335  527.5479
 336  533.6265
 337  479.2704
 338  436.8913
 339  441.3114
 340  484.6403
 341  449.9381
 342  452.7948
 343  420.6634
 344  315.8793
 345  421.1638
 346  406.2607
 347  442.442
 348  495.9633
 349  420.2849
 350  339.8916
 351  489.7225
 352  379.9942
 353  387.805
 354  459.2608
 355  475.8329
 356  519.8195
 357  498.5786
 358  543.4359
 359  457.6811
 360  419.8519
 361  473.1601
 362  440.6436
 363  473.2715
 364  446.9358
 365  448.3589
 366  394.732
 367  389.9058
 368  476.6608
 369  491.1056
 370  426.0976
 371  441.2711
 372  499.4341
 373  510.0889
 374  450.6878
 375  463.894
 376  441.712
 377  387.6719
 378  406.8622
 379  457.5178
 380  445.6444
 381  424.6882
 382  457.1564
 383  485.3719
 384  495.0187
 385  477.8152
 386  432.4288
 387  428.3241
 388  457.2231
 389  482.075
 390  512.5759
 391  522.6711
 392  450.5306
 393  369.1355
 394  458.6266
 395  475.3867
 396  439.5616
 397  347.4202
 398  497.7107
 399  476.0196
 400  488.003
 401  571.3136
 402  463.5374
 403  572.8672
 404  562.2229
 405  514.9988
 406  484.2755
 407  405.1813
 408  445.5254
 409  432.8984
 410  568.6332
 411  508.4453
 412  496.531
 413  429.3441
 414  416.1032
 415  443.3954
 416  560.4158
 417  577.3989
 418  506.741
 419  490.5875
 420  487.4035
 421  417.4398
 422  412.6952
 423  504.1999
 424  493.0413
 425  461.4462
 426  438.2013
 427  446.1281
 428  487.0452
 429  585.7946
 430  536.0777
 431  462.8666
 432  516.4088
 433  472.3921
 434  500.9897
 435  542.799
 436  465.0422
 437  428.0267
 438  501.2884
 439  528.8042
 440  548.6947
 441  428.239
 442  399.483
 443  369.3955
 444  418.0385
 445  416.7462
 446  403.3696
 447  429.5129
 448  387.236
 449  435.8331
 450  430.2943
 451  448.4535
 452  427.8483
 453  428.496
 454  462.6612
 455  384.1688
 456  489.7306
 457  516.5746
 458  423.4404
 459  525.7876
 460  398.1469
 461  597.5853
 462  572.0901
 463  514.3417
 464  546.3287
 465  554.6844
 466  550.5368
 467  542.2546
 468  583.2919
 469  542.279
 470  523.6949
 471  585.0012
 472  636.6822
 473  703.9222
 474  592.4404
 475  542.5015
 476  535.0497
 477  510.5703
 478  589.5618
 479  500.1454
 480  471.2625
 481  419.2971
 482  413.5977
 483  446.2059
 484  460.0727
 485  501.3645
 486  542.2366
 487  474.5218
 488  502.3131
 489  498.9953
 490  418.5205
 491  416.7543
 492  549.3965
 493  469.0307
 494  498.2299
 495  454.7918
 496  471.4867
 497  502.3425
 498  474.2281
 499  425.6018
 500  483.419
 501  392.7419
 502  415.4766
 503  590.0776
 504  521.3721
 505  351.8128
 506  431.3502
 507  534.5864
 508  687.0441
 509  869.8489
 510  903.8258
 511  1025.745
