# Input file       =  1184487677.105509_cleaned.dat
# Candidate        =  PSR_0332+5434
# Telescope        =  AR
# Epoch_topo       =  57953.347906313764
# Epoch_bary       =  N/A
# T_sample         =  0.002
# Data Folded      =  7340032
# Data Avg         =  0.0302492524103305
# Data StdDev      =  1.00020651104266 
# Profile Bins     =  512
# Profile Avg      =  433.505396919869 
# Profile StdDev   =  119.757762570949 
# Reduced chi-sqr  =  1.322
# Prob(Noise)      <  1.32e-06   (~4.7 sigma)
# P_topo (ms)      =  714.476471299776  +/- 0.000244
# P'_topo (s/s)    =  -0                +/- 1.29e-10
# P''_topo (s/s^2) =  0                 +/- 5.69e-14
# P_bary (ms)      =  N/A
# P'_bary (s/s)    =  N/A
# P''_bary (s/s^2) =  N/A
# P_orb (s)        =  N/A
# asin(i)/c (s)    =  N/A
# eccentricity     =  N/A
# w (rad)          =  N/A
# T_peri           =  N/A
######################################################
   0  1031.165
   1  1023.83
   2  930.1935
   3  726.2147
   4  531.7238
   5  508.7699
   6  519.8092
   7  451.5207
   8  545.3427
   9  584.4089
  10  549.6298
  11  531.3544
  12  485.149
  13  461.7229
  14  477.446
  15  478.4381
  16  516.0538
  17  547.6438
  18  427.6239
  19  448.3226
  20  414.4081
  21  451.3109
  22  419.2984
  23  426.2912
  24  590.2677
  25  507.753
  26  440.5685
  27  541.1514
  28  486.4542
  29  409.7633
  30  345.4423
  31  333.2904
  32  467.7932
  33  455.4471
  34  341.2672
  35  446.8808
  36  461.8679
  37  580.7604
  38  481.8401
  39  518.1162
  40  546.3376
  41  520.7032
  42  550.5664
  43  480.8511
  44  535.3096
  45  530.5829
  46  502.3606
  47  607.2802
  48  573.2034
  49  491.5674
  50  454.7434
  51  366.8674
  52  412.0682
  53  492.246
  54  494.2565
  55  472.1991
  56  461.5682
  57  527.8199
  58  453.426
  59  321.5369
  60  390.1044
  61  433.7121
  62  522.67
  63  434.0931
  64  467.9224
  65  404.5382
  66  431.6583
  67  451.2582
  68  451.201
  69  382.8812
  70  439.3558
  71  398.3575
  72  395.8341
  73  395.5051
  74  463.3562
  75  430.433
  76  400.6282
  77  453.3419
  78  480.3609
  79  431.6803
  80  344.1088
  81  375.9683
  82  380.7519
  83  343.8332
  84  351.4596
  85  442.7552
  86  489.1275
  87  460.1733
  88  325.7609
  89  375.7178
  90  367.857
  91  424.5038
  92  471.3023
  93  485.9926
  94  478.8109
  95  449.0682
  96  489.144
  97  462.7827
  98  411.9358
  99  537.0424
 100  518.6182
 101  562.636
 102  572.1939
 103  563.1637
 104  395.1067
 105  348.5644
 106  393.394
 107  480.9666
 108  531.517
 109  537.9135
 110  480.5293
 111  466.9984
 112  544.5828
 113  408.5233
 114  345.6299
 115  409.093
 116  529.4113
 117  481.1751
 118  459.1617
 119  541.257
 120  399.075
 121  371.6951
 122  451.617
 123  496.1194
 124  477.3403
 125  509.0169
 126  580.6728
 127  471.2519
 128  520.2225
 129  635.6627
 130  355.4742
 131  432.6691
 132  589.443
 133  497.8986
 134  387.5338
 135  570.1423
 136  560.6978
 137  486.6413
 138  382.7849
 139  340.3228
 140  362.5869
 141  326.1252
 142  331.9327
 143  363.444
 144  420.11
 145  388.2722
 146  302.0654
 147  364.6747
 148  308.3462
 149  309.5585
 150  234.8332
 151  259.0605
 152  274.1172
 153  311.1554
 154  197.4908
 155  217.5498
 156  299.1692
 157  288.9035
 158  413.9781
 159  476.5631
 160  539.0924
 161  524.235
 162  405.7223
 163  313.897
 164  430.7999
 165  530.0648
 166  501.3706
 167  432.3766
 168  441.842
 169  467.1342
 170  458.1132
 171  510.6582
 172  587.8467
 173  492.6093
 174  414.5622
 175  417.6093
 176  599.9112
 177  503.155
 178  468.1873
 179  464.7509
 180  389.7995
 181  337.7323
 182  417.7895
 183  470.8628
 184  368.0543
 185  330.3574
 186  366.6819
 187  255.2655
 188  204.5481
 189  236.2287
 190  320.9654
 191  389.4857
 192  446.583
 193  450.5776
 194  427.3518
 195  378.4763
 196  257.773
 197  293.4449
 198  285.0647
 199  243.869
 200  346.0119
 201  371.6679
 202  259.8135
 203  268.434
 204  311.1426
 205  326.6845
 206  379.6297
 207  373.6234
 208  282.405
 209  345.0039
 210  335.3372
 211  423.0215
 212  379.9145
 213  284.8091
 214  448.7827
 215  514.7968
 216  404.5195
 217  300.179
 218  252.6111
 219  372.7285
 220  397.6637
 221  311.5344
 222  381.2111
 223  528.1353
 224  528.45
 225  398.8634
 226  253.2122
 227  348.5113
 228  273.0449
 229  274.3098
 230  272.6711
 231  314.0898
 232  436.7404
 233  437.531
 234  377.9727
 235  333.4718
 236  409.7133
 237  438.7628
 238  393.8671
 239  431.2315
 240  400.2216
 241  445.1655
 242  482.9429
 243  484.7606
 244  653.5903
 245  639.8692
 246  390.0169
 247  488.0589
 248  444.0937
 249  351.3981
 250  299.7821
 251  363.9058
 252  393.3782
 253  349.7212
 254  465.2943
 255  467.2957
 256  381.3493
 257  467.9323
 258  350.3775
 259  300.1867
 260  458.3504
 261  493.7411
 262  413.5537
 263  393.4298
 264  332.9887
 265  425.063
 266  431.3397
 267  451.599
 268  527.0848
 269  555.4848
 270  428.3214
 271  417.633
 272  468.6702
 273  379.8008
 274  356.5845
 275  409.1383
 276  510.1083
 277  424.8473
 278  407.6698
 279  440.7893
 280  452.0244
 281  350.8193
 282  362.876
 283  330.7418
 284  440.7604
 285  458.4802
 286  432.427
 287  416.9102
 288  491.6516
 289  508.6971
 290  461.6658
 291  396.11
 292  405.3264
 293  386.7289
 294  333.3416
 295  297.7985
 296  431.465
 297  364.3358
 298  439.4695
 299  506.0949
 300  398.3116
 301  322.7371
 302  374.1689
 303  392.9886
 304  466.9531
 305  283.9638
 306  273.1808
 307  296.4823
 308  346.4535
 309  357.8649
 310  441.3972
 311  443.3044
 312  576.4974
 313  453.8232
 314  336.6026
 315  394.2629
 316  443.1588
 317  370.694
 318  355.9396
 319  418.1736
 320  352.8154
 321  412.1151
 322  476.648
 323  503.9374
 324  450.8038
 325  408.3084
 326  425.0237
 327  419.4377
 328  504.2517
 329  495.0388
 330  508.0115
 331  504.4037
 332  404.6915
 333  450.2672
 334  488.5008
 335  442.6869
 336  514.934
 337  480.8866
 338  391.6779
 339  393.4029
 340  451.6992
 341  470.8248
 342  442.0511
 343  338.5405
 344  535.4213
 345  496.9691
 346  569.9587
 347  406.834
 348  346.1437
 349  378.2095
 350  456.5163
 351  454.7804
 352  387.3692
 353  515.1207
 354  472.684
 355  528.7039
 356  486.1641
 357  478.6957
 358  365.5465
 359  401.5517
 360  461.2344
 361  505.0525
 362  565.3894
 363  472.3087
 364  456.0533
 365  408.3381
 366  405.0197
 367  290.9576
 368  295.1588
 369  391.6566
 370  432.878
 371  364.8772
 372  381.9087
 373  441.4345
 374  458.949
 375  451.978
 376  409.2444
 377  324.2932
 378  368.4987
 379  400.6575
 380  414.7039
 381  387.8255
 382  487.9937
 383  469.3938
 384  335.9656
 385  389.5464
 386  459.5919
 387  517.5715
 388  546.1822
 389  503.0227
 390  505.6507
 391  485.6562
 392  407.6062
 393  429.1722
 394  535.2837
 395  433.3221
 396  390.7583
 397  394.3018
 398  314.9307
 399  328.3474
 400  416.0916
 401  608.9863
 402  487.7542
 403  346.2116
 404  279.9036
 405  258.5397
 406  380.3149
 407  366.611
 408  386.9855
 409  415.0633
 410  460.7953
 411  408.2344
 412  402.7929
 413  439.597
 414  487.5023
 415  447.5562
 416  362.5238
 417  277.521
 418  262.9618
 419  472.5204
 420  478.0493
 421  421.68
 422  517.2942
 423  526.2093
 424  425.8712
 425  468.1338
 426  459.1403
 427  455.5633
 428  402.9076
 429  444.2163
 430  447.9012
 431  465.7345
 432  379.426
 433  342.3381
 434  288.8942
 435  315.7904
 436  395.2236
 437  491.6904
 438  415.556
 439  266.5019
 440  326.69
 441  298.755
 442  265.5392
 443  392.8965
 444  414.2093
 445  397.2983
 446  454.4677
 447  369.3437
 448  400.5211
 449  459.0861
 450  385.549
 451  421.2637
 452  469.3438
 453  588.4891
 454  485.6625
 455  356.752
 456  406.7037
 457  474.1797
 458  470.037
 459  366.2488
 460  389.9956
 461  508.9285
 462  444.974
 463  393.9523
 464  425.1186
 465  565.9465
 466  489.989
 467  398.0325
 468  416.5988
 469  411.0879
 470  403.6912
 471  447.7509
 472  383.1659
 473  370.5924
 474  371.6112
 475  407.7567
 476  378.2018
 477  363.1299
 478  370.2029
 479  479.5787
 480  400.7105
 481  413.2912
 482  333.6015
 483  382.6429
 484  452.193
 485  467.8423
 486  489.6044
 487  549.5188
 488  393.9496
 489  313.4947
 490  411.0335
 491  404.6549
 492  477.495
 493  515.369
 494  453.4509
 495  452.1921
 496  497.5294
 497  522.7514
 498  450.0028
 499  388.9025
 500  431.2664
 501  443.5613
 502  490.524
 503  539.4907
 504  576.9327
 505  534.4395
 506  523.2184
 507  592.9749
 508  636.4772
 509  793.7975
 510  884.4844
 511  1090.447
