# Input file       =  1184975008.108039_cleaned.dat
# Candidate        =  PSR_0332+5434
# Telescope        =  AR
# Epoch_topo       =  57958.988311435634
# Epoch_bary       =  N/A
# T_sample         =  0.002
# Data Folded      =  7274496
# Data Avg         =  0.0272164263453817
# Data StdDev      =  1.00013011054231 
# Profile Bins     =  512
# Profile Avg      =  386.743224630268 
# Profile StdDev   =  119.21282423336  
# Reduced chi-sqr  =  1.431
# Prob(Noise)      <  4.9e-10   (~6.1 sigma)
# P_topo (ms)      =  714.472873859229  +/- 0.000194
# P'_topo (s/s)    =  -0                +/- 1.03e-10
# P''_topo (s/s^2) =  0                 +/- 4.6e-14
# P_bary (ms)      =  N/A
# P'_bary (s/s)    =  N/A
# P''_bary (s/s^2) =  N/A
# P_orb (s)        =  N/A
# asin(i)/c (s)    =  N/A
# eccentricity     =  N/A
# w (rad)          =  N/A
# T_peri           =  N/A
######################################################
   0  1103.703
   1  1076.389
   2  873.8438
   3  618.7841
   4  466.8241
   5  408.0359
   6  463.7216
   7  444.3516
   8  397.081
   9  400.9175
  10  343.4227
  11  429.4464
  12  715.358
  13  634.991
  14  487.9783
  15  356.1568
  16  397.7638
  17  491.9758
  18  567.1544
  19  500.4625
  20  425.4574
  21  406.3046
  22  408.6802
  23  351.4534
  24  262.9371
  25  348.5833
  26  352.63
  27  243.5517
  28  326.2717
  29  352.5611
  30  369.0627
  31  229.7222
  32  237.9141
  33  379.6096
  34  452.403
  35  431.7479
  36  376.3484
  37  415.3754
  38  391.1679
  39  295.9854
  40  362.6279
  41  391.3874
  42  408.2238
  43  360.0236
  44  366.2573
  45  422.5768
  46  449.7776
  47  396.1677
  48  365.1207
  49  339.1727
  50  299.5914
  51  309.8335
  52  227.7788
  53  302.0804
  54  374.1752
  55  419.9354
  56  392.7153
  57  362.0491
  58  320.6041
  59  304.9172
  60  333.6371
  61  263.4865
  62  373.5364
  63  354.7697
  64  297.3031
  65  303.2802
  66  309.7507
  67  271.4781
  68  283.8164
  69  245.7738
  70  271.4599
  71  206.2306
  72  291.2473
  73  223.7377
  74  279.648
  75  343.6743
  76  389.6917
  77  310.8838
  78  209.236
  79  241.673
  80  295.7606
  81  299.8341
  82  251.4348
  83  257.7917
  84  335.2643
  85  332.8102
  86  335.3133
  87  359.0178
  88  438.8433
  89  422.5452
  90  344.8374
  91  354.9057
  92  299.5182
  93  264.5203
  94  217.6765
  95  453.4323
  96  510.9123
  97  298.3698
  98  242.2735
  99  312.3261
 100  253.0729
 101  210.8714
 102  263.7904
 103  408.4844
 104  440.3874
 105  460.0225
 106  303.3024
 107  228.6189
 108  245.674
 109  370.4166
 110  414.3642
 111  318.4844
 112  327.1462
 113  226.959
 114  220.2563
 115  350.6458
 116  370.412
 117  354.0715
 118  414.8784
 119  354.4215
 120  329.7609
 121  335.5766
 122  439.6884
 123  388.502
 124  361.0311
 125  334.9907
 126  400.2288
 127  357.9676
 128  349.808
 129  335.2975
 130  234.6103
 131  362.6646
 132  246.0844
 133  264.3202
 134  363.3727
 135  421.7255
 136  323.055
 137  387.4116
 138  426.3532
 139  389.3608
 140  315.7262
 141  351.4041
 142  420.1603
 143  347.2072
 144  312.3577
 145  263.7957
 146  364.3916
 147  422.4062
 148  420.0811
 149  406.5135
 150  345.8353
 151  312.717
 152  389.7415
 153  444.3849
 154  488.6701
 155  345.4846
 156  392.2577
 157  349.8145
 158  339.1755
 159  427.2946
 160  398.243
 161  311.6672
 162  392.3331
 163  392.1168
 164  448.8418
 165  489.862
 166  499.8039
 167  533.3104
 168  415.8211
 169  349.0904
 170  423.9022
 171  352.0048
 172  430.3312
 173  492.0448
 174  430.8206
 175  358.4823
 176  392.1312
 177  519.6278
 178  373.2378
 179  426.7874
 180  391.559
 181  411.0324
 182  439.2485
 183  473.7547
 184  403.077
 185  353.3536
 186  311.0002
 187  347.0962
 188  312.2179
 189  311.7144
 190  382.1835
 191  403.7336
 192  488.1475
 193  447.2176
 194  360.0963
 195  397.0816
 196  414.4718
 197  298.6869
 198  319.9589
 199  303.6764
 200  355.2532
 201  481.6831
 202  471.076
 203  315.0946
 204  238.9978
 205  347.6266
 206  436.3851
 207  405.942
 208  361.8719
 209  327.5485
 210  358.8954
 211  394.3991
 212  256.4991
 213  465.2007
 214  491.9081
 215  432.4914
 216  345.4092
 217  404.193
 218  429.6232
 219  347.4067
 220  272.5081
 221  380.0901
 222  326.6407
 223  393.653
 224  400.5083
 225  350.0365
 226  462.3153
 227  341.7255
 228  270.8457
 229  349.5161
 230  478.9071
 231  358.9813
 232  447.8408
 233  397.8819
 234  322.9743
 235  274.5675
 236  280.5142
 237  458.3441
 238  540.6991
 239  508.2396
 240  443.8929
 241  431.9527
 242  433.8578
 243  410.8058
 244  311.9161
 245  376.9286
 246  470.6043
 247  424.7564
 248  396.1058
 249  327.749
 250  416.4571
 251  429.7562
 252  441.4625
 253  404.7474
 254  438.2668
 255  405.7711
 256  429.7395
 257  371.1147
 258  345.3978
 259  332.9169
 260  418.9127
 261  369.0849
 262  387.6298
 263  371.6005
 264  302.1772
 265  576.035
 266  591.3048
 267  499.387
 268  341.904
 269  279.9456
 270  365.9785
 271  368.8136
 272  321.2413
 273  365.6888
 274  387.4871
 275  395.652
 276  410.2553
 277  408.3172
 278  395.3458
 279  347.5197
 280  352.8544
 281  477.3401
 282  494.2604
 283  515.4778
 284  433.1524
 285  342.0988
 286  367.7539
 287  444.7228
 288  432.4612
 289  395.4998
 290  307.7213
 291  311.5599
 292  348.4871
 293  236.5019
 294  274.5114
 295  397.9307
 296  394.0917
 297  360.397
 298  329.3617
 299  465.4575
 300  484.7155
 301  339.143
 302  307.3731
 303  268.4085
 304  350.2243
 305  316.8692
 306  338.539
 307  451.8494
 308  516.4962
 309  422.149
 310  448.7046
 311  379.2116
 312  535.8326
 313  555.1233
 314  464.4792
 315  346.6415
 316  358.1719
 317  419.0268
 318  417.5635
 319  421.111
 320  315.8623
 321  363.6482
 322  454.8125
 323  537.9017
 324  421.0157
 325  318.472
 326  375.88
 327  288.1685
 328  288.912
 329  441.273
 330  394.9383
 331  282.2097
 332  448.2783
 333  557.7418
 334  496.1064
 335  419.6553
 336  404.059
 337  399.6014
 338  352.0577
 339  297.1176
 340  386.8493
 341  431.7308
 342  465.0381
 343  312.5536
 344  345.7966
 345  420.0809
 346  321.516
 347  388.9429
 348  411.4312
 349  315.9843
 350  370.1992
 351  369.7426
 352  260.081
 353  317.5417
 354  390.1429
 355  455.5554
 356  454.0262
 357  436.4032
 358  387.3539
 359  309.3534
 360  284.7702
 361  384.4234
 362  349.6744
 363  306.0362
 364  324.3662
 365  301.0249
 366  351.8686
 367  418.4416
 368  287.7852
 369  290.627
 370  347.8373
 371  389.6473
 372  306.8796
 373  286.6477
 374  465.7703
 375  522.1703
 376  443.3779
 377  402.4281
 378  465.1339
 379  402.5402
 380  394.1317
 381  504.3736
 382  456.5108
 383  556.8062
 384  506.3556
 385  431.5862
 386  378.4546
 387  313.7673
 388  247.6766
 389  410.4721
 390  425.9222
 391  349.9832
 392  450.8712
 393  333.5573
 394  218.843
 395  299.8758
 396  316.1149
 397  302.0563
 398  239.0128
 399  330.2065
 400  449.118
 401  453.5221
 402  435.8208
 403  333.9039
 404  279.1997
 405  429.5759
 406  501.6248
 407  469.1225
 408  365.0486
 409  288.3571
 410  286.4753
 411  406.6163
 412  332.8129
 413  261.7179
 414  265.1704
 415  247.8731
 416  307.8381
 417  331.2247
 418  267.8601
 419  280.0615
 420  276.7967
 421  288.4792
 422  418.0859
 423  363.6405
 424  291.4906
 425  383.6353
 426  478.3634
 427  454.9619
 428  353.5494
 429  369.1011
 430  375.3479
 431  340.3915
 432  364.782
 433  389.3845
 434  431.4496
 435  354.3979
 436  233.96
 437  253.4756
 438  329.4759
 439  372.7592
 440  280.5425
 441  360.7357
 442  348.2263
 443  348.4668
 444  351.2598
 445  338.2403
 446  431.531
 447  424.4897
 448  399.635
 449  367.114
 450  282.6527
 451  303.6762
 452  410.9656
 453  247.2026
 454  295.9366
 455  254.7013
 456  302.8987
 457  366.7175
 458  340.5912
 459  402.2207
 460  310.5019
 461  320.2839
 462  385.279
 463  314.0029
 464  397.6935
 465  290.9725
 466  373.042
 467  468.0008
 468  507.2292
 469  490.5529
 470  456.3123
 471  358.0581
 472  403.3804
 473  447.0939
 474  533.1577
 475  506.3708
 476  470.0373
 477  388.2419
 478  436.2957
 479  452.048
 480  402.6324
 481  316.6756
 482  435.4653
 483  542.7661
 484  553.9062
 485  415.5735
 486  494.2093
 487  573.6631
 488  534.1286
 489  519.3307
 490  558.5961
 491  586.9274
 492  507.791
 493  537.9583
 494  460.53
 495  315.937
 496  337.5501
 497  272.2197
 498  442.6892
 499  483.8596
 500  488.5596
 501  428.3743
 502  355.9522
 503  429.5107
 504  490.5608
 505  524.4866
 506  537.5276
 507  578.3064
 508  692.7593
 509  922.4458
 510  952.0781
 511  884.4951
