# Input file       =  1184817381.103401_cleaned.dat
# Candidate        =  PSR_0332+5434
# Telescope        =  AR
# Epoch_topo       =  57957.163924807879
# Epoch_bary       =  N/A
# T_sample         =  0.002
# Data Folded      =  7340032
# Data Avg         =  0.032336334367002
# Data StdDev      =  1.00013650263529 
# Profile Bins     =  512
# Profile Avg      =  463.39297521956  
# Profile StdDev   =  119.749380251762 
# Reduced chi-sqr  =  1.946
# Prob(Noise)      <  2.07e-33   (~12.0 sigma)
# P_topo (ms)      =  714.473886579849  +/- 0.000235
# P'_topo (s/s)    =  -0                +/- 1.24e-10
# P''_topo (s/s^2) =  0                 +/- 5.47e-14
# P_bary (ms)      =  N/A
# P'_bary (s/s)    =  N/A
# P''_bary (s/s^2) =  N/A
# P_orb (s)        =  N/A
# asin(i)/c (s)    =  N/A
# eccentricity     =  N/A
# w (rad)          =  N/A
# T_peri           =  N/A
######################################################
   0  1378.137
   1  1323.55
   2  1214.887
   3  928.0816
   4  671.3014
   5  389.1961
   6  397.8655
   7  543.2421
   8  531.5403
   9  457.8826
  10  440.9582
  11  473.0123
  12  498.506
  13  511.9417
  14  469.7504
  15  500.9584
  16  414.45
  17  340.7251
  18  290.0257
  19  359.6981
  20  397.6562
  21  352.2764
  22  345.4121
  23  400.0816
  24  426.798
  25  457.7332
  26  512.2719
  27  518.1277
  28  453.9169
  29  445.8789
  30  383.3534
  31  418.202
  32  337.4579
  33  342.614
  34  408.0993
  35  439.6061
  36  399.6059
  37  340.5663
  38  443.0082
  39  464.8596
  40  377.4052
  41  307.7905
  42  325.7828
  43  331.4446
  44  204.7815
  45  262.4263
  46  431.4768
  47  437.8481
  48  407.1517
  49  409.5837
  50  379.0744
  51  399.0147
  52  395.1768
  53  399.0438
  54  398.9111
  55  486.4707
  56  405.6585
  57  485.7454
  58  447.4173
  59  345.5496
  60  472.2108
  61  482.0981
  62  444.6741
  63  529.4994
  64  547.1108
  65  615.9438
  66  493.1548
  67  488.3488
  68  533.8253
  69  481.4905
  70  398.1794
  71  524.0211
  72  571.9619
  73  521.4176
  74  492.4197
  75  494.1109
  76  494.9477
  77  438.5038
  78  543.4858
  79  569.4892
  80  474.0417
  81  483.1568
  82  562.4771
  83  502.3242
  84  500.8709
  85  478.795
  86  458.1754
  87  503.5597
  88  499.9936
  89  438.5904
  90  386.033
  91  399.3277
  92  407.1781
  93  496.5645
  94  527.4177
  95  537.238
  96  477.2363
  97  472.8143
  98  455.4467
  99  419.6841
 100  297.6887
 101  463.5017
 102  541.022
 103  500.9099
 104  490.9627
 105  472.7746
 106  431.5906
 107  416.6181
 108  416.6761
 109  542.5593
 110  510.9195
 111  448.7007
 112  508.3476
 113  512.6749
 114  515.3884
 115  525.0345
 116  475.8469
 117  454.0543
 118  572.1583
 119  501.5391
 120  529.0922
 121  591.5979
 122  560.4955
 123  532.9805
 124  471.4261
 125  460.3039
 126  582.2481
 127  663.6861
 128  730.4103
 129  644.894
 130  586.4219
 131  548.9926
 132  420.8087
 133  451.5624
 134  449.2748
 135  457.3617
 136  561.4496
 137  535.6913
 138  581.5645
 139  598.3843
 140  552.2468
 141  595.2803
 142  639.9279
 143  545.5101
 144  401.4844
 145  561.2157
 146  645.1959
 147  463.1598
 148  506.3902
 149  510.6108
 150  585.9
 151  481.6336
 152  576.3799
 153  638.8803
 154  524.4307
 155  462.6162
 156  569.3925
 157  549.452
 158  542.7577
 159  527.9705
 160  541.0244
 161  582.024
 162  537.681
 163  471.1156
 164  486.698
 165  479.8883
 166  546.4192
 167  472.7535
 168  584.9077
 169  493.0018
 170  488.245
 171  398.1294
 172  473.913
 173  343.1963
 174  491.295
 175  660.6972
 176  600.4575
 177  594.3893
 178  515.8405
 179  431.0526
 180  267.5801
 181  428.3207
 182  470.0368
 183  563.4926
 184  615.8141
 185  600.9954
 186  509.7274
 187  601.9731
 188  546.5861
 189  545.6379
 190  498.7828
 191  592.1415
 192  541.4583
 193  684.721
 194  752.7202
 195  622.2843
 196  507.0978
 197  447.0315
 198  408.0814
 199  435.2131
 200  364.63
 201  489.6916
 202  650.3314
 203  530.6747
 204  503.7714
 205  526.6858
 206  608.3447
 207  545.142
 208  527.1268
 209  510.3452
 210  604.1688
 211  669.0341
 212  549.4763
 213  458.2447
 214  494.8132
 215  506.003
 216  559.261
 217  601.1915
 218  567.2009
 219  613.3445
 220  521.9637
 221  423.8989
 222  476.268
 223  602.4778
 224  597.3857
 225  449.7423
 226  364.6511
 227  314.9168
 228  393.8418
 229  450.4541
 230  432.7886
 231  417.4283
 232  349.411
 233  406.1853
 234  377.5023
 235  306.5821
 236  269.7935
 237  339.0121
 238  360.1915
 239  453.6796
 240  335.9002
 241  289.9556
 242  467.6948
 243  435.5882
 244  371.1802
 245  316.9755
 246  351.3925
 247  374.6394
 248  357.1102
 249  343.8568
 250  374.5831
 251  454.2024
 252  456.7975
 253  323.3903
 254  280.3128
 255  268.5363
 256  259.3248
 257  423.5624
 258  533.8533
 259  521.5117
 260  414.3674
 261  302.127
 262  311.7019
 263  380.4366
 264  349.4244
 265  360.465
 266  400.6729
 267  370.9754
 268  389.6089
 269  388.7468
 270  366.0148
 271  368.6924
 272  397.4983
 273  391.3216
 274  421.6747
 275  421.3417
 276  408.4629
 277  327.8734
 278  429.8481
 279  269.2333
 280  271.2314
 281  348.4855
 282  352.893
 283  368.2051
 284  342.8782
 285  349.9094
 286  361.3877
 287  295.0934
 288  309.0399
 289  336.6078
 290  459.541
 291  402.593
 292  473.4302
 293  615.3848
 294  465.6881
 295  269.0191
 296  267.9601
 297  406.5839
 298  489.5962
 299  485.0074
 300  495.485
 301  490.9416
 302  463.3636
 303  399.7857
 304  422.9478
 305  272.2153
 306  382.5799
 307  533.6301
 308  479.4801
 309  409.4375
 310  438.8716
 311  496.1867
 312  336.9697
 313  313.0282
 314  333.7708
 315  326.6507
 316  374.5016
 317  372.5567
 318  479.735
 319  557.2903
 320  499.2337
 321  311.2205
 322  288.7304
 323  374.2838
 324  345.7448
 325  441.61
 326  535.4638
 327  470.4893
 328  475.5462
 329  391.3401
 330  371.5989
 331  424.4236
 332  434.3864
 333  405.5719
 334  435.939
 335  399.5609
 336  303.6164
 337  291.9047
 338  340.666
 339  436.5567
 340  387.8586
 341  250.6621
 342  305.2089
 343  368.4644
 344  422.1862
 345  281.7608
 346  284.2704
 347  450.712
 348  363.4285
 349  313.6453
 350  417.0598
 351  480.5074
 352  364.4771
 353  382.4388
 354  404.7138
 355  302.5272
 356  427.2654
 357  428.1648
 358  349.7932
 359  391.0099
 360  437.8754
 361  483.9132
 362  419.5662
 363  347.1194
 364  364.6107
 365  379.8124
 366  462.312
 367  483.819
 368  537.7632
 369  608.1031
 370  571.5783
 371  500.2356
 372  537.5692
 373  515.3377
 374  383.3309
 375  302.9738
 376  344.4825
 377  447.2252
 378  479.2832
 379  453.7615
 380  447.838
 381  466.9077
 382  541.0121
 383  634.3184
 384  492.1047
 385  466.4229
 386  383.7585
 387  306.7813
 388  330.7976
 389  251.6296
 390  504.1006
 391  510.6776
 392  475.5045
 393  320.3571
 394  360.7738
 395  452.5705
 396  442.4205
 397  350.3071
 398  465.5804
 399  339.5823
 400  341.0228
 401  442.8834
 402  505.6697
 403  508.2599
 404  463.6353
 405  476.187
 406  484.5517
 407  514.0389
 408  635.4098
 409  561.3017
 410  548.2703
 411  527.9209
 412  467.1447
 413  543.0802
 414  695.363
 415  634.4985
 416  582.3569
 417  564.1815
 418  513.507
 419  405.7584
 420  463.2085
 421  460.4939
 422  479.7543
 423  559.4441
 424  518.9064
 425  554.2365
 426  542.7682
 427  438.9655
 428  357.0797
 429  521.7509
 430  602.7322
 431  557.3317
 432  548.1306
 433  558.8789
 434  486.2317
 435  446.863
 436  525.0818
 437  487.5354
 438  424.1458
 439  370.1694
 440  421.7746
 441  481.1386
 442  509.16
 443  505.3091
 444  499.1583
 445  471.8961
 446  445.1652
 447  428.3771
 448  367.4555
 449  386.6627
 450  331.7585
 451  457.5305
 452  467.7861
 453  332.6024
 454  320.7825
 455  327.5076
 456  320.2037
 457  349.9227
 458  339.5823
 459  350.5448
 460  334.355
 461  378.6929
 462  319.6831
 463  421.1563
 464  534.0339
 465  494.0349
 466  561.239
 467  553.272
 468  393.8196
 469  392.1948
 470  448.2461
 471  526.1859
 472  454.002
 473  359.8458
 474  370.522
 475  397.2117
 476  478.3037
 477  504.2779
 478  410.5425
 479  451.1147
 480  570.9629
 481  614.3317
 482  530.8591
 483  431.222
 484  450.3481
 485  479.8928
 486  460.5601
 487  463.2376
 488  424.8713
 489  472.253
 490  512.6644
 491  527.9417
 492  466.8227
 493  492.3819
 494  595.6212
 495  536.6893
 496  324.0489
 497  342.2136
 498  436.055
 499  494.8072
 500  495.3736
 501  432.1751
 502  448.9961
 503  438.3442
 504  432.221
 505  478.1349
 506  593.7221
 507  520.5965
 508  530.3931
 509  754.2193
 510  975.0916
 511  1158.433
