# Input file       =  1184458115.111231_cleaned.dat
# Candidate        =  PSR_0332+5434
# Telescope        =  AR
# Epoch_topo       =  57953.005753602214
# Epoch_bary       =  N/A
# T_sample         =  0.002
# Data Folded      =  7208960
# Data Avg         =  0.0221703388244682
# Data StdDev      =  1.00000965481512 
# Profile Bins     =  512
# Profile Avg      =  312.180082917772 
# Profile StdDev   =  118.660321425935 
# Reduced chi-sqr  =  1.378
# Prob(Noise)      <  2.67e-08   (~5.4 sigma)
# P_topo (ms)      =  714.47633726554   +/- 0.00018
# P'_topo (s/s)    =  -0                +/- 9.68e-11
# P''_topo (s/s^2) =  0                 +/- 4.35e-14
# P_bary (ms)      =  N/A
# P'_bary (s/s)    =  N/A
# P''_bary (s/s^2) =  N/A
# P_orb (s)        =  N/A
# asin(i)/c (s)    =  N/A
# eccentricity     =  N/A
# w (rad)          =  N/A
# T_peri           =  N/A
######################################################
   0  1109.878
   1  982.636
   2  785.7646
   3  424.2565
   4  324.3627
   5  255.6922
   6  305.6017
   7  279.2744
   8  337.9243
   9  432.8142
  10  340.933
  11  248.9101
  12  291.0134
  13  260.7715
  14  287.7955
  15  316.3859
  16  276.3931
  17  310.11
  18  419.0359
  19  388.1702
  20  242.063
  21  234.6533
  22  398.5383
  23  272.5351
  24  290.3341
  25  355.3421
  26  455.9142
  27  365.8924
  28  402.6217
  29  455.6212
  30  390.572
  31  339.6473
  32  192.4996
  33  282.1593
  34  414.9378
  35  464.2366
  36  314.0155
  37  418.2261
  38  397.5431
  39  375.5896
  40  385.1167
  41  387.0582
  42  345.837
  43  329.8296
  44  332.8245
  45  316.282
  46  282.6237
  47  341.9624
  48  332.8878
  49  244.7003
  50  143.7656
  51  255.3101
  52  364.7915
  53  333.9235
  54  337.7733
  55  269.6742
  56  380.0248
  57  254.2791
  58  222.417
  59  275.8266
  60  309.6356
  61  424.8806
  62  437.5966
  63  358.8703
  64  283.9149
  65  220.6269
  66  216.2318
  67  149.034
  68  347.5228
  69  294.1697
  70  206.7317
  71  328.1032
  72  297.2408
  73  166.0278
  74  377.8426
  75  376.9728
  76  283.4151
  77  321.3147
  78  314.7362
  79  219.6256
  80  341.5586
  81  239.9394
  82  194.3707
  83  256.0461
  84  343.2004
  85  224.0257
  86  160.4057
  87  212.2414
  88  262.7967
  89  260.7485
  90  230.8862
  91  228.2692
  92  304.7118
  93  273.7156
  94  294.6696
  95  333.3052
  96  451.6573
  97  342.4139
  98  209.2789
  99  248.1217
 100  286.5179
 101  226.489
 102  255.8766
 103  368.6658
 104  359.0268
 105  361.5328
 106  364.5162
 107  367.5399
 108  299.2724
 109  216.1723
 110  331.2562
 111  407.4736
 112  419.4893
 113  333.1858
 114  424.5928
 115  290.5819
 116  329.8938
 117  292.2606
 118  260.4375
 119  382.6649
 120  358.6185
 121  389.3499
 122  209.4588
 123  147.7051
 124  190.1382
 125  214.3527
 126  334.2908
 127  238.692
 128  204.4295
 129  56.35251
 130  282.1478
 131  352.8613
 132  274.6436
 133  340.4854
 134  318.7585
 135  341.3973
 136  389.276
 137  359.8426
 138  272.4002
 139  269.7383
 140  250.6485
 141  340.8594
 142  359.3135
 143  311.5598
 144  311.7541
 145  294.007
 146  239.7735
 147  240.5251
 148  163.287
 149  230.6981
 150  316.7093
 151  283.981
 152  235.7258
 153  109.3836
 154  223.2688
 155  353.8407
 156  304.0848
 157  328.7934
 158  316.0875
 159  195.8286
 160  129.7331
 161  172.7455
 162  304.3025
 163  341.8277
 164  305.6914
 165  268.9649
 166  367.0732
 167  315.5888
 168  280.216
 169  126.5844
 170  205.5949
 171  279.355
 172  228.4587
 173  267.0872
 174  511.071
 175  489.6071
 176  349.3963
 177  389.3697
 178  253.0938
 179  171.3875
 180  116.0864
 181  255.1457
 182  266.2866
 183  233.9548
 184  272.1052
 185  184.2762
 186  176.5443
 187  328.9662
 188  329.5862
 189  314.5321
 190  341.6232
 191  301.0915
 192  225.7197
 193  217.1738
 194  214.4662
 195  315.2384
 196  368.2047
 197  294.3174
 198  293.5227
 199  298.3876
 200  275.2496
 201  246.4103
 202  173.8904
 203  333.3205
 204  279.8772
 205  151.3177
 206  219.4973
 207  362.9605
 208  309.1756
 209  191.6426
 210  245.9683
 211  376.3895
 212  307.1275
 213  248.8024
 214  435.95
 215  402.4178
 216  381.6399
 217  241.2087
 218  224.2947
 219  257.1876
 220  231.905
 221  207.9585
 222  295.479
 223  342.485
 224  208.668
 225  319.6703
 226  399.9657
 227  268.3199
 228  355.4684
 229  289.723
 230  227.643
 231  226.7468
 232  251.1974
 233  230.5662
 234  338.6199
 235  451.413
 236  307.0776
 237  298.7238
 238  261.2928
 239  247.8545
 240  324.3994
 241  375.6751
 242  457.289
 243  301.4696
 244  178.7548
 245  134.6666
 246  219.5515
 247  254.6223
 248  253.8719
 249  333.4647
 250  355.3242
 251  273.4236
 252  153.8994
 253  97.0275
 254  140.1749
 255  274.4927
 256  293.1311
 257  285.842
 258  176.8727
 259  330.218
 260  244.4369
 261  196.262
 262  255.2742
 263  186.705
 264  114.0517
 265  294.6791
 266  286.3636
 267  380.3145
 268  389.0532
 269  348.2102
 270  205.0533
 271  293.8563
 272  269.7368
 273  291.5133
 274  310.1108
 275  306.6092
 276  295.5737
 277  251.0439
 278  206.4539
 279  230.3312
 280  218.3763
 281  244.4021
 282  331.5043
 283  272.6395
 284  169.994
 285  242.2611
 286  294.1887
 287  322.0461
 288  367.5368
 289  261.969
 290  309.0303
 291  408.6494
 292  321.0999
 293  336.0245
 294  417.984
 295  357.6229
 296  303.7656
 297  239.8085
 298  334.4578
 299  349.8195
 300  273.9174
 301  297.0426
 302  273.5032
 303  182.3199
 304  254.3698
 305  258.7837
 306  293.3381
 307  384.284
 308  404.3737
 309  308.1241
 310  325.6023
 311  254.8753
 312  226.9714
 313  264.7618
 314  381.7791
 315  369.4138
 316  389.1076
 317  254.5695
 318  350.2819
 319  419.8
 320  298.5603
 321  359.3838
 322  325.4693
 323  337.0967
 324  343.0159
 325  322.9164
 326  375.8361
 327  276.6814
 328  251.6651
 329  299.6968
 330  361.5927
 331  327.0162
 332  384.4568
 333  422.9892
 334  288.6059
 335  292.3198
 336  346.0818
 337  270.5418
 338  303.7616
 339  308.4347
 340  278.8092
 341  350.7159
 342  333.9144
 343  434.2973
 344  510.222
 345  506.3175
 346  429.6476
 347  304.6363
 348  285.891
 349  270.1209
 350  256.6941
 351  281.0125
 352  414.2457
 353  340.6204
 354  256.2073
 355  279.558
 356  305.922
 357  311.5586
 358  375.8397
 359  372.6945
 360  254.6405
 361  116.0368
 362  244.361
 363  386.9747
 364  332.0256
 365  326.0969
 366  302.6053
 367  257.1901
 368  355.5652
 369  382.6068
 370  336.7083
 371  369.8714
 372  321.2253
 373  418.8244
 374  316.2161
 375  267.312
 376  212.065
 377  264.3333
 378  375.8447
 379  259.6047
 380  357.3705
 381  392.4031
 382  342.666
 383  247.9035
 384  316.9138
 385  339.2808
 386  278.6181
 387  322.4294
 388  315.5774
 389  244.5583
 390  290.4034
 391  333.3743
 392  241.728
 393  296.9739
 394  343.6003
 395  302.1162
 396  215.1423
 397  355.5408
 398  402.8401
 399  356.4671
 400  348.2971
 401  318.3217
 402  293.7911
 403  233.8058
 404  303.9955
 405  411.8552
 406  436.2088
 407  386.1667
 408  435.5243
 409  463.6211
 410  411.6161
 411  312.4286
 412  276.9504
 413  280.7539
 414  222.8928
 415  293.2473
 416  304.8179
 417  246.8671
 418  240.8837
 419  244.9596
 420  276.7653
 421  310.215
 422  323.6774
 423  307.6961
 424  324.1441
 425  207.8902
 426  154.0283
 427  171.8784
 428  232.0155
 429  381.4272
 430  342.2876
 431  342.7668
 432  257.3334
 433  315.4904
 434  286.6349
 435  370.6049
 436  474.1288
 437  469.3236
 438  377.0692
 439  409.4461
 440  383.8996
 441  325.1849
 442  411.6966
 443  415.1939
 444  377.9759
 445  313.055
 446  310.7309
 447  283.3445
 448  277.8892
 449  329.006
 450  238.2513
 451  262.5824
 452  319.202
 453  376.0735
 454  357.5862
 455  343.5053
 456  518.8331
 457  316.9776
 458  250.4915
 459  282.8072
 460  280.743
 461  265.9058
 462  290.211
 463  273.8414
 464  197.2472
 465  275.8244
 466  275.1511
 467  253.0061
 468  247.9986
 469  329.238
 470  329.3673
 471  261.3673
 472  286.6584
 473  400.8982
 474  312.4147
 475  213.8739
 476  324.4978
 477  294.5849
 478  327.0901
 479  412.6264
 480  394.3501
 481  309.2487
 482  393.755
 483  335.1925
 484  250.5213
 485  268.0539
 486  445.7307
 487  377.2384
 488  342.9316
 489  393.1545
 490  304.9861
 491  264.6961
 492  239.0748
 493  454.1741
 494  403.0514
 495  337.7716
 496  328.2443
 497  350.4764
 498  293.9723
 499  311.7304
 500  332.5432
 501  335.9191
 502  178.5495
 503  283.253
 504  491.4637
 505  484.3015
 506  444.9787
 507  392.5602
 508  531.5065
 509  650.953
 510  854.7045
 511  1090.761
