# Input file       =  1184630491.118226_cleaned.dat
# Candidate        =  PSR_0332+5434
# Telescope        =  AR
# Epoch_topo       =  57955.000846275761
# Epoch_bary       =  N/A
# T_sample         =  0.002
# Data Folded      =  7208960
# Data Avg         =  0.0346188262076994
# Data StdDev      =  1.00017823122745 
# Profile Bins     =  512
# Profile Avg      =  487.448702520686 
# Profile StdDev   =  118.68032456408  
# Reduced chi-sqr  =  1.253
# Prob(Noise)      <  8.12e-05   (~3.8 sigma)
# P_topo (ms)      =  714.475127788069  +/- 0.000159
# P'_topo (s/s)    =  -0                +/- 8.53e-11
# P''_topo (s/s^2) =  0                 +/- 3.84e-14
# P_bary (ms)      =  N/A
# P'_bary (s/s)    =  N/A
# P''_bary (s/s^2) =  N/A
# P_orb (s)        =  N/A
# asin(i)/c (s)    =  N/A
# eccentricity     =  N/A
# w (rad)          =  N/A
# T_peri           =  N/A
######################################################
   0  420.7785
   1  466.6821
   2  555.8721
   3  543.5157
   4  453.0288
   5  392.6181
   6  389.8301
   7  369.9412
   8  447.036
   9  502.2639
  10  414.1412
  11  432.3526
  12  503.1199
  13  411.0142
  14  466.9993
  15  456.8574
  16  559.3484
  17  553.4072
  18  439.6235
  19  359.6963
  20  403.442
  21  530.9714
  22  496.4706
  23  539.7372
  24  514.3049
  25  534.6242
  26  470.492
  27  451.073
  28  432.335
  29  574.2775
  30  614.902
  31  435.8967
  32  386.6892
  33  527.3369
  34  518.2482
  35  471.2209
  36  520.4509
  37  503.3716
  38  479.1467
  39  497.5833
  40  461.7304
  41  474.2386
  42  547.9269
  43  449.9998
  44  445.4109
  45  492.5134
  46  512.3582
  47  425.5682
  48  487.1418
  49  591.1785
  50  560.3635
  51  551.9326
  52  607.847
  53  502.3355
  54  467.4583
  55  379.4008
  56  573.3962
  57  595.463
  58  614.1577
  59  550.1651
  60  550.6852
  61  579.8157
  62  513.5576
  63  488.79
  64  480.7077
  65  500.6601
  66  560.6036
  67  509.6374
  68  460.3608
  69  511.5969
  70  441.696
  71  492.1826
  72  455.7317
  73  481.0036
  74  640.2198
  75  544.457
  76  548.5051
  77  554.6642
  78  576.919
  79  469.2189
  80  482.3622
  81  603.2845
  82  437.3717
  83  357.9082
  84  489.1526
  85  577.3035
  86  637.886
  87  552.9674
  88  476.563
  89  509.244
  90  630.8547
  91  509.5566
  92  680.6556
  93  961.4666
  94  1154.924
  95  1240.096
  96  1144.464
  97  994.3467
  98  816.1565
  99  594.8475
 100  554.5059
 101  628.3745
 102  539.8545
 103  516.6694
 104  505.1854
 105  588.6783
 106  648.6066
 107  570.4293
 108  608.4578
 109  606.6686
 110  705.3616
 111  708.26
 112  526.8801
 113  447.3635
 114  422.7316
 115  485.637
 116  447.6956
 117  429.0768
 118  457.1285
 119  451.2295
 120  424.0079
 121  478.3247
 122  464.4526
 123  546.3514
 124  540.8447
 125  528.9736
 126  642.1012
 127  485.6407
 128  514.0934
 129  544.1719
 130  553.8831
 131  538.312
 132  602.1886
 133  589.6453
 134  625.0271
 135  594.5609
 136  618.9039
 137  563.6205
 138  510.7261
 139  413.0528
 140  377.6525
 141  371.8517
 142  386.7454
 143  536.9894
 144  560.8267
 145  419.5613
 146  370.503
 147  469.5767
 148  540.941
 149  619.0809
 150  583.4653
 151  575.3632
 152  513.1085
 153  586.2104
 154  660.046
 155  555.0056
 156  463.0734
 157  336.8474
 158  387.795
 159  532.6646
 160  632.4999
 161  515.3072
 162  360.2314
 163  410.2804
 164  516.8526
 165  361.4511
 166  433.1259
 167  461.1444
 168  400.3322
 169  485.9168
 170  513.4687
 171  479.9494
 172  397.2899
 173  347.4167
 174  286.994
 175  445.002
 176  555.1447
 177  507.6285
 178  449.9809
 179  562.0897
 180  541.0917
 181  367.9442
 182  389.894
 183  476.9757
 184  427.8676
 185  552.2932
 186  503.3021
 187  414.6271
 188  536.5889
 189  439.5049
 190  419.0336
 191  484.3507
 192  577.1019
 193  433.6224
 194  481.1628
 195  481.9559
 196  526.1369
 197  519.1371
 198  532.7472
 199  608.2366
 200  523.033
 201  499.6774
 202  434.9671
 203  413.9485
 204  488.2151
 205  446.535
 206  509.492
 207  428.305
 208  514.6383
 209  497.6089
 210  443.7631
 211  483.5377
 212  446.0595
 213  475.5381
 214  501.2674
 215  527.4078
 216  508.9792
 217  496.0019
 218  495.8553
 219  519.0636
 220  497.0704
 221  402.8186
 222  445.4719
 223  426.9641
 224  362.7413
 225  321.2547
 226  448.3737
 227  466.9715
 228  485.0505
 229  474.3952
 230  426.4059
 231  397.8155
 232  295.8975
 233  434.9579
 234  529.0897
 235  597.9461
 236  452.181
 237  364.1552
 238  275.2689
 239  336.9312
 240  424.8685
 241  473.1006
 242  413.0873
 243  310.9781
 244  471.9047
 245  481.4271
 246  456.8937
 247  408.1476
 248  423.6431
 249  424.2788
 250  418.4452
 251  504.0799
 252  550.8578
 253  552.2228
 254  520.3506
 255  530.968
 256  511.5317
 257  507.4378
 258  422.1434
 259  431.178
 260  449.9921
 261  473.2338
 262  519.3751
 263  509.0346
 264  386.2326
 265  483.4621
 266  499.5054
 267  471.751
 268  465.4535
 269  553.28
 270  487.5883
 271  407.4297
 272  415.432
 273  401.6209
 274  444.0894
 275  455.2033
 276  392.3422
 277  467.9528
 278  534.7339
 279  463.4283
 280  418.323
 281  446.8554
 282  470.4566
 283  486.2353
 284  471.6103
 285  403.7054
 286  406.631
 287  479.4973
 288  464.6637
 289  530.3881
 290  499.1898
 291  519.4595
 292  430.4069
 293  434.5502
 294  595.4819
 295  559.288
 296  597.3071
 297  521.811
 298  399.1331
 299  464.6129
 300  582.3154
 301  459.6484
 302  368.8647
 303  330.1858
 304  316.8042
 305  454.6567
 306  527.8143
 307  460.9763
 308  362.8892
 309  433.9413
 310  400.6451
 311  411.9029
 312  492.5646
 313  459.8481
 314  373.209
 315  365.8344
 316  457.0407
 317  491.5766
 318  480.7552
 319  491.8822
 320  428.0945
 321  374.9057
 322  359.0207
 323  388.8078
 324  406.7676
 325  487.7296
 326  518.6009
 327  564.3046
 328  586.1322
 329  437.503
 330  404.5589
 331  458.668
 332  469.7
 333  414.951
 334  491.0945
 335  531.6699
 336  486.2554
 337  480.3212
 338  429.548
 339  340.944
 340  423.4261
 341  431.5916
 342  449.0747
 343  525.3738
 344  476.7561
 345  504.1845
 346  489.9386
 347  499.464
 348  639.0941
 349  464.2114
 350  459.6392
 351  501.5886
 352  409.0446
 353  454.6978
 354  450.3906
 355  487.4517
 356  457.6936
 357  412.896
 358  454.0872
 359  494.6831
 360  399.9842
 361  451.2891
 362  500.3546
 363  497.4665
 364  401.5807
 365  442.6927
 366  477.0589
 367  502.6193
 368  438.0914
 369  493.1805
 370  630.8364
 371  496.9958
 372  465.1792
 373  488.5951
 374  441.8533
 375  342.8658
 376  382.8557
 377  433.5187
 378  447.9883
 379  492.0096
 380  502.0748
 381  407.4171
 382  370.5202
 383  425.8091
 384  372.0337
 385  352.9011
 386  355.1765
 387  474.3527
 388  548.7453
 389  500.2174
 390  422.9131
 391  412.9397
 392  497.899
 393  581.9566
 394  491.3575
 395  416.7625
 396  429.9551
 397  442.2411
 398  318.8443
 399  460.0567
 400  552.2585
 401  430.8404
 402  342.0306
 403  506.6558
 404  504.6576
 405  479.3203
 406  434.5167
 407  447.5507
 408  551.2872
 409  537.0709
 410  537.6335
 411  508.7005
 412  558.7162
 413  520.5386
 414  481.2621
 415  459.0241
 416  517.8622
 417  556.3021
 418  516.9142
 419  340.7294
 420  261.6496
 421  395.2491
 422  392.6853
 423  550.3015
 424  524.6456
 425  440.4371
 426  425.243
 427  497.6443
 428  517.9488
 429  478.6011
 430  492.0446
 431  506.6942
 432  500.7506
 433  537.3297
 434  518.5116
 435  529.2945
 436  608.413
 437  487.3762
 438  332.3452
 439  435.2741
 440  494.8329
 441  453.5757
 442  368.8012
 443  552.1411
 444  518.801
 445  496.8214
 446  547.6396
 447  448.7463
 448  428.7198
 449  459.0053
 450  416.9766
 451  587.883
 452  537.2363
 453  478.7712
 454  396.2838
 455  545.944
 456  581.6989
 457  610.5484
 458  527.8522
 459  464.8162
 460  374.8949
 461  472.4857
 462  554.6066
 463  540.8232
 464  463.1626
 465  462.6717
 466  500.3569
 467  488.3175
 468  395.2915
 469  466.0176
 470  461.7541
 471  600.7938
 472  590.0073
 473  383.2353
 474  371.8128
 475  462.7718
 476  529.9626
 477  573.1516
 478  635.3696
 479  564.7232
 480  496.4584
 481  453.5571
 482  526.5182
 483  535.7965
 484  538.0042
 485  651.8235
 486  453.0412
 487  476.0188
 488  457.3851
 489  547.692
 490  607.413
 491  533.1794
 492  442.5071
 493  424.7721
 494  517.1254
 495  398.7627
 496  307.3498
 497  469.4562
 498  582.2484
 499  462.8843
 500  441.1454
 501  503.2931
 502  443.3395
 503  452.1711
 504  342.5625
 505  333.6776
 506  355.4872
 507  493.4204
 508  527.0815
 509  472.5865
 510  504.794
 511  448.8332
