# Input file       =  1184817381.103401_cleaned.dat
# Candidate        =  PSR_0332+5434
# Telescope        =  AR
# Epoch_topo       =  57957.163924807879
# Epoch_bary       =  N/A
# T_sample         =  0.002
# Data Folded      =  7340032
# Data Avg         =  0.032336334367002
# Data StdDev      =  1.00013650263529 
# Profile Bins     =  512
# Profile Avg      =  463.39297521869  
# Profile StdDev   =  119.749380251762 
# Reduced chi-sqr  =  1.950
# Prob(Noise)      <  1.26e-33   (~12.0 sigma)
# P_topo (ms)      =  714.473886584132  +/- 0.000218
# P'_topo (s/s)    =  -0                +/- 1.15e-10
# P''_topo (s/s^2) =  0                 +/- 5.08e-14
# P_bary (ms)      =  N/A
# P'_bary (s/s)    =  N/A
# P''_bary (s/s^2) =  N/A
# P_orb (s)        =  N/A
# asin(i)/c (s)    =  N/A
# eccentricity     =  N/A
# w (rad)          =  N/A
# T_peri           =  N/A
######################################################
   0  1379.881
   1  1269.731
   2  1072.871
   3  784.9083
   4  512.1622
   5  327.7737
   6  490.8169
   7  555.4662
   8  508.1166
   9  429.1407
  10  481.7694
  11  459.7845
  12  526.5051
  13  463.605
  14  501.6837
  15  459.1673
  16  371.8529
  17  309.5744
  18  307.1028
  19  407.3723
  20  361.3788
  21  355.5911
  22  362.052
  23  421.805
  24  426.8368
  25  490.0186
  26  525.2789
  27  472.7099
  28  456.0768
  29  418.5137
  30  404.0856
  31  396.6964
  32  305.4152
  33  396.1383
  34  412.9027
  35  440.2283
  36  330.7421
  37  402.6573
  38  466.8026
  39  422.4746
  40  323.4706
  41  319.7935
  42  356.5202
  43  247.5984
  44  206.2951
  45  362.9235
  46  464.1192
  47  416.3677
  48  395.7627
  49  400.5046
  50  386.2751
  51  392.8557
  52  414.7528
  53  362.9003
  54  483.0706
  55  435.9807
  56  438.8377
  57  493.4209
  58  372.5493
  59  398.8308
  60  509.3378
  61  425.5081
  62  503.096
  63  539.6917
  64  608.7415
  65  550.7861
  66  467.6177
  67  512.3805
  68  527.0901
  69  408.3282
  70  458.1507
  71  565.219
  72  560.8205
  73  494.4041
  74  504.6406
  75  483.7449
  76  458.6735
  77  483.2924
  78  588.8284
  79  516.5426
  80  438.4634
  81  561.1768
  82  519.7991
  83  500.3385
  84  480.4565
  85  465.159
  86  481.9129
  87  510.0357
  88  472.0172
  89  402.9046
  90  409.0367
  91  383.6382
  92  474.6818
  93  493.4569
  94  569.3167
  95  481.5909
  96  487.8155
  97  449.8619
  98  449.3454
  99  337.6493
 100  353.23
 101  537.9225
 102  527.1323
 103  480.8482
 104  501.4996
 105  429.75
 106  455.4398
 107  389.4464
 108  498.1082
 109  541.684
 110  448.1899
 111  481.5988
 112  504.2561
 113  529.1135
 114  505.4217
 115  524.1398
 116  433.4817
 117  536.67
 118  555.8871
 119  459.8646
 120  604.8105
 121  563.7184
 122  562.5779
 123  482.9824
 124  451.149
 125  532.338
 126  617.5276
 127  724.8743
 128  691.6996
 129  600.7537
 130  584.1611
 131  467.6772
 132  420.4603
 133  467.9931
 134  430.948
 135  528.8318
 136  556.1384
 137  535.8558
 138  610.8932
 139  548.1226
 140  590.2005
 141  631.209
 142  612.9169
 143  436.3763
 144  452.6867
 145  665.5124
 146  539.3077
 147  456.6432
 148  515.4272
 149  548.0858
 150  556.9235
 151  480.6397
 152  658.6677
 153  575.1503
 154  470.2655
 155  526.5912
 156  566.9204
 157  547.9519
 158  528.0951
 159  522.9327
 160  575.9784
 161  563.2998
 162  492.4731
 163  469.0882
 164  496.0869
 165  526.5695
 166  492.0862
 167  531.0916
 168  543.5741
 169  504.6494
 170  423.781
 171  443.5862
 172  392.5917
 173  379.0323
 174  629.8705
 175  638.0629
 176  595.85
 177  546.4696
 178  490.9448
 179  318.184
 180  343.2817
 181  456.8539
 182  516.938
 183  595.6339
 184  620.9587
 185  543.6912
 186  550.2082
 187  592.9682
 188  539.4662
 189  508.711
 190  553.8181
 191  567.0064
 192  600.5627
 193  745.2498
 194  701.4482
 195  535.8541
 196  483.2909
 197  411.4112
 198  444.5293
 199  384.1368
 200  407.1174
 201  610.7336
 202  590.2385
 203  498.6692
 204  500.5496
 205  579.6547
 206  590.979
 207  524.8141
 208  523.1469
 209  536.7026
 210  678.9726
 211  614.0924
 212  473.5226
 213  466.84
 214  506.9288
 215  529.0859
 216  599.9067
 217  563.0165
 218  610.8465
 219  575.0554
 220  459.703
 221  433.892
 222  552.8511
 223  620.7103
 224  509.2827
 225  400.6438
 226  327.3979
 227  353.929
 228  429.646
 229  444.0511
 230  422.8044
 231  368.0521
 232  384.5262
 233  392.4701
 234  361.1327
 235  255.2686
 236  332.0296
 237  327.4272
 238  426.0048
 239  406.3985
 240  275.1266
 241  406.1551
 242  462.4696
 243  389.8448
 244  323.4791
 245  319.9371
 246  394.9344
 247  361.907
 248  358.8792
 249  345.4009
 250  409.726
 251  488.775
 252  375.1969
 253  297.155
 254  271.3823
 255  258.7047
 256  327.9479
 257  504.3331
 258  535.2985
 259  478.262
 260  336.8854
 261  302.6413
 262  343.3619
 263  366.8072
 264  335.7448
 265  407.5162
 266  371.4834
 267  395.1726
 268  389.8755
 269  362.2828
 270  383.4776
 271  368.2346
 272  403.7903
 273  409.2126
 274  405.0382
 275  452.3638
 276  325.8289
 277  391.9985
 278  359.1343
 279  227.9172
 280  341.8155
 281  349.2484
 282  368.1354
 283  356.1523
 284  332.4836
 285  367.6732
 286  322.9556
 287  300.9261
 288  313.4162
 289  416.9289
 290  441.4336
 291  411.522
 292  577.7996
 293  567.2122
 294  307.4091
 295  254.198
 296  336.5071
 297  474.2762
 298  493.7046
 299  478.2466
 300  503.3852
 301  487.0303
 302  416.1503
 303  437.485
 304  328.7176
 305  305.0178
 306  477.2872
 307  522.7318
 308  431.3047
 309  408.0005
 310  499.3088
 311  412.7583
 312  300.6884
 313  331.1112
 314  325.6624
 315  354.3911
 316  381.5579
 317  416.8132
 318  529.5922
 319  542.4058
 320  396.2474
 321  276.0554
 322  339.5464
 323  366.4535
 324  379.5226
 325  508.7281
 326  518.7847
 327  457.2759
 328  433.435
 329  360.3865
 330  403.2701
 331  451.0145
 332  407.8726
 333  424.5347
 334  422.3281
 335  351.2298
 336  270.5426
 337  334.768
 338  376.2721
 339  454.1225
 340  272.4619
 341  273.3343
 342  341.955
 343  423.9118
 344  365.2747
 345  242.5586
 346  380.5518
 347  421.5754
 348  308.2922
 349  365.2399
 350  470.5529
 351  439.4619
 352  332.7539
 353  440.4623
 354  310.2496
 355  351.4755
 356  468.8075
 357  356.752
 358  387.9203
 359  406.2051
 360  485.2965
 361  455.8423
 362  365.9049
 363  346.8647
 364  368.8165
 365  433.0351
 366  482.8185
 367  495.4666
 368  586.3284
 369  592.9128
 370  537.8607
 371  500.0925
 372  555.4193
 373  438.6339
 374  321.7471
 375  325.9251
 376  389.5856
 377  500.8017
 378  447.0117
 379  456.7458
 380  442.5661
 381  499.5244
 382  627.0831
 383  545.2906
 384  463.6666
 385  439.9057
 386  320.2137
 387  331.5385
 388  258.6952
 389  387.4359
 390  541.1306
 391  497.8137
 392  384.8633
 393  319.7486
 394  415.4117
 395  477.9947
 396  367.3082
 397  424.6971
 398  422.5117
 399  301.3861
 400  400.7297
 401  466.5855
 402  518.5085
 403  482.3195
 404  477.6396
 405  483.0834
 406  491.9192
 407  585.6208
 408  615.6166
 409  533.3596
 410  533.2645
 411  507.8512
 412  468.6188
 413  657.655
 414  665.9719
 415  601.318
 416  583.5125
 417  552.5927
 418  438.8455
 419  419.8385
 420  460.7992
 421  465.0867
 422  523.4711
 423  550.5453
 424  540.0108
 425  548.6462
 426  511.4699
 427  344.673
 428  454.6023
 429  578.2725
 430  595.8655
 431  528.8289
 432  578.146
 433  508.0336
 434  454.9747
 435  475.6507
 436  525.3712
 437  444.6784
 438  389.9183
 439  383.7769
 440  485.6776
 441  479.7014
 442  522.7927
 443  485.156
 444  508.0457
 445  453.0845
 446  441.3329
 447  365.8586
 448  393.508
 449  347.7391
 450  386.2447
 451  499.3417
 452  385.7081
 453  322.6441
 454  318.8923
 455  331.1096
 456  324.7301
 457  346.953
 458  331.9828
 459  353.8594
 460  361.1621
 461  348.4836
 462  349.5196
 463  494.5744
 464  532.9918
 465  502.8735
 466  604.1888
 467  441.2975
 468  388.13
 469  407.0095
 470  509.0392
 471  496.0048
 472  389.0387
 473  384.0764
 474  371.9093
 475  444.9317
 476  490.0339
 477  468.3542
 478  403.9205
 479  525.5052
 480  608.6101
 481  572.3903
 482  466.7999
 483  429.1309
 484  485.8507
 485  452.8241
 486  477.1921
 487  425.9832
 488  469.7812
 489  478.971
 490  537.2823
 491  488.2678
 492  474.0075
 493  542.2209
 494  608.0994
 495  385.9533
 496  321.162
 497  383.7446
 498  479.5969
 499  503.8076
 500  465.6534
 501  432.8471
 502  446.1731
 503  423.6609
 504  450.8705
 505  559.644
 506  577.7951
 507  476.1962
 508  653.6528
 509  872.3461
 510  1085.718
 511  1286.528
