# Input file       =  1184472772.105566_cleaned.dat
# Candidate        =  PSR_0332+5434
# Telescope        =  AR
# Epoch_topo       =  57953.175394740349
# Epoch_bary       =  N/A
# T_sample         =  0.002
# Data Folded      =  7340032
# Data Avg         =  0.0369622330524194
# Data StdDev      =  0.999873312175687
# Profile Bins     =  512
# Profile Avg      =  529.761024548451 
# Profile StdDev   =  119.717867658889 
# Reduced chi-sqr  =  1.639
# Prob(Noise)      <  3.32e-18   (~8.6 sigma)
# P_topo (ms)      =  714.476243806909  +/- 0.000353
# P'_topo (s/s)    =  -0                +/- 1.86e-10
# P''_topo (s/s^2) =  0                 +/- 8.23e-14
# P_bary (ms)      =  N/A
# P'_bary (s/s)    =  N/A
# P''_bary (s/s^2) =  N/A
# P_orb (s)        =  N/A
# asin(i)/c (s)    =  N/A
# eccentricity     =  N/A
# w (rad)          =  N/A
# T_peri           =  N/A
######################################################
   0  1361.254
   1  1257.605
   2  973.861
   3  742.1224
   4  658.6249
   5  659.7787
   6  616.7479
   7  577.6099
   8  529.1792
   9  551.6036
  10  519.264
  11  589.032
  12  694.7288
  13  785.566
  14  770.7408
  15  601.3096
  16  587.8635
  17  578.2183
  18  519.6416
  19  498.3626
  20  511.9559
  21  471.4306
  22  563.9719
  23  578.9452
  24  628.0396
  25  585.1426
  26  408.0073
  27  429.466
  28  439.9637
  29  571.5064
  30  567.7202
  31  462.9495
  32  428.0892
  33  522.4504
  34  504.8809
  35  453.9268
  36  457.2863
  37  590.423
  38  532.6316
  39  428.8989
  40  510.7451
  41  517.2288
  42  631.3887
  43  645.8671
  44  665.9277
  45  584.645
  46  590.2408
  47  619.3039
  48  548.667
  49  393.5345
  50  594.4023
  51  562.4084
  52  470.6805
  53  561.5432
  54  553.5925
  55  546.5992
  56  505.7262
  57  522.1942
  58  712.7979
  59  591.4125
  60  472.186
  61  486.8587
  62  562.9324
  63  506.4236
  64  556.1605
  65  612.2724
  66  614.8617
  67  651.0532
  68  706.155
  69  626.9947
  70  683.2654
  71  777.2031
  72  677.0692
  73  530.6589
  74  645.9092
  75  734.0712
  76  626.8666
  77  611.2611
  78  597.4239
  79  651.4126
  80  647.1506
  81  505.0575
  82  599.3343
  83  678.6876
  84  626.3203
  85  580.0815
  86  549.6961
  87  627.9107
  88  589.7754
  89  622.6187
  90  648.1652
  91  583.3643
  92  559.3171
  93  578.7677
  94  670.0038
  95  719.7832
  96  558.8018
  97  545.0931
  98  604.7816
  99  609.6739
 100  533.4477
 101  534.306
 102  575.286
 103  569.186
 104  523.7227
 105  537.4046
 106  570.573
 107  566.1511
 108  572.6384
 109  552.3536
 110  557.1492
 111  634.434
 112  675.7545
 113  744.1333
 114  640.2591
 115  586.4505
 116  607.0201
 117  536.0968
 118  530.2438
 119  543.4825
 120  527.9532
 121  593.8896
 122  617.4721
 123  602.1019
 124  555.9006
 125  564.9989
 126  514.9697
 127  440.0141
 128  450.1539
 129  569.1591
 130  611.8083
 131  472.1748
 132  444.9252
 133  453.2057
 134  483.9172
 135  546.0671
 136  522.0964
 137  486.123
 138  493.8977
 139  495.7467
 140  469.2505
 141  484.7978
 142  513.3328
 143  576.7401
 144  574.3171
 145  565.301
 146  605.6469
 147  532.62
 148  553.3198
 149  617.2972
 150  504.8057
 151  530.4902
 152  554.1717
 153  595.8101
 154  516.1044
 155  488.7039
 156  462.6416
 157  459.804
 158  451.5887
 159  442.9214
 160  566.4767
 161  571.9233
 162  503.6706
 163  504.3259
 164  398.385
 165  360.0734
 166  443.328
 167  440.4948
 168  424.1071
 169  478.4401
 170  460.6891
 171  523.0424
 172  442.8491
 173  388.3428
 174  385.8411
 175  401.3445
 176  490.6455
 177  492.7123
 178  532.4032
 179  525.7349
 180  393.249
 181  406.1091
 182  442.2223
 183  434.9262
 184  504.2246
 185  563.178
 186  467.2625
 187  485.9552
 188  483.0724
 189  415.7782
 190  321.5813
 191  350.0283
 192  504.0704
 193  518.4664
 194  384.7515
 195  404.1731
 196  499.0796
 197  540.3942
 198  582.8273
 199  365.6558
 200  388.7604
 201  387.8393
 202  541.8878
 203  571.1873
 204  572.5022
 205  697.7274
 206  571.4458
 207  428.8264
 208  483.4421
 209  499.9389
 210  416.4449
 211  541.5448
 212  585.3171
 213  432.7663
 214  413.1667
 215  446.3619
 216  508.5869
 217  512.6619
 218  532.3915
 219  554.1969
 220  471.0047
 221  535.6371
 222  587.9687
 223  549.7256
 224  434.1604
 225  443.0687
 226  534.5681
 227  589.8385
 228  604.3661
 229  707.0596
 230  736.5554
 231  642.1505
 232  627.2366
 233  607.7485
 234  413.6612
 235  437.2126
 236  597.4368
 237  569.7587
 238  607.5987
 239  587.4106
 240  545.5922
 241  461.5286
 242  401.5977
 243  531.7388
 244  517.0166
 245  573.2479
 246  558.2869
 247  411.5279
 248  442.7691
 249  451.3145
 250  471.2407
 251  545.7137
 252  454.2544
 253  452.4126
 254  487.3549
 255  470.5446
 256  407.6608
 257  468.6793
 258  458.9152
 259  439.971
 260  466.0291
 261  477.4699
 262  342.756
 263  291.6846
 264  439.4071
 265  451.0062
 266  386.7438
 267  464.6432
 268  471.1888
 269  470.6374
 270  439.9481
 271  455.2912
 272  561.3649
 273  590.2524
 274  729.4844
 275  650.8275
 276  594.9645
 277  458.7041
 278  529.0454
 279  534.069
 280  601.402
 281  601.973
 282  487.9556
 283  507.8016
 284  504.0137
 285  480.7729
 286  577.9313
 287  592.8698
 288  586.3245
 289  578.4502
 290  602.1783
 291  510.606
 292  544.3411
 293  622.4344
 294  569.9042
 295  403.0751
 296  487.8635
 297  604.1577
 298  468.8763
 299  582.7756
 300  535.5768
 301  555.8917
 302  580.0394
 303  577.1205
 304  536.3828
 305  470.1559
 306  443.7669
 307  474.8443
 308  596.3665
 309  503.0251
 310  418.0042
 311  410.0771
 312  483.3047
 313  503.4276
 314  548.6846
 315  553.3882
 316  456.384
 317  457.9126
 318  468.7047
 319  447.5684
 320  403.5257
 321  461.8395
 322  526.3397
 323  420.8824
 324  412.1381
 325  360.0445
 326  427.8367
 327  463.9884
 328  377.2276
 329  459.3471
 330  479.9069
 331  448.8062
 332  465.4674
 333  514.0704
 334  506.5821
 335  420.9406
 336  435.727
 337  449.2105
 338  443.1073
 339  525.2302
 340  533.861
 341  508.1873
 342  478.3202
 343  475.139
 344  487.4276
 345  529.4905
 346  522.9998
 347  474.4876
 348  363.1536
 349  496.949
 350  538.8429
 351  471.0733
 352  423.1924
 353  439.8507
 354  483.2895
 355  434.7344
 356  413.9465
 357  469.3732
 358  489.5151
 359  435.6442
 360  486.0874
 361  458.2318
 362  532.7722
 363  660.7856
 364  578.2328
 365  512.7853
 366  448.6455
 367  485.2343
 368  537.041
 369  483.0044
 370  513.6299
 371  538.2711
 372  565.5403
 373  521.4194
 374  477.3227
 375  520.2258
 376  521.9232
 377  495.842
 378  405.4254
 379  471.851
 380  529.5436
 381  526.8676
 382  401.0446
 383  452.2725
 384  510.7687
 385  498.0781
 386  524.6224
 387  609.97
 388  594.2768
 389  619.5563
 390  492.4561
 391  462.0164
 392  403.3295
 393  436.1649
 394  527.5857
 395  468.9052
 396  387.8181
 397  287.7739
 398  355.7376
 399  360.618
 400  319.2025
 401  356.2121
 402  488.7834
 403  434.1637
 404  354.4041
 405  356.5421
 406  331.7097
 407  286.3677
 408  404.4198
 409  445.8629
 410  541.5096
 411  363.3576
 412  423.34
 413  449.4319
 414  424.2858
 415  508.6125
 416  571.9481
 417  575.7448
 418  600.4299
 419  555.2728
 420  500.9393
 421  469.0654
 422  256.8527
 423  481.727
 424  473.144
 425  435.3575
 426  456.8849
 427  446.6717
 428  434.5029
 429  351.2841
 430  450.4654
 431  569.6625
 432  536.1893
 433  458.5978
 434  483.4756
 435  500.5295
 436  545.4684
 437  626.6658
 438  658.5589
 439  635.0341
 440  546.303
 441  531.5248
 442  570.284
 443  588.3113
 444  556.672
 445  496.0314
 446  637.3549
 447  680.8212
 448  617.6523
 449  520.7806
 450  481.2689
 451  498.1102
 452  498.88
 453  447.4941
 454  502.806
 455  520.336
 456  532.3066
 457  546.2133
 458  512.574
 459  547.6301
 460  541.3263
 461  574.415
 462  547.9166
 463  539.1638
 464  546.2306
 465  431.8413
 466  557.5429
 467  614.2927
 468  612.6752
 469  555.7518
 470  640.4415
 471  639.9307
 472  519.635
 473  470.1452
 474  462.9629
 475  547.5587
 476  547.353
 477  520.2769
 478  561.0072
 479  567.6783
 480  519.7897
 481  554.5051
 482  554.063
 483  506.451
 484  538.589
 485  498.5373
 486  482.89
 487  469.1787
 488  529.3257
 489  621.1883
 490  602.5814
 491  611.2129
 492  583.2996
 493  545.8789
 494  538.7888
 495  598.2328
 496  587.425
 497  542.4195
 498  501.1798
 499  497.2173
 500  561.968
 501  582.8074
 502  559.4807
 503  542.3413
 504  655.1321
 505  713.3988
 506  722.0303
 507  746.1147
 508  678.9604
 509  998.6056
 510  1204.953
 511  1281.87
