# Input file       =  1184372028.105099_cleaned.dat
# Candidate        =  PSR_0332+5434
# Telescope        =  AR
# Epoch_topo       =  57952.009376216425
# Epoch_bary       =  N/A
# T_sample         =  0.002
# Data Folded      =  7143424
# Data Avg         =  0.0208990834723048
# Data StdDev      =  1.00003572277598 
# Profile Bins     =  512
# Profile Avg      =  291.632254258099 
# Profile StdDev   =  118.1228040056   
# Reduced chi-sqr  =  1.500
# Prob(Noise)      <  1.57e-12   (~7.0 sigma)
# P_topo (ms)      =  714.476960065772  +/- 0.000345
# P'_topo (s/s)    =  -0                +/- 1.87e-10
# P''_topo (s/s^2) =  0                 +/- 8.49e-14
# P_bary (ms)      =  N/A
# P'_bary (s/s)    =  N/A
# P''_bary (s/s^2) =  N/A
# P_orb (s)        =  N/A
# asin(i)/c (s)    =  N/A
# eccentricity     =  N/A
# w (rad)          =  N/A
# T_peri           =  N/A
######################################################
   0  51.56678
   1  196.5311
   2  305.4524
   3  303.6007
   4  348.9298
   5  352.048
   6  379.4041
   7  228.4081
   8  244.6252
   9  213.238
  10  197.5288
  11  184.7885
  12  217.8531
  13  285.2321
  14  190.2556
  15  280.8206
  16  209.8282
  17  245.0302
  18  296.101
  19  259.3001
  20  164.7265
  21  187.4554
  22  347.5191
  23  292.1136
  24  246.7485
  25  238.4944
  26  316.1305
  27  320.1226
  28  296.7056
  29  249.3054
  30  211.1727
  31  243.4907
  32  162.0964
  33  253.1356
  34  375.4643
  35  419.0094
  36  298.3523
  37  329.6067
  38  305.1553
  39  456.4016
  40  394.0661
  41  269.4099
  42  220.0654
  43  335.3792
  44  372.8834
  45  226.7616
  46  259.7656
  47  365.4323
  48  334.8716
  49  346.1339
  50  398.4014
  51  247.9137
  52  242.9645
  53  150.9772
  54  249.7598
  55  306.7843
  56  269.5741
  57  360.1339
  58  319.2611
  59  310.705
  60  240.4084
  61  200.8517
  62  256.0493
  63  296.1649
  64  289.0773
  65  311.6255
  66  353.8506
  67  325.4347
  68  237.79
  69  217.7348
  70  227.0748
  71  333.3065
  72  372.7191
  73  313.5547
  74  389.1319
  75  342.0287
  76  273.9265
  77  318.903
  78  286.8432
  79  218.1113
  80  281.7786
  81  283.1532
  82  227.4476
  83  129.1575
  84  181.0672
  85  265.8047
  86  297.9015
  87  206.6021
  88  266.2745
  89  392.3423
  90  279.3043
  91  222.6841
  92  294.7101
  93  331.5621
  94  452.1772
  95  350.3603
  96  295.6281
  97  330.1847
  98  266.2761
  99  223.6238
 100  251.5955
 101  330.0279
 102  245.5101
 103  213.329
 104  266.0249
 105  174.3654
 106  183.2169
 107  210.0007
 108  202.54
 109  214.235
 110  345.3362
 111  334.0162
 112  315.0135
 113  133.3131
 114  61.55556
 115  244.392
 116  340.2705
 117  438.0051
 118  382.8069
 119  408.9675
 120  327.4219
 121  324.5874
 122  361.8099
 123  215.9324
 124  272.1727
 125  413.4691
 126  273.1959
 127  299.261
 128  279.0269
 129  199.9762
 130  220.2296
 131  314.404
 132  387.6299
 133  364.171
 134  411.3812
 135  379.0879
 136  225.6927
 137  296.3197
 138  410.3718
 139  379.9503
 140  250.9387
 141  254.2659
 142  343.3969
 143  339.7209
 144  281.5131
 145  253.8851
 146  228.1035
 147  294.3951
 148  271.7881
 149  282.2042
 150  401.4423
 151  390.5944
 152  416.4131
 153  316.4561
 154  227.8011
 155  137.8821
 156  215.5682
 157  275.1783
 158  250.8543
 159  189.1626
 160  260.4533
 161  150.2573
 162  82.26136
 163  190.048
 164  345.6779
 165  387.2847
 166  347.1342
 167  216.8399
 168  269.4632
 169  260.9439
 170  205.8084
 171  187.3116
 172  311.7723
 173  322.3408
 174  437.6059
 175  307.8336
 176  165.4556
 177  226.5109
 178  320.3055
 179  312.1737
 180  236.9203
 181  317.8409
 182  418.8032
 183  349.7093
 184  277.7903
 185  292.6598
 186  284.0884
 187  241.2285
 188  236.4258
 189  371.7678
 190  336.5754
 191  194.9423
 192  145.2364
 193  298.1551
 194  265.1999
 195  261.137
 196  285.0858
 197  266.2088
 198  268.6057
 199  278.5438
 200  289.3514
 201  432.5924
 202  332.0063
 203  429.2329
 204  416.9342
 205  263.2285
 206  210.2854
 207  295.1374
 208  265.1499
 209  317.6634
 210  334.8862
 211  326.8661
 212  328.906
 213  212.4163
 214  263.248
 215  320.1366
 216  393.3575
 217  339.0771
 218  221.3394
 219  262.3595
 220  228.1321
 221  185.4909
 222  318.2306
 223  385.1119
 224  411.6779
 225  337.9188
 226  321.4986
 227  352.1426
 228  335.5248
 229  251.215
 230  367.2868
 231  240.2608
 232  198.5066
 233  239.1988
 234  268.2772
 235  151.2608
 236  69.89819
 237  212.2781
 238  258.5709
 239  231.6367
 240  222.452
 241  254.529
 242  217.4218
 243  129.9644
 244  230.485
 245  306.9821
 246  102.8588
 247  113.3604
 248  294.746
 249  382.5201
 250  508.7239
 251  428.4934
 252  384.1285
 253  310.8288
 254  252.1877
 255  405.3535
 256  351.5132
 257  224.9382
 258  347.4839
 259  390.5037
 260  389.5294
 261  347.2155
 262  236.9284
 263  213.9591
 264  224.0802
 265  269.6858
 266  309.1439
 267  360.2148
 268  344.9078
 269  282.2363
 270  339.2267
 271  364.6257
 272  399.1349
 273  259.3808
 274  264.7628
 275  371.9924
 276  309.9894
 277  266.2921
 278  200.9296
 279  289.286
 280  284.3304
 281  215.2341
 282  358.9634
 283  391.6791
 284  163.2963
 285  221.8076
 286  260.4834
 287  217.4833
 288  258.5001
 289  355.5908
 290  292.9282
 291  359.7872
 292  320.0002
 293  318.9263
 294  288.0081
 295  364.1312
 296  387.6983
 297  407.545
 298  368.7409
 299  221.1091
 300  278.0583
 301  307.71
 302  204.4399
 303  160.6051
 304  195.3357
 305  212.2393
 306  107.1886
 307  186.9708
 308  312.482
 309  272.8557
 310  256.9049
 311  271.0476
 312  237.0191
 313  367.3259
 314  352.156
 315  261.8975
 316  249.1641
 317  287.7775
 318  312.3263
 319  285.5527
 320  215.7581
 321  242.7829
 322  465.6039
 323  341.0504
 324  242.161
 325  278.1012
 326  311.7451
 327  322.3838
 328  169.988
 329  317.1611
 330  368.6589
 331  320.4937
 332  289.7155
 333  382.0307
 334  367.4347
 335  235.7901
 336  257.5381
 337  159.7041
 338  280.8947
 339  408.0124
 340  322.8601
 341  261.0544
 342  189.3139
 343  278.4883
 344  330.873
 345  286.6183
 346  341.9304
 347  312.078
 348  290.651
 349  134.2248
 350  205.4793
 351  419.3227
 352  422.268
 353  278.6006
 354  319.2145
 355  351.9787
 356  302.8193
 357  263.8834
 358  336.9604
 359  220.8491
 360  207.3517
 361  258.8174
 362  336.0388
 363  310.2264
 364  220.4227
 365  204.9277
 366  241.6682
 367  255.6636
 368  209.947
 369  290.8755
 370  199.0974
 371  167.4348
 372  242.6008
 373  271.087
 374  299.3466
 375  314.5988
 376  371.1518
 377  269.0194
 378  246.935
 379  238.9131
 380  332.0502
 381  321.5176
 382  187.3477
 383  251.7171
 384  337.8555
 385  385.3612
 386  178.7709
 387  154.3302
 388  200.9665
 389  203.9384
 390  354.9055
 391  393.0589
 392  297.1695
 393  288.4643
 394  244.5745
 395  292.0126
 396  275.8637
 397  291.0722
 398  409.2732
 399  265.0581
 400  128.8675
 401  208.7839
 402  216.4553
 403  291.0372
 404  355.0327
 405  271.8901
 406  248.1757
 407  125.8654
 408  192.6257
 409  242.424
 410  278.6104
 411  311.3662
 412  176.4614
 413  182.2542
 414  182.8465
 415  302.4576
 416  272.3966
 417  297.8343
 418  365.937
 419  265.0634
 420  294.224
 421  318.5115
 422  330.6774
 423  117.8542
 424  273.5976
 425  275.7292
 426  282.0511
 427  336.5945
 428  331.7316
 429  345.0162
 430  381.691
 431  267.2657
 432  344.5709
 433  510.3565
 434  515.2487
 435  556.8955
 436  724.4169
 437  1017.588
 438  1132.934
 439  1034.856
 440  973.6316
 441  675.5215
 442  401.7097
 443  351.4696
 444  312.2882
 445  201.6405
 446  255.3992
 447  380.4378
 448  405.3264
 449  395.1813
 450  346.7199
 451  340.0963
 452  226.5264
 453  321.8164
 454  350.0831
 455  260.4162
 456  197.6832
 457  250.5832
 458  363.2279
 459  335.1031
 460  367.4442
 461  132.5417
 462  112.1248
 463  239.7739
 464  283.9438
 465  252.771
 466  252.2557
 467  200.4963
 468  187.0646
 469  296.1913
 470  267.3095
 471  283.2728
 472  258.3072
 473  446.761
 474  437.3718
 475  356.6674
 476  243.6808
 477  260.9526
 478  149.8062
 479  242.9323
 480  433.7034
 481  313.5999
 482  246.4077
 483  280.2323
 484  282.9689
 485  192.4653
 486  287.1401
 487  339.542
 488  415.476
 489  475.5653
 490  404.7351
 491  325.8397
 492  204.1351
 493  285.3304
 494  347.124
 495  305.9766
 496  287.5866
 497  216.2007
 498  260.505
 499  248.9132
 500  214.4795
 501  243.7411
 502  294.546
 503  297.5717
 504  196.1809
 505  131.0905
 506  91.29609
 507  216.3946
 508  221.9476
 509  253.6988
 510  239.4431
 511  198.451
