# Input file       =  1184989753.099401_cleaned.dat
# Candidate        =  PSR_0332+5434
# Telescope        =  AR
# Epoch_topo       =  57959.158971057885
# Epoch_bary       =  N/A
# T_sample         =  0.002
# Data Folded      =  7340032
# Data Avg         =  0.0361319625305238
# Data StdDev      =  1.00065625185139 
# Profile Bins     =  512
# Profile Avg      =  517.953019862236 
# Profile StdDev   =  119.811611403561 
# Reduced chi-sqr  =  1.528
# Prob(Noise)      <  1.33e-13   (~7.3 sigma)
# P_topo (ms)      =  714.472793885986  +/- 0.00029
# P'_topo (s/s)    =  -0                +/- 1.53e-10
# P''_topo (s/s^2) =  0                 +/- 6.75e-14
# P_bary (ms)      =  N/A
# P'_bary (s/s)    =  N/A
# P''_bary (s/s^2) =  N/A
# P_orb (s)        =  N/A
# asin(i)/c (s)    =  N/A
# eccentricity     =  N/A
# w (rad)          =  N/A
# T_peri           =  N/A
######################################################
   0  513.1295
   1  449.6026
   2  467.1241
   3  398.9111
   4  491.0639
   5  488.4465
   6  366.5531
   7  400.9095
   8  460.2075
   9  458.4602
  10  378.7839
  11  409.3398
  12  567.3725
  13  591.0302
  14  529.8474
  15  496.2625
  16  541.5382
  17  587.8363
  18  447.3369
  19  460.4996
  20  459.7878
  21  560.3621
  22  586.0287
  23  605.4662
  24  697.0933
  25  604.7098
  26  474.6062
  27  354.166
  28  460.5964
  29  692.1733
  30  514.7672
  31  455.9602
  32  472.1172
  33  412.201
  34  416.1882
  35  429.8499
  36  494.0256
  37  504.5174
  38  609.7946
  39  396.21
  40  301.0355
  41  334.5529
  42  405.94
  43  495.4225
  44  406.3322
  45  384.8925
  46  441.8669
  47  426.4932
  48  509.4845
  49  465.9458
  50  393.5566
  51  412.8802
  52  502.4031
  53  494.3127
  54  414.9219
  55  401.4171
  56  430.5547
  57  409.1755
  58  536.6533
  59  684.4935
  60  597.9033
  61  728.8901
  62  1007.247
  63  1067.156
  64  1228.202
  65  1212.273
  66  1133.731
  67  765.1217
  68  514.2712
  69  472.8311
  70  483.6249
  71  476.836
  72  474.7774
  73  505.5367
  74  654.8735
  75  659.1617
  76  548.5394
  77  465.5514
  78  589.0632
  79  649.5164
  80  583.9949
  81  487.1682
  82  500.2499
  83  431.1767
  84  507.8777
  85  500.0571
  86  448.1632
  87  510.6075
  88  538.8902
  89  389.9239
  90  422.8397
  91  499.3052
  92  419.335
  93  408.3267
  94  421.2517
  95  524.6362
  96  526.2184
  97  559.2496
  98  463.7238
  99  468.0203
 100  512.6355
 101  543.7888
 102  545.5514
 103  541.9068
 104  483.0729
 105  505.7295
 106  483.2015
 107  422.2805
 108  482.6611
 109  600.1323
 110  572.5707
 111  532.9105
 112  549.335
 113  536.3969
 114  497.6031
 115  485.4835
 116  452.689
 117  494.2862
 118  447.1528
 119  453.8268
 120  548.5522
 121  520.0188
 122  525.0735
 123  456.2333
 124  544.0183
 125  636.9118
 126  489.0111
 127  367.3943
 128  432.5492
 129  494.8151
 130  674.1712
 131  692.3494
 132  566.5256
 133  592.5517
 134  670.1572
 135  628.1594
 136  617.0416
 137  625.7042
 138  610.2086
 139  656.7448
 140  527.282
 141  556.2254
 142  612.4933
 143  643.4456
 144  504.4615
 145  572.0231
 146  566.6085
 147  416.6832
 148  502.1649
 149  584.5244
 150  599.7224
 151  501.6859
 152  540.3097
 153  585.228
 154  481.2607
 155  529.0242
 156  583.6826
 157  612.1803
 158  554.2435
 159  557.2283
 160  573.1226
 161  570.6453
 162  520.9393
 163  413.7018
 164  383.7626
 165  417.0504
 166  424.6494
 167  476.4876
 168  496.7894
 169  402.0713
 170  503.2146
 171  553.9955
 172  442.2678
 173  551.3327
 174  521.5684
 175  536.6496
 176  557.4454
 177  515.0212
 178  546.3715
 179  531.438
 180  439.9384
 181  515.8365
 182  625.4481
 183  688.0062
 184  641.1809
 185  601.2014
 186  603.9786
 187  636.9135
 188  504.8088
 189  564.3604
 190  543.7441
 191  462.2639
 192  536.0857
 193  580.5085
 194  438.3803
 195  497.9858
 196  415.4046
 197  465.1825
 198  465.8401
 199  542.0903
 200  611.2599
 201  500.7137
 202  542.2895
 203  523.5718
 204  519.5035
 205  506.7845
 206  416.8511
 207  562.8352
 208  515.8338
 209  521.4647
 210  557.7643
 211  477.1967
 212  463.1454
 213  482.9353
 214  449.2643
 215  414.3449
 216  420.8242
 217  544.8733
 218  574.3738
 219  569.7532
 220  478.4046
 221  407.6074
 222  383.6082
 223  461.2235
 224  461.4977
 225  504.6508
 226  393.4223
 227  473.9799
 228  378.1356
 229  442.0581
 230  378.8713
 231  399.0417
 232  414.9868
 233  418.9892
 234  508.2678
 235  419.1327
 236  355.1217
 237  343.6923
 238  373.7333
 239  402.8079
 240  428.5134
 241  526.7478
 242  490.6425
 243  504.9163
 244  623.329
 245  573.2726
 246  446.9078
 247  474.519
 248  582.4188
 249  654.128
 250  571.0076
 251  563.6335
 252  583.3568
 253  548.7612
 254  708.2753
 255  616.9093
 256  664.9269
 257  529.0052
 258  484.9342
 259  563.0167
 260  518.7274
 261  579.6465
 262  575.6471
 263  584.5621
 264  489.9223
 265  499.6836
 266  586.491
 267  555.019
 268  541.7527
 269  489.4178
 270  521.2058
 271  621.1893
 272  676.1357
 273  558.2399
 274  586.5531
 275  581.1015
 276  548.0787
 277  572.9322
 278  425.4318
 279  430.0494
 280  504.7881
 281  436.287
 282  385.41
 283  502.887
 284  526.0607
 285  475.2638
 286  451.3463
 287  524.326
 288  494.148
 289  446.3031
 290  513.1284
 291  671.6537
 292  503.1014
 293  436.0907
 294  460.8078
 295  575.0845
 296  548.7534
 297  642.971
 298  564.16
 299  531.5102
 300  548.8287
 301  597.7418
 302  709.543
 303  717.8589
 304  635.4288
 305  626.5907
 306  675.5981
 307  599.5736
 308  567.517
 309  650.1232
 310  631.6444
 311  521.2851
 312  566.6214
 313  584.4556
 314  523.7048
 315  412.0339
 316  449.3868
 317  482.4722
 318  512.4028
 319  592.0048
 320  613.7977
 321  587.9988
 322  595.8736
 323  614.7753
 324  625.9596
 325  578.7975
 326  607.9026
 327  570.5122
 328  672.8244
 329  698.9079
 330  675.2362
 331  639.4535
 332  535.1735
 333  601.592
 334  671.3923
 335  662.0815
 336  620.4692
 337  633.6813
 338  714.2392
 339  576.1818
 340  617.0166
 341  554.5427
 342  575.6334
 343  509.6798
 344  557.7944
 345  677.4829
 346  654.1846
 347  601.9352
 348  651.7599
 349  698.7029
 350  682.5221
 351  684.9909
 352  613.642
 353  587.0209
 354  692.6683
 355  586.8877
 356  583.1097
 357  652.1605
 358  679.1487
 359  681.6741
 360  665.5668
 361  583.696
 362  444.8004
 363  545.7411
 364  615.6659
 365  598.1889
 366  492.0932
 367  523.9501
 368  660.5157
 369  592.497
 370  547.3564
 371  590.6205
 372  665.3718
 373  614.9892
 374  554.7448
 375  598.8011
 376  534.0046
 377  429.8248
 378  379.3525
 379  445.4989
 380  500.4622
 381  417.6907
 382  496.3844
 383  438.9901
 384  549.0889
 385  555.7529
 386  426.7531
 387  528.6195
 388  519.5109
 389  607.8582
 390  604.6602
 391  531.4693
 392  487.0524
 393  429.1978
 394  467.0694
 395  460.5122
 396  364.8613
 397  495.0913
 398  577.3397
 399  563.5915
 400  517.4803
 401  482.593
 402  470.4808
 403  486.2335
 404  555.7718
 405  518.2167
 406  368.4638
 407  344.0143
 408  411.8157
 409  504.144
 410  530.0595
 411  534.2329
 412  485.1906
 413  533.3549
 414  667.2439
 415  609.2189
 416  477.3213
 417  465.1371
 418  457.2803
 419  527.7965
 420  560.0161
 421  541.0188
 422  537.726
 423  428.8458
 424  420.6729
 425  473.3686
 426  526.992
 427  687.0356
 428  591.7336
 429  444.686
 430  445.3573
 431  579.7071
 432  451.7092
 433  441.7685
 434  393.4493
 435  349.8094
 436  414.371
 437  432.881
 438  470.3515
 439  501.2675
 440  481.7173
 441  526.1707
 442  425.0516
 443  447.5109
 444  338.5459
 445  270.1475
 446  415.4992
 447  434.8234
 448  419.9171
 449  452.5758
 450  481.9897
 451  506.4492
 452  457.8265
 453  442.1665
 454  487.5102
 455  578.042
 456  477.9065
 457  510.9217
 458  538.8453
 459  504.483
 460  425.9907
 461  411.9121
 462  495.9604
 463  500.0485
 464  469.9055
 465  520.0375
 466  429.2306
 467  326.3603
 468  348.0493
 469  413.0297
 470  343.2437
 471  382.0516
 472  392.3802
 473  340.9498
 474  430.3211
 475  436.6198
 476  440.8586
 477  357.5102
 478  397.6975
 479  407.1581
 480  511.0656
 481  423.9419
 482  426.4191
 483  500.6857
 484  517.0247
 485  575.1119
 486  427.6658
 487  427.2715
 488  395.8586
 489  368.1456
 490  431.5133
 491  382.1862
 492  379.47
 493  519.819
 494  553.8295
 495  374.8823
 496  318.7737
 497  300.3133
 498  372.564
 499  413.8987
 500  528.8447
 501  525.9255
 502  487.8514
 503  505.815
 504  511.6479
 505  447.0744
 506  335.3986
 507  391.8333
 508  448.5547
 509  347.7779
 510  317.1875
 511  385.099
