# Input file       =  1184056858.110486_cleaned.dat
# Candidate        =  PSR_0332+5434
# Telescope        =  AR
# Epoch_topo       =  57948.361575352850
# Epoch_bary       =  N/A
# T_sample         =  0.002
# Data Folded      =  7340032
# Data Avg         =  0.0321238035228437
# Data StdDev      =  1.00009690080087 
# Profile Bins     =  512
# Profile Avg      =  460.500807399222 
# Profile StdDev   =  119.744638603881 
# Reduced chi-sqr  =  0.933
# Prob(Noise)      <  0.859   (~0.0 sigma)
# P_topo (ms)      =  714.479682966716  +/- 0.000316
# P'_topo (s/s)    =  -0                +/- 1.67e-10
# P''_topo (s/s^2) =  0                 +/- 7.36e-14
# P_bary (ms)      =  N/A
# P'_bary (s/s)    =  N/A
# P''_bary (s/s^2) =  N/A
# P_orb (s)        =  N/A
# asin(i)/c (s)    =  N/A
# eccentricity     =  N/A
# w (rad)          =  N/A
# T_peri           =  N/A
######################################################
   0  542.852
   1  444.4088
   2  468.8406
   3  498.9286
   4  516.2182
   5  526.1922
   6  445.8847
   7  547.6533
   8  463.3257
   9  476.8626
  10  476.3001
  11  506.41
  12  496.9938
  13  424.1594
  14  423.9071
  15  423.3832
  16  503.2139
  17  472.6688
  18  424.0395
  19  390.347
  20  394.5425
  21  385.6615
  22  474.4779
  23  482.8861
  24  504.464
  25  466.0573
  26  495.124
  27  501.9855
  28  469.7148
  29  360.7285
  30  410.9944
  31  398.828
  32  466.9391
  33  387.9794
  34  487.7297
  35  401.1801
  36  421.202
  37  528.0246
  38  441.0219
  39  436.5802
  40  383.073
  41  401.9833
  42  453.7343
  43  476.155
  44  465.8849
  45  446.5698
  46  514.6039
  47  481.6257
  48  551.1149
  49  491.9716
  50  538.9199
  51  438.9586
  52  473.1092
  53  437.7657
  54  400.2983
  55  380.9093
  56  345.9973
  57  205.8693
  58  195.4127
  59  225.4276
  60  311.2602
  61  356.214
  62  452.6284
  63  430.4001
  64  367.8423
  65  412.8274
  66  471.802
  67  456.3242
  68  411.8904
  69  417.7537
  70  422.3594
  71  431.9254
  72  412.6791
  73  503.9185
  74  541.2529
  75  555.0643
  76  590.8433
  77  537.0865
  78  556.2704
  79  495.7421
  80  535.9669
  81  451.0501
  82  517.8391
  83  548.298
  84  486.9878
  85  402.0082
  86  406.3115
  87  481.497
  88  607.3727
  89  565.8895
  90  496.3934
  91  495.121
  92  515.601
  93  478.9067
  94  486.6096
  95  463.3313
  96  405.6468
  97  318.5128
  98  313.3539
  99  357.7394
 100  420.3065
 101  372.2244
 102  351.7682
 103  394.581
 104  431.7776
 105  424.2889
 106  380.4062
 107  489.2887
 108  445.6379
 109  392.7812
 110  414.7702
 111  465.1339
 112  558.12
 113  596.4425
 114  622.3445
 115  452.2953
 116  449.786
 117  376.1214
 118  377.3566
 119  387.9476
 120  464.566
 121  544.4791
 122  463.9402
 123  524.9878
 124  483.0616
 125  513.9197
 126  509.1603
 127  479.8585
 128  469.6013
 129  435.615
 130  463.7041
 131  506.8603
 132  462.9891
 133  395.4862
 134  403.8286
 135  471.6389
 136  399.079
 137  308.766
 138  368.0387
 139  415.6611
 140  445.8757
 141  396.4946
 142  404.3726
 143  463.8352
 144  415.4962
 145  466.0095
 146  505.0685
 147  467.5294
 148  505.355
 149  453.7546
 150  553.6179
 151  574.7098
 152  525.7219
 153  462.9894
 154  492.2292
 155  415.9085
 156  426.3056
 157  479.8188
 158  497.8266
 159  450.1893
 160  352.0306
 161  442.3061
 162  542.4761
 163  578.7865
 164  555.7191
 165  516.9005
 166  594.5099
 167  616.5723
 168  546.6297
 169  578.2021
 170  630.1761
 171  521.9146
 172  572.8382
 173  549.368
 174  472.9652
 175  454.6836
 176  466.9725
 177  451.6021
 178  530.1396
 179  500.1412
 180  480.8847
 181  449.8017
 182  457.8279
 183  450.5906
 184  357.1954
 185  421.3282
 186  423.9434
 187  474.3439
 188  488.7094
 189  511.4509
 190  438.7011
 191  496.3485
 192  447.2048
 193  428.4397
 194  396.3794
 195  324.689
 196  380.8708
 197  413.7523
 198  342.1659
 199  241.3578
 200  296.448
 201  352.0798
 202  403.6042
 203  388.209
 204  353.7691
 205  402.7632
 206  454.5321
 207  464.6364
 208  396.2042
 209  418.1244
 210  418.9904
 211  440.3073
 212  376.8667
 213  436.7067
 214  422.1977
 215  411.1839
 216  447.2368
 217  387.0104
 218  439.7072
 219  408.5976
 220  406.9132
 221  355.2725
 222  353.6616
 223  387.8799
 224  365.1602
 225  332.7101
 226  418.7046
 227  332.5994
 228  330.2682
 229  288.9457
 230  318.0081
 231  430.3219
 232  403.6225
 233  453.9637
 234  402.3159
 235  391.1579
 236  521.2908
 237  460.7201
 238  389.157
 239  334.8228
 240  355.551
 241  441.8243
 242  452.7037
 243  484.222
 244  527.8295
 245  436.9183
 246  502.04
 247  569.3389
 248  531.849
 249  455.9862
 250  387.3794
 251  421.811
 252  516.3839
 253  431.7886
 254  430.0631
 255  487.3136
 256  396.5917
 257  352.075
 258  338.3935
 259  352.9065
 260  419.1674
 261  417.5152
 262  492.4782
 263  457.6107
 264  490.1888
 265  540.6312
 266  475.1273
 267  454.6746
 268  496.4693
 269  449.8119
 270  422.6893
 271  399.6095
 272  524.7394
 273  593.2635
 274  498.5412
 275  451.6051
 276  520.901
 277  479.5197
 278  519.5757
 279  480.8393
 280  444.0814
 281  573.1213
 282  516.6419
 283  456.3589
 284  431.736
 285  427.4439
 286  448.7341
 287  470.3499
 288  524.3953
 289  468.0879
 290  462.6804
 291  433.2525
 292  317.364
 293  348.0669
 294  440.472
 295  406.3822
 296  419.6814
 297  487.6544
 298  428.4955
 299  469.5956
 300  477.1782
 301  503.2259
 302  487.5903
 303  489.9402
 304  424.0894
 305  455.713
 306  558.1837
 307  568.5851
 308  488.7335
 309  440.4004
 310  443.3011
 311  510.6214
 312  588.9296
 313  583.0416
 314  567.5467
 315  513.1301
 316  448.4989
 317  383.5684
 318  432.0281
 319  412.3319
 320  575.001
 321  632.8066
 322  562.6219
 323  512.3213
 324  448.1392
 325  527.8972
 326  608.2933
 327  590.5492
 328  431.0808
 329  447.4595
 330  550.0397
 331  489.4881
 332  481.6642
 333  501.9762
 334  528.4178
 335  524.8644
 336  418.6857
 337  558.8187
 338  444.8896
 339  390.5506
 340  442.3198
 341  467.1506
 342  558.6427
 343  573.8564
 344  572.502
 345  472.3386
 346  389.4745
 347  490.8958
 348  454.9976
 349  374.5833
 350  443.9027
 351  530.3587
 352  431.9946
 353  350.2025
 354  435.2938
 355  567.96
 356  498.6956
 357  425.0865
 358  413.0394
 359  412.0886
 360  438.4023
 361  456.7837
 362  569.3242
 363  474.1323
 364  386.6827
 365  464.0557
 366  438.0975
 367  467.7875
 368  443.9627
 369  381.9868
 370  412.1832
 371  539.2093
 372  544.5768
 373  520.7481
 374  474.2146
 375  513.212
 376  448.3358
 377  448.4202
 378  551.2266
 379  476.5181
 380  527.9788
 381  510.6203
 382  393.5036
 383  445.0038
 384  434.9144
 385  576.0298
 386  456.106
 387  523.2147
 388  442.684
 389  380.7241
 390  418.1226
 391  382.7843
 392  328.162
 393  414.0095
 394  465.0251
 395  452.7661
 396  411.8977
 397  367.535
 398  356.8792
 399  379.224
 400  339.5481
 401  449.1868
 402  515.1024
 403  525.3777
 404  448.2763
 405  344.7325
 406  460.9064
 407  495.337
 408  578.4087
 409  567.0891
 410  579.3769
 411  767.042
 412  1015.323
 413  1095.798
 414  941.7906
 415  822.0612
 416  604.4647
 417  457.0431
 418  397.2931
 419  375.7838
 420  417.1791
 421  412.1345
 422  483.3637
 423  363.4438
 424  503.3195
 425  486.5602
 426  360.4781
 427  423.1764
 428  554.7037
 429  490.5302
 430  441.3725
 431  380.983
 432  448.6193
 433  462.5517
 434  427.5351
 435  481.0751
 436  474.8946
 437  414.2667
 438  408.8966
 439  454.2767
 440  528.9983
 441  497.4478
 442  541.7192
 443  415.1747
 444  331.7513
 445  530.5406
 446  412.1855
 447  330.8298
 448  388.8526
 449  514.0024
 450  549.2505
 451  369.5805
 452  484.5793
 453  509.0223
 454  445.409
 455  440.7509
 456  446.8851
 457  456.1747
 458  393.2848
 459  267.4297
 460  381.0654
 461  505.9543
 462  517.6342
 463  496.8267
 464  391.3661
 465  400.5321
 466  458.1792
 467  387.2431
 468  475.3247
 469  424.9151
 470  421.7494
 471  490.3612
 472  466.8417
 473  348.2399
 474  393.7155
 475  484.6153
 476  501.035
 477  422.792
 478  421.2561
 479  479.171
 480  443.9977
 481  457.0715
 482  514.9682
 483  450.8191
 484  467.5532
 485  377.7121
 486  395.2317
 487  520.4293
 488  471.75
 489  450.7221
 490  473.4685
 491  459.0345
 492  425.8306
 493  411.649
 494  410.7263
 495  462.2975
 496  544.941
 497  460.217
 498  536.4497
 499  691.129
 500  564.6711
 501  563.5363
 502  539.3919
 503  431.7625
 504  468.8826
 505  476.481
 506  472.2602
 507  457.6037
 508  437.9475
 509  471.4954
 510  558.3939
 511  500.91
