# Input file       =  1184229138.101258_cleaned.dat
# Candidate        =  PSR_0332+5434
# Telescope        =  AR
# Epoch_topo       =  57950.355556727525
# Epoch_bary       =  N/A
# T_sample         =  0.002
# Data Folded      =  7340032
# Data Avg         =  0.0355190515277859
# Data StdDev      =  0.999943654318964
# Profile Bins     =  512
# Profile Avg      =  509.190719967027 
# Profile StdDev   =  119.726289937289 
# Reduced chi-sqr  =  1.330
# Prob(Noise)      <  7.85e-07   (~4.8 sigma)
# P_topo (ms)      =  714.478363163733  +/- 0.000325
# P'_topo (s/s)    =  -0                +/- 1.72e-10
# P''_topo (s/s^2) =  0                 +/- 7.57e-14
# P_bary (ms)      =  N/A
# P'_bary (s/s)    =  N/A
# P''_bary (s/s^2) =  N/A
# P_orb (s)        =  N/A
# asin(i)/c (s)    =  N/A
# eccentricity     =  N/A
# w (rad)          =  N/A
# T_peri           =  N/A
######################################################
   0  1148.554
   1  1110.604
   2  1112.64
   3  912.8254
   4  787.439
   5  582.4663
   6  542.5105
   7  604.0402
   8  589.9162
   9  525.1326
  10  504.1376
  11  578.4324
  12  558.0535
  13  576.4135
  14  569.7808
  15  524.277
  16  595.1418
  17  585.122
  18  547.543
  19  549.4603
  20  596.6777
  21  544.3109
  22  500.996
  23  561.9875
  24  589.9691
  25  456.1497
  26  357.8717
  27  476.8503
  28  597.9617
  29  499.9353
  30  477.9938
  31  457.5295
  32  456.2514
  33  461.0515
  34  308.2159
  35  388.8614
  36  395.7265
  37  401.1156
  38  510.3356
  39  500.4862
  40  599.8589
  41  647.9543
  42  637.7393
  43  623.0493
  44  560.4771
  45  577.0002
  46  558.6826
  47  567.3622
  48  513.0764
  49  473.396
  50  482.9361
  51  410.9348
  52  507.6011
  53  528.0715
  54  485.3129
  55  416.9558
  56  533.9135
  57  571.7798
  58  626.7252
  59  499.1858
  60  554.1242
  61  619.3487
  62  563.0401
  63  526.0669
  64  515.7567
  65  505.4503
  66  480.1797
  67  562.5934
  68  580.1555
  69  439.3387
  70  470.4793
  71  541.5493
  72  547.9625
  73  486.4568
  74  522.9775
  75  570.5465
  76  539.4697
  77  503.0138
  78  428.8869
  79  489.6532
  80  504.2463
  81  455.1029
  82  395.3841
  83  463.4481
  84  438.2603
  85  505.5921
  86  539.5104
  87  430.631
  88  471.8365
  89  557.814
  90  590.9002
  91  583.1349
  92  530.4786
  93  473.9972
  94  492.4155
  95  567.1927
  96  549.2693
  97  447.5279
  98  364.2545
  99  397.0627
 100  412.8943
 101  489.7643
 102  502.6806
 103  458.3427
 104  509.256
 105  475.2828
 106  427.6317
 107  389.138
 108  559.0878
 109  598.3203
 110  504.3071
 111  529.8378
 112  620.6984
 113  685.7766
 114  567.7629
 115  500.9186
 116  470.0312
 117  507.7813
 118  508.0764
 119  483.6519
 120  436.3672
 121  554.2121
 122  542.6077
 123  374.2391
 124  327.1466
 125  423.5262
 126  387.0996
 127  477.6853
 128  498.4646
 129  520.2972
 130  442.068
 131  530.0746
 132  648.615
 133  508.8642
 134  524.1424
 135  570.1293
 136  636.0875
 137  640.5171
 138  616.4338
 139  578.683
 140  634.775
 141  595.9584
 142  495.7121
 143  574.3381
 144  616.7955
 145  660.7943
 146  688.137
 147  669.2845
 148  644.8102
 149  655.7894
 150  603.9399
 151  493.7627
 152  487.7148
 153  508.2879
 154  443.3003
 155  435.6926
 156  401.3447
 157  365.827
 158  363.1555
 159  503.2434
 160  428.6558
 161  394.091
 162  504.2219
 163  456.8598
 164  413.6811
 165  552.8436
 166  428.6782
 167  442.9987
 168  527.6239
 169  443.8588
 170  453.4872
 171  456.3916
 172  519.3057
 173  547.0754
 174  522.2612
 175  518.0363
 176  409.0859
 177  407.8174
 178  405.267
 179  435.2809
 180  499.8361
 181  327.9193
 182  444.5948
 183  470.3943
 184  520.2
 185  479.5039
 186  399.8867
 187  495.3188
 188  530.2854
 189  533.7855
 190  495.2086
 191  401.9862
 192  304.2789
 193  374.7206
 194  380.0821
 195  459.8384
 196  394.119
 197  336.7834
 198  358.0853
 199  447.0804
 200  436.9055
 201  404.0427
 202  450.9782
 203  510.9779
 204  586.9786
 205  527.1566
 206  491.8368
 207  474.6313
 208  492.7744
 209  482.8396
 210  661.5574
 211  744.4364
 212  612.2512
 213  643.6086
 214  614.1614
 215  525.9655
 216  567.8763
 217  523.4526
 218  578.5261
 219  582.1573
 220  618.7408
 221  552.4908
 222  516.5197
 223  533.3729
 224  559.3378
 225  586.6118
 226  518.194
 227  523.3292
 228  598.9272
 229  602.9247
 230  543.2382
 231  560.9865
 232  532.8094
 233  519.0912
 234  552.5004
 235  504.5796
 236  383.1898
 237  436.9337
 238  510.3266
 239  584.367
 240  568.8451
 241  513.7869
 242  520.3724
 243  511.1953
 244  524.4445
 245  632.9148
 246  536.0727
 247  464.1863
 248  460.4076
 249  514.8661
 250  554.4886
 251  541.4543
 252  581.0696
 253  667.5065
 254  658.1161
 255  469.2224
 256  472.2329
 257  532.6946
 258  573.0167
 259  492.6839
 260  547.075
 261  557.9948
 262  574.2189
 263  610.0225
 264  475.6715
 265  401.9162
 266  386.57
 267  446.9362
 268  340.6732
 269  390.8938
 270  320.7132
 271  377.6428
 272  392.9622
 273  451.5815
 274  509.0541
 275  527.7609
 276  503.4584
 277  409.5129
 278  408.5143
 279  376.3532
 280  451.7966
 281  413.565
 282  544.4339
 283  437.7407
 284  445.8997
 285  422.1826
 286  527.54
 287  521.5957
 288  406.8448
 289  507.6516
 290  563.1138
 291  548.0316
 292  499.4514
 293  427.2063
 294  517.6447
 295  625.7102
 296  533.8717
 297  448.6441
 298  518.0621
 299  581.6642
 300  551.1622
 301  538.1969
 302  399.8073
 303  423.1252
 304  564.8112
 305  482.4418
 306  489.0987
 307  581.7234
 308  530.4362
 309  538.9811
 310  628.9224
 311  484.0583
 312  470.5985
 313  399.8545
 314  482.9531
 315  498.2868
 316  510.3257
 317  525.0378
 318  501.8965
 319  391.2734
 320  421.825
 321  401.8874
 322  540.5082
 323  552.722
 324  444.8268
 325  494.851
 326  486.3623
 327  305.0628
 328  369.2411
 329  440.7093
 330  429.3471
 331  508.3485
 332  421.8769
 333  345.6747
 334  388.9224
 335  534.0812
 336  540.1874
 337  378.912
 338  412.1349
 339  473.0065
 340  488.4558
 341  451.5914
 342  447.3415
 343  468.6435
 344  426.8807
 345  431.8708
 346  516.8397
 347  467.1279
 348  406.9446
 349  443.2847
 350  502.5666
 351  551.2189
 352  382.6191
 353  259.3966
 354  404.0516
 355  440.6597
 356  435.9929
 357  430.489
 358  426.894
 359  415.472
 360  412.8206
 361  468.0757
 362  524.6171
 363  472.9202
 364  520.337
 365  479.9516
 366  555.1071
 367  585.1877
 368  521.2818
 369  434.6136
 370  438.0314
 371  536.8685
 372  493.9581
 373  515.8538
 374  541.9514
 375  631.306
 376  563.219
 377  458.8735
 378  437.2468
 379  570.9686
 380  482.1959
 381  561.8779
 382  621.5588
 383  430.6194
 384  389.8315
 385  427.2702
 386  472.8074
 387  547.8726
 388  619.7839
 389  574.4511
 390  487.4836
 391  421.1221
 392  452.7856
 393  507.3619
 394  581.5099
 395  608.1654
 396  524.3251
 397  500.027
 398  409.1353
 399  371.7812
 400  453.639
 401  450.3197
 402  478.6028
 403  469.6359
 404  532.9344
 405  464.5744
 406  368.4078
 407  343.6073
 408  413.0872
 409  472.5087
 410  574.2307
 411  589.9495
 412  463.4885
 413  558.3831
 414  655.8242
 415  543.2608
 416  458.8538
 417  457.6364
 418  533.5121
 419  487.1345
 420  437.1436
 421  467.4748
 422  547.5198
 423  605.7678
 424  532.7923
 425  535.0721
 426  545.2512
 427  474.149
 428  539.7219
 429  682.1701
 430  627.5173
 431  516.5113
 432  476.7503
 433  459.8455
 434  552.2325
 435  463.6592
 436  504.3982
 437  534.2953
 438  468.4035
 439  427.1892
 440  433.9862
 441  520.981
 442  497.777
 443  397.304
 444  385.5985
 445  290.3288
 446  420.3429
 447  566.0037
 448  575.861
 449  534.0847
 450  503.8679
 451  433.4744
 452  421.5105
 453  557.4858
 454  582.2075
 455  575.9266
 456  630.742
 457  530.3253
 458  580.9792
 459  683.9446
 460  692.5477
 461  484.6481
 462  307.9494
 463  485.8179
 464  612.5349
 465  481.0349
 466  453.3742
 467  562.1566
 468  562.3723
 469  455.7533
 470  493.0639
 471  412.9214
 472  436.4377
 473  372.4622
 474  479.3767
 475  503.6651
 476  418.7593
 477  470.3827
 478  474.3823
 479  378.4089
 480  423.9349
 481  516.5548
 482  507.653
 483  395.2856
 484  391.5031
 485  607.8585
 486  575.8058
 487  538.2131
 488  498.9752
 489  488.0352
 490  567.9584
 491  553.3227
 492  488.5358
 493  503.0097
 494  581.896
 495  678.9413
 496  559.2668
 497  509.3717
 498  450.8722
 499  404.9692
 500  459.1909
 501  547.4826
 502  568.0908
 503  603.5516
 504  618.3394
 505  656.6954
 506  724.5498
 507  547.723
 508  587.9549
 509  772.6989
 510  910.9894
 511  1133.385
