# Input file       =  1184645147.110282_cleaned.dat
# Candidate        =  PSR_0332+5434
# Telescope        =  AR
# Epoch_topo       =  57955.170475813451
# Epoch_bary       =  N/A
# T_sample         =  0.002
# Data Folded      =  7340032
# Data Avg         =  0.0238731574251607
# Data StdDev      =  1.00021386356292 
# Profile Bins     =  512
# Profile Avg      =  342.053853809767 
# Profile StdDev   =  119.758642910525 
# Reduced chi-sqr  =  2.491
# Prob(Noise)      <  1.08e-66   (~17.2 sigma)
# P_topo (ms)      =  714.475038831303  +/- 0.000256
# P'_topo (s/s)    =  -0                +/- 1.35e-10
# P''_topo (s/s^2) =  0                 +/- 5.96e-14
# P_bary (ms)      =  N/A
# P'_bary (s/s)    =  N/A
# P''_bary (s/s^2) =  N/A
# P_orb (s)        =  N/A
# asin(i)/c (s)    =  N/A
# eccentricity     =  N/A
# w (rad)          =  N/A
# T_peri           =  N/A
######################################################
   0  1521.753
   1  1382.215
   2  1104.779
   3  740.4893
   4  613.5691
   5  510.2989
   6  469.6514
   7  458.3818
   8  395.5327
   9  397.5739
  10  546.3124
  11  568.8582
  12  486.647
  13  472.6822
  14  417.1261
  15  465.2257
  16  543.7266
  17  507.6672
  18  496.8445
  19  545.9002
  20  499.8998
  21  422.5258
  22  432.522
  23  349.892
  24  362.3245
  25  381.0647
  26  370.7287
  27  325.262
  28  458.3235
  29  477.9812
  30  448.2744
  31  388.5085
  32  503.8597
  33  424.0585
  34  299.1758
  35  286.4109
  36  316.2885
  37  274.9237
  38  223.2798
  39  138.1094
  40  299.9313
  41  357.9818
  42  365.4962
  43  356.511
  44  344.4648
  45  333.3602
  46  290.375
  47  418.5516
  48  333.5088
  49  373.2933
  50  360.7881
  51  301.2581
  52  345.541
  53  348.7252
  54  384.5089
  55  388.0408
  56  304.6383
  57  328.0435
  58  404.4247
  59  483.3638
  60  431.7997
  61  359.6417
  62  327.3055
  63  311.8078
  64  312.4994
  65  322.1205
  66  341.6114
  67  404.4802
  68  347.3217
  69  424.1047
  70  309.6979
  71  281.3777
  72  414.4194
  73  391.3031
  74  348.2789
  75  248.2229
  76  376.2736
  77  370.4798
  78  389.4993
  79  351.0297
  80  341.6152
  81  289.4991
  82  313.3864
  83  287.9795
  84  262.812
  85  220.2335
  86  237.3802
  87  120.5348
  88  161.7759
  89  201.7944
  90  197.1168
  91  314.7975
  92  293.9085
  93  229.2682
  94  295.1377
  95  328.4312
  96  262.4446
  97  198.1822
  98  275.8922
  99  253.9787
 100  308.1136
 101  276.3653
 102  329.9575
 103  240.8032
 104  149.9541
 105  196.8427
 106  174.2647
 107  193.0739
 108  293.0674
 109  400.6869
 110  247.3746
 111  181.1115
 112  134.5112
 113  193.3765
 114  183.7669
 115  314.7767
 116  365.3171
 117  335.6932
 118  183.3569
 119  124.9452
 120  320.9421
 121  282.1405
 122  285.835
 123  335.7528
 124  332.4059
 125  466.3888
 126  442.1697
 127  396.5474
 128  310.3084
 129  352.2854
 130  380.8622
 131  344.1827
 132  394.3472
 133  405.1097
 134  342.4636
 135  309.3881
 136  343.8657
 137  348.7792
 138  233.0993
 139  342.4792
 140  313.0846
 141  210.7513
 142  239.2069
 143  249.5145
 144  280.0534
 145  369.2975
 146  377.7769
 147  443.7931
 148  457.3159
 149  410.5291
 150  243.8875
 151  207.6625
 152  279.8088
 153  369.7083
 154  285.0292
 155  322.5052
 156  318.8748
 157  352.6649
 158  362.2227
 159  303.4094
 160  267.8307
 161  240.5312
 162  265.9955
 163  230.4546
 164  243.7786
 165  197.9493
 166  221.8378
 167  324.7571
 168  415.7898
 169  322.0132
 170  488.0665
 171  373.3683
 172  382.3634
 173  335.2576
 174  393.0097
 175  413.1704
 176  432.1312
 177  381.7296
 178  373.3975
 179  232.2168
 180  382.4001
 181  451.8921
 182  392.5151
 183  416.3521
 184  373.3226
 185  394.7897
 186  415.8908
 187  406.9727
 188  391.4897
 189  315.4014
 190  216.1758
 191  268.2372
 192  360.8037
 193  259.0628
 194  207.7728
 195  451.9322
 196  431.1952
 197  427.5114
 198  378.0714
 199  367.4068
 200  311.0658
 201  292.5519
 202  402.2087
 203  412.8653
 204  370.6464
 205  242.3601
 206  317.8435
 207  433.3248
 208  381.1615
 209  258.6861
 210  344.4354
 211  276.2765
 212  269.3271
 213  355.5087
 214  373.6826
 215  250.0404
 216  240.704
 217  257.3649
 218  331.3953
 219  356.7669
 220  443.8204
 221  432.3684
 222  370.2309
 223  454.4496
 224  410.0112
 225  480.3653
 226  420.133
 227  421.6564
 228  403.361
 229  412.1313
 230  210.38
 231  221.7402
 232  310.8305
 233  403.2914
 234  370.9063
 235  241.9308
 236  191.5867
 237  402.6645
 238  473.5798
 239  297.3763
 240  310.0616
 241  354.1124
 242  359.6024
 243  326.5905
 244  344.4695
 245  409.866
 246  347.6411
 247  301.0879
 248  363.153
 249  450.3067
 250  398.4554
 251  390.0591
 252  525.16
 253  325.1872
 254  320.0979
 255  282.26
 256  341.6153
 257  275.2529
 258  210.4393
 259  269.685
 260  345.5108
 261  406.3284
 262  334.5659
 263  200.7863
 264  175.7691
 265  309.2245
 266  346.2344
 267  247.789
 268  213.9675
 269  373.4238
 270  239.3228
 271  158.4432
 272  253.9002
 273  237.6919
 274  209.9606
 275  222.2787
 276  343.8919
 277  303.8418
 278  344.3921
 279  417.6165
 280  449.0986
 281  395.3251
 282  295.9215
 283  360.5358
 284  280.5898
 285  314.3554
 286  332.6286
 287  287.1781
 288  223.8486
 289  230.121
 290  367.707
 291  350.1856
 292  353.6037
 293  355.5245
 294  324.1694
 295  291.5306
 296  264.7937
 297  339.7045
 298  252.6649
 299  301.1522
 300  274.5995
 301  258.7709
 302  244.9455
 303  333.5154
 304  360.5002
 305  319.0375
 306  473.9358
 307  489.5904
 308  384.9329
 309  302.7314
 310  324.246
 311  293.3424
 312  204.1607
 313  344.3552
 314  362.0872
 315  256.514
 316  217.7297
 317  275.8744
 318  396.859
 319  341.8866
 320  326.5818
 321  263.1149
 322  298.0555
 323  407.2328
 324  456.7429
 325  363.8728
 326  311.9091
 327  367.6542
 328  210.0861
 329  231.084
 330  267.4636
 331  318.0013
 332  322.6678
 333  233.8011
 334  286.1214
 335  338.209
 336  321.4655
 337  261.3398
 338  240.8425
 339  306.321
 340  364.0809
 341  354.1969
 342  327.436
 343  192.1353
 344  210.4153
 345  271.2202
 346  231.9056
 347  318.606
 348  155.6429
 349  296.519
 350  266.2334
 351  189.4782
 352  237.6557
 353  143.5317
 354  280.4372
 355  299.5564
 356  181.5786
 357  228.6931
 358  234.8924
 359  249.2458
 360  279.8268
 361  204.685
 362  352.1048
 363  299.8918
 364  287.1913
 365  337.8944
 366  252.6136
 367  264.4479
 368  243.7982
 369  215.471
 370  214.0768
 371  183.1414
 372  232.769
 373  235.8734
 374  215.7418
 375  173.7387
 376  163.1279
 377  195.5361
 378  209.7793
 379  171.6885
 380  85.04211
 381  114.6637
 382  247.3849
 383  245.5046
 384  252.4884
 385  238.8737
 386  196.0536
 387  318.6837
 388  410.4419
 389  250.7446
 390  230.3007
 391  276.981
 392  163.9968
 393  156.222
 394  318.2621
 395  395.0001
 396  350.712
 397  368.281
 398  338.5335
 399  190.951
 400  212.691
 401  255.9455
 402  237.8255
 403  221.1506
 404  225.5365
 405  276.7912
 406  356.3747
 407  210.3048
 408  181.176
 409  239.2107
 410  183.1094
 411  208.8743
 412  237.4149
 413  202.5366
 414  274.2438
 415  216.5657
 416  253.5563
 417  300.5977
 418  335.09
 419  344.6994
 420  323.9246
 421  319.3004
 422  338.2087
 423  339.3574
 424  299.9867
 425  350.9643
 426  464.5085
 427  441.4279
 428  309.0576
 429  242.9424
 430  263.464
 431  359.6568
 432  322.9395
 433  334.8521
 434  341.3643
 435  420.2656
 436  380.7595
 437  352.1392
 438  239.1451
 439  343.3419
 440  351.7994
 441  217.5173
 442  112.3658
 443  277.2485
 444  423.052
 445  428.6099
 446  294.9891
 447  292.8166
 448  302.4144
 449  393.595
 450  275.0055
 451  257.763
 452  251.7923
 453  257.4194
 454  313.971
 455  348.5092
 456  320.6706
 457  324.1335
 458  441.9902
 459  364.4914
 460  336.4248
 461  359.6468
 462  419.726
 463  417.2555
 464  354.449
 465  445.8668
 466  473.5876
 467  430.3901
 468  357.7141
 469  356.1767
 470  387.2764
 471  433.0878
 472  366.3859
 473  286.3763
 474  315.8386
 475  417.9738
 476  502.6406
 477  515.3948
 478  513.1914
 479  340.509
 480  355.3497
 481  428.555
 482  491.1481
 483  498.6538
 484  470.7859
 485  284.7495
 486  395.4138
 487  469.6732
 488  455.1769
 489  431.9872
 490  502.5206
 491  553.8927
 492  507.8945
 493  588.3665
 494  497.0457
 495  459.178
 496  447.9647
 497  429.9887
 498  522.7363
 499  570.0576
 500  549.1209
 501  492.4245
 502  410.1215
 503  411.6066
 504  480.2103
 505  621.6382
 506  516.7268
 507  662.1237
 508  715.5563
 509  814.1399
 510  1016.846
 511  1379.131
