# Input file       =  1184199632.104209_cleaned.dat
# Candidate        =  PSR_0332+5434
# Telescope        =  AR
# Epoch_topo       =  57950.014052132050
# Epoch_bary       =  N/A
# T_sample         =  0.002
# Data Folded      =  7143424
# Data Avg         =  0.0244660218418796
# Data StdDev      =  1.0000133317667  
# Profile Bins     =  512
# Profile Avg      =  341.346285894626 
# Profile StdDev   =  118.120159211279 
# Reduced chi-sqr  =  1.409
# Prob(Noise)      <  2.73e-09   (~5.8 sigma)
# P_topo (ms)      =  714.478242534464  +/- 0.000292
# P'_topo (s/s)    =  -0                +/- 1.58e-10
# P''_topo (s/s^2) =  0                 +/- 7.17e-14
# P_bary (ms)      =  N/A
# P'_bary (s/s)    =  N/A
# P''_bary (s/s^2) =  N/A
# P_orb (s)        =  N/A
# asin(i)/c (s)    =  N/A
# eccentricity     =  N/A
# w (rad)          =  N/A
# T_peri           =  N/A
######################################################
   0  320.8768
   1  368.9642
   2  391.0694
   3  275.3945
   4  262.9081
   5  261.7747
   6  271.2412
   7  420.7219
   8  462.6118
   9  375.4954
  10  395.7965
  11  433.4938
  12  393.034
  13  289.2766
  14  370.6367
  15  402.6819
  16  354.9832
  17  345.7996
  18  366.3764
  19  346.2757
  20  354.6297
  21  335.45
  22  488.5182
  23  434.8309
  24  385.9893
  25  340.1544
  26  368.5273
  27  414.4933
  28  368.0718
  29  318.24
  30  449.4791
  31  385.8407
  32  391.4482
  33  312.448
  34  253.2005
  35  192.1184
  36  245.892
  37  351.9803
  38  204.2702
  39  191.1035
  40  192.5141
  41  225.1197
  42  207.1968
  43  300.6624
  44  394.1216
  45  409.8832
  46  344.8849
  47  330.3386
  48  247.0253
  49  275.668
  50  205.8179
  51  177.7935
  52  250.4967
  53  254.5901
  54  383.6707
  55  398.9882
  56  368.9863
  57  396.5647
  58  324.4855
  59  276.021
  60  299.7676
  61  193.591
  62  308.5785
  63  301.2783
  64  264.861
  65  214.1488
  66  191.7038
  67  197.0974
  68  302.257
  69  321.408
  70  249.3793
  71  331.1267
  72  407.1865
  73  424.4799
  74  237.5296
  75  223.297
  76  306.6666
  77  409.5834
  78  499.4292
  79  342.8213
  80  371.4421
  81  384.0663
  82  414.6458
  83  465.8227
  84  453.0557
  85  400.6781
  86  263.5382
  87  387.4875
  88  433.2682
  89  479.6152
  90  389.7068
  91  405.4641
  92  299.8501
  93  454.8326
  94  391.1326
  95  342.4748
  96  321.8499
  97  314.268
  98  398.6076
  99  379.8887
 100  379.5894
 101  356.8784
 102  319.0957
 103  373.2377
 104  335.8681
 105  386.6882
 106  219.7737
 107  186.0052
 108  344.9675
 109  246.1204
 110  305.5139
 111  323.5548
 112  328.5613
 113  356.1527
 114  353.5485
 115  306.3893
 116  288.5039
 117  198.4398
 118  187.4276
 119  247.1048
 120  424.8371
 121  376.8417
 122  368.1845
 123  331.0925
 124  311.6384
 125  321.2142
 126  216.8428
 127  190.1106
 128  387.2747
 129  452.2434
 130  378.5682
 131  174.0579
 132  145.4182
 133  243.3741
 134  390.0017
 135  316.4052
 136  288.6449
 137  279.7632
 138  223.2186
 139  248.3098
 140  324.9316
 141  272.2436
 142  222.8935
 143  287.3217
 144  329.4757
 145  320.6816
 146  172.4622
 147  112.0973
 148  231.2892
 149  436.1608
 150  447.4428
 151  454.1007
 152  349.9995
 153  345.9622
 154  415.8906
 155  423.8571
 156  518.9612
 157  437.6259
 158  350.2917
 159  412.9161
 160  452.4742
 161  464.4588
 162  519.4067
 163  408.5426
 164  394.3081
 165  483.9137
 166  679.3486
 167  795.5935
 168  893.7079
 169  967.7462
 170  1045.146
 171  971.7651
 172  868.1348
 173  772.9161
 174  574.6581
 175  470.1683
 176  379.2992
 177  255.4297
 178  270.7857
 179  313.6777
 180  326.8617
 181  348.4593
 182  271.8879
 183  450.3354
 184  431.7505
 185  319.7145
 186  321.9112
 187  405.4497
 188  437.6379
 189  341.3649
 190  185.3853
 191  313.1734
 192  389.7276
 193  356.265
 194  266.1733
 195  339.9543
 196  238.7421
 197  329.2482
 198  263.8891
 199  285.0154
 200  267.8707
 201  393.9734
 202  331.0634
 203  349.0085
 204  388.259
 205  465.0922
 206  339.0192
 207  257.8621
 208  340.4298
 209  229.7386
 210  252.8859
 211  204.0324
 212  303.455
 213  265.0598
 214  277.425
 215  377.9728
 216  376.3091
 217  328.3738
 218  321.8082
 219  351.752
 220  283.9608
 221  345.1663
 222  387.5013
 223  407.6097
 224  416.0326
 225  349.7529
 226  303.4931
 227  347.1081
 228  393.1595
 229  398.7528
 230  442.8051
 231  436.9588
 232  503.4104
 233  482.1881
 234  457.9619
 235  387.3201
 236  385.233
 237  449.2939
 238  344.1982
 239  358.7628
 240  492.9969
 241  446.9325
 242  445.8671
 243  328.0044
 244  283.8085
 245  214.9085
 246  261.8568
 247  308.5201
 248  370.0744
 249  338.0031
 250  363.1994
 251  316.2117
 252  295.6015
 253  331.1526
 254  327.3279
 255  391.5302
 256  366.9096
 257  253.6358
 258  248.5612
 259  447.1052
 260  410.7867
 261  326.5934
 262  276.529
 263  246.1654
 264  196.0545
 265  326.409
 266  334.6616
 267  312.6295
 268  368.3307
 269  454.7294
 270  410.7335
 271  398.2309
 272  423.4521
 273  387.5128
 274  350.1347
 275  329.6971
 276  320.0861
 277  224.4783
 278  250.7869
 279  270.3776
 280  252.5947
 281  254.7731
 282  340.2589
 283  467.5062
 284  435.7314
 285  313.3075
 286  299.1453
 287  321.4479
 288  262.791
 289  286.2393
 290  289.8997
 291  248.5995
 292  273.4346
 293  217.0781
 294  313.2764
 295  313.006
 296  337.2931
 297  392.6461
 298  318.4231
 299  274.8161
 300  275.8852
 301  386.4497
 302  338.1364
 303  498.3443
 304  482.526
 305  406.8417
 306  318.6163
 307  329.4514
 308  386.6124
 309  291.9588
 310  387.4072
 311  403.6145
 312  318.1209
 313  330.2487
 314  355.9573
 315  365.8469
 316  390.2525
 317  377.6974
 318  366.8547
 319  502.446
 320  359.0564
 321  244.4196
 322  260.1964
 323  346.3834
 324  326.9792
 325  315.0628
 326  395.2611
 327  459.127
 328  323.0921
 329  321.4253
 330  289.4339
 331  311.7172
 332  243.1474
 333  248.981
 334  337.1156
 335  376.3879
 336  270.9645
 337  355.3837
 338  386.9535
 339  232.3859
 340  289.3026
 341  288.6477
 342  292.7027
 343  344.317
 344  294.4839
 345  201.0034
 346  249.4938
 347  429.8672
 348  391.9223
 349  362.7897
 350  272.6832
 351  215.8695
 352  347.2722
 353  301.1743
 354  306.0211
 355  279.7215
 356  300.4902
 357  241.3143
 358  291.7441
 359  293.0818
 360  258.8762
 361  237.0373
 362  308.0437
 363  341.119
 364  191.4863
 365  301.4814
 366  343.7342
 367  422.5547
 368  417.9279
 369  422.0764
 370  372.5056
 371  331.2276
 372  349.9268
 373  294.3063
 374  299.2477
 375  323.6658
 376  359.4617
 377  359.5681
 378  350.7227
 379  266.6544
 380  342.3557
 381  364.3312
 382  435.1746
 383  403.7061
 384  498.7845
 385  444.659
 386  436.1046
 387  487.2566
 388  418.1288
 389  388.3426
 390  337.4051
 391  303.1642
 392  314.5916
 393  288.0712
 394  273.7348
 395  250.9281
 396  217.9656
 397  280.3419
 398  317.5901
 399  374.5023
 400  353.0707
 401  321.5569
 402  267.5123
 403  310.1084
 404  367.1894
 405  337.4416
 406  302.2438
 407  323.8206
 408  296.4998
 409  344.8588
 410  386.6808
 411  231.9501
 412  209.2596
 413  308.412
 414  383.6311
 415  370.1873
 416  408.3491
 417  393.175
 418  364.903
 419  352.1286
 420  297.736
 421  296.8886
 422  307.8532
 423  325.6692
 424  295.0462
 425  324.7611
 426  321.9115
 427  275.0769
 428  203.944
 429  291.8999
 430  395.5625
 431  411.9396
 432  342.0498
 433  378.1794
 434  315.0794
 435  163.0824
 436  171.4938
 437  226.3113
 438  169.0042
 439  355.0556
 440  367.2934
 441  388.8009
 442  335.9893
 443  318.3805
 444  381.3603
 445  324.8088
 446  378.3562
 447  292.7155
 448  350.1656
 449  387.2153
 450  428.7786
 451  400.6121
 452  352.9996
 453  254.22
 454  198.7014
 455  303.9822
 456  321.9164
 457  375.3802
 458  406.6981
 459  402.9291
 460  208.5485
 461  363.1598
 462  394.6995
 463  445.7179
 464  390.0113
 465  363.4224
 466  392.2734
 467  316.3884
 468  282.6292
 469  266.3304
 470  396.3411
 471  284.9087
 472  243.4898
 473  202.7214
 474  272.197
 475  396.9146
 476  402.6253
 477  326.0938
 478  328.4633
 479  390.8399
 480  299.6365
 481  208.9154
 482  244.3577
 483  336.0584
 484  387.7898
 485  274.2172
 486  259.8351
 487  231.1658
 488  191.2545
 489  80.3964
 490  234.2393
 491  265.2521
 492  320.9008
 493  278.2285
 494  305.4663
 495  254.7142
 496  326.66
 497  383.4815
 498  364.3588
 499  337.9261
 500  316.3416
 501  383.6369
 502  373.674
 503  435.0942
 504  480.5433
 505  391.9349
 506  421.1063
 507  318.904
 508  239.3757
 509  292.7272
 510  302.9786
 511  261.8937
