# Input file       =  1184487677.105509_cleaned.dat
# Candidate        =  PSR_0332+5434
# Telescope        =  AR
# Epoch_topo       =  57953.347906313764
# Epoch_bary       =  N/A
# T_sample         =  0.002
# Data Folded      =  7340032
# Data Avg         =  0.0302492524103305
# Data StdDev      =  1.00020651104266 
# Profile Bins     =  512
# Profile Avg      =  433.505406250567 
# Profile StdDev   =  119.757762570949 
# Reduced chi-sqr  =  1.328
# Prob(Noise)      <  8.74e-07   (~4.8 sigma)
# P_topo (ms)      =  714.476472554408  +/- 0.000241
# P'_topo (s/s)    =  -0                +/- 1.27e-10
# P''_topo (s/s^2) =  0                 +/- 5.61e-14
# P_bary (ms)      =  N/A
# P'_bary (s/s)    =  N/A
# P''_bary (s/s^2) =  N/A
# P_orb (s)        =  N/A
# asin(i)/c (s)    =  N/A
# eccentricity     =  N/A
# w (rad)          =  N/A
# T_peri           =  N/A
######################################################
   0  328.4806
   1  320.3723
   2  256.114
   3  274.9676
   4  285.941
   5  404.4925
   6  459.5017
   7  390.6969
   8  336.1928
   9  388.065
  10  434.8392
  11  412.4648
  12  411.869
  13  419.0341
  14  411.5405
  15  473.2447
  16  475.1129
  17  586.451
  18  703.473
  19  455.5414
  20  435.7533
  21  487.7331
  22  364.0849
  23  306.0681
  24  331.5298
  25  399.7778
  26  358.3674
  27  412.7832
  28  499.0941
  29  391.8851
  30  438.4067
  31  425.862
  32  275.0666
  33  398.6198
  34  515.7107
  35  435.3627
  36  397.9249
  37  344.079
  38  377.5644
  39  449.3858
  40  428.1461
  41  502.8616
  42  566.8923
  43  479.4757
  44  391.9619
  45  471.5512
  46  404.7758
  47  361.8975
  48  377.6159
  49  496.1111
  50  456.7697
  51  406.4254
  52  418.5765
  53  480.3793
  54  361.8806
  55  368.5235
  56  314.1183
  57  412.2659
  58  449.2121
  59  465.2853
  60  404.4849
  61  464.3491
  62  510.5289
  63  489.0667
  64  407.4075
  65  388.0428
  66  404.8936
  67  366.0939
  68  292.6504
  69  394.1792
  70  387.3391
  71  398.5089
  72  491.8041
  73  455.8651
  74  325.2431
  75  358.8005
  76  381.3833
  77  453.9553
  78  366.0607
  79  243.7402
  80  300.6495
  81  316.6039
  82  355.5883
  83  416.0426
  84  437.4673
  85  531.5618
  86  526.4202
  87  357.863
  88  358.6858
  89  442.8941
  90  407.5223
  91  331.5561
  92  420.3107
  93  365.294
  94  380.1974
  95  465.2073
  96  490.5466
  97  492.5143
  98  410.0862
  99  425.5864
 100  405.9994
 101  478.8993
 102  503.9071
 103  494.2326
 104  532.2899
 105  429.1112
 106  420.49
 107  481.5971
 108  451.4674
 109  484.4223
 110  520.7103
 111  395.8765
 112  395.6934
 113  432.6227
 114  460.0944
 115  479.8425
 116  329.1854
 117  486.1031
 118  520.5084
 119  535.7206
 120  492.9009
 121  321.7841
 122  393.6006
 123  400.936
 124  496.0921
 125  370.4319
 126  498.543
 127  480.7033
 128  511.7477
 129  494.1594
 130  476.1953
 131  427.2749
 132  362.9087
 133  455.9086
 134  479.547
 135  548.0156
 136  517.9529
 137  444.7772
 138  429.6046
 139  409.8173
 140  333.9398
 141  285.9279
 142  347.5487
 143  437.6909
 144  386.3445
 145  373.8283
 146  415.1814
 147  473.1322
 148  446.69
 149  435.4203
 150  331.053
 151  345.0345
 152  400.8553
 153  419.1253
 154  397.2523
 155  431.0888
 156  518.191
 157  346.644
 158  379.8461
 159  419.5215
 160  516.1179
 161  527.2609
 162  525.0676
 163  497.6677
 164  507.6972
 165  436.1007
 166  393.545
 167  515.7409
 168  489.88
 169  375.2862
 170  414.1875
 171  329.1585
 172  321.3349
 173  367.1978
 174  546.894
 175  575.0382
 176  358.8201
 177  336.4763
 178  222.4246
 179  352.985
 180  369.2233
 181  387.149
 182  403.4006
 183  453.0213
 184  426.3007
 185  389.2737
 186  437.016
 187  468.0791
 188  470.4944
 189  389.7384
 190  303.4384
 191  253.6435
 192  396.5015
 193  509.9434
 194  421.2489
 195  460.5423
 196  560.1396
 197  452.3072
 198  454.3273
 199  456.6002
 200  463.8638
 201  404.6476
 202  451.046
 203  424.2068
 204  491.4661
 205  383.6064
 206  376.6953
 207  296.0899
 208  296.9798
 209  373.0739
 210  453.6226
 211  469.452
 212  299.6291
 213  277.7487
 214  348.2811
 215  243.686
 216  362.2239
 217  418.6719
 218  378.1431
 219  450.9248
 220  406.6805
 221  371.8665
 222  450.5702
 223  412.7381
 224  395.7347
 225  447.064
 226  554.1496
 227  552.606
 228  374.9276
 229  389.7276
 230  457.8331
 231  471.984
 232  406.8251
 233  348.902
 234  492.3093
 235  484.0389
 236  402.4192
 237  393.0787
 238  526.2416
 239  539.9648
 240  428.8096
 241  379.8093
 242  437.6975
 243  385.8574
 244  441.892
 245  412.6446
 246  349.8171
 247  395.3651
 248  368.2226
 249  398.2584
 250  374.3089
 251  342.8537
 252  476.1245
 253  409.4795
 254  429.8609
 255  347.0169
 256  368.0492
 257  415.4308
 258  484.8864
 259  469.1257
 260  547.6219
 261  469.9079
 262  279.6406
 263  403.74
 264  402.9368
 265  452.7136
 266  503.6261
 267  483.7596
 268  447.1597
 269  483.282
 270  522.3609
 271  482.3976
 272  384.486
 273  414.8407
 274  441.6856
 275  469.9352
 276  518.4086
 277  577.2976
 278  556.4763
 279  513.8358
 280  575.4949
 281  608.9363
 282  750.8164
 283  835.614
 284  1037.056
 285  1061.765
 286  1021.496
 287  973.5693
 288  807.0258
 289  599.5394
 290  489.6786
 291  536.8321
 292  446.7921
 293  506.3624
 294  590.6088
 295  564.0482
 296  540.4328
 297  503.0913
 298  450.9431
 299  487.7309
 300  475.1947
 301  495.3694
 302  561.5215
 303  454.9633
 304  420.1524
 305  443.5688
 306  409.7967
 307  468.2707
 308  375.3337
 309  564.0548
 310  562.6648
 311  432.5741
 312  516.0615
 313  524.2498
 314  417.024
 315  377.7125
 316  315.6974
 317  426.0061
 318  487.6271
 319  364.7514
 320  399.3097
 321  448.0208
 322  543.8164
 323  533.4827
 324  491.8635
 325  560.658
 326  506.4193
 327  550.1893
 328  506.0306
 329  507.534
 330  541.9979
 331  490.8346
 332  576.2491
 333  617.6815
 334  489.808
 335  484.4831
 336  382.9905
 337  398.1539
 338  459.8994
 339  489.1595
 340  479.1194
 341  470.6452
 342  508.1164
 343  512.4758
 344  331.0942
 345  374.5834
 346  395.1614
 347  515.3289
 348  464.8865
 349  446.7989
 350  437.4426
 351  403.9062
 352  457.0934
 353  454.9252
 354  392.3957
 355  420.3498
 356  429.1367
 357  384.1049
 358  405.8134
 359  435.3126
 360  461.0152
 361  390.7911
 362  430.1674
 363  481.1347
 364  456.5391
 365  368.2175
 366  361.5327
 367  377.3719
 368  372.5359
 369  325.0367
 370  420.5457
 371  489.2468
 372  467.1217
 373  370.4552
 374  343.8213
 375  383.3352
 376  390.6097
 377  456.9502
 378  482.9396
 379  488.0428
 380  448.8043
 381  478.6709
 382  476.1511
 383  411.9334
 384  497.1458
 385  529.265
 386  540.4579
 387  584.0971
 388  582.9438
 389  465.4451
 390  338.2847
 391  374.3034
 392  455.2127
 393  510.8172
 394  545.6321
 395  501.2283
 396  443.1303
 397  533.5452
 398  470.293
 399  349.107
 400  378.2715
 401  490.6312
 402  520.2719
 403  444.4466
 404  526.3631
 405  463.9079
 406  362.8794
 407  414.5717
 408  498.6128
 409  472.1136
 410  493.3629
 411  564.0255
 412  531.6529
 413  455.4712
 414  652.7382
 415  435.5979
 416  365.473
 417  555.8554
 418  575.7532
 419  374.7122
 420  506.9086
 421  588.0039
 422  510.4445
 423  433.9769
 424  324.3178
 425  360.6796
 426  334.5633
 427  326.0488
 428  335.2696
 429  420.2557
 430  400.0418
 431  332.9243
 432  335.1286
 433  352.4741
 434  290.0433
 435  264.4247
 436  251.6619
 437  258.8167
 438  319.7753
 439  231.91
 440  197.3264
 441  275.9721
 442  283.0974
 443  365.9168
 444  462.5978
 445  523.0465
 446  530.0646
 447  453.2003
 448  328.9633
 449  366.6854
 450  530.2692
 451  514.6182
 452  468.8532
 453  415.5498
 454  471.0219
 455  458.4951
 456  486.9004
 457  573.1216
 458  524.3655
 459  431.5953
 460  391.0367
 461  557.7181
 462  554.2314
 463  469.3965
 464  458.1027
 465  446.3235
 466  318.916
 467  392.3108
 468  456.3791
 469  418.9305
 470  323.9598
 471  359.6766
 472  323.3449
 473  190.1082
 474  236.1336
 475  273.6613
 476  374.1118
 477  437.1852
 478  455.8997
 479  425.3843
 480  412.3556
 481  298.192
 482  262.0788
 483  291.2522
 484  244.4645
 485  306.9926
 486  401.8305
 487  291.3936
 488  243.068
 489  304.2805
 490  314.0949
 491  365.7509
 492  388.9739
 493  310.8011
 494  307.803
 495  345.6423
 496  378.6622
 497  430.3109
 498  295.6185
 499  363.4626
 500  527.7542
 501  451.7332
 502  338.4892
 503  244.447
 504  332.3873
 505  392.3593
 506  363.1117
 507  313.0613
 508  510.7333
 509  520.6112
 510  467.256
 511  257.5848
