# Input file       =  1184214230.099528_cleaned.dat
# Candidate        =  PSR_0332+5434
# Telescope        =  AR
# Epoch_topo       =  57950.183010411201
# Epoch_bary       =  N/A
# T_sample         =  0.002
# Data Folded      =  7340032
# Data Avg         =  0.030037056947298
# Data StdDev      =  0.999933410891408
# Profile Bins     =  512
# Profile Avg      =  430.54946654755  
# Profile StdDev   =  119.725063460605 
# Reduced chi-sqr  =  1.217
# Prob(Noise)      <  0.00055   (~3.3 sigma)
# P_topo (ms)      =  714.478142245543  +/- 0.000213
# P'_topo (s/s)    =  -0                +/- 1.12e-10
# P''_topo (s/s^2) =  0                 +/- 4.96e-14
# P_bary (ms)      =  N/A
# P'_bary (s/s)    =  N/A
# P''_bary (s/s^2) =  N/A
# P_orb (s)        =  N/A
# asin(i)/c (s)    =  N/A
# eccentricity     =  N/A
# w (rad)          =  N/A
# T_peri           =  N/A
######################################################
   0  1137.348
   1  1026.518
   2  820.1326
   3  675.8825
   4  484.9073
   5  416.9973
   6  394.0954
   7  367.0499
   8  358.9186
   9  369.145
  10  480.4244
  11  576.5172
  12  523.7872
  13  591.0239
  14  532.1296
  15  481.149
  16  478.0542
  17  541.07
  18  516.9822
  19  481.3326
  20  495.6382
  21  494.0292
  22  496.0687
  23  336.6057
  24  265.7942
  25  390.4986
  26  417.9041
  27  436.5303
  28  429.8231
  29  451.6853
  30  495.3728
  31  512.6322
  32  499.7799
  33  494.1518
  34  454.7982
  35  444.1096
  36  475.4724
  37  447.0166
  38  497.6229
  39  387.604
  40  414.6588
  41  534.8196
  42  544.8162
  43  478.968
  44  484.4975
  45  428.3853
  46  399.5958
  47  567.1952
  48  508.4671
  49  427.8754
  50  456.6392
  51  404.3307
  52  385.2815
  53  417.19
  54  470.5284
  55  569.9273
  56  404.0227
  57  452.4981
  58  425.4412
  59  343.8142
  60  541.3261
  61  550.096
  62  503.1013
  63  501.7858
  64  411.8564
  65  409.5826
  66  405.0872
  67  475.9777
  68  493.5712
  69  433.4329
  70  401.0259
  71  388.0986
  72  326.2227
  73  368.334
  74  428.2957
  75  469.2831
  76  506.0955
  77  503.8249
  78  404.7182
  79  341.9114
  80  399.5391
  81  354.7658
  82  466.2818
  83  545.238
  84  505.2999
  85  407.0747
  86  378.5083
  87  350.2812
  88  285.2448
  89  359.6352
  90  362.7461
  91  369.8126
  92  337.9706
  93  432.0297
  94  318.1385
  95  343.419
  96  420.1189
  97  372.8182
  98  346.9359
  99  438.8638
 100  341.6214
 101  409.5284
 102  484.0989
 103  572.8743
 104  629.5758
 105  471.8862
 106  392.4839
 107  413.6127
 108  460.2706
 109  506.3691
 110  465.9311
 111  486.2599
 112  457.1861
 113  436.8557
 114  501.0634
 115  449.7024
 116  354.6855
 117  493.6623
 118  467.3685
 119  394.215
 120  373.5059
 121  378.7316
 122  376.4012
 123  410.2826
 124  390.628
 125  343.1623
 126  380.5836
 127  333.7519
 128  351.1558
 129  385.9144
 130  227.2428
 131  291.1737
 132  330.0766
 133  355.4402
 134  383.6234
 135  349.711
 136  377.5716
 137  502.9141
 138  573.6022
 139  419.2562
 140  342.4823
 141  314.7905
 142  426.8921
 143  542.4861
 144  456.122
 145  518.9689
 146  458.3812
 147  399.9776
 148  445.2986
 149  430.4219
 150  451.3863
 151  505.9426
 152  448.923
 153  374.075
 154  415.5293
 155  387.1574
 156  312.1082
 157  376.9043
 158  355.5405
 159  327.6871
 160  227.1385
 161  471.1895
 162  394.696
 163  381.5327
 164  413.9092
 165  429.8969
 166  445.218
 167  487.194
 168  446.1138
 169  315.9289
 170  312.5051
 171  374.9668
 172  359.7184
 173  502.4273
 174  495.8482
 175  396.0329
 176  364.7344
 177  268.5798
 178  363.0297
 179  306.4836
 180  368.008
 181  453.0236
 182  455.7766
 183  497.4008
 184  311.9264
 185  489.5263
 186  397.2101
 187  359.4513
 188  449.4031
 189  484.108
 190  358.4812
 191  491.6889
 192  543.5911
 193  516.1691
 194  497.4077
 195  479.3618
 196  555.8483
 197  399.0429
 198  364.5582
 199  369.9229
 200  504.3261
 201  497.3332
 202  426.8664
 203  396.4841
 204  429.3202
 205  339.4751
 206  394.3228
 207  462.1823
 208  361.0325
 209  309.8047
 210  382.9792
 211  429.9583
 212  412.4134
 213  379.45
 214  343.3064
 215  321.6322
 216  412.6349
 217  463.7517
 218  435.7345
 219  465.2615
 220  423.201
 221  423.8432
 222  427.8972
 223  335.424
 224  320.3268
 225  363.7712
 226  354.0236
 227  402.127
 228  412.5877
 229  455.3266
 230  461.968
 231  330.4842
 232  429.3729
 233  362.2448
 234  380.8872
 235  370.8833
 236  387.2629
 237  431.8447
 238  438.7495
 239  402.1907
 240  363.8106
 241  447.3464
 242  470.8727
 243  421.451
 244  292.638
 245  260.312
 246  293.748
 247  387.2911
 248  413.2376
 249  441.0795
 250  544.312
 251  460.972
 252  487.972
 253  444.2377
 254  409.8708
 255  563.5377
 256  491.4964
 257  494.4465
 258  438.9124
 259  429.1494
 260  448.3175
 261  421.9195
 262  393.4505
 263  396.0152
 264  333.4877
 265  383.4714
 266  424.0302
 267  388.4645
 268  468.6745
 269  501.2058
 270  547.0178
 271  490.8148
 272  567.3834
 273  568.6687
 274  469.0793
 275  461.5019
 276  507.9878
 277  473.4721
 278  387.3242
 279  405.7644
 280  386.7149
 281  363.1521
 282  418.9948
 283  458.9234
 284  394.0234
 285  428.351
 286  555.9179
 287  392.5835
 288  386.8119
 289  376.4273
 290  359.3307
 291  442.394
 292  396.0847
 293  348.055
 294  421.6466
 295  326.6419
 296  393.4924
 297  472.1516
 298  423.0217
 299  406.5688
 300  326.543
 301  373.4613
 302  368.5946
 303  375.8125
 304  360.567
 305  417.1533
 306  399.441
 307  333.8759
 308  297.7135
 309  364.0598
 310  231.9654
 311  324.7297
 312  425.9244
 313  542.9443
 314  505.2096
 315  489.5792
 316  485.7576
 317  429.7527
 318  424.8369
 319  532.4579
 320  535.2891
 321  352.3862
 322  430.586
 323  378.3893
 324  334.8112
 325  522.0125
 326  565.675
 327  537.4456
 328  585.0825
 329  522.2441
 330  553.0717
 331  564.0628
 332  557.2675
 333  474.1768
 334  549.4765
 335  474.7647
 336  546.6273
 337  401.5143
 338  411.9129
 339  438.6985
 340  380.1869
 341  436.0244
 342  342.5432
 343  254.9458
 344  313.8891
 345  437.0185
 346  439.2135
 347  445.3006
 348  335.2798
 349  321.805
 350  521.0314
 351  454.0165
 352  358.8652
 353  399.9911
 354  311.1465
 355  393.7639
 356  365.5269
 357  291.6824
 358  376.8347
 359  569.0938
 360  484.9501
 361  483.4752
 362  374.6432
 363  356.6314
 364  482.9464
 365  531.5068
 366  469.4222
 367  400.622
 368  421.0734
 369  457.076
 370  321.4625
 371  382.0232
 372  439.184
 373  452.2084
 374  362.673
 375  413.9308
 376  370.7076
 377  371.5995
 378  325.9382
 379  308.2474
 380  326.2677
 381  352.07
 382  257.6375
 383  363.6119
 384  290.4962
 385  364.2956
 386  442.6779
 387  435.2795
 388  358.9135
 389  367.0353
 390  391.6044
 391  326.3256
 392  389.8854
 393  339.9927
 394  358.5055
 395  442.9794
 396  413.2442
 397  451.4067
 398  452.1959
 399  430.576
 400  532.3942
 401  518.3047
 402  418.1962
 403  357.5307
 404  327.9531
 405  398.9035
 406  393.9454
 407  385.9207
 408  432.8051
 409  444.1848
 410  436.3126
 411  437.8693
 412  366.6658
 413  446.8107
 414  536.8893
 415  495.0043
 416  389.5399
 417  381.0437
 418  432.0529
 419  471.1284
 420  436.9926
 421  395.095
 422  354.9012
 423  321.4221
 424  336.5108
 425  442.6029
 426  519.3163
 427  420.6958
 428  294.6908
 429  324.4433
 430  509.8964
 431  492.9466
 432  355.6389
 433  310.6737
 434  415.4212
 435  439.7646
 436  314.6948
 437  262.9452
 438  299.1735
 439  343.0795
 440  328.5771
 441  427.3771
 442  518.9651
 443  454.5704
 444  349.6484
 445  456.0267
 446  523.3853
 447  441.0884
 448  432.4435
 449  357.0568
 450  277.9744
 451  280.703
 452  311.1486
 453  438.844
 454  407.1154
 455  339.0755
 456  278.5135
 457  336.0369
 458  321.8414
 459  354.9232
 460  393.0421
 461  494.3995
 462  457.7482
 463  465.7905
 464  415.1497
 465  372.5705
 466  279.9088
 467  351.464
 468  465.6138
 469  484.7502
 470  415.417
 471  411.3048
 472  405.0192
 473  425.1422
 474  490.097
 475  497.8853
 476  484.3084
 477  517.8801
 478  464.9479
 479  467.736
 480  552.662
 481  473.2215
 482  511.0782
 483  498.5867
 484  449.8355
 485  451.395
 486  355.579
 487  393.9572
 488  453.5775
 489  521.2312
 490  601.6417
 491  512.3495
 492  454.8061
 493  536.8854
 494  557.3487
 495  565.8497
 496  519.2017
 497  461.654
 498  428.3455
 499  435.1313
 500  509.3016
 501  485.241
 502  433.5401
 503  472.0106
 504  468.713
 505  462.353
 506  589.5002
 507  570.72
 508  600.0986
 509  859.5013
 510  922.121
 511  1087.956
