# Input file       =  1184372028.105099_cleaned.dat
# Candidate        =  PSR_0332+5434
# Telescope        =  AR
# Epoch_topo       =  57952.009376216425
# Epoch_bary       =  N/A
# T_sample         =  0.002
# Data Folded      =  7143424
# Data Avg         =  0.0208990834723048
# Data StdDev      =  1.00003572277598 
# Profile Bins     =  512
# Profile Avg      =  291.632275342361 
# Profile StdDev   =  118.1228040056   
# Reduced chi-sqr  =  1.502
# Prob(Noise)      <  1.34e-12   (~7.0 sigma)
# P_topo (ms)      =  714.476959033161  +/- 0.000348
# P'_topo (s/s)    =  -0                +/- 1.89e-10
# P''_topo (s/s^2) =  0                 +/- 8.57e-14
# P_bary (ms)      =  N/A
# P'_bary (s/s)    =  N/A
# P''_bary (s/s^2) =  N/A
# P_orb (s)        =  N/A
# asin(i)/c (s)    =  N/A
# eccentricity     =  N/A
# w (rad)          =  N/A
# T_peri           =  N/A
######################################################
   0  1135.76
   1  1010.213
   2  932.4656
   3  587.3332
   4  361.6136
   5  361.0642
   6  277.5321
   7  198.5275
   8  282.6884
   9  412.6487
  10  392.596
  11  389.4686
  12  353.9869
  13  309.2285
  14  233.9428
  15  341.879
  16  325.4157
  17  246.0124
  18  185.4103
  19  304.6992
  20  353.0945
  21  352.7555
  22  322.6002
  23  101.3183
  24  126.7325
  25  279.5995
  26  261.7561
  27  261.4127
  28  242.4903
  29  187.9822
  30  193.6087
  31  311.6013
  32  264.8675
  33  270.061
  34  307.4041
  35  445.9872
  36  439.1684
  37  312.0464
  38  260.2744
  39  235.4021
  40  148.5217
  41  301.0905
  42  432.0372
  43  284.7801
  44  237.6891
  45  311.3916
  46  236.7342
  47  214.7733
  48  302.8437
  49  352.2963
  50  434.4883
  51  471.3084
  52  378.2792
  53  294.1299
  54  199.4336
  55  318.7616
  56  337.3003
  57  305.4283
  58  266.4983
  59  219.516
  60  265.1772
  61  234.4386
  62  226.0346
  63  257.8972
  64  290.1371
  65  283.4804
  66  166.5655
  67  127.0032
  68  115.3021
  69  226.5625
  70  237.8173
  71  243.1778
  72  237.6114
  73  169.6736
  74  52.24311
  75  241.056
  76  310.1699
  77  306.0775
  78  357.5743
  79  359.7977
  80  360.9838
  81  195.0353
  82  264.2644
  83  185.317
  84  205.5667
  85  182.7815
  86  242.4071
  87  267.6248
  88  197.9008
  89  275.5494
  90  203.941
  91  260.0689
  92  300.2446
  93  225.5762
  94  171.951
  95  211.7316
  96  379.6131
  97  249.0201
  98  257.0405
  99  247.9789
 100  325.589
 101  320.8303
 102  282.3901
 103  232.3602
 104  219.0385
 105  221.4476
 106  168.9778
 107  292.0909
 108  402.469
 109  385.874
 110  302.7118
 111  313.1209
 112  341.2818
 113  458.6363
 114  362.4416
 115  242.4137
 116  241.4758
 117  365.0816
 118  341.2228
 119  212.4946
 120  292.6022
 121  372.2909
 122  331.155
 123  357.112
 124  379.5208
 125  212.5138
 126  238.8237
 127  144.9428
 128  301.7342
 129  288.1365
 130  297.092
 131  347.3561
 132  323.9898
 133  284.3643
 134  222.9915
 135  215.2632
 136  273.2777
 137  297.3133
 138  275.9926
 139  336.6582
 140  336.1707
 141  331.5988
 142  200.9087
 143  234.0241
 144  240.3728
 145  366.2837
 146  348.826
 147  323.6235
 148  381.7456
 149  321.818
 150  272.403
 151  327.1346
 152  281.0259
 153  208.8381
 154  305.8062
 155  271.2197
 156  200.8031
 157  125.1167
 158  211.997
 159  284.1036
 160  272.0079
 161  206.7699
 162  293.3404
 163  400.5091
 164  241.0319
 165  248.4606
 166  290.8127
 167  364.9299
 168  431.2591
 169  336.8314
 170  308.2859
 171  321.3797
 172  252.5031
 173  213.0206
 174  272.1985
 175  338.9276
 176  198.0969
 177  245.6974
 178  252.6983
 179  155.6357
 180  219.8066
 181  190.46
 182  209.3458
 183  235.9978
 184  350.6395
 185  337.5797
 186  282.4967
 187  91.10514
 188  99.81644
 189  265.5361
 190  375.1561
 191  422.1659
 192  397.024
 193  388.0121
 194  317.7137
 195  349.8933
 196  318.0161
 197  200.2013
 198  325.5034
 199  390.7506
 200  266.6099
 201  302.1606
 202  258.4616
 203  189.8657
 204  249.1243
 205  339.2176
 206  392.0127
 207  357.2251
 208  425.4432
 209  344.3521
 210  215.672
 211  337.531
 212  417.2438
 213  350.7104
 214  235.9151
 215  271.6758
 216  352.3421
 217  324.4813
 218  275.5237
 219  239.7698
 220  223.4657
 221  312.8663
 222  244.9251
 223  334.9057
 224  390.3423
 225  412.4147
 226  390.7078
 227  291.7989
 228  206.7044
 229  139.4691
 230  231.7145
 231  291.8249
 232  220.7162
 233  212.172
 234  259.9106
 235  107.3587
 236  95.02708
 237  237.6444
 238  357.8323
 239  392.8971
 240  309.9587
 241  216.4601
 242  275.8784
 243  261.1388
 244  169.9946
 245  230.0283
 246  305.1663
 247  348.917
 248  437.7258
 249  256.4203
 250  166.9764
 251  258.9963
 252  326.5894
 253  300.1591
 254  234.8501
 255  361.502
 256  403.6054
 257  324.1384
 258  271.5679
 259  301.3669
 260  277.8242
 261  218.6777
 262  279.3807
 263  391.9736
 264  288.3694
 265  175.2257
 266  164.8559
 267  322.3328
 268  243.9874
 269  269.205
 270  285.1488
 271  263.0599
 272  260.5821
 273  289.6854
 274  310.155
 275  432.2268
 276  334.3697
 277  443.1699
 278  388.4369
 279  234.9001
 280  224.9838
 281  301.2922
 282  266.7908
 283  323.6941
 284  333.4693
 285  333.7601
 286  299.1804
 287  219.2102
 288  277.929
 289  326.5741
 290  410.348
 291  275.4688
 292  252.3889
 293  243.2779
 294  226.1461
 295  198.0284
 296  358.9512
 297  393.9288
 298  404.2443
 299  318.9917
 300  331.3735
 301  369.7794
 302  284.4029
 303  281.2789
 304  353.7897
 305  213.2084
 306  208.0577
 307  252.5856
 308  241.1473
 309  113.4279
 310  99.30443
 311  227.9733
 312  269.6886
 313  224.3405
 314  235.4231
 315  251.9435
 316  197.4175
 317  121.3331
 318  284.2941
 319  263.8507
 320  57.79628
 321  171.9118
 322  302.7742
 323  433.3156
 324  500.7737
 325  410.6399
 326  373.3024
 327  281.5281
 328  289.0659
 329  417.2657
 330  311.2312
 331  223.6399
 332  388.0984
 333  386.0402
 334  385.8386
 335  320.1495
 336  210.4016
 337  211.8428
 338  246.1863
 339  284.8385
 340  319.9291
 341  377.4435
 342  315.9459
 343  294.5617
 344  341.5207
 345  374.6868
 346  380.6047
 347  230.8043
 348  301.5035
 349  376.8106
 350  280.7526
 351  254.055
 352  229.408
 353  279.9834
 354  280.7888
 355  207.6509
 356  426.5457
 357  324.361
 358  154.9197
 359  228.7701
 360  264.6789
 361  203.9261
 362  294.3827
 363  347.1836
 364  299.4749
 365  368.5401
 366  302.316
 367  312.7289
 368  302.7425
 369  377.4816
 370  391.9087
 371  407.3993
 372  337.7092
 373  204.9019
 374  316.8038
 375  265.6439
 376  196.7296
 377  153.1919
 378  226.7099
 379  177.7878
 380  112.3534
 381  227.9939
 382  318.2767
 383  256.9308
 384  259.5489
 385  252.3494
 386  264.7219
 387  383.8808
 388  328.8388
 389  247.4658
 390  256.3411
 391  302.8397
 392  310.5135
 393  262.9297
 394  203.1035
 395  290.01
 396  475.7616
 397  299.6573
 398  247.8134
 399  288.7294
 400  329.7213
 401  285.0639
 402  166.4364
 403  366.5846
 404  349.4701
 405  314.8536
 406  300.724
 407  388.4102
 408  343.1749
 409  231.4325
 410  233.7647
 411  163.2195
 412  322.8684
 413  402.368
 414  308.1149
 415  252.0749
 416  185.7115
 417  309.2094
 418  300.6224
 419  320.7781
 420  331.74
 421  314.3276
 422  253.4239
 423  123.9946
 424  251.1541
 425  461.3936
 426  381.9633
 427  267.3661
 428  350.7689
 429  320.053
 430  298.0735
 431  285.1404
 432  319.2612
 433  197.0159
 434  219.1339
 435  279.2566
 436  336.0242
 437  300.9435
 438  201.5789
 439  220.6827
 440  243.3883
 441  234.6114
 442  232.4015
 443  285.3004
 444  170.3834
 445  187.4497
 446  260.8005
 447  275.4202
 448  302.7789
 449  322.6967
 450  354.9043
 451  251.774
 452  247.519
 453  261.4252
 454  349.4028
 455  290.5512
 456  178.4475
 457  280.9314
 458  349.4501
 459  361.2328
 460  124.0075
 461  184.6525
 462  199.84
 463  224.8758
 464  391.0976
 465  367.0933
 466  288.3904
 467  283.043
 468  240.8082
 469  294.7347
 470  275.5707
 471  328.2095
 472  392.8557
 473  230.0418
 474  117.668
 475  237.8206
 476  199.0005
 477  343.3409
 478  326.0167
 479  273.4395
 480  210.9456
 481  127.8365
 482  215.8242
 483  236.6816
 484  312.7395
 485  273.9525
 486  171.4113
 487  184.7666
 488  201.6579
 489  313.651
 490  260.7448
 491  324.2963
 492  355.6686
 493  250.2689
 494  296.9199
 495  342.2038
 496  278.7944
 497  113.1068
 498  313.9739
 499  255.9857
 500  310.7139
 501  339.8597
 502  325.8625
 503  355.1176
 504  371.9803
 505  255.1894
 506  397.1185
 507  528.0128
 508  504.8645
 509  579.4256
 510  800.7521
 511  1052.955
