# Input file       =  1184645147.110282_cleaned.dat
# Candidate        =  PSR_0332+5434
# Telescope        =  AR
# Epoch_topo       =  57955.170475813451
# Epoch_bary       =  N/A
# T_sample         =  0.002
# Data Folded      =  7340032
# Data Avg         =  0.0238731574251607
# Data StdDev      =  1.00021386356292 
# Profile Bins     =  512
# Profile Avg      =  342.053849719471 
# Profile StdDev   =  119.758642910525 
# Reduced chi-sqr  =  2.493
# Prob(Noise)      <  8.33e-67   (~17.2 sigma)
# P_topo (ms)      =  714.475040058349  +/- 0.000253
# P'_topo (s/s)    =  -0                +/- 1.33e-10
# P''_topo (s/s^2) =  0                 +/- 5.89e-14
# P_bary (ms)      =  N/A
# P'_bary (s/s)    =  N/A
# P''_bary (s/s^2) =  N/A
# P_orb (s)        =  N/A
# asin(i)/c (s)    =  N/A
# eccentricity     =  N/A
# w (rad)          =  N/A
# T_peri           =  N/A
######################################################
   0  201.6382
   1  118.9863
   2  261.731
   3  383.3519
   4  371.8256
   5  365.033
   6  353.5325
   7  260.0099
   8  159.0062
   9  266.6657
  10  243.7892
  11  231.7167
  12  216.5883
  13  241.8828
  14  337.0171
  15  291.2499
  16  159.7455
  17  239.3005
  18  204.9296
  19  174.2182
  20  248.5813
  21  198.5871
  22  256.56
  23  240.8109
  24  228.7695
  25  291.2664
  26  331.1133
  27  355.7508
  28  317.6887
  29  317.042
  30  322.1294
  31  344.6075
  32  318.6803
  33  324.7487
  34  416.7578
  35  485.9647
  36  342.8549
  37  258.1625
  38  235.6801
  39  327.7414
  40  354.5769
  41  319.5966
  42  349.0875
  43  377.4862
  44  415.9565
  45  357.4738
  46  281.2535
  47  273.3735
  48  392.8987
  49  258.5692
  50  145.5121
  51  173.8771
  52  394.9035
  53  438.0609
  54  347.3368
  55  288.8438
  56  285.0126
  57  382.0552
  58  321.9156
  59  237.6617
  60  277.7799
  61  231.9193
  62  321.1102
  63  323.8279
  64  345.4289
  65  296.746
  66  411.7142
  67  407.4306
  68  323.9414
  69  352.963
  70  389.9866
  71  445.5038
  72  363.5825
  73  401.2945
  74  485.5484
  75  425.1611
  76  407.8242
  77  325.9765
  78  398.5756
  79  401.1021
  80  424.6982
  81  290.6613
  82  301.0813
  83  363.6346
  84  494.7726
  85  490.708
  86  542.4997
  87  400.7437
  88  331.2367
  89  413.6707
  90  472.5035
  91  476.9854
  92  521.3647
  93  330.5055
  94  345.6551
  95  451.1036
  96  474.6874
  97  428.3903
  98  463.9356
  99  556.4737
 100  501.2221
 101  566.5335
 102  540.1094
 103  463.4377
 104  454.8532
 105  442.7504
 106  468.0687
 107  577.5579
 108  549.7548
 109  520.2307
 110  426.3725
 111  405.8295
 112  439.4308
 113  589.7976
 114  554.0389
 115  588.6188
 116  705.4708
 117  773.3051
 118  919.0641
 119  1241.604
 120  1521.543
 121  1448.529
 122  1239.647
 123  850.418
 124  637.9917
 125  551.1516
 126  474.8014
 127  463.0555
 128  424.8248
 129  373.8542
 130  483.0197
 131  592.0109
 132  508.3704
 133  491.1081
 134  436.9801
 135  424.4018
 136  520.0355
 137  525.414
 138  498.9554
 139  533.5687
 140  534.9425
 141  423.4818
 142  446.9981
 143  376.8108
 144  356.586
 145  366.1587
 146  382.2753
 147  315.648
 148  413.1015
 149  485.4211
 150  488.5915
 151  386.7661
 152  453.8139
 153  480.2561
 154  328.418
 155  270.6447
 156  324.4633
 157  286.0291
 158  267.5469
 159  137.7827
 160  233.7241
 161  346.0258
 162  371.8188
 163  354.7668
 164  359.5766
 165  339.2481
 166  292.4408
 167  363.5463
 168  376.5293
 169  336.6372
 170  401.94
 171  305.3906
 172  332.7178
 173  337.8281
 174  370.7452
 175  398.4501
 176  337.4776
 177  300.0054
 178  372.0594
 179  464.1119
 180  468.0645
 181  377.9952
 182  338.0163
 183  298.0681
 184  322.4807
 185  309.2394
 186  350.3738
 187  389.6304
 188  365.5397
 189  390.2469
 190  376.8839
 191  235.9659
 192  396.392
 193  388.4371
 194  395.9764
 195  262.7573
 196  329.195
 197  385.0204
 198  381.7006
 199  366.1564
 200  345.4361
 201  308.5289
 202  298.7922
 203  294.412
 204  274.5509
 205  223.4041
 206  257.2469
 207  155.4957
 208  124.5699
 209  201.8642
 210  190.1662
 211  268.6759
 212  328.4686
 213  232.7231
 214  255.896
 215  338.7728
 216  289.5094
 217  224.6883
 218  238.6321
 219  252.2056
 220  297.9442
 221  285.9315
 222  307.9187
 223  305.725
 224  156.1716
 225  182.5331
 226  191.1931
 227  175.1361
 228  243.0638
 229  378.355
 230  321.787
 231  182.3484
 232  157.6788
 233  149.899
 234  192.6375
 235  259.9486
 236  361.6688
 237  357.7149
 238  254.3641
 239  102.1581
 240  261.3164
 241  301.0773
 242  277.8493
 243  325.8648
 244  325.2982
 245  423.6646
 246  448.711
 247  427.6162
 248  333.1519
 249  325.6069
 250  382.6032
 251  354.1129
 252  373.2997
 253  416.8411
 254  354.2628
 255  327.7277
 256  319.5552
 257  380.1084
 258  246.306
 259  287.6898
 260  360.1014
 261  230.0068
 262  231.3117
 263  236.9228
 264  265.3129
 265  337.5246
 266  377.1653
 267  411.5995
 268  465.97
 269  441.333
 270  309.5157
 271  193.1735
 272  258.9847
 273  326.8416
 274  339.4843
 275  274.1194
 276  341.6128
 277  333.799
 278  369.5992
 279  333.5723
 280  263.9134
 281  261.9183
 282  244.7182
 283  261.5048
 284  222.2326
 285  227.8067
 286  195.7389
 287  267.3304
 288  426.4502
 289  314.4801
 290  443.8712
 291  428.3867
 292  373.8842
 293  359.0547
 294  350.2973
 295  409.7325
 296  434.9258
 297  394.4514
 298  393.1786
 299  276.3285
 300  301.4105
 301  471.7751
 302  395.8589
 303  418.9666
 304  379.8516
 305  385.9022
 306  406.5991
 307  399.6124
 308  398.1786
 309  351.2917
 310  260.5106
 311  231.5186
 312  344.0581
 313  318.8291
 314  179.8305
 315  367.9038
 316  454.8152
 317  420.5747
 318  412.511
 319  362.0952
 320  350.2917
 321  266.2191
 322  367.0253
 323  410.1591
 324  399.6147
 325  282.0059
 326  267.8176
 327  417.3583
 328  410.6056
 329  276.2799
 330  303.9411
 331  340.7604
 332  253.1734
 333  328.0241
 334  379.6491
 335  288.1259
 336  238.2577
 337  254.4859
 338  293.0008
 339  366.8831
 340  376.8355
 341  484.756
 342  358.4972
 343  438.6667
 344  416.9073
 345  440.6241
 346  453.7562
 347  419.2328
 348  411.0115
 349  432.9359
 350  283.1741
 351  193.5917
 352  269.0464
 353  380.7322
 354  393.3085
 355  302.3292
 356  179.7147
 357  295.9929
 358  505.0034
 359  354.378
 360  286.612
 361  353.0757
 362  352.0615
 363  338.5903
 364  323.3159
 365  387.0449
 366  392.6618
 367  295.4615
 368  339.8214
 369  424.9728
 370  442.3933
 371  345.6042
 372  518.7289
 373  399.6317
 374  301.4909
 375  299.3755
 376  319.3631
 377  312.6962
 378  221.7542
 379  238.2079
 380  318.2227
 381  390.2832
 382  387.8607
 383  236.8043
 384  165.6818
 385  255.399
 386  356.0862
 387  298.0322
 388  182.8885
 389  317.7586
 390  337.508
 391  137.45
 392  239.7551
 393  236.9409
 394  237.3978
 395  178.5646
 396  322.4088
 397  319.1189
 398  314.1537
 399  393.1385
 400  445.5194
 401  430.9016
 402  326.8444
 403  336.3303
 404  319.6064
 405  288.0396
 406  327.3072
 407  320.3708
 408  236.8076
 409  224.2345
 410  315.1543
 411  381.0262
 412  333.6336
 413  362.0525
 414  327.938
 415  305.2816
 416  269.4439
 417  316.462
 418  296.8564
 419  260.7709
 420  288.5865
 421  264.6303
 422  242.3504
 423  303.9847
 424  372.6179
 425  311.2534
 426  420.4866
 427  492.7259
 428  426.8824
 429  329.82
 430  301.2142
 431  340.9406
 432  194.8337
 433  294.3186
 434  371.3213
 435  314.9035
 436  210.1702
 437  247.8271
 438  351.1398
 439  371.9035
 440  326.6826
 441  298.2866
 442  267.4283
 443  377.5902
 444  437.2353
 445  418.8537
 446  294.9047
 447  392.9727
 448  252.9047
 449  208.2023
 450  253.2485
 451  290.0638
 452  359.7282
 453  249.6183
 454  256.5212
 455  308.1917
 456  342.6848
 457  279.3196
 458  250.142
 459  267.7432
 460  361.3455
 461  346.183
 462  367.5366
 463  227.0383
 464  193.4234
 465  263.3946
 466  220.8848
 467  313.5582
 468  199.7516
 469  225.4419
 470  316.5312
 471  185.8861
 472  245.1172
 473  159.6682
 474  223.2077
 475  326.364
 476  222.6302
 477  187.9471
 478  262.548
 479  209.3248
 480  300.6513
 481  205.1294
 482  288.038
 483  349.4865
 484  268.9828
 485  336.2314
 486  294.8465
 487  237.8325
 488  269.5881
 489  204.7202
 490  229.0876
 491  181.1628
 492  216.9979
 493  235.2513
 494  233.0704
 495  176.7627
 496  167.8329
 497  182.1279
 498  208.2796
 499  201.3781
 500  115.4661
 501  79.4975
 502  210.8543
 503  241.5153
 504  257.7094
 505  253.8674
 506  199.2743
 507  254.7611
 508  391.7877
 509  340.7604
 510  190.9701
 511  296.8918
