# Input file       =  1184716687.098535_cleaned.dat
# Candidate        =  PSR_0332+5434
# Telescope        =  AR
# Epoch_topo       =  57955.998484936747
# Epoch_bary       =  N/A
# T_sample         =  0.002
# Data Folded      =  7143424
# Data Avg         =  0.0266800263540202
# Data StdDev      =  1.00011840909109 
# Profile Bins     =  512
# Profile Avg      =  372.24409695439  
# Profile StdDev   =  118.132570796097 
# Reduced chi-sqr  =  1.258
# Prob(Noise)      <  6.33e-05   (~3.8 sigma)
# P_topo (ms)      =  714.474542100133  +/- 0.00035
# P'_topo (s/s)    =  -0                +/- 1.9e-10
# P''_topo (s/s^2) =  0                 +/- 8.61e-14
# P_bary (ms)      =  N/A
# P'_bary (s/s)    =  N/A
# P''_bary (s/s^2) =  N/A
# P_orb (s)        =  N/A
# asin(i)/c (s)    =  N/A
# eccentricity     =  N/A
# w (rad)          =  N/A
# T_peri           =  N/A
######################################################
   0  415.8807
   1  334.5487
   2  350.1394
   3  347.3513
   4  277.5957
   5  147.1135
   6  316.8377
   7  312.1362
   8  315.868
   9  372.9504
  10  432.7261
  11  441.0449
  12  450.4339
  13  334.8128
  14  276.6013
  15  348.0285
  16  363.0091
  17  275.9514
  18  256.4943
  19  260.8826
  20  405.7479
  21  368.972
  22  381.6291
  23  381.5002
  24  368.843
  25  368.1902
  26  303.8333
  27  331.5696
  28  225.3663
  29  304.7678
  30  312.114
  31  273.9624
  32  342.3427
  33  400.3633
  34  423.7407
  35  444.6399
  36  293.7
  37  357.1328
  38  352.1834
  39  273.7368
  40  330.2906
  41  349.7909
  42  359.5123
  43  391.9189
  44  459.3475
  45  336.1736
  46  323.7452
  47  397.2238
  48  463.4926
  49  470.7883
  50  377.0981
  51  256.2681
  52  369.777
  53  503.9588
  54  424.009
  55  365.7064
  56  393.3477
  57  453.669
  58  518.6797
  59  365.1439
  60  301.3737
  61  379.573
  62  496.2844
  63  465.0016
  64  316.3276
  65  334.0353
  66  419.8585
  67  213.3629
  68  138.2516
  69  251.3633
  70  330.0704
  71  404.3568
  72  383.0564
  73  518.991
  74  436.2867
  75  336.038
  76  362.7356
  77  373.8301
  78  332.4676
  79  191.2285
  80  254.9101
  81  446.2806
  82  305.106
  83  217.0651
  84  328.5444
  85  363.6376
  86  303.3989
  87  313.9177
  88  408.0569
  89  411.9954
  90  445.0172
  91  232.2424
  92  327.7266
  93  483.0079
  94  433.1932
  95  357.046
  96  422.8332
  97  386.3084
  98  276.6545
  99  202.1178
 100  402.6301
 101  414.4291
 102  271.3526
 103  315.9821
 104  260.5606
 105  292.4795
 106  392.4119
 107  411.7802
 108  409.313
 109  375.1046
 110  379.1633
 111  381.3708
 112  419.7953
 113  343.5469
 114  362.0818
 115  342.4731
 116  392.3248
 117  445.7366
 118  260.1125
 119  242.8254
 120  325.2728
 121  260.9985
 122  257.2287
 123  313.0356
 124  370.9811
 125  358.532
 126  425.4606
 127  355.1426
 128  360.7202
 129  387.5827
 130  419.5793
 131  376.5521
 132  483.8921
 133  388.1193
 134  232.0318
 135  317.7393
 136  311.8174
 137  303.2268
 138  392.9093
 139  439.6184
 140  434.2424
 141  446.9784
 142  373.1134
 143  247.2115
 144  218.9877
 145  300.5052
 146  300.0256
 147  426.4115
 148  488.6346
 149  363.6442
 150  393.3169
 151  383.1364
 152  291.9946
 153  332.1194
 154  393.3516
 155  298.8693
 156  263.8637
 157  197.2364
 158  340.7566
 159  445.4345
 160  360.1747
 161  307.1466
 162  402.1497
 163  354.5114
 164  398.3082
 165  453.8188
 166  345.4091
 167  357.8736
 168  294.0147
 169  379.1087
 170  349.2763
 171  373.2599
 172  442.4773
 173  308.6879
 174  325.2915
 175  271.9555
 176  320.1132
 177  283.474
 178  337.2844
 179  404.0523
 180  349.9602
 181  385.9421
 182  334.4
 183  346.3653
 184  390.1938
 185  299.3039
 186  292.4253
 187  409.4947
 188  437.464
 189  314.8493
 190  231.6142
 191  368.7987
 192  380.4579
 193  379.2672
 194  314.1949
 195  445.7874
 196  420.3503
 197  373.6582
 198  320.6485
 199  323.0124
 200  333.8417
 201  203.9557
 202  292.1482
 203  231.8555
 204  218.0993
 205  244.1538
 206  345.7845
 207  431.3437
 208  387.563
 209  400.8148
 210  267.2841
 211  167.3983
 212  279.4226
 213  333.1511
 214  294.9257
 215  352.0021
 216  400.3637
 217  388.4944
 218  198.5942
 219  220.9148
 220  305.5074
 221  363.1306
 222  343.356
 223  420.1136
 224  484.4974
 225  342.5728
 226  229.8149
 227  263.0213
 228  327.4922
 229  304.8745
 230  226.8348
 231  352.324
 232  323.5344
 233  328.0273
 234  430.8975
 235  438.0728
 236  406.8814
 237  351.4938
 238  435.8167
 239  455.7003
 240  271.0101
 241  359.8895
 242  262.3842
 243  187.3267
 244  301.6011
 245  406.9937
 246  413.9746
 247  442.052
 248  333.5742
 249  309.8604
 250  385.9052
 251  385.5154
 252  263.3986
 253  299.851
 254  380.3589
 255  267.6077
 256  292.6667
 257  325.3463
 258  486.481
 259  453.8221
 260  532.7808
 261  474.1183
 262  350.9909
 263  401.4603
 264  282.7766
 265  267.5687
 266  301.5289
 267  454.9239
 268  439.4829
 269  384.1952
 270  322.0027
 271  335.8032
 272  405.1259
 273  391.4697
 274  387.5926
 275  401.12
 276  374.5813
 277  383.6958
 278  327.4275
 279  339.7504
 280  327.2822
 281  297.4427
 282  215.8025
 283  218.5229
 284  372.6946
 285  304.65
 286  299.713
 287  387.0772
 288  391.1452
 289  473.9696
 290  361.396
 291  319.8843
 292  327.6657
 293  314.788
 294  444.8616
 295  421.6419
 296  370.7528
 297  294.7627
 298  332.1705
 299  367.4626
 300  434.1832
 301  465.4586
 302  495.9327
 303  301.2985
 304  421.4445
 305  450.127
 306  274.145
 307  291.1569
 308  403.2298
 309  357.9492
 310  367.5698
 311  416.4124
 312  356.5233
 313  322.7584
 314  228.5987
 315  335.948
 316  321.1621
 317  355.7404
 318  412.9692
 319  339.0802
 320  354.8618
 321  291.2236
 322  301.2377
 323  329.1566
 324  392.0553
 325  436.2421
 326  379.247
 327  387.2881
 328  422.2798
 329  369.7058
 330  427.9384
 331  348.1443
 332  303.7798
 333  382.4759
 334  514.9542
 335  433.201
 336  335.2032
 337  434.9932
 338  509.7471
 339  472.6088
 340  365.2241
 341  306.5652
 342  285.8295
 343  369.1846
 344  360.2976
 345  489.7842
 346  445.0499
 347  417.8158
 348  411.103
 349  487.8351
 350  434.4072
 351  254.9995
 352  305.9989
 353  311.7088
 354  355.7733
 355  485.8863
 356  467.2181
 357  424.2807
 358  346.2601
 359  317.8235
 360  277.2651
 361  273.1532
 362  310.2315
 363  316.5659
 364  455.862
 365  469.801
 366  287.7642
 367  218.3583
 368  263.0704
 369  314.6416
 370  390.3687
 371  419.3288
 372  554.2612
 373  456.7801
 374  466.9466
 375  444.2045
 376  411.5955
 377  349.5262
 378  283.024
 379  302.3974
 380  371.8331
 381  431.5235
 382  451.3366
 383  317.2199
 384  341.5695
 385  494.0797
 386  417.0555
 387  393.3967
 388  372.0877
 389  451.4236
 390  471.8473
 391  445.0199
 392  386.5815
 393  457.9214
 394  429.2172
 395  421.7345
 396  400.1393
 397  462.9832
 398  407.2248
 399  404.3037
 400  387.9054
 401  298.8346
 402  313.6269
 403  381.4063
 404  420.4996
 405  455.5254
 406  462.8109
 407  586.0556
 408  603.3337
 409  594.6227
 410  579.3605
 411  526.3122
 412  739.389
 413  920.5662
 414  1064.947
 415  1157.752
 416  917.267
 417  622.8929
 418  488.9553
 419  458.5192
 420  522.9222
 421  527.9271
 422  425.3648
 423  402.3936
 424  410.9796
 425  348.047
 426  382.1404
 427  444.653
 428  528.8671
 429  517.5336
 430  402.3373
 431  333.7839
 432  378.848
 433  446.3063
 434  395.4261
 435  461.5766
 436  417.3438
 437  422.6603
 438  415.7962
 439  409.1016
 440  421.4851
 441  370.7012
 442  402.1978
 443  385.9066
 444  320.3466
 445  281.5902
 446  260.3223
 447  403.2225
 448  375.6772
 449  312.7187
 450  260.0892
 451  235.2184
 452  357.0428
 453  258.7993
 454  317.5105
 455  330.617
 456  412.7193
 457  399.2988
 458  420.1565
 459  306.8425
 460  366.7321
 461  374.7188
 462  418.606
 463  352.9136
 464  318.4585
 465  379.0644
 466  413.3264
 467  346.7167
 468  414.7932
 469  369.2309
 470  385.2892
 471  400.587
 472  303.8775
 473  345.1391
 474  403.5952
 475  293.8909
 476  401.6561
 477  467.5802
 478  355.9984
 479  286.6404
 480  452.8764
 481  390.6308
 482  376.9885
 483  411.2178
 484  390.4674
 485  405.2043
 486  234.0051
 487  256.5886
 488  381.1244
 489  416.5734
 490  394.0789
 491  307.3303
 492  360.9826
 493  371.036
 494  305.6046
 495  374.6093
 496  351.8527
 497  332.4248
 498  428.0061
 499  382.1525
 500  340.2086
 501  402.8413
 502  458.8135
 503  437.6058
 504  349.605
 505  402.0157
 506  553.0798
 507  484.8949
 508  399.6127
 509  434.4405
 510  343.5226
 511  399.6553
