# Input file       =  1184285753.10695_cleaned.dat
# Candidate        =  PSR_0332+5434
# Telescope        =  AR
# Epoch_topo       =  57951.010822997108
# Epoch_bary       =  N/A
# T_sample         =  0.002
# Data Folded      =  7208960
# Data Avg         =  0.0253824795384479
# Data StdDev      =  1.00003876018597 
# Profile Bins     =  512
# Profile Avg      =  357.318106365491 
# Profile StdDev   =  118.663775045251 
# Reduced chi-sqr  =  1.349
# Prob(Noise)      <  2.1e-07   (~5.1 sigma)
# P_topo (ms)      =  714.477596171045  +/- 0.000269
# P'_topo (s/s)    =  -0                +/- 1.44e-10
# P''_topo (s/s^2) =  0                 +/- 6.49e-14
# P_bary (ms)      =  N/A
# P'_bary (s/s)    =  N/A
# P''_bary (s/s^2) =  N/A
# P_orb (s)        =  N/A
# asin(i)/c (s)    =  N/A
# eccentricity     =  N/A
# w (rad)          =  N/A
# T_peri           =  N/A
######################################################
   0  1125.329
   1  1107.271
   2  951.1409
   3  660.6566
   4  422.1925
   5  413.2672
   6  487.9857
   7  379.1553
   8  410.3465
   9  345.6881
  10  290.186
  11  415.515
  12  520.869
  13  553.0559
  14  480.1375
  15  467.4936
  16  453.5241
  17  401.4591
  18  258.1936
  19  215.5064
  20  276.0431
  21  399.6878
  22  454.3819
  23  385.252
  24  353.1055
  25  383.1977
  26  307.7661
  27  331.6552
  28  424.9474
  29  336.079
  30  435.0196
  31  392.294
  32  365.3097
  33  466.2607
  34  476.6605
  35  411.2825
  36  467.9798
  37  539.1277
  38  473.91
  39  339.5528
  40  372.7946
  41  465.7878
  42  427.884
  43  412.2491
  44  319.8822
  45  400.6906
  46  495.0849
  47  432.2034
  48  255.3698
  49  382.435
  50  432.3611
  51  312.6722
  52  397.7964
  53  454.1492
  54  409.074
  55  346.3549
  56  365.0398
  57  341.7783
  58  300.6125
  59  250.0447
  60  176.3957
  61  322.7688
  62  335.0997
  63  260.357
  64  132.9335
  65  314.658
  66  373.6472
  67  347.1829
  68  363.0815
  69  321.5081
  70  394.0411
  71  423.1571
  72  380.3826
  73  326.9214
  74  288.071
  75  276.9958
  76  244.6506
  77  325.7191
  78  336.5145
  79  321.8316
  80  374.3538
  81  369.983
  82  383.2553
  83  330.4956
  84  304.5594
  85  285.9984
  86  351.4472
  87  403.4954
  88  390.3648
  89  360.9161
  90  388.2816
  91  411.496
  92  438.3996
  93  408.1221
  94  443.2094
  95  392.147
  96  491.9375
  97  507.676
  98  508.2984
  99  437.9813
 100  391.6553
 101  383.5322
 102  315.8101
 103  380.7848
 104  459.6852
 105  492.3623
 106  572.9681
 107  514.2165
 108  318.281
 109  294.0594
 110  377.1841
 111  441.3285
 112  480.208
 113  402.5662
 114  337.5567
 115  418.2896
 116  459.5307
 117  298.1683
 118  242.4874
 119  327.5097
 120  451.3485
 121  425.3377
 122  417.1881
 123  269.027
 124  288.7962
 125  294.6815
 126  425.3658
 127  463.8811
 128  380.5659
 129  352.0824
 130  350.9598
 131  345.8164
 132  312.1247
 133  440.3706
 134  401.7132
 135  276.3073
 136  337.7271
 137  372.2991
 138  396.035
 139  437.4499
 140  414.4232
 141  423.2144
 142  332.3226
 143  361.172
 144  303.1682
 145  193.0355
 146  279.4456
 147  327.9533
 148  329.8309
 149  331.1069
 150  284.1994
 151  318.389
 152  308.2131
 153  364.2198
 154  440.737
 155  361.7715
 156  370.695
 157  346.5431
 158  403.9405
 159  344.9807
 160  347.3076
 161  277.3794
 162  234.1936
 163  327.7104
 164  461.6874
 165  390.9662
 166  471.015
 167  512.1833
 168  490.1267
 169  474.6615
 170  444.9351
 171  342.6823
 172  363.6145
 173  438.7993
 174  429.3802
 175  366.6044
 176  361.4693
 177  350.7783
 178  375.9011
 179  465.2125
 180  580.5587
 181  540.9466
 182  402.7662
 183  358.4834
 184  285.1393
 185  495.7153
 186  494.4781
 187  318.5347
 188  336.8573
 189  323.6255
 190  320.7164
 191  310.5782
 192  285.0576
 193  336.2877
 194  361.3075
 195  420.1209
 196  344.9882
 197  231.5322
 198  210.3379
 199  287.9406
 200  348.3538
 201  438.3159
 202  499.4819
 203  426.0597
 204  326.3156
 205  365.1522
 206  288.2721
 207  235.7449
 208  239.6786
 209  333.8944
 210  413.9834
 211  413.2375
 212  371.6255
 213  347.518
 214  320.4427
 215  278.8987
 216  218.3749
 217  341.9314
 218  327.7897
 219  337.6951
 220  400.9159
 221  324.1203
 222  345.9397
 223  250.7823
 224  307.3221
 225  263.0279
 226  336.4614
 227  349.0329
 228  260.8132
 229  253.2577
 230  441.4751
 231  388.5708
 232  450.9507
 233  368.5416
 234  298.5657
 235  346.0754
 236  283.2523
 237  236.1103
 238  317.0319
 239  279.6985
 240  260.767
 241  307.2249
 242  446.0555
 243  519.2477
 244  356.2578
 245  402.6328
 246  353.0163
 247  370.5251
 248  311.0197
 249  213.8031
 250  350.8686
 251  372.7689
 252  427.9484
 253  387.4635
 254  340.4359
 255  440.4268
 256  336.4539
 257  337.9446
 258  247.9606
 259  272.1231
 260  251.6724
 261  393.4521
 262  394.3126
 263  364.857
 264  331.6909
 265  285.4857
 266  321.9022
 267  269.3763
 268  286.1732
 269  366.8302
 270  283.2083
 271  368.8068
 272  359.3026
 273  406.8013
 274  385.3803
 275  421.8026
 276  272.3095
 277  296.4251
 278  313.4891
 279  274.7521
 280  273.6259
 281  296.1267
 282  297.9365
 283  326.5841
 284  364.9125
 285  386.2
 286  378.8027
 287  333.4157
 288  406.3738
 289  289.3956
 290  163.8713
 291  315.8271
 292  292.0909
 293  345.4583
 294  319.5628
 295  221.2986
 296  320.9289
 297  309.2205
 298  313.0957
 299  419.9558
 300  396.751
 301  238.7568
 302  195.5411
 303  204.5018
 304  199.3046
 305  250.0762
 306  452.1842
 307  324.3871
 308  210.3683
 309  393.1955
 310  332.3824
 311  271.0215
 312  377.8559
 313  335.051
 314  365.505
 315  319.9685
 316  301.9632
 317  362.0892
 318  322.5356
 319  372.7031
 320  354.8397
 321  394.3433
 322  406.1924
 323  416.0378
 324  323.0721
 325  224.5898
 326  288.6888
 327  273.8043
 328  421.7639
 329  354.0635
 330  256.2386
 331  333.9504
 332  262.8397
 333  293.1882
 334  393.7258
 335  396.4917
 336  399.7326
 337  314.1416
 338  328.6513
 339  447.517
 340  397.2856
 341  305.4682
 342  353.0201
 343  322.291
 344  227.1761
 345  274.813
 346  356.2189
 347  411.5018
 348  383.026
 349  344.5856
 350  342.224
 351  329.8289
 352  309.4369
 353  360.1138
 354  278.5408
 355  329.8729
 356  270.605
 357  191.4457
 358  356.3553
 359  355.0424
 360  335.6336
 361  318.0149
 362  268.9737
 363  168.7728
 364  173.5813
 365  273.7741
 366  262.3113
 367  172.7748
 368  120.6645
 369  205.4006
 370  237.6016
 371  360.6852
 372  313.4842
 373  301.6889
 374  313.42
 375  306.0007
 376  262.2156
 377  267.529
 378  201.5587
 379  240.5629
 380  315.2235
 381  330.2783
 382  366.7432
 383  279.4988
 384  203.121
 385  244.3305
 386  263.6289
 387  297.4442
 388  480.9568
 389  389.0779
 390  389.4742
 391  360.4868
 392  368.4428
 393  364.7791
 394  293.435
 395  358.7496
 396  302.7564
 397  254.8643
 398  314.142
 399  339.5643
 400  385.1186
 401  347.8964
 402  309.7114
 403  247.027
 404  398.6924
 405  359.4087
 406  336.1758
 407  382.2007
 408  501.5759
 409  322.1493
 410  281.369
 411  251.8939
 412  264.2733
 413  339.6498
 414  350.3853
 415  400.2321
 416  333.8279
 417  384.0993
 418  382.2581
 419  368.8246
 420  321.5438
 421  375.784
 422  375.6759
 423  449.0359
 424  388.2298
 425  311.2431
 426  305.5042
 427  286.2068
 428  365.8015
 429  364.4339
 430  282.6628
 431  328.2507
 432  312.2476
 433  283.0682
 434  291.5414
 435  302.5217
 436  270.0099
 437  383.8176
 438  306.5092
 439  195.0765
 440  222.463
 441  386.7001
 442  393.3683
 443  348.1779
 444  454.0132
 445  372.3474
 446  275.177
 447  269.1402
 448  275.197
 449  268.0172
 450  272.7057
 451  267.6979
 452  212.9616
 453  142.6552
 454  311.9521
 455  407.1696
 456  448.8009
 457  394.8773
 458  401.0058
 459  409.4142
 460  395.9456
 461  324.4602
 462  448.3469
 463  439.9473
 464  454.2138
 465  435.8698
 466  436.5321
 467  383.5719
 468  343.4442
 469  333.1599
 470  342.5327
 471  364.3609
 472  316.8638
 473  346.683
 474  394.1786
 475  310.0255
 476  334.2101
 477  270.1398
 478  362.5747
 479  347.0444
 480  425.0614
 481  418.5786
 482  392.2291
 483  410.6024
 484  368.1522
 485  358.199
 486  418.1971
 487  410.8392
 488  366.0894
 489  344.61
 490  257.3228
 491  226.3468
 492  379.4568
 493  352.6783
 494  278.1897
 495  363.3979
 496  416.4448
 497  315.1189
 498  296.5673
 499  335.0582
 500  305.6017
 501  343.2923
 502  477.8257
 503  386.6959
 504  313.9599
 505  446.5843
 506  450.4926
 507  529.8297
 508  645.2032
 509  643.7147
 510  693.6761
 511  969.8026
