# Input file       =  1184113454.097065_cleaned.dat
# Candidate        =  PSR_0332+5434
# Telescope        =  AR
# Epoch_topo       =  57949.016621493807
# Epoch_bary       =  N/A
# T_sample         =  0.002
# Data Folded      =  7208960
# Data Avg         =  0.0331089464858121
# Data StdDev      =  1.0000729856281  
# Profile Bins     =  512
# Profile Avg      =  466.178854946135 
# Profile StdDev   =  118.667836208006 
# Reduced chi-sqr  =  1.346
# Prob(Noise)      <  2.61e-07   (~5.0 sigma)
# P_topo (ms)      =  714.478898903105  +/- 0.000234
# P'_topo (s/s)    =  -0                +/- 1.26e-10
# P''_topo (s/s^2) =  0                 +/- 5.65e-14
# P_bary (ms)      =  N/A
# P'_bary (s/s)    =  N/A
# P''_bary (s/s^2) =  N/A
# P_orb (s)        =  N/A
# asin(i)/c (s)    =  N/A
# eccentricity     =  N/A
# w (rad)          =  N/A
# T_peri           =  N/A
######################################################
   0  1195.64
   1  1048.822
   2  851.3938
   3  674.0068
   4  559.2022
   5  541.752
   6  542.8766
   7  599.7191
   8  649.9012
   9  438.8985
  10  411.2877
  11  531.7123
  12  586.1821
  13  545.5661
  14  522.9849
  15  506.7488
  16  483.1646
  17  562.775
  18  550.7338
  19  561.0896
  20  518.9916
  21  393.632
  22  466.6018
  23  466.5693
  24  523.1928
  25  473.5219
  26  382.0599
  27  444.1412
  28  453.6706
  29  490.813
  30  437.8555
  31  361.6105
  32  453.5943
  33  380.6206
  34  448.3687
  35  454.1366
  36  517.4899
  37  452.562
  38  531.5485
  39  419.9759
  40  451.924
  41  384.114
  42  381.7568
  43  490.5418
  44  469.7159
  45  456.5725
  46  462.325
  47  363.7931
  48  327.9636
  49  362.0216
  50  446.8322
  51  460.9793
  52  258.7888
  53  356.7862
  54  422.485
  55  390.6973
  56  402.6171
  57  453.5088
  58  362.2996
  59  374.8627
  60  486.0608
  61  506.1333
  62  426.7062
  63  419.6047
  64  520.4373
  65  524.9357
  66  479.8849
  67  517.7293
  68  534.1582
  69  466.4076
  70  497.7188
  71  605.8755
  72  570.4879
  73  550.2393
  74  455.006
  75  424.943
  76  442.9633
  77  546.4799
  78  645.4482
  79  599.6074
  80  471.3629
  81  557.3142
  82  618.3782
  83  575.5663
  84  551.2386
  85  501.924
  86  505.3445
  87  589.5526
  88  567.6467
  89  561.4874
  90  520.2014
  91  514.883
  92  647.6181
  93  711.7294
  94  594.9417
  95  557.1375
  96  573.8092
  97  596.8686
  98  619.2701
  99  518.7987
 100  473.7867
 101  442.4745
 102  607.2481
 103  599.833
 104  533.4857
 105  483.4512
 106  482.5929
 107  516.9079
 108  556.5938
 109  569.7484
 110  529.1154
 111  553.7437
 112  560.4904
 113  532.5875
 114  506.5599
 115  563.9108
 116  497.3269
 117  466.1235
 118  435.0603
 119  505.2827
 120  490.9583
 121  329.132
 122  412.0049
 123  570.1292
 124  465.2709
 125  519.8508
 126  467.07
 127  517.5688
 128  557.8904
 129  474.0061
 130  463.9577
 131  462.528
 132  554.6352
 133  551.7629
 134  495.5697
 135  456.6587
 136  451.6614
 137  443.6311
 138  408.0822
 139  507.459
 140  501.4095
 141  517.3193
 142  470.4961
 143  415.8731
 144  312.0722
 145  475.2223
 146  527.9484
 147  558.8683
 148  485.4099
 149  453.9611
 150  438.0027
 151  374.6686
 152  455.1684
 153  516.2676
 154  525.8369
 155  581.7599
 156  671.6841
 157  508.368
 158  512.9673
 159  487.4526
 160  523.7292
 161  591.4809
 162  592.6808
 163  528.6984
 164  515.9855
 165  530.9603
 166  464.7369
 167  461.1689
 168  461.681
 169  487.3007
 170  390.939
 171  353.6805
 172  402.1257
 173  429.901
 174  502.5704
 175  368.9154
 176  397.2041
 177  434.3254
 178  413.8771
 179  478.405
 180  406.2707
 181  352.438
 182  348.3546
 183  377.8651
 184  399.7974
 185  375.1594
 186  276.3834
 187  350.3415
 188  373.8443
 189  436.8501
 190  381.1268
 191  419.2891
 192  463.1589
 193  449.9551
 194  423.1653
 195  435.464
 196  380.257
 197  413.3257
 198  320.4493
 199  290.5242
 200  321.5152
 201  404.421
 202  435.6668
 203  471.6724
 204  543.9018
 205  538.5451
 206  515.9351
 207  470.5938
 208  337.5065
 209  417.9016
 210  491.1823
 211  509.8765
 212  420.7237
 213  502.2446
 214  391.2645
 215  429.0954
 216  549.2451
 217  544.6412
 218  506.755
 219  496.9763
 220  510.4492
 221  450.0775
 222  617.2607
 223  544.1693
 224  510.2944
 225  532.5132
 226  546.0323
 227  468.5705
 228  491.661
 229  567.021
 230  640.3168
 231  473.3394
 232  520.5497
 233  403.6974
 234  346.3387
 235  477.637
 236  544.0654
 237  420.576
 238  463.1583
 239  632.6161
 240  540.1159
 241  335.9305
 242  397.3829
 243  396.2757
 244  379.4738
 245  494.7184
 246  548.8672
 247  486.6739
 248  464.6295
 249  381.8028
 250  380.4731
 251  354.5904
 252  377.8167
 253  391.5887
 254  426.7049
 255  517.6425
 256  490.3914
 257  417.4647
 258  422.0307
 259  440.4401
 260  351.2917
 261  417.1957
 262  438.2053
 263  418.6155
 264  374.9424
 265  390.1379
 266  389.3399
 267  378.7142
 268  345.8063
 269  375.3025
 270  407.0769
 271  497.4391
 272  423.9744
 273  433.6999
 274  434.1218
 275  526.2778
 276  507.9741
 277  468.1241
 278  346.2383
 279  450.2094
 280  575.9764
 281  490.0363
 282  413.3308
 283  459.4756
 284  594.3361
 285  515.49
 286  483.1906
 287  474.2838
 288  467.1372
 289  444.2712
 290  420.2372
 291  493.6664
 292  576.2968
 293  667.9395
 294  473.0348
 295  415.4642
 296  565.4923
 297  534.9565
 298  473.393
 299  444.183
 300  584.913
 301  539.0589
 302  508.517
 303  450.9148
 304  546.4564
 305  595.7553
 306  532.0482
 307  526.0122
 308  499.8537
 309  393.0069
 310  336.5433
 311  358.254
 312  441.3957
 313  516.7154
 314  557.5744
 315  626.1016
 316  572.4024
 317  480.119
 318  413.7383
 319  378.3194
 320  451.3024
 321  595.9388
 322  518.5895
 323  422.7085
 324  405.1082
 325  462.4612
 326  495.133
 327  484.5742
 328  561.3344
 329  488.7567
 330  375.8206
 331  382.6876
 332  371.6936
 333  409.3907
 334  463.4669
 335  316.859
 336  338.2124
 337  378.1282
 338  461.0019
 339  481.772
 340  474.9578
 341  411.7221
 342  334.4124
 343  465.7519
 344  451.6257
 345  457.6119
 346  428.5035
 347  431.0362
 348  382.6839
 349  341.2815
 350  443.6163
 351  494.2455
 352  548.6409
 353  585.1471
 354  519.9918
 355  507.4835
 356  431.411
 357  296.0026
 358  338.4154
 359  503.7452
 360  457.1587
 361  361.6919
 362  421.0516
 363  509.503
 364  408.0627
 365  411.3799
 366  458.763
 367  499.5027
 368  521.0402
 369  464.6996
 370  485.6494
 371  408.0442
 372  419.4915
 373  529.9764
 374  418.0934
 375  425.024
 376  470.3274
 377  460.6621
 378  463.4924
 379  346.6653
 380  453.1816
 381  442.5858
 382  464.9152
 383  517.9335
 384  479.8239
 385  517.7452
 386  453.3799
 387  461.568
 388  588.3865
 389  542.7456
 390  388.8407
 391  426.0598
 392  460.069
 393  369.0296
 394  414.811
 395  443.6094
 396  519.8461
 397  412.2886
 398  472.0843
 399  450.0515
 400  414.37
 401  365.0798
 402  290.9287
 403  364.5459
 404  399.6185
 405  439.3254
 406  451.439
 407  390.5112
 408  381.6869
 409  370.626
 410  413.3272
 411  352.9717
 412  387.5844
 413  402.5581
 414  421.838
 415  298.4714
 416  308.28
 417  231.8061
 418  265.354
 419  362.4007
 420  384.7096
 421  387.0161
 422  412.4695
 423  263.5141
 424  241.2498
 425  388.7527
 426  481.3357
 427  390.175
 428  303.8154
 429  377.0042
 430  392.7549
 431  295.6536
 432  293.3131
 433  424.8044
 434  459.1905
 435  419.1406
 436  501.5388
 437  484.1151
 438  485.2819
 439  539.2128
 440  514.2791
 441  440.1219
 442  524.2391
 443  553.002
 444  431.5251
 445  420.1122
 446  503.8346
 447  508.0426
 448  490.683
 449  573.1483
 450  622.153
 451  621.9205
 452  497.9435
 453  332.0623
 454  328.8733
 455  450.9581
 456  500.1595
 457  439.8023
 458  387.2471
 459  386.6892
 460  365.4396
 461  420.7552
 462  447.4196
 463  415.4685
 464  290.3565
 465  371.9521
 466  450.3134
 467  427.6413
 468  497.4032
 469  452.0631
 470  430.9648
 471  386.2846
 472  302.6656
 473  363.6263
 474  448.1783
 475  383.6913
 476  434.4136
 477  432.6034
 478  401.2081
 479  377.2733
 480  433.7251
 481  404.981
 482  359.8994
 483  390.4815
 484  338.6037
 485  454.1559
 486  499.7786
 487  525.2708
 488  405.0052
 489  352.7169
 490  333.4886
 491  426.5999
 492  476.0804
 493  419.698
 494  500.8786
 495  436.1267
 496  451.945
 497  401.5314
 498  392.4679
 499  424.7285
 500  350.7018
 501  311.8102
 502  393.8461
 503  510.6224
 504  504.6555
 505  488.4816
 506  493.147
 507  525.0737
 508  726.5836
 509  818.3499
 510  1026.366
 511  1086.228
