# Input file       =  1184027341.112139_cleaned.dat
# Candidate        =  PSR_0332+5434
# Telescope        =  AR
# Epoch_topo       =  57948.019943427535
# Epoch_bary       =  N/A
# T_sample         =  0.002
# Data Folded      =  7208960
# Data Avg         =  0.0247259714163004
# Data StdDev      =  1.0000512189023  
# Profile Bins     =  512
# Profile Avg      =  347.854251655387 
# Profile StdDev   =  118.665253386263 
# Reduced chi-sqr  =  1.286
# Prob(Noise)      <  1.21e-05   (~4.2 sigma)
# P_topo (ms)      =  714.47956569148   +/- 0.000253
# P'_topo (s/s)    =  -0                +/- 1.36e-10
# P''_topo (s/s^2) =  0                 +/- 6.1e-14
# P_bary (ms)      =  N/A
# P'_bary (s/s)    =  N/A
# P''_bary (s/s^2) =  N/A
# P_orb (s)        =  N/A
# asin(i)/c (s)    =  N/A
# eccentricity     =  N/A
# w (rad)          =  N/A
# T_peri           =  N/A
######################################################
   0  1050.225
   1  873.5552
   2  592.7501
   3  390.8301
   4  395.0613
   5  425.5541
   6  301.8124
   7  308.8372
   8  362.6866
   9  443.0123
  10  337.0208
  11  376.8694
  12  525.5973
  13  443.2084
  14  360.2104
  15  385.6016
  16  318.8437
  17  303.4067
  18  277.9973
  19  317.0592
  20  303.5822
  21  264.0156
  22  261.7519
  23  474.6781
  24  463.5914
  25  462.4474
  26  371.5478
  27  333.458
  28  409.8546
  29  297.4698
  30  372.6055
  31  386.3708
  32  469.4323
  33  442.2396
  34  441.416
  35  378.0646
  36  278.1681
  37  250.0394
  38  261.8133
  39  282.718
  40  374.7061
  41  428.3087
  42  386.2737
  43  452.2382
  44  438.228
  45  352.6417
  46  335.1032
  47  355.7005
  48  310.2674
  49  453.6277
  50  476.6863
  51  384.8523
  52  283.4583
  53  385.296
  54  424.9749
  55  271.8539
  56  278.5434
  57  289.8237
  58  345.851
  59  313.8211
  60  324.9644
  61  316.8952
  62  297.2668
  63  338.5193
  64  398.5524
  65  422.4472
  66  387.3166
  67  444.049
  68  446.6731
  69  500.4803
  70  450.3306
  71  248.776
  72  293.9816
  73  356.8899
  74  478.8961
  75  441.0541
  76  366.5706
  77  423.7415
  78  308.0735
  79  255.288
  80  292.6008
  81  383.797
  82  347.3679
  83  325.4217
  84  370.8435
  85  344.1253
  86  303.9859
  87  253.7448
  88  250.7659
  89  287.1121
  90  326.5569
  91  342.9064
  92  319.152
  93  214.3108
  94  329.63
  95  395.1675
  96  314.2265
  97  312.2961
  98  319.9075
  99  348.9767
 100  295.4753
 101  375.8377
 102  444.0281
 103  463.8946
 104  343.7714
 105  296.2558
 106  303.5849
 107  449.688
 108  283.2379
 109  303.6321
 110  231.184
 111  332.856
 112  232.3181
 113  315.0483
 114  497.6375
 115  235.6521
 116  207.1306
 117  253.558
 118  286.791
 119  287.2808
 120  337.3646
 121  371.0821
 122  370.327
 123  264.7458
 124  158.5811
 125  313.8951
 126  390.4185
 127  387.305
 128  439.7201
 129  417.164
 130  436.194
 131  368.9731
 132  231.5438
 133  215.1944
 134  207.7025
 135  291.6252
 136  302.2501
 137  387.9686
 138  415.1263
 139  341.248
 140  400.2481
 141  439.7407
 142  479.5212
 143  494.3444
 144  416.4185
 145  412.7713
 146  359.8351
 147  243.2478
 148  224.908
 149  329.9537
 150  410.3449
 151  317.1733
 152  340.0072
 153  266.4745
 154  226.1495
 155  202.7317
 156  355.2386
 157  303.5087
 158  309.8436
 159  290.0098
 160  337.6931
 161  275.0696
 162  315.8456
 163  235.6539
 164  290.2869
 165  212.3117
 166  218.9262
 167  160.4912
 168  262.4754
 169  248.2952
 170  277.9313
 171  371.075
 172  389.1121
 173  401.5188
 174  414.8897
 175  360.2719
 176  405.0072
 177  469.6482
 178  442.8586
 179  416.9567
 180  311.3771
 181  377.5589
 182  507.9627
 183  409.9913
 184  237.5541
 185  417.3828
 186  465.6532
 187  401.2326
 188  428.9657
 189  402.4343
 190  322.7055
 191  363.1807
 192  407.7136
 193  344.1012
 194  336.7624
 195  225.0356
 196  316.1113
 197  425.0839
 198  401.9883
 199  363.3875
 200  352.1795
 201  421.9332
 202  294.1124
 203  319.8616
 204  292.8688
 205  181.2323
 206  272.2261
 207  418.6064
 208  382.3899
 209  406.1006
 210  404.4112
 211  396.7907
 212  335.0074
 213  371.3826
 214  400.3966
 215  388.6541
 216  264.8414
 217  220.1481
 218  350.2216
 219  361.6789
 220  281.6453
 221  290.8022
 222  334.8359
 223  258.57
 224  227.3376
 225  196.5174
 226  276.5351
 227  194.1405
 228  335.2628
 229  267.5865
 230  309.3175
 231  359.9365
 232  217.6364
 233  239.0291
 234  269.2316
 235  281.5357
 236  322.795
 237  323.5182
 238  269.3985
 239  290.8464
 240  186.2364
 241  168.9093
 242  245.6057
 243  266.7853
 244  346.5337
 245  363.5707
 246  335.6319
 247  290.3185
 248  288.7691
 249  319.9335
 250  384.1892
 251  361.7201
 252  373.6188
 253  340.4226
 254  427.4509
 255  435.5569
 256  252.3078
 257  220.5181
 258  317.3903
 259  386.3824
 260  420.5272
 261  481.4097
 262  288.6408
 263  324.6945
 264  500.2708
 265  378.3183
 266  266.3513
 267  362.5972
 268  411.8128
 269  412.1576
 270  397.3078
 271  403.824
 272  517.7394
 273  462.6498
 274  474.6885
 275  239.5729
 276  266.3878
 277  422.5662
 278  439.0786
 279  396.8971
 280  379.6407
 281  509.2269
 282  508.0722
 283  308.5624
 284  302.4915
 285  480.38
 286  499.7227
 287  396.6238
 288  328.8616
 289  358.8561
 290  331.9978
 291  277.9498
 292  381.4211
 293  473.3624
 294  455.2954
 295  337.443
 296  230.7442
 297  218.2449
 298  306.66
 299  305.6485
 300  363.3399
 301  377.2269
 302  356.9521
 303  456.1717
 304  438.6006
 305  324.3975
 306  196.8832
 307  283.7608
 308  343.5056
 309  436.0324
 310  460.1005
 311  353.305
 312  303.2642
 313  367.48
 314  269.1023
 315  172.5107
 316  223.7845
 317  322.0766
 318  262.3983
 319  239.2131
 320  224.4852
 321  311.2371
 322  337.8026
 323  256.9735
 324  338.8389
 325  425.0481
 326  447.4484
 327  433.1378
 328  392.9438
 329  406.9616
 330  372.5024
 331  286.2935
 332  374.937
 333  459.952
 334  383.7282
 335  320.9234
 336  353.5972
 337  309.4395
 338  300.067
 339  381.8838
 340  400.7035
 341  343.5699
 342  397.9683
 343  297.6457
 344  280.0735
 345  377.9077
 346  354.4359
 347  405.5514
 348  361.8401
 349  355.4221
 350  310.3445
 351  321.5726
 352  403.1122
 353  356.513
 354  446.247
 355  517.4558
 356  415.9867
 357  280.2188
 358  204.3049
 359  200.1243
 360  199.247
 361  373.8976
 362  353.7389
 363  335.6006
 364  309.2162
 365  386.1423
 366  403.6339
 367  339.0521
 368  244.8819
 369  396.9118
 370  407.0518
 371  353.921
 372  361.5869
 373  380.3136
 374  364.5737
 375  350.0063
 376  380.5488
 377  302.7184
 378  316.2834
 379  470.9356
 380  365.5341
 381  301.2964
 382  386.184
 383  306.2257
 384  264.6282
 385  356.1816
 386  289.3488
 387  390.9555
 388  343.5327
 389  354.5778
 390  266.6816
 391  133.9068
 392  243.4856
 393  343.4981
 394  292.1013
 395  328.851
 396  422.1258
 397  237.873
 398  269.1919
 399  297.6506
 400  328.6976
 401  361.9328
 402  345.9014
 403  351.6541
 404  323.8742
 405  341.5225
 406  376.6422
 407  417.986
 408  340.3989
 409  272.8542
 410  308.8937
 411  419.2884
 412  483.9828
 413  437.7209
 414  370.3907
 415  454.1175
 416  320.3515
 417  282.721
 418  163.7209
 419  294.9688
 420  400.0436
 421  363.6003
 422  382.0846
 423  397.5976
 424  375.6832
 425  378.063
 426  356.34
 427  388.5602
 428  341.2198
 429  357.508
 430  408.0541
 431  329.2332
 432  433.7892
 433  413.7635
 434  352.6673
 435  261.007
 436  299.819
 437  253.6566
 438  252.919
 439  306.902
 440  319.8291
 441  266.1502
 442  382.621
 443  360.1211
 444  419.1462
 445  386.5932
 446  341.2146
 447  361.636
 448  311.4886
 449  362.5283
 450  316.1018
 451  255.9017
 452  353.4395
 453  355.7717
 454  276.6762
 455  279.3925
 456  280.4998
 457  369.9465
 458  359.9336
 459  333.244
 460  194.1503
 461  230.1168
 462  279.5698
 463  300.6622
 464  266.2137
 465  259.7602
 466  267.3964
 467  168.8879
 468  93.99919
 469  130.1947
 470  162.3102
 471  247.0031
 472  392.6979
 473  362.6506
 474  288.1761
 475  261.2676
 476  259.1936
 477  289.0582
 478  295.9388
 479  295.7182
 480  349.0086
 481  449.1564
 482  350.3615
 483  332.3069
 484  428.0147
 485  174.9857
 486  168.9458
 487  288.2112
 488  382.6681
 489  262.5431
 490  261.7333
 491  258.1674
 492  278.1582
 493  277.4701
 494  386.9488
 495  453.7975
 496  426.7715
 497  425.3976
 498  373.1432
 499  343.7453
 500  375.7885
 501  389.4037
 502  353.31
 503  306.396
 504  413.3146
 505  501.0363
 506  523.1624
 507  492.436
 508  594.6634
 509  738.5249
 510  956.6099
 511  1018.812
