# Input file       =  1184300437.121662_cleaned.dat
# Candidate        =  PSR_0332+5434
# Telescope        =  AR
# Epoch_topo       =  57951.180776871086
# Epoch_bary       =  N/A
# T_sample         =  0.002
# Data Folded      =  7340032
# Data Avg         =  0.029990893871871
# Data StdDev      =  1.0001912943917  
# Profile Bins     =  512
# Profile Avg      =  430.440068977615 
# Profile StdDev   =  119.755940635126 
# Reduced chi-sqr  =  1.494
# Prob(Noise)      <  2.74e-12   (~6.9 sigma)
# P_topo (ms)      =  714.477499267603  +/- 0.000212
# P'_topo (s/s)    =  -0                +/- 1.12e-10
# P''_topo (s/s^2) =  0                 +/- 4.93e-14
# P_bary (ms)      =  N/A
# P'_bary (s/s)    =  N/A
# P''_bary (s/s^2) =  N/A
# P_orb (s)        =  N/A
# asin(i)/c (s)    =  N/A
# eccentricity     =  N/A
# w (rad)          =  N/A
# T_peri           =  N/A
######################################################
   0  422.548
   1  473.2195
   2  349.6845
   3  406.4324
   4  377.5229
   5  336.6707
   6  429.6123
   7  497.9625
   8  521.3419
   9  438.8297
  10  475.1558
  11  524.9128
  12  464.0835
  13  375.7071
  14  397.481
  15  451.0179
  16  394.469
  17  467.717
  18  499.4971
  19  448.4962
  20  408.4857
  21  452.5391
  22  437.5272
  23  445.3103
  24  528.7714
  25  425.7443
  26  428.1608
  27  367.0655
  28  385.0985
  29  473.3769
  30  403.3753
  31  352.9756
  32  373.1765
  33  461.2571
  34  483.8851
  35  493.5321
  36  523.3762
  37  554.441
  38  393.868
  39  334.2567
  40  400.8736
  41  515.1755
  42  452.6371
  43  437.8678
  44  408.5367
  45  492.6787
  46  382.5281
  47  359.1801
  48  395.8965
  49  432.0763
  50  397.515
  51  401.2416
  52  458.3473
  53  447.2783
  54  508.5743
  55  571.722
  56  583.5615
  57  571.9706
  58  539.1992
  59  409.4044
  60  441.2273
  61  520.1923
  62  544.5397
  63  519.4183
  64  457.5992
  65  424.1124
  66  439.982
  67  491.3795
  68  534.7161
  69  556.6915
  70  371.8482
  71  408.3859
  72  415.7849
  73  490.2887
  74  385.2149
  75  352.0238
  76  385.6722
  77  393.988
  78  335.1267
  79  367.6492
  80  410.4112
  81  372.0706
  82  279.4722
  83  373.4121
  84  368.4977
  85  323.9778
  86  367.8943
  87  379.3316
  88  294.7882
  89  376.7784
  90  401.4107
  91  465.7693
  92  472.6127
  93  439.4509
  94  488.7755
  95  580.3787
  96  517.3766
  97  373.9887
  98  312.1969
  99  304.9861
 100  322.1527
 101  387.3172
 102  439.8554
 103  372.4715
 104  332.9615
 105  464.5746
 106  424.5621
 107  357.5799
 108  359.3918
 109  388.5625
 110  494.9034
 111  398.761
 112  265.2092
 113  307.5441
 114  247.2741
 115  438.9916
 116  492.2433
 117  490.0909
 118  489.4369
 119  533.2838
 120  452.8028
 121  350.261
 122  365.9233
 123  456.5938
 124  376.7687
 125  266.8613
 126  406.2993
 127  367.8896
 128  430.4278
 129  447.4115
 130  363.3576
 131  352.2768
 132  434.6732
 133  408.9341
 134  459.8061
 135  545.5711
 136  589.8545
 137  589.5023
 138  563.1354
 139  590.3208
 140  484.2876
 141  489.3361
 142  458.8278
 143  511.2263
 144  525.6974
 145  416.5916
 146  347.8644
 147  562.7394
 148  496.1868
 149  435.5778
 150  404.8589
 151  444.0631
 152  457.8448
 153  479.0008
 154  488.5523
 155  354.6375
 156  347.5829
 157  572.748
 158  775.699
 159  912.6292
 160  1063.903
 161  1199.382
 162  1235.014
 163  1003.097
 164  662.0641
 165  478.6541
 166  365.1856
 167  460.0914
 168  410.4685
 169  416.692
 170  337.0189
 171  322.7874
 172  410.5825
 173  354.8018
 174  348.7097
 175  529.5361
 176  685.2084
 177  612.5466
 178  464.0089
 179  426.8358
 180  506.729
 181  522.5439
 182  525.1247
 183  496.7659
 184  477.8444
 185  537.0428
 186  414.6015
 187  389.0082
 188  394.1617
 189  441.0168
 190  478.4545
 191  536.6974
 192  475.3423
 193  418.61
 194  435.9328
 195  548.1992
 196  603.7446
 197  496.7291
 198  585.2637
 199  447.8008
 200  438.4895
 201  439.4364
 202  524.1827
 203  541.5168
 204  482.455
 205  495.6465
 206  540.566
 207  469.9087
 208  276.1905
 209  446.0079
 210  574.4781
 211  485.3797
 212  559.7354
 213  479.0037
 214  358.1838
 215  386.2535
 216  488.6319
 217  473.3937
 218  504.7292
 219  525.7744
 220  441.3218
 221  312.165
 222  419.086
 223  443.6788
 224  454.5564
 225  492.147
 226  453.0764
 227  422.6081
 228  445.147
 229  439.6002
 230  539.3913
 231  455.5896
 232  408.1648
 233  507.0875
 234  515.3416
 235  369.0052
 236  290.8456
 237  281.3164
 238  385.6752
 239  375.4652
 240  416.0093
 241  349.6013
 242  396.0454
 243  536.9443
 244  608.7739
 245  540.1626
 246  353.7629
 247  342.8853
 248  340.1793
 249  464.2967
 250  503.9077
 251  634.3855
 252  606.873
 253  532.6828
 254  365.9791
 255  354.9336
 256  346.1657
 257  347.4925
 258  343.9752
 259  374.3521
 260  380.6476
 261  514.2787
 262  329.5417
 263  369.2675
 264  486.9709
 265  448.0673
 266  290.9145
 267  279.9672
 268  380.7773
 269  379.0912
 270  475.4313
 271  462.1238
 272  461.9525
 273  383.0341
 274  393.4366
 275  394.5009
 276  389.3055
 277  416.1358
 278  372.4012
 279  323.2093
 280  299.0134
 281  275.5237
 282  313.9171
 283  416.7178
 284  344.1124
 285  368.0408
 286  377.3904
 287  424.9993
 288  444.7653
 289  353.8836
 290  359.1844
 291  402.5917
 292  405.2556
 293  443.4211
 294  473.361
 295  427.9828
 296  304.974
 297  345.0572
 298  362.9706
 299  231.3792
 300  335.602
 301  297.3669
 302  234.111
 303  336.5
 304  325.0124
 305  346.0967
 306  348.6532
 307  326.8391
 308  409.3788
 309  373.3714
 310  339.0994
 311  302.2171
 312  416.2677
 313  396.2225
 314  382.6541
 315  330.2855
 316  302.9111
 317  358.2644
 318  343.1865
 319  353.2108
 320  408.5513
 321  461.874
 322  419.1468
 323  341.8459
 324  324.9926
 325  382.5349
 326  360.988
 327  256.2062
 328  300.9843
 329  287.2438
 330  369.7342
 331  314.5007
 332  227.9678
 333  209.0383
 334  237.4842
 335  319.9462
 336  359.507
 337  298.8785
 338  266.5391
 339  314.9731
 340  290.4051
 341  221.4709
 342  239.9041
 343  351.8763
 344  404.1944
 345  342.3256
 346  431.4509
 347  403.3556
 348  335.9493
 349  227.5102
 350  413.9308
 351  454.3503
 352  451.3547
 353  475.8896
 354  528.8318
 355  504.6493
 356  376.8747
 357  414.3523
 358  471.399
 359  549.6992
 360  459.5071
 361  397.4173
 362  349.3413
 363  292.898
 364  278.8039
 365  292.8084
 366  419.0438
 367  431.1107
 368  410.1825
 369  405.6485
 370  276.79
 371  393.0544
 372  446.143
 373  381.8073
 374  401.8515
 375  336.8966
 376  438.178
 377  473.483
 378  403.7362
 379  394.599
 380  409.6134
 381  483.9001
 382  524.7902
 383  475.0224
 384  511.852
 385  428.3811
 386  482.2291
 387  472.2512
 388  407.1384
 389  448.0396
 390  397.3975
 391  426.7196
 392  473.7939
 393  412.4321
 394  389.7596
 395  433.5244
 396  371.4044
 397  346.3222
 398  312.7191
 399  446.8152
 400  537.9974
 401  561.5095
 402  531.4381
 403  465.8227
 404  448.3233
 405  547.8383
 406  466.0512
 407  442.3607
 408  559.4896
 409  546.0422
 410  449.6696
 411  414.8159
 412  426.1567
 413  455.0443
 414  580.5916
 415  523.0041
 416  408.4036
 417  359.7324
 418  349.1506
 419  436.4636
 420  491.5241
 421  445.4055
 422  438.2831
 423  447.7653
 424  463.0789
 425  409.5202
 426  367.304
 427  440.2067
 428  527.7834
 429  480.9586
 430  483.4353
 431  450.3527
 432  455.063
 433  470.9398
 434  455.2652
 435  491.0294
 436  564.7543
 437  474.4317
 438  243.4398
 439  406.2454
 440  489.124
 441  509.0933
 442  417.2828
 443  532.2168
 444  541.7927
 445  426.7411
 446  394.9855
 447  378.1632
 448  476.4108
 449  465.3671
 450  367.0034
 451  297.0013
 452  337.6355
 453  321.8575
 454  372.2725
 455  336.3631
 456  273.2109
 457  287.9247
 458  338.4804
 459  366.8331
 460  427.1849
 461  476.4761
 462  549.1432
 463  473.1928
 464  345.6696
 465  406.2831
 466  417.472
 467  302.2532
 468  244.5709
 469  465.0063
 470  469.0925
 471  289.8372
 472  373.9487
 473  432.3486
 474  455.077
 475  572.4034
 476  598.194
 477  463.7297
 478  352.2744
 479  484.1282
 480  559.7479
 481  607.2983
 482  673.9837
 483  583.8395
 484  414.5484
 485  446.2095
 486  458.0532
 487  389.5414
 488  386.6152
 489  380.4138
 490  411.732
 491  439.1329
 492  408.4695
 493  430.0015
 494  470.5254
 495  439.8737
 496  364.2685
 497  363.4051
 498  363.4009
 499  395.4699
 500  458.6642
 501  485.5245
 502  504.613
 503  429.795
 504  381.4088
 505  419.1476
 506  449.3518
 507  500.7722
 508  398.8011
 509  367.5468
 510  343.7932
 511  366.763
