# Input file       =  1184888937.102792_cleaned.dat
# Candidate        =  PSR_0332+5434
# Telescope        =  AR
# Epoch_topo       =  57957.992119245275
# Epoch_bary       =  N/A
# T_sample         =  0.002
# Data Folded      =  7143424
# Data Avg         =  0.0248521278569136
# Data StdDev      =  1.00005849615485 
# Profile Bins     =  512
# Profile Avg      =  346.731864930023 
# Profile StdDev   =  118.125493964875 
# Reduced chi-sqr  =  1.665
# Prob(Noise)      <  2.18e-19   (~8.9 sigma)
# P_topo (ms)      =  714.473414140713  +/- 0.000337
# P'_topo (s/s)    =  -0                +/- 1.83e-10
# P''_topo (s/s^2) =  0                 +/- 8.29e-14
# P_bary (ms)      =  N/A
# P'_bary (s/s)    =  N/A
# P''_bary (s/s^2) =  N/A
# P_orb (s)        =  N/A
# asin(i)/c (s)    =  N/A
# eccentricity     =  N/A
# w (rad)          =  N/A
# T_peri           =  N/A
######################################################
   0  1165.989
   1  1153.254
   2  879.6697
   3  574.31
   4  382.6191
   5  317.3441
   6  367.4073
   7  384.1468
   8  267.6153
   9  416.5841
  10  395.0015
  11  540.2834
  12  388.3571
  13  331.2547
  14  306.0039
  15  348.346
  16  399.0465
  17  414.8852
  18  328.3098
  19  375.055
  20  391.1129
  21  411.3448
  22  467.6546
  23  386.8022
  24  342.5267
  25  317.9423
  26  332.2066
  27  347.7098
  28  456.4083
  29  393.8789
  30  444.4812
  31  495.0588
  32  324.4886
  33  336.7701
  34  533.8712
  35  520.1155
  36  376.3804
  37  397.4616
  38  419.2671
  39  293.9485
  40  198.9329
  41  457.3856
  42  539.4307
  43  413.7019
  44  326.9187
  45  312.6347
  46  373.0262
  47  279.1232
  48  325.2816
  49  304.9799
  50  472.7131
  51  383.1063
  52  307.6223
  53  389.8727
  54  349.9701
  55  440.7574
  56  369.7385
  57  356.2959
  58  424.0938
  59  266.0929
  60  354.4838
  61  421.1458
  62  310.3542
  63  281.142
  64  281.8197
  65  175.6697
  66  270.7428
  67  351.7297
  68  417.6865
  69  311.0936
  70  429.8189
  71  454.409
  72  404.1993
  73  433.58
  74  324.8117
  75  318.8722
  76  175.7384
  77  251.5877
  78  376.3353
  79  417.1727
  80  421.1553
  81  432.0082
  82  462.1441
  83  321.8587
  84  355.5742
  85  389.4223
  86  378.5186
  87  338.3409
  88  419.9077
  89  352.2725
  90  399.3783
  91  441.3207
  92  388.0041
  93  421.6427
  94  330.173
  95  388.5753
  96  385.2606
  97  453.6627
  98  357.7048
  99  287.4337
 100  255.149
 101  284.6863
 102  354.7529
 103  414.052
 104  379.479
 105  362.8335
 106  373.3122
 107  332.5927
 108  408.1236
 109  465.7544
 110  369.3013
 111  321.2585
 112  386.1444
 113  412.3452
 114  321.073
 115  428.8978
 116  368.4835
 117  331.5882
 118  347.2707
 119  368.1195
 120  403.3651
 121  337.1227
 122  379.1019
 123  358.9787
 124  313.276
 125  377.9049
 126  449.1668
 127  416.8428
 128  373.4861
 129  325.9333
 130  230.0022
 131  294.4615
 132  371.6558
 133  292.0935
 134  305.0611
 135  331.8025
 136  339.2809
 137  183.5732
 138  249.81
 139  281.2472
 140  282.4621
 141  199.0172
 142  210.0934
 143  284.7562
 144  211.2603
 145  208.0833
 146  336.9985
 147  378.6628
 148  273.8509
 149  279.4261
 150  171.9702
 151  265.3647
 152  344.8854
 153  431.1827
 154  311.4958
 155  286.2122
 156  294.3195
 157  369.1032
 158  330.7507
 159  247.6191
 160  215.7594
 161  186.9149
 162  232.7607
 163  310.0991
 164  351.5945
 165  310.3704
 166  268.3743
 167  366.7125
 168  370.0587
 169  400.6924
 170  350.7653
 171  412.197
 172  289.2372
 173  163.4545
 174  225.9091
 175  188.3187
 176  336.9933
 177  385.3403
 178  369.3834
 179  308.5621
 180  266.2545
 181  224.9429
 182  302.0996
 183  387.9141
 184  367.0467
 185  335.8714
 186  276.8608
 187  255.1381
 188  328.3024
 189  360.6086
 190  394.8033
 191  309.8032
 192  247.8574
 193  229.5114
 194  186.9537
 195  253.9916
 196  312.6847
 197  342.2001
 198  373.6185
 199  373.0138
 200  253.3131
 201  147.6233
 202  244.412
 203  226.69
 204  284.5254
 205  330.7004
 206  315.763
 207  464.087
 208  424.1485
 209  383.2079
 210  370.8551
 211  375.949
 212  380.1267
 213  383.2273
 214  347.8501
 215  343.4254
 216  341.3055
 217  311.8732
 218  313.8148
 219  314.7543
 220  297.6934
 221  292.1902
 222  339.3276
 223  433.6117
 224  362.1185
 225  232.7835
 226  331.1147
 227  337.5873
 228  308.7648
 229  284.3557
 230  254.4061
 231  252.6247
 232  341.6274
 233  292.0289
 234  352.6424
 235  282.7213
 236  357.9486
 237  417.7892
 238  338.3828
 239  400.6558
 240  375.0798
 241  269.9835
 242  301.85
 243  401.9549
 244  370.9304
 245  436.3958
 246  317.3801
 247  319.5205
 248  457.5245
 249  447.93
 250  409.1597
 251  281.1524
 252  319.8946
 253  351.1444
 254  284.2801
 255  301.7356
 256  316.0958
 257  325.6278
 258  388.5438
 259  304.8112
 260  286.9619
 261  368.485
 262  339.2358
 263  301.9196
 264  315.0485
 265  294.1165
 266  283.5856
 267  324.313
 268  320.6215
 269  350.7094
 270  417.3841
 271  338.8124
 272  353.8529
 273  418.436
 274  507.0223
 275  436.814
 276  326.9089
 277  236.9386
 278  408.0608
 279  489.0591
 280  367.7864
 281  285.2056
 282  357.7607
 283  350.3636
 284  406.6652
 285  510.3925
 286  509.982
 287  387.238
 288  377.974
 289  431.5383
 290  271.4466
 291  326.5213
 292  506.4751
 293  507.3514
 294  482.1868
 295  384.7081
 296  328.3145
 297  272.0183
 298  371.3472
 299  429.9009
 300  331.0798
 301  269.7581
 302  303.0378
 303  324.5622
 304  392.2362
 305  415.4033
 306  416.591
 307  307.6445
 308  365.1208
 309  454.0523
 310  456.8035
 311  434.2863
 312  383.9496
 313  366.0379
 314  416.1504
 315  342.0614
 316  452.9007
 317  443.3102
 318  448.1994
 319  368.191
 320  446.3773
 321  321.5043
 322  307.4008
 323  397.7128
 324  387.4836
 325  335.5226
 326  337.2756
 327  473.8296
 328  503.0867
 329  444.022
 330  249.3739
 331  258.1841
 332  248.0339
 333  246.8086
 334  312.6232
 335  375.1292
 336  321.1845
 337  441.0938
 338  394.5509
 339  394.6994
 340  489.1898
 341  481.6019
 342  389.6056
 343  396.6121
 344  448.292
 345  351.4765
 346  260.3021
 347  355.6611
 348  415.6764
 349  428.2617
 350  287.4504
 351  326.1234
 352  415.3808
 353  430.4226
 354  320.1522
 355  373.3097
 356  323.476
 357  238.6428
 358  209.2272
 359  222.1651
 360  163.1918
 361  311.9155
 362  298.1691
 363  326.9972
 364  347.0887
 365  320.5049
 366  319.8707
 367  366.5418
 368  365.5746
 369  275.4921
 370  385.9401
 371  334.2327
 372  262.2661
 373  252.181
 374  346.0448
 375  347.3914
 376  340.1426
 377  181.8316
 378  258.3805
 379  389.4944
 380  355.7112
 381  187.4555
 382  292.274
 383  386.193
 384  379.4212
 385  392.5256
 386  334.2317
 387  329.6948
 388  319.1205
 389  296.3642
 390  315.0809
 391  314.1537
 392  473.2008
 393  395.59
 394  341.695
 395  277.6305
 396  308.8702
 397  272.8768
 398  362.7556
 399  364.2013
 400  390.9369
 401  354.5121
 402  175.9731
 403  205.2376
 404  280.0401
 405  334.7097
 406  431.4437
 407  369.5117
 408  301.1973
 409  243.8228
 410  243.0334
 411  278.203
 412  178.1776
 413  186.4127
 414  201.7192
 415  264.3101
 416  314.0436
 417  269.149
 418  148.3441
 419  183.3171
 420  194.9218
 421  218.7681
 422  161.7225
 423  29.38982
 424  274.4676
 425  419.7654
 426  341.6942
 427  298.5735
 428  271.2697
 429  202.7141
 430  242.8147
 431  421.9049
 432  420.6709
 433  499.2428
 434  423.8313
 435  264.0223
 436  278.3772
 437  354.0031
 438  301.7756
 439  133.9878
 440  214.3024
 441  279.8105
 442  276.3516
 443  292.0935
 444  277.468
 445  328.2489
 446  223.5664
 447  292.0533
 448  394.6418
 449  428.3361
 450  400.96
 451  293.2442
 452  190.1733
 453  246.6536
 454  174.4166
 455  214.3245
 456  344.0222
 457  329.5446
 458  272.2542
 459  382.9578
 460  286.1591
 461  254.9845
 462  255.7018
 463  266.5253
 464  324.7388
 465  399.8273
 466  540.0781
 467  457.2743
 468  346.2331
 469  310.7512
 470  358.0461
 471  302.5165
 472  339.9711
 473  378.7722
 474  271.9325
 475  216.8635
 476  236.984
 477  156.1348
 478  229.5271
 479  239.8111
 480  237.1242
 481  354.848
 482  281.1988
 483  221.2607
 484  259.0596
 485  274.47
 486  259.0927
 487  189.7485
 488  273.1195
 489  345.7677
 490  357.0746
 491  392.5099
 492  173.613
 493  232.1103
 494  299.342
 495  366.611
 496  381.1425
 497  311.7667
 498  399.5716
 499  352.8203
 500  337.802
 501  325.6558
 502  307.2716
 503  514.3016
 504  516.3146
 505  452.8811
 506  556.8087
 507  511.8499
 508  685.3624
 509  877.5186
 510  996.5271
 511  1077.604
