# Input file       =  1184716687.098535_cleaned.dat
# Candidate        =  PSR_0332+5434
# Telescope        =  AR
# Epoch_topo       =  57955.998484936747
# Epoch_bary       =  N/A
# T_sample         =  0.002
# Data Folded      =  7143424
# Data Avg         =  0.0266800263540202
# Data StdDev      =  1.00011840909109 
# Profile Bins     =  512
# Profile Avg      =  372.244097794686 
# Profile StdDev   =  118.132570796097 
# Reduced chi-sqr  =  1.252
# Prob(Noise)      <  8.69e-05   (~3.8 sigma)
# P_topo (ms)      =  714.474540911498  +/- 0.000344
# P'_topo (s/s)    =  -0                +/- 1.86e-10
# P''_topo (s/s^2) =  0                 +/- 8.46e-14
# P_bary (ms)      =  N/A
# P'_bary (s/s)    =  N/A
# P''_bary (s/s^2) =  N/A
# P_orb (s)        =  N/A
# asin(i)/c (s)    =  N/A
# eccentricity     =  N/A
# w (rad)          =  N/A
# T_peri           =  N/A
######################################################
   0  1131.672
   1  1083.198
   2  718.7393
   3  556.4457
   4  449.0866
   5  504.3708
   6  534.9329
   7  471.6652
   8  391.0421
   9  415.2725
  10  383.2139
  11  353.0596
  12  414.219
  13  493.0078
  14  545.9811
  15  457.001
  16  359.6245
  17  334.071
  18  430.6013
  19  418.0773
  20  426.7313
  21  454.0038
  22  411.3021
  23  417.3342
  24  415.484
  25  409.6049
  26  408.7773
  27  363.7602
  28  418.3911
  29  328.9796
  30  315.6306
  31  237.7664
  32  347.6055
  33  416.1366
  34  336.7941
  35  298.1687
  36  211.749
  37  313.3645
  38  311.4309
  39  272.5583
  40  342.8583
  41  363.8922
  42  422.8641
  43  398.3734
  44  370.7257
  45  319.4315
  46  371.5097
  47  417.994
  48  384.7595
  49  333.731
  50  335.8335
  51  417.3817
  52  356.0266
  53  368.5776
  54  418.7764
  55  345.5811
  56  432.6491
  57  336.6815
  58  306.0643
  59  411.8243
  60  329.2722
  61  332.0595
  62  460.7903
  63  421.6522
  64  297.4367
  65  358.4285
  66  460.0802
  67  341.4648
  68  411.0984
  69  391.4492
  70  417.7382
  71  328.4849
  72  210.5347
  73  335.1286
  74  401.7512
  75  425.6971
  76  315.2697
  77  338.2185
  78  372.9597
  79  345.1859
  80  328.7291
  81  388.7544
  82  320.3554
  83  383.0406
  84  425.4674
  85  344.0956
  86  357.12
  87  438.4626
  88  452.6006
  89  401.36
  90  347.1931
  91  495.1756
  92  544.6199
  93  408.2865
  94  417.7613
  95  415.1058
  96  325.0867
  97  459.2509
  98  354.448
  99  335.2888
 100  361.6071
 101  317.9751
 102  209.8418
 103  210.4984
 104  348.7598
 105  270.6785
 106  363.7292
 107  396.8601
 108  447.2174
 109  453.5269
 110  404.3273
 111  278.0036
 112  308.3272
 113  379.2728
 114  310.4256
 115  262.6508
 116  231.4981
 117  357.0996
 118  407.4257
 119  339.8896
 120  408.1118
 121  350.2646
 122  390.9935
 123  319.652
 124  322.3864
 125  277.1746
 126  244.4996
 127  340.9855
 128  279.3433
 129  295.6536
 130  390.871
 131  402.5859
 132  463.3943
 133  355.9099
 134  295.6627
 135  397.0447
 136  287.1812
 137  303.4018
 138  340.2443
 139  362.8461
 140  361.0849
 141  456.2339
 142  387.736
 143  305.3143
 144  359.4702
 145  445.6728
 146  480.2514
 147  426.9354
 148  310.3165
 149  283.0616
 150  459.7998
 151  478.0404
 152  375.7202
 153  379.8311
 154  416.1571
 155  494.8854
 156  463.4898
 157  296.761
 158  344.9623
 159  440.2148
 160  516.2777
 161  365.9783
 162  305.323
 163  404.8606
 164  329.1864
 165  144.7859
 166  192.2691
 167  293.0414
 168  376.6099
 169  380.9389
 170  441.786
 171  525.8708
 172  359.5901
 173  352.3959
 174  357.0795
 175  358.5132
 176  270.402
 177  180.1248
 178  376.4407
 179  409.7162
 180  217.2857
 181  283.8867
 182  374.8004
 183  320.349
 184  287.0968
 185  377.5325
 186  405.3344
 187  459.1052
 188  326.1082
 189  227.6588
 190  446.3941
 191  468.0251
 192  388.2154
 193  375.9626
 194  431.2363
 195  319.0054
 196  235.338
 197  261.2901
 198  478.7799
 199  305.8141
 200  292.753
 201  304.2453
 202  251.4618
 203  360.1382
 204  392.4895
 205  426.748
 206  373.0827
 207  400.6187
 208  359.8016
 209  413.4207
 210  390.4641
 211  330.8311
 212  359.6349
 213  345.1316
 214  462.1682
 215  352.3132
 216  227.7256
 217  288.9558
 218  292.69
 219  249.6456
 220  277.5086
 221  361.5475
 222  357.9765
 223  380.4898
 224  423.9577
 225  334.4416
 226  377.2093
 227  413.9372
 228  374.7807
 229  434.7669
 230  469.9121
 231  288.9482
 232  266.7456
 233  331.8047
 234  297.8245
 235  335.0434
 236  446.8325
 237  426.1247
 238  446.1199
 239  419.2637
 240  294.201
 241  217.437
 242  257.9749
 243  298.4839
 244  351.0116
 245  498.6448
 246  406.2278
 247  372.3564
 248  402.7354
 249  332.8156
 250  296.3811
 251  381.8393
 252  352.3934
 253  272.0597
 254  228.1609
 255  238.1995
 256  432.3015
 257  398.314
 258  333.0113
 259  343.981
 260  401.2842
 261  337.8525
 262  463.6158
 263  391.0418
 264  365.5693
 265  307.9527
 266  342.7936
 267  367.103
 268  331.7839
 269  436.0746
 270  367.2622
 271  324.7258
 272  295.8055
 273  297.2724
 274  299.946
 275  303.2568
 276  384.482
 277  378.0915
 278  351.7594
 279  371.038
 280  319.2984
 281  400.4229
 282  331.0218
 283  294.6378
 284  328.5313
 285  462.1221
 286  374.1273
 287  249.4404
 288  290.7805
 289  403.4673
 290  377.5124
 291  333.5836
 292  376.0537
 293  458.0148
 294  382.6124
 295  355.5781
 296  282.1276
 297  390.4856
 298  225.983
 299  243.2902
 300  294.5902
 301  188.6842
 302  258.6956
 303  260.8709
 304  420.0034
 305  396.4254
 306  405.3772
 307  347.0575
 308  195.9725
 309  202.7699
 310  328.702
 311  311.3392
 312  317.7566
 313  381.1899
 314  416.7661
 315  287.4043
 316  166.0743
 317  283.1184
 318  335.2535
 319  366.5239
 320  358.5959
 321  473.456
 322  436.0939
 323  259.5298
 324  242.3922
 325  302.863
 326  325.4999
 327  250.4026
 328  285.0541
 329  365.9495
 330  292.8891
 331  392.1688
 332  437.4369
 333  436.881
 334  368.5152
 335  380.6679
 336  485.528
 337  339.1924
 338  304.8538
 339  340.1052
 340  191.1028
 341  232.0104
 342  374.8509
 343  421.0214
 344  423.7951
 345  416.1452
 346  279.6774
 347  351.9052
 348  398.6676
 349  335.7362
 350  238.3761
 351  375.1328
 352  316.1182
 353  278.391
 354  301.3551
 355  411.0172
 356  475.2245
 357  473.7492
 358  536.4177
 359  393.3458
 360  378.9865
 361  362.7371
 362  255.1951
 363  285.061
 364  371.0506
 365  472.4135
 366  404.1142
 367  342.9636
 368  322.9382
 369  366.5165
 370  416.5836
 371  376.5432
 372  395.6805
 373  401.4911
 374  365.5657
 375  360.1411
 376  317.2873
 377  337.828
 378  330.2734
 379  254.6886
 380  205.2274
 381  285.4391
 382  366.8905
 383  270.7726
 384  357.7016
 385  389.3959
 386  429.1867
 387  441.7887
 388  311.1899
 389  337.2169
 390  298.4237
 391  387.6188
 392  449.2818
 393  404.5772
 394  326.087
 395  291.7684
 396  355.7206
 397  415.2493
 398  435.7535
 399  530.2827
 400  366.9982
 401  346.1485
 402  461.5328
 403  354.9091
 404  237.5143
 405  385.8213
 406  384.617
 407  366.7844
 408  389.1263
 409  372.4861
 410  368.5272
 411  244.3152
 412  290.3429
 413  335.2635
 414  313.5218
 415  405.4331
 416  373.2877
 417  339.0042
 418  341.4359
 419  278.0161
 420  324.1133
 421  358.2818
 422  422.7438
 423  396.6068
 424  377.4957
 425  419.3277
 426  396.1661
 427  391.9407
 428  392.2659
 429  313.1143
 430  333.0655
 431  469.1069
 432  505.0013
 433  349.0041
 434  373.4432
 435  485.9424
 436  507.8273
 437  393.1026
 438  350.6149
 439  256.0562
 440  368.6538
 441  348.1443
 442  424.6273
 443  489.0294
 444  419.0822
 445  421.232
 446  439.583
 447  488.938
 448  324.3706
 449  274.4747
 450  326.3804
 451  301.6895
 452  443.2174
 453  475.7784
 454  457.1303
 455  377.3543
 456  320.838
 457  292.0138
 458  282.4358
 459  292.8062
 460  311.6022
 461  379.5753
 462  488.874
 463  391.1302
 464  209.2031
 465  241.1156
 466  293.1783
 467  360.0206
 468  388.3745
 469  502.2451
 470  518.8503
 471  454.1536
 472  469.1026
 473  420.7024
 474  382.2608
 475  303.7157
 476  278.5525
 477  342.0843
 478  393.6487
 479  462.2711
 480  386.493
 481  292.4123
 482  449.7868
 483  467.4403
 484  408.5641
 485  362.6668
 486  423.3114
 487  449.931
 488  488.0648
 489  378.8599
 490  452.5533
 491  412.4998
 492  453.321
 493  364.898
 494  472.7644
 495  426.8765
 496  400.6107
 497  419.9042
 498  328.3112
 499  303.7412
 500  342.7332
 501  405.3285
 502  429.8636
 503  450.863
 504  527.7991
 505  618.6046
 506  581.8697
 507  609.5398
 508  531.9701
 509  628.8196
 510  833.6495
 511  998.51
