# Input file       =  1184143011.101692_cleaned.dat
# Candidate        =  PSR_0332+5434
# Telescope        =  AR
# Epoch_topo       =  57949.358716454772
# Epoch_bary       =  N/A
# T_sample         =  0.002
# Data Folded      =  7340032
# Data Avg         =  0.0349499351615279
# Data StdDev      =  1.00004222955648 
# Profile Bins     =  512
# Profile Avg      =  501.082270246791 
# Profile StdDev   =  119.738092649788 
# Reduced chi-sqr  =  1.015
# Prob(Noise)      <  0.395   (~0.3 sigma)
# P_topo (ms)      =  714.479018361712  +/- 0.000377
# P'_topo (s/s)    =  -0                +/- 1.99e-10
# P''_topo (s/s^2) =  0                 +/- 8.78e-14
# P_bary (ms)      =  N/A
# P'_bary (s/s)    =  N/A
# P''_bary (s/s^2) =  N/A
# P_orb (s)        =  N/A
# asin(i)/c (s)    =  N/A
# eccentricity     =  N/A
# w (rad)          =  N/A
# T_peri           =  N/A
######################################################
   0  497.2593
   1  548.9928
   2  442.0219
   3  428.3477
   4  468.5219
   5  443.0465
   6  475.3256
   7  446.639
   8  443.9129
   9  392.0655
  10  396.4253
  11  482.0143
  12  483.9598
  13  419.96
  14  448.8945
  15  502.4554
  16  507.9785
  17  446.4389
  18  465.3362
  19  437.738
  20  385.2025
  21  411.4966
  22  458.253
  23  444.1696
  24  428.0302
  25  459.5235
  26  486.4371
  27  493.6471
  28  476.62
  29  429.4633
  30  430.6577
  31  456.7679
  32  482.322
  33  519.2219
  34  516.8099
  35  446.6488
  36  366.7417
  37  468.9605
  38  471.625
  39  426.7568
  40  355.9142
  41  502.8217
  42  476.0292
  43  493.1362
  44  567.9109
  45  459.5474
  46  589.6486
  47  553.913
  48  512.486
  49  474.899
  50  408.811
  51  446.0619
  52  436.9219
  53  573.7357
  54  502.675
  55  492.4309
  56  425.8898
  57  415.0457
  58  451.4131
  59  565.9261
  60  574.0797
  61  502.1794
  62  496.5617
  63  482.3929
  64  413.1248
  65  415.2778
  66  508.4106
  67  489.6746
  68  459.2014
  69  440.1779
  70  442.3908
  71  501.4972
  72  587.7725
  73  523.7468
  74  469.5099
  75  510.7659
  76  476.4019
  77  497.5854
  78  547.6655
  79  451.2029
  80  439.5789
  81  498.4409
  82  535.8306
  83  541.4575
  84  422.5652
  85  398.8096
  86  367.1647
  87  424.6747
  88  410.4659
  89  408.296
  90  422.1031
  91  391.005
  92  440.7392
  93  428.1408
  94  453.9635
  95  419.6103
  96  434.1562
  97  457.8563
  98  383.6733
  99  502.542
 100  507.8563
 101  429.6821
 102  520.6139
 103  400.8575
 104  609.4664
 105  561.1208
 106  517.2986
 107  544.6624
 108  556.8738
 109  545.8795
 110  544.3034
 111  583.4521
 112  535.5239
 113  532.5847
 114  586.9974
 115  648.1018
 116  696.4548
 117  587.3576
 118  536.3416
 119  540.0296
 120  510.6332
 121  594.7964
 122  484.3524
 123  476.0664
 124  408.3985
 125  421.0504
 126  450.615
 127  456.337
 128  512.0208
 129  537.3454
 130  475.9311
 131  500.3855
 132  494.9703
 133  413.8321
 134  427.584
 135  553.4557
 136  461.5049
 137  499.6751
 138  450.2191
 139  476.3508
 140  503.2998
 141  466.926
 142  428.7954
 143  481.9591
 144  384.6226
 145  430.7627
 146  598.3416
 147  499.2211
 148  351.3149
 149  440.7175
 150  542.3427
 151  705.478
 152  875.1949
 153  907.3389
 154  1042.984
 155  1177.764
 156  1051.672
 157  886.9474
 158  707.7077
 159  611.7529
 160  543.8141
 161  485.5316
 162  424.864
 163  539.4572
 164  541.9305
 165  569.3328
 166  591.673
 167  543.0808
 168  543.6268
 169  602.8497
 170  570.4818
 171  509.6793
 172  485.765
 173  579.2111
 174  500.5658
 175  439.5826
 176  506.6525
 177  495.1851
 178  484.2176
 179  368.6994
 180  403.0377
 181  484.9968
 182  488.3566
 183  581.6402
 184  588.1266
 185  462.6528
 186  500.467
 187  460.9728
 188  580.3273
 189  610.162
 190  597.9821
 191  501.0564
 192  392.083
 193  480.617
 194  577.0419
 195  467.9357
 196  408.557
 197  428.0011
 198  429.0812
 199  504.9865
 200  384.2676
 201  489.6522
 202  461.2955
 203  494.0776
 204  480.9558
 205  488.0266
 206  519.6736
 207  564.5613
 208  557.1135
 209  482.3828
 210  444.6541
 211  479.7661
 212  517.7277
 213  546.4266
 214  606.6022
 215  576.186
 216  459.7201
 217  539.0153
 218  580.1556
 219  547.21
 220  417.5345
 221  534.5281
 222  471.408
 223  597.5285
 224  576.9357
 225  498.9095
 226  450.032
 227  356.5215
 228  454.4519
 229  476.1496
 230  560.1451
 231  484.2136
 232  465.0695
 233  485.7048
 234  458.4728
 235  411.0495
 236  510.2508
 237  584.8148
 238  623.1741
 239  493.8996
 240  380.1381
 241  440.073
 242  425.2225
 243  464.6052
 244  437.356
 245  522.9679
 246  472.0342
 247  394.3596
 248  517.9426
 249  532.1788
 250  424.0464
 251  617.1743
 252  589.4326
 253  504.0893
 254  438.0251
 255  460.8736
 256  369.0536
 257  346.0159
 258  420.021
 259  531.92
 260  568.893
 261  576.2778
 262  432.6384
 263  380.7
 264  503.0957
 265  527.437
 266  483.8769
 267  581.2944
 268  557.2773
 269  558.4036
 270  557.7679
 271  564.6725
 272  583.0384
 273  603.9764
 274  693.11
 275  611.7853
 276  534.1089
 277  529.1976
 278  536.842
 279  588.8905
 280  515.6224
 281  494.4429
 282  511.0792
 283  471.7582
 284  558.5822
 285  539.8648
 286  442.5893
 287  366.8246
 288  345.7447
 289  462.3174
 290  560.0314
 291  505.877
 292  525.3786
 293  509.402
 294  436.0602
 295  459.7157
 296  379.3891
 297  442.6643
 298  488.999
 299  423.349
 300  400.3129
 301  402.1734
 302  451.2606
 303  440.8732
 304  397.8975
 305  410.9903
 306  488.5064
 307  488.9457
 308  474.4218
 309  482.1992
 310  486.7395
 311  489.8041
 312  517.1268
 313  488.8192
 314  507.2522
 315  525.608
 316  540.4849
 317  590.0042
 318  683.7426
 319  681.2425
 320  526.4704
 321  528.4389
 322  512.7431
 323  490.7693
 324  444.941
 325  457.8369
 326  603.2397
 327  602.4038
 328  591.4085
 329  501.0091
 330  459.256
 331  513.7184
 332  589.9879
 333  545.4103
 334  440.528
 335  597.7776
 336  640.4721
 337  525.0004
 338  527.9886
 339  474.594
 340  469.0142
 341  486.5036
 342  457.7819
 343  553.1688
 344  597.5351
 345  556.3251
 346  436.3951
 347  541.1275
 348  550.9631
 349  415.4556
 350  333.9453
 351  509.6503
 352  581.6815
 353  608.5859
 354  625.4374
 355  601.1786
 356  698.0676
 357  675.7515
 358  481.811
 359  567.0927
 360  515.6708
 361  470.2429
 362  568.7889
 363  483.428
 364  531.8838
 365  486.0786
 366  469.8308
 367  455.9943
 368  572.4825
 369  474.9776
 370  455.7454
 371  449.8832
 372  547.9084
 373  555.8019
 374  622.4296
 375  585.4246
 376  564.4066
 377  548.6608
 378  552.8109
 379  588.0077
 380  605.5246
 381  490.8365
 382  426.3315
 383  474.2073
 384  444.2082
 385  446.1589
 386  518.3652
 387  467.6411
 388  447.7022
 389  449.6075
 390  465.4688
 391  472.4225
 392  622.7393
 393  588.903
 394  552.9255
 395  596.1952
 396  642.5703
 397  529.3277
 398  468.71
 399  554.234
 400  497.312
 401  567.45
 402  626.2888
 403  604.1592
 404  613.5192
 405  424.8803
 406  420.1692
 407  441.9777
 408  478.8516
 409  570.386
 410  487.3304
 411  347.6052
 412  387.6129
 413  428.4712
 414  502.6797
 415  515.4232
 416  570.9395
 417  596.5628
 418  528.2888
 419  484.2423
 420  583.1483
 421  526.7154
 422  573.8657
 423  600.0977
 424  489.6708
 425  400.7209
 426  441.2447
 427  487.7349
 428  500.0152
 429  540.4294
 430  581.3477
 431  613.8997
 432  542.1732
 433  537.2175
 434  449.5809
 435  474.9552
 436  489.3802
 437  567.0889
 438  468.1453
 439  480.1047
 440  551.9878
 441  458.2408
 442  456.2375
 443  586.265
 444  543.692
 445  437.4279
 446  505.3116
 447  549.6956
 448  509.8446
 449  525.4592
 450  623.658
 451  504.3825
 452  435.1581
 453  453.4772
 454  450.3852
 455  444.5298
 456  525.1016
 457  500.2732
 458  419.7929
 459  506.7592
 460  599.9585
 461  468.0678
 462  391.7468
 463  425.6615
 464  485.2802
 465  535.2413
 466  557.5823
 467  499.1473
 468  595.0997
 469  465.5655
 470  424.7939
 471  417.3917
 472  483.8064
 473  450.5382
 474  383.9499
 475  458.8287
 476  541.8644
 477  509.5427
 478  545.8947
 479  408.9369
 480  414.0063
 481  468.5811
 482  421.0995
 483  408.8812
 484  446.8339
 485  495.9229
 486  406.7492
 487  438.8997
 488  377.9186
 489  475.8188
 490  528.6047
 491  533.3909
 492  475.6162
 493  433.826
 494  445.9626
 495  485.7587
 496  445.1126
 497  458.1883
 498  409.2031
 499  318.5774
 500  424.5327
 501  404.1984
 502  446.3355
 503  499.0616
 504  408.1847
 505  347.0761
 506  492.2893
 507  371.8511
 508  393.0747
 509  462.7602
 510  477.5579
 511  521.799
