# Input file       =  1184989753.099401_cleaned.dat
# Candidate        =  PSR_0332+5434
# Telescope        =  AR
# Epoch_topo       =  57959.158971057885
# Epoch_bary       =  N/A
# T_sample         =  0.002
# Data Folded      =  7340032
# Data Avg         =  0.0361319625305238
# Data StdDev      =  1.00065625185139 
# Profile Bins     =  512
# Profile Avg      =  517.953025764209 
# Profile StdDev   =  119.811611403561 
# Reduced chi-sqr  =  1.524
# Prob(Noise)      <  1.92e-13   (~7.3 sigma)
# P_topo (ms)      =  714.472792759885  +/- 0.00029
# P'_topo (s/s)    =  -0                +/- 1.53e-10
# P''_topo (s/s^2) =  0                 +/- 6.76e-14
# P_bary (ms)      =  N/A
# P'_bary (s/s)    =  N/A
# P''_bary (s/s^2) =  N/A
# P_orb (s)        =  N/A
# asin(i)/c (s)    =  N/A
# eccentricity     =  N/A
# w (rad)          =  N/A
# T_peri           =  N/A
######################################################
   0  1201.155
   1  1221.283
   2  1158.332
   3  838.8275
   4  534.1271
   5  471.7983
   6  482.4915
   7  477.0886
   8  478.9151
   9  482.3186
  10  641.95
  11  673.491
  12  564.1772
  13  468.4422
  14  556.6768
  15  660.351
  16  594.4114
  17  499.5766
  18  498.3506
  19  445.094
  20  487.5766
  21  509.477
  22  449.677
  23  498.1132
  24  554.2638
  25  400.3228
  26  405.4219
  27  498.4839
  28  434.8077
  29  405.337
  30  419.1747
  31  511.0653
  32  520.0231
  33  562.8831
  34  468.6345
  35  478.6597
  36  494.575
  37  547.6649
  38  536.9591
  39  557.416
  40  484.8582
  41  505.3357
  42  485.5873
  43  428.3842
  44  460.6834
  45  587.1849
  46  592.9233
  47  527.4012
  48  556.3444
  49  536.8841
  50  509.5778
  51  479.4365
  52  453.2884
  53  488.5714
  54  462.7274
  55  438.2735
  56  543.8058
  57  518.7715
  58  536.7663
  59  458.6873
  60  524.8732
  61  626.0386
  62  527.0978
  63  373.6991
  64  413.1481
  65  480.3316
  66  644.6383
  67  702.3759
  68  583.01
  69  585.2386
  70  658.8087
  71  654.7383
  72  607.3497
  73  625.1586
  74  601.8767
  75  662.7974
  76  547.8718
  77  542.6874
  78  596.305
  79  655.7989
  80  518.1101
  81  553.3966
  82  585.2732
  83  431.5375
  84  473.5375
  85  582.0029
  86  606.3047
  87  507.7913
  88  529.9702
  89  589.5653
  90  498.5174
  91  509.8463
  92  584.8439
  93  606.5254
  94  566.5621
  95  548.1693
  96  570.2954
  97  573.7487
  98  531.1624
  99  436.5235
 100  388.7726
 101  407.0346
 102  429.9194
 103  460.209
 104  503.5919
 105  404.3382
 106  475.5208
 107  562.7011
 108  455.2592
 109  532.0576
 110  537.7708
 111  526.5697
 112  563.1196
 113  514.5565
 114  539.8233
 115  538.2733
 116  450.0695
 117  496.7133
 118  620.2026
 119  677.0792
 120  656.5976
 121  595.534
 122  600.265
 123  635.2199
 124  536.9342
 125  536.7297
 126  568.2721
 127  460.6698
 128  516.3583
 129  599.0576
 130  440.2127
 131  498.006
 132  420.7088
 133  456.0791
 134  466.1311
 135  521.2053
 136  611.9547
 137  521.9866
 138  526.2446
 139  534.8943
 140  517.4711
 141  518.5507
 142  414.0664
 143  538.1703
 144  537.3933
 145  510.226
 146  550.3782
 147  503.3549
 148  450.0267
 149  491.8025
 150  453.0198
 151  415.9159
 152  413.9429
 153  535.3518
 154  561.2306
 155  590.0474
 156  482.6696
 157  424.7281
 158  372.6791
 159  455.8965
 160  453.6522
 161  510.9947
 162  398.2206
 163  471.5817
 164  386.3519
 165  439.6054
 166  384.167
 167  398.1108
 168  420.5787
 169  406.3956
 170  492.0331
 171  445.9451
 172  358.4617
 173  343.1515
 174  367.4207
 175  396.1527
 176  415.429
 177  520.3246
 178  504.0732
 179  491.8993
 180  610.8338
 181  593.1052
 182  455.4258
 183  466.4256
 184  556.6175
 185  653.685
 186  585.5525
 187  549.0746
 188  602.7061
 189  524.2531
 190  710.9025
 191  615.8508
 192  668.6113
 193  561.2333
 194  471.3246
 195  558.7579
 196  521.2012
 197  575.1522
 198  580.2441
 199  589.899
 200  499.1571
 201  490.4857
 202  572.2757
 203  566.6183
 204  540.7387
 205  500.2758
 206  506.0393
 207  602.4532
 208  684.6331
 209  577.1336
 210  574.964
 211  584.0729
 212  551.4388
 213  573.4138
 214  453.8517
 215  408.6353
 216  502.5241
 217  462.999
 218  373.1102
 219  488.1047
 220  527.8462
 221  492.6555
 222  435.7816
 223  521.9502
 224  499.2208
 225  458.0854
 226  476.9358
 227  665.3453
 228  539.0818
 229  435.7741
 230  454.7942
 231  564.0945
 232  541.8453
 233  636.1837
 234  576.3299
 235  537.2986
 236  540.1654
 237  591.2035
 238  683.1755
 239  732.0062
 240  644.6835
 241  629.3345
 242  665.7412
 243  621.8395
 244  554.1737
 245  641.2579
 246  646.7952
 247  530.8456
 248  557.0045
 249  587.0473
 250  540.3123
 251  426.6254
 252  433.3876
 253  483.545
 254  497.1622
 255  585.9564
 256  611.564
 257  595.5066
 258  600.6777
 259  601.6632
 260  632.569
 261  576.2052
 262  603.7402
 263  573.3458
 264  647.2144
 265  712.3445
 266  671.5642
 267  656.4951
 268  543.9526
 269  588.7092
 270  665.1711
 271  659.4563
 272  630.7614
 273  619.4462
 274  728.465
 275  594.6453
 276  600.5106
 277  564.614
 278  568.3987
 279  524.3331
 280  536.9296
 281  664.2277
 282  671.1087
 283  604.3835
 284  625.2695
 285  700.4792
 286  690.6456
 287  695.2814
 288  624.8729
 289  575.6967
 290  685.5674
 291  609.7138
 292  572.4514
 293  643.1359
 294  666.1795
 295  692.3748
 296  660.276
 297  616.4264
 298  453.8556
 299  516.1197
 300  619.123
 301  597.0016
 302  516.7067
 303  498.7411
 304  652.0688
 305  612.4185
 306  543.4559
 307  578.7598
 308  658.0787
 309  628.7965
 310  561.815
 311  589.7299
 312  557.9916
 313  440.3406
 314  382.4102
 315  421.8243
 316  511.3861
 317  417.4101
 318  492.8659
 319  440.4112
 320  523.4182
 321  578.9096
 322  433.8567
 323  512.3182
 324  524.0995
 325  583.6171
 326  621.0971
 327  535.9665
 328  491.3469
 329  438.3689
 330  455.2464
 331  476.5685
 332  369.6618
 333  462.9097
 334  583.4973
 335  563.5513
 336  520.7237
 337  494.4171
 338  470.3659
 339  486.8121
 340  549.9707
 341  519.7181
 342  393.1255
 343  335.7054
 344  406.5099
 345  482.3478
 346  533.0994
 347  531.7838
 348  496.5239
 349  510.9551
 350  656.2499
 351  634.7302
 352  484.6597
 353  466.0497
 354  454.3607
 355  522.8837
 356  556.0096
 357  543.0759
 358  534.5563
 359  461.7746
 360  393.738
 361  483.6284
 362  499.5468
 363  677.1491
 364  627.2337
 365  452.2328
 366  430.7798
 367  570.2492
 368  478.2563
 369  433.1288
 370  411.246
 371  348.233
 372  397.8154
 373  441.4494
 374  450.1759
 375  518.9625
 376  471.1106
 377  530.3925
 378  431.1592
 379  440.4208
 380  377.3355
 381  256.8166
 382  403.3608
 383  429.7871
 384  429.6165
 385  433
 386  482.3206
 387  498.6353
 388  472.5307
 389  440.5859
 390  468.7672
 391  573.9307
 392  494.6992
 393  494.8015
 394  538.8237
 395  518.3738
 396  436.8598
 397  407.8161
 398  477.8494
 399  517.3563
 400  458.9711
 401  518.119
 402  450.0679
 403  338.9112
 404  334.9353
 405  410.3521
 406  355.1873
 407  373.8666
 408  402.069
 409  339.9227
 410  415.0661
 411  440.5582
 412  439.7677
 413  377.416
 414  381.0189
 415  398.4664
 416  506.3568
 417  434.0881
 418  419.4022
 419  499.2781
 420  508.0649
 421  576.4769
 422  455.7132
 423  411.874
 424  410.5847
 425  358.2962
 426  433.5906
 427  391.9333
 428  367.5726
 429  496.8929
 430  568.6952
 431  404.6134
 432  314.57
 433  303.4513
 434  362.7262
 435  400.8407
 436  513.2209
 437  530.6783
 438  487.2063
 439  510.1091
 440  494.6577
 441  482.6111
 442  341.9636
 443  374.2001
 444  442.9564
 445  373.8167
 446  314.3348
 447  359.7991
 448  510.4977
 449  455.1451
 450  468.8391
 451  405.9388
 452  469.3705
 453  504.1759
 454  384.4666
 455  389.7591
 456  450.6253
 457  458.2767
 458  391.5299
 459  386.8913
 460  555.4567
 461  590.0203
 462  549.4294
 463  494.6761
 464  531.2019
 465  580.4789
 466  474.9672
 467  456.6884
 468  452.4153
 469  545.9804
 470  586.7616
 471  598.5807
 472  679.7823
 473  643.1658
 474  482.8115
 475  374.8785
 476  414.5869
 477  684.2576
 478  549.6652
 479  449.3865
 480  475.753
 481  419.7845
 482  408.6841
 483  422.9667
 484  496.9044
 485  489.9609
 486  615.3156
 487  432.9374
 488  305.3245
 489  316.3266
 490  401.6029
 491  486.6344
 492  429.9618
 493  369.2127
 494  441.929
 495  422.4339
 496  499.6848
 497  475.3241
 498  404.6994
 499  400.0897
 500  497.5222
 501  500.7753
 502  432.6762
 503  393.2831
 504  421.3577
 505  410.8279
 506  499.8171
 507  689.2156
 508  606.0038
 509  690.8035
 510  967.488
 511  1062.173
