# Input file       =  1184802742.097903_cleaned.dat
# Candidate        =  PSR_0332+5434
# Telescope        =  AR
# Epoch_topo       =  57956.994491873877
# Epoch_bary       =  N/A
# T_sample         =  0.002
# Data Folded      =  7208960
# Data Avg         =  0.0324325248089297
# Data StdDev      =  1.00017023872457 
# Profile Bins     =  512
# Profile Avg      =  456.787542709812 
# Profile StdDev   =  118.679376180277 
# Reduced chi-sqr  =  1.398
# Prob(Noise)      <  6.12e-09   (~5.7 sigma)
# P_topo (ms)      =  714.473971681366  +/- 0.000142
# P'_topo (s/s)    =  -0                +/- 7.65e-11
# P''_topo (s/s^2) =  0                 +/- 3.44e-14
# P_bary (ms)      =  N/A
# P'_bary (s/s)    =  N/A
# P''_bary (s/s^2) =  N/A
# P_orb (s)        =  N/A
# asin(i)/c (s)    =  N/A
# eccentricity     =  N/A
# w (rad)          =  N/A
# T_peri           =  N/A
######################################################
   0  1268.916
   1  1227.448
   2  1032.979
   3  681.4108
   4  626.4503
   5  577.1761
   6  475.3993
   7  456.6415
   8  493.9205
   9  471.779
  10  465.4532
  11  358.8986
  12  322.5911
  13  345.0629
  14  350.1826
  15  361.3297
  16  405.3476
  17  396.4252
  18  326.9696
  19  273.8483
  20  343.3731
  21  419.1148
  22  450.5737
  23  440.8051
  24  480.5144
  25  518.4321
  26  585.4333
  27  515.5933
  28  357.7694
  29  315.8511
  30  285.9476
  31  372.1325
  32  351.2112
  33  433.6569
  34  399.8248
  35  458.0796
  36  388.1628
  37  340.6524
  38  363.1838
  39  435.897
  40  485.5773
  41  375.8849
  42  494.775
  43  474.6625
  44  396.1776
  45  390.8451
  46  472.1182
  47  497.4321
  48  484.776
  49  578.9371
  50  441.5753
  51  453.1522
  52  407.7175
  53  382.4243
  54  369.1002
  55  378.3166
  56  420.388
  57  557.9474
  58  523.5638
  59  472.0474
  60  553.1169
  61  501.6729
  62  444.0233
  63  342.6248
  64  362.566
  65  438.7205
  66  402.439
  67  505.2517
  68  519.9667
  69  414.1086
  70  269.6447
  71  357.5688
  72  399.1719
  73  413.1319
  74  466.2459
  75  432.7138
  76  460.7592
  77  571.1788
  78  447.5581
  79  417.3703
  80  433.8018
  81  407.5189
  82  458.4998
  83  450.9762
  84  502.7401
  85  514.9366
  86  534.6835
  87  495.5811
  88  508.1362
  89  548.3456
  90  567.0319
  91  578.0391
  92  545.1935
  93  547.8333
  94  481.4787
  95  425.647
  96  417.9427
  97  438.9088
  98  524.0349
  99  555.1581
 100  537.1671
 101  518.396
 102  434.3441
 103  475.8013
 104  419.1643
 105  541.0081
 106  497.6802
 107  410.8281
 108  410.279
 109  366.2745
 110  429.9728
 111  468.5764
 112  370.9433
 113  425.2759
 114  396.0298
 115  427.3431
 116  511.5969
 117  479.735
 118  424.9598
 119  356.5325
 120  375.0163
 121  411.4615
 122  480.3386
 123  525.219
 124  545.8046
 125  500.6606
 126  509.3728
 127  468.2908
 128  375.9982
 129  350.1377
 130  396.8408
 131  476.5788
 132  437.0758
 133  477.514
 134  462.1653
 135  399.6301
 136  386.3342
 137  428.8058
 138  413.2228
 139  473.4683
 140  551.4382
 141  518.5938
 142  428.1499
 143  473.6533
 144  503.7439
 145  415.5434
 146  319.9644
 147  323.9653
 148  416.4152
 149  425.9082
 150  435.2614
 151  507.5034
 152  512.3026
 153  457.5536
 154  447.9693
 155  526.795
 156  468.5578
 157  531.1935
 158  403.059
 159  491.5298
 160  498.519
 161  525.2797
 162  520.8974
 163  583.3583
 164  524.6967
 165  432.6361
 166  428.9101
 167  423.1763
 168  412.2897
 169  472.4859
 170  609.4736
 171  637.9053
 172  507.7619
 173  604.4943
 174  546.6993
 175  517.2312
 176  542.1089
 177  595.7354
 178  552.9368
 179  493.3001
 180  504.4058
 181  525.7654
 182  456.1736
 183  461.1671
 184  574.6177
 185  558.5786
 186  502.5775
 187  505.411
 188  387.5551
 189  463.9449
 190  503.3118
 191  464.9516
 192  538.434
 193  546.9047
 194  491.094
 195  396.5227
 196  401.6394
 197  359.571
 198  392.6096
 199  427.5375
 200  508.2106
 201  385.1784
 202  306.9374
 203  439.4507
 204  446.6038
 205  414.0073
 206  393.4201
 207  552.8972
 208  646.6297
 209  492.4472
 210  358.256
 211  337.5062
 212  404.7106
 213  385.8246
 214  480.9083
 215  519.9974
 216  476.4059
 217  343.4733
 218  433.7102
 219  294.0382
 220  361.8804
 221  374.5598
 222  349.9738
 223  408.7785
 224  483.3704
 225  426.8817
 226  485.6874
 227  489.5276
 228  592.5934
 229  533.7809
 230  455.0378
 231  334.3906
 232  338.4239
 233  286.2355
 234  423.2853
 235  413.1481
 236  432.0093
 237  334.4252
 238  364.2845
 239  378.4402
 240  392.8217
 241  411.6016
 242  508.8538
 243  440.5766
 244  346.806
 245  331.2067
 246  418.4269
 247  396.9247
 248  436.5128
 249  454.9534
 250  437.2719
 251  485.2799
 252  552.9928
 253  386.7572
 254  315.5592
 255  484.1118
 256  609.7519
 257  547.8364
 258  600.0849
 259  541.0868
 260  511.3644
 261  434.2945
 262  419.1872
 263  501.4273
 264  454.7613
 265  491.997
 266  401.545
 267  446.4417
 268  521.8578
 269  506.5945
 270  383.354
 271  450.2343
 272  455.0659
 273  573.0485
 274  470.3519
 275  342.9087
 276  444.0187
 277  458.145
 278  416.4557
 279  453.1475
 280  496.8921
 281  570.6606
 282  461.1111
 283  472.8099
 284  412.7958
 285  372.0403
 286  386.4753
 287  533.3524
 288  547.5229
 289  455.3622
 290  471.0001
 291  402.145
 292  457.6812
 293  485.3078
 294  443.262
 295  403.7586
 296  399.2405
 297  397.5576
 298  444.2649
 299  510.2383
 300  513.0826
 301  444.8606
 302  372.5785
 303  402.3162
 304  386.9846
 305  440.9621
 306  546.0918
 307  626.4121
 308  507.1233
 309  391.1667
 310  439.555
 311  300.981
 312  359.8348
 313  384.6572
 314  277.5232
 315  394.1591
 316  400.0495
 317  479.8956
 318  495.8083
 319  448.1477
 320  378.7213
 321  353.0719
 322  373.4001
 323  434.887
 324  475.0034
 325  581.8504
 326  450.5941
 327  385.7968
 328  343.5438
 329  363.4574
 330  424.1912
 331  395.8326
 332  398.7928
 333  444.8535
 334  438.8186
 335  414.5471
 336  360.3778
 337  424.0158
 338  495.275
 339  519.4896
 340  530.1887
 341  476.4618
 342  472.4477
 343  468.4962
 344  365.2957
 345  399.6772
 346  448.8195
 347  479.3418
 348  335.7908
 349  301.1961
 350  389.0199
 351  334.4604
 352  316.8251
 353  437.9873
 354  413.8055
 355  403.9457
 356  478.6532
 357  454.0481
 358  447.4301
 359  591.0383
 360  416.3918
 361  344.8343
 362  398.1103
 363  379.4073
 364  356.2932
 365  398.1457
 366  388.1315
 367  337.7506
 368  348.6229
 369  450.2025
 370  415.1576
 371  479.9593
 372  513.9376
 373  385.9304
 374  475.1552
 375  505.4655
 376  502.4514
 377  500.7739
 378  394.6547
 379  430.138
 380  472.8287
 381  400.6725
 382  446.7301
 383  575.9706
 384  474.6758
 385  416.3758
 386  337.9007
 387  529.9211
 388  573.5226
 389  508.1372
 390  384.1597
 391  444.1388
 392  455.5968
 393  459.4854
 394  409.6073
 395  433.6705
 396  497.4958
 397  495.7184
 398  418.4884
 399  374.7813
 400  420.3683
 401  401.1967
 402  442.6003
 403  514.3643
 404  518.8611
 405  448.0641
 406  478.4726
 407  450.6578
 408  406.9044
 409  394.5773
 410  386.1834
 411  437.0655
 412  462.6697
 413  559.4214
 414  482.9672
 415  453.4092
 416  528.4194
 417  551.1853
 418  383.7003
 419  319.9558
 420  345.6184
 421  416.8293
 422  510.2607
 423  541.981
 424  501.2559
 425  412.4126
 426  330.3508
 427  270.9126
 428  234.0068
 429  294.9599
 430  356.8432
 431  432.9172
 432  418.2357
 433  516.3726
 434  463.7565
 435  377.411
 436  355.8209
 437  487.0358
 438  417.8454
 439  494.6429
 440  489.0128
 441  466.9803
 442  473.905
 443  425.056
 444  460.0518
 445  482.4773
 446  422.4705
 447  480.4801
 448  483.468
 449  399.2021
 450  362.956
 451  447.5984
 452  405.1918
 453  499.7784
 454  481.5492
 455  528.7421
 456  442.5271
 457  379.4279
 458  372.9707
 459  392.8423
 460  399.9595
 461  462.0307
 462  432.9063
 463  435.4364
 464  584.8785
 465  478.0692
 466  393.4828
 467  426.6565
 468  386.1739
 469  399.5659
 470  379.8925
 471  391.6319
 472  424.0506
 473  469.244
 474  443.7626
 475  487.5959
 476  410.0718
 477  350.1443
 478  317.5116
 479  512.8143
 480  666.3745
 481  534.6761
 482  468.813
 483  381.7445
 484  397.5215
 485  461.8625
 486  508.4514
 487  476.7453
 488  503.5927
 489  536.7256
 490  527.995
 491  419.5998
 492  557.2971
 493  498.9741
 494  540.9315
 495  468.3387
 496  463.604
 497  456.8511
 498  508.4302
 499  526.8986
 500  495.9824
 501  472.0588
 502  374.864
 503  502.4109
 504  702.3199
 505  672.6729
 506  599.5398
 507  656.4713
 508  760.9078
 509  821.327
 510  937.5089
 511  1143.404
