# Input file       =  1184817381.103401_cleaned.dat
# Candidate        =  PSR_0332+5434
# Telescope        =  AR
# Epoch_topo       =  57957.163924807879
# Epoch_bary       =  N/A
# T_sample         =  0.002
# Data Folded      =  7340032
# Data Avg         =  0.032336334367002
# Data StdDev      =  1.00013650263529 
# Profile Bins     =  512
# Profile Avg      =  463.392977182521 
# Profile StdDev   =  119.749380251762 
# Reduced chi-sqr  =  1.948
# Prob(Noise)      <  1.69e-33   (~12.0 sigma)
# P_topo (ms)      =  714.473887739333  +/- 0.000235
# P'_topo (s/s)    =  -0                +/- 1.24e-10
# P''_topo (s/s^2) =  0                 +/- 5.48e-14
# P_bary (ms)      =  N/A
# P'_bary (s/s)    =  N/A
# P''_bary (s/s^2) =  N/A
# P_orb (s)        =  N/A
# asin(i)/c (s)    =  N/A
# eccentricity     =  N/A
# w (rad)          =  N/A
# T_peri           =  N/A
######################################################
   0  343.0853
   1  347.7084
   2  365.1851
   3  299.6146
   4  308.2456
   5  328.1566
   6  455.7889
   7  407.5705
   8  461.7531
   9  612.2664
  10  483.3808
  11  273.0017
  12  267.2043
  13  393.8995
  14  487.3996
  15  486.6806
  16  490.7121
  17  494.4686
  18  468.5896
  19  399.7339
  20  429.7492
  21  277.7021
  22  369.3718
  23  526.759
  24  486.2992
  25  412.276
  26  432.2233
  27  500.0441
  28  346.4612
  29  313.0935
  30  334.0623
  31  325.324
  32  370.5621
  33  370.2077
  34  473.6818
  35  554.343
  36  508.1899
  37  321.3473
  38  282.6984
  39  372.9091
  40  346.5444
  41  432.0805
  42  532.0295
  43  478.9517
  44  473.0457
  45  399.1965
  46  367.2196
  47  418.4265
  48  437.5598
  49  409.0396
  50  434.677
  51  403.4469
  52  310.36
  53  284.0339
  54  339.7263
  55  430.4642
  56  403.5847
  57  247.2187
  58  303.5839
  59  362.0394
  60  424.7127
  61  292.197
  62  272.4652
  63  444.2896
  64  374.7887
  65  306.1621
  66  412.9502
  67  481.1742
  68  377.3612
  69  371.5781
  70  414.6315
  71  300.9546
  72  414.2785
  73  439.6353
  74  347.2486
  75  394.4473
  76  432.6365
  77  482.3175
  78  424.5229
  79  350.8755
  80  363.3587
  81  375.817
  82  457.5758
  83  482.2748
  84  527.6888
  85  610.3679
  86  575.883
  87  504.4591
  88  530.4067
  89  525.0833
  90  389.9919
  91  305.836
  92  340.4793
  93  436.2965
  94  486.2029
  95  451.7895
  96  450.2615
  97  461.5104
  98  531.7093
  99  636.6277
 100  498.4074
 101  469.7959
 102  393.672
 103  304.0259
 104  334.2596
 105  246.7809
 106  489.5851
 107  514.9508
 108  485.2945
 109  323.3417
 110  354.0029
 111  447.1247
 112  453.7256
 113  347.532
 114  465.1784
 115  347.6634
 116  333.6835
 117  436.5368
 118  498.3344
 119  514.3882
 120  462.932
 121  476.9731
 122  485.2993
 123  507.3059
 124  630.1498
 125  569.3619
 126  549.0823
 127  529.4614
 128  471.4821
 129  529.4739
 130  691.2736
 131  641.0046
 132  581.8349
 133  566.4634
 134  521.2155
 135  410.4194
 136  459.2838
 137  460.2471
 138  477.1532
 139  558.2826
 140  522.0965
 141  550.3889
 142  544.2047
 143  449.2218
 144  350.6146
 145  514.4019
 146  599.8068
 147  561.8206
 148  544.4229
 149  561.6833
 150  490.3071
 151  447.1419
 152  520.5962
 153  492.4384
 154  428.0502
 155  373.8727
 156  414.8738
 157  484.0773
 158  501.7196
 159  509.1859
 160  498.1244
 161  476.05
 162  446.0593
 163  433.836
 164  364.6057
 165  390.1447
 166  325.5572
 167  446.2107
 168  480.2833
 169  335.0839
 170  324.8014
 171  325.367
 172  323.5641
 173  344.9293
 174  340.1465
 175  348.5815
 176  337.1223
 177  377.8314
 178  324.9911
 179  408.104
 180  530.0849
 181  499.1382
 182  548.7821
 183  566.1713
 184  399.9443
 185  390.2081
 186  436.8346
 187  526.71
 188  463.1037
 189  366.7417
 190  369.5625
 191  391.8496
 192  471.2298
 193  506.3442
 194  417.7274
 195  444.1919
 196  560.6175
 197  620.7599
 198  532.9041
 199  434.5815
 200  444.7409
 201  485.5225
 202  458.348
 203  468.8815
 204  422.1582
 205  473.32
 206  506.3496
 207  532.3953
 208  466.9767
 209  486.333
 210  587.6913
 211  554.7231
 212  331.8271
 213  334.5643
 214  428.8548
 215  490.6809
 216  497.0748
 217  436.1181
 218  449.1053
 219  440.9734
 220  433.1885
 221  468.4485
 222  589.3477
 223  530.763
 224  516.7314
 225  739.8804
 226  959.272
 227  1143.691
 228  1368.62
 229  1333.888
 230  1226.825
 231  951.5863
 232  688.6853
 233  402.1243
 234  386.1493
 235  536.5885
 236  539.3212
 237  462.377
 238  438.5942
 239  474.4767
 240  491.4529
 241  515.8763
 242  466.0647
 243  503.8027
 244  423.1124
 245  344.3524
 246  292.926
 247  351.532
 248  400.9296
 249  351.5258
 250  346.7473
 251  393.4429
 252  426.3374
 253  453.7838
 254  509.558
 255  522.4656
 256  455.2048
 257  449.4645
 258  385.777
 259  416.0366
 260  345.9344
 261  335.721
 262  406.688
 263  435.6953
 264  408.1972
 265  335.0257
 266  436.7756
 267  468.6551
 268  385.9277
 269  310.7318
 270  323.7736
 271  334.9473
 272  210.2386
 273  252.3575
 274  422.2309
 275  440.4717
 276  408.5508
 277  409.0146
 278  383.2552
 279  397.8728
 280  389.7278
 281  406.4384
 282  392.1052
 283  489.2897
 284  406.4626
 285  477.5216
 286  457.6864
 287  345.9938
 288  459.7394
 289  491.5989
 290  438.6024
 291  526.8553
 292  542.5927
 293  616.8792
 294  503.8163
 295  482.1231
 296  532.6624
 297  491.2112
 298  395.0659
 299  517.8344
 300  570.6327
 301  526.591
 302  490.9698
 303  496.0266
 304  494.0546
 305  439.152
 306  533.9453
 307  575.0704
 308  480.2569
 309  476.8688
 310  562.5516
 311  501.4774
 312  506.192
 313  479.6189
 314  457.1385
 315  500.9543
 316  499.7474
 317  442.0282
 318  389.5146
 319  399.7243
 320  401.5405
 321  495.2474
 322  523.4623
 323  544.5801
 324  477.4091
 325  473.7187
 326  453.4383
 327  428.2895
 328  300.1241
 329  446.4202
 330  541.7036
 331  503.1632
 332  491.0833
 333  478.1526
 334  430.0803
 335  422.6833
 336  409.4006
 337  538.7656
 338  516.5527
 339  446.2457
 340  507.466
 341  508.8302
 342  519.4426
 343  522.0043
 344  483.4692
 345  447.7638
 346  568.6161
 347  510.3593
 348  516.2613
 349  596.2941
 350  560.9354
 351  537.1749
 352  474.2021
 353  455.0023
 354  574.9426
 355  656.598
 356  733.2659
 357  651.0756
 358  589.8013
 359  555.1922
 360  428.9949
 361  443.5254
 362  455.0955
 363  447.2061
 364  557.1363
 365  539.1244
 366  577.7545
 367  602.1906
 368  549.7142
 369  593.5989
 370  640.5265
 371  557.9151
 372  401.3953
 373  542.2979
 374  655.6989
 375  471.1252
 376  500.0414
 377  508.0589
 378  584.8262
 379  489.11
 380  563.2047
 381  645.5097
 382  530.8755
 383  459.054
 384  565.0287
 385  551.7147
 386  543.4731
 387  526.6735
 388  538.7797
 389  582.1362
 390  542.7607
 391  473.4957
 392  482.5552
 393  479.1972
 394  548.4303
 395  472.382
 396  581.8845
 397  497.5154
 398  492.9719
 399  397.6916
 400  474.7647
 401  349.4719
 402  471.0399
 403  659.8035
 404  602.561
 405  597.3785
 406  518.0663
 407  444.7793
 408  268.5165
 409  417.2667
 410  466.959
 411  558.1865
 412  611.8383
 413  607.735
 414  509.5341
 415  601.1406
 416  551.0085
 417  545.4543
 418  497.4538
 419  589.4705
 420  540.4153
 421  672.4105
 422  754.4996
 423  635.0753
 424  512.5713
 425  455.0179
 426  404.0249
 427  439.7486
 428  362.708
 429  475.0054
 430  649.109
 431  538.8667
 432  501.8335
 433  520.7338
 434  605.7429
 435  554.45
 436  525.8122
 437  510.508
 438  591.8322
 439  675.1939
 440  560.2457
 441  458.3425
 442  491.8074
 443  505.5989
 444  551.3707
 445  605.1667
 446  562.5187
 447  615.9597
 448  531.4847
 449  427.5012
 450  467.2718
 451  594.6423
 452  604.9616
 453  457.7298
 454  369.6582
 455  315.5966
 456  385.6635
 457  447.0132
 458  438.8447
 459  418.0176
 460  348.3471
 461  407.9003
 462  378.3223
 463  316.9091
 464  264.5684
 465  340.3426
 466  349.8087
 467  452.8603
 468  350.7
 469  278.4872
 470  464.3727
 471  437.2291
 472  377.9901
 473  317.804
 474  345.3784
 475  377.0066
 476  354.9148
 477  346.6242
 478  369.7136
 479  444.6001
 480  466.1065
 481  331.8131
 482  281.7859
 483  269.7875
 484  257.9626
 485  408.8462
 486  534.5665
 487  522.9982
 488  424.5971
 489  305.5116
 490  308.6497
 491  376.7485
 492  350.768
 493  354.2128
 494  403.7146
 495  369.0578
 496  387.307
 497  394.5175
 498  365.4337
 499  369.9369
 500  391.5223
 501  393.9084
 502  424.8926
 503  412.7234
 504  417.6074
 505  326.6353
 506  429.2293
 507  282.6391
 508  258.9139
 509  347.2086
 510  354.3383
 511  369.5815
