# Input file       =  1184199632.104209_cleaned.dat
# Candidate        =  PSR_0332+5434
# Telescope        =  AR
# Epoch_topo       =  57950.014052132050
# Epoch_bary       =  N/A
# T_sample         =  0.002
# Data Folded      =  7143424
# Data Avg         =  0.0244660218418796
# Data StdDev      =  1.0000133317667  
# Profile Bins     =  512
# Profile Avg      =  341.346257353889 
# Profile StdDev   =  118.120159211279 
# Reduced chi-sqr  =  1.413
# Prob(Noise)      <  2.02e-09   (~5.9 sigma)
# P_topo (ms)      =  714.478241575096  +/- 0.000289
# P'_topo (s/s)    =  -0                +/- 1.57e-10
# P''_topo (s/s^2) =  0                 +/- 7.1e-14
# P_bary (ms)      =  N/A
# P'_bary (s/s)    =  N/A
# P''_bary (s/s^2) =  N/A
# P_orb (s)        =  N/A
# asin(i)/c (s)    =  N/A
# eccentricity     =  N/A
# w (rad)          =  N/A
# T_peri           =  N/A
######################################################
   0  1046.848
   1  992.6358
   2  889.0696
   3  819.9288
   4  613.4744
   5  482.5498
   6  403.4034
   7  278.2981
   8  266.3152
   9  299.701
  10  322.7955
  11  364.7011
  12  270.2618
  13  410.2546
  14  449.4589
  15  352.3653
  16  301.909
  17  399.367
  18  423.6714
  19  386.3227
  20  195.8555
  21  275.4043
  22  383.0362
  23  381.3107
  24  267.3422
  25  332.2163
  26  251.6679
  27  308.8792
  28  286.019
  29  277.5668
  30  264.6325
  31  361.1436
  32  356.784
  33  335.9229
  34  372.9908
  35  463.9566
  36  385.2562
  37  251.3103
  38  334.2295
  39  249.231
  40  251.8872
  41  200.8789
  42  290.9018
  43  268.7903
  44  262.4222
  45  364.7275
  46  390.3149
  47  332.3784
  48  314.2239
  49  354.79
  50  304.8639
  51  307.7137
  52  391.1307
  53  398.749
  54  420.9489
  55  366.2545
  56  319.1443
  57  324.2567
  58  384.0383
  59  398.2086
  60  425.048
  61  453.0044
  62  478.2678
  63  496.5448
  64  460.7272
  65  407.8702
  66  369.5722
  67  444.1292
  68  379.4484
  69  334.0237
  70  480.6032
  71  451.9359
  72  447.1244
  73  361.1153
  74  294.6006
  75  216.4958
  76  258.3464
  77  287.9337
  78  368.8323
  79  335.8011
  80  368.1861
  81  330.3793
  82  293.0288
  83  321.1453
  84  332.6911
  85  367.3538
  86  375.3802
  87  292.6586
  88  218.8459
  89  424.6775
  90  424.3542
  91  356.6969
  92  253.7928
  93  285.3224
  94  174.9264
  95  316.7378
  96  329.0222
  97  320.568
  98  340.3781
  99  442.2503
 100  435.9317
 101  382.3387
 102  424.6635
 103  391.7116
 104  370.2871
 105  330.4337
 106  335.5581
 107  235.2131
 108  232.1046
 109  271.3439
 110  252.1313
 111  252.272
 112  312.0016
 113  442.1938
 114  468.6316
 115  333.2143
 116  298.8311
 117  309.874
 118  291.1943
 119  263.0618
 120  309.3748
 121  243.5039
 122  288.4728
 123  205.3239
 124  299.882
 125  308.1636
 126  324.1465
 127  394.1101
 128  337.1609
 129  288.4311
 130  249.6235
 131  379.0653
 132  354.1091
 133  440.0934
 134  509.7092
 135  424.7983
 136  344.1923
 137  301.5275
 138  381.5313
 139  321.2829
 140  347.3928
 141  423.9538
 142  330.4713
 143  318.9379
 144  359.0643
 145  352.6167
 146  392.3856
 147  382.8967
 148  354.5372
 149  476.726
 150  421.6696
 151  250.0249
 152  254.7906
 153  329.7603
 154  331.4652
 155  317.347
 156  359.3318
 157  472.9549
 158  351.1061
 159  309.9048
 160  309.2564
 161  292.508
 162  275.4639
 163  229.3747
 164  303.9406
 165  391.4314
 166  293.6763
 167  316.7164
 168  404.5872
 169  260.6165
 170  267.8843
 171  304.4314
 172  270.6684
 173  341.4209
 174  314.4599
 175  228.4807
 176  207.0354
 177  406.9423
 178  407.925
 179  363.8965
 180  313.6434
 181  195.1267
 182  330.8135
 183  315.1324
 184  303.1634
 185  275.2433
 186  316.0527
 187  238.0083
 188  280.6818
 189  292.2884
 190  276.6626
 191  238.128
 192  275.5583
 193  362.6759
 194  210.2863
 195  273.142
 196  327.0667
 197  406.5332
 198  420.1314
 199  426.4529
 200  393.5757
 201  333.8376
 202  343.282
 203  310.7007
 204  295.7799
 205  310.4582
 206  366.0008
 207  341.45
 208  389.114
 209  260.7543
 210  337.1993
 211  336.063
 212  425.4886
 213  403.5097
 214  470.3129
 215  485.8338
 216  406.1215
 217  509.1782
 218  422.4235
 219  406.629
 220  339.1419
 221  297.5799
 222  330.723
 223  284.7885
 224  285.0883
 225  255.435
 226  223.0777
 227  250.1893
 228  320.5591
 229  347.9502
 230  395.0795
 231  302.1234
 232  295.8677
 233  281.8725
 234  364.5215
 235  358.283
 236  298.0328
 237  325.7715
 238  289.806
 239  318.0486
 240  405.4164
 241  254.0027
 242  217.1457
 243  271.4843
 244  375.9477
 245  381.7086
 246  390.7113
 247  413.045
 248  357.3315
 249  370.4054
 250  294.7101
 251  301.3657
 252  281.1478
 253  361.6537
 254  268.7122
 255  329.5901
 256  318.6457
 257  308.3511
 258  211.09
 259  251.666
 260  388.1484
 261  411.7402
 262  355.5217
 263  364.5083
 264  353.8498
 265  188.0596
 266  145.6222
 267  241.2254
 268  153.3902
 269  319.4331
 270  379.1397
 271  382.7584
 272  346.6154
 273  317.3959
 274  378.6495
 275  328.8257
 276  358.6183
 277  328.0306
 278  312.718
 279  396.0203
 280  411.151
 281  413.6764
 282  366.0428
 283  284.9172
 284  203.1216
 285  273.9061
 286  316.4235
 287  358.542
 288  397.8275
 289  431.0038
 290  228.637
 291  329.3056
 292  382.1437
 293  449.8475
 294  395.0456
 295  367.4747
 296  389.9652
 297  338.6474
 298  288.7202
 299  257.6185
 300  366.6204
 301  325.8445
 302  247.8632
 303  218.6412
 304  233.0941
 305  384.9811
 306  397.5608
 307  361.8332
 308  298.5001
 309  390.9556
 310  326.5933
 311  213.2923
 312  247.3781
 313  295.1977
 314  401.8762
 315  296.4354
 316  266.5645
 317  230.7174
 318  225.4488
 319  66.37569
 320  210.2732
 321  251.4776
 322  336.2461
 323  270.5231
 324  302.3542
 325  261.3482
 326  302.2464
 327  379.4261
 328  373.2958
 329  337.817
 330  315.9567
 331  360.13
 332  386.8155
 333  418.8142
 334  480.3587
 335  411.6897
 336  413.2427
 337  360.9132
 338  231.009
 339  275.4818
 340  318.9985
 341  254.4325
 342  316.9697
 343  351.4749
 344  404.9933
 345  292.7467
 346  260.1175
 347  271.7693
 348  245.728
 349  392.4949
 350  463.1336
 351  384.4391
 352  393.1288
 353  419.3702
 354  426.3462
 355  302.6608
 356  340.5312
 357  402.7333
 358  375.5727
 359  326.7152
 360  384.1634
 361  330.7659
 362  365.7955
 363  331.056
 364  457.1421
 365  460.8185
 366  396.2343
 367  339.6906
 368  358.5253
 369  404.6484
 370  394.8436
 371  313.2303
 372  418.3602
 373  426.4111
 374  382.469
 375  337.0748
 376  251.9158
 377  210.7974
 378  216.5201
 379  350.9492
 380  236.5761
 381  182.3478
 382  190.7108
 383  214.2635
 384  216.1821
 385  262.6573
 386  383.8449
 387  420.033
 388  360.9291
 389  331.4789
 390  264.3789
 391  261.4097
 392  233.9204
 393  163.6048
 394  242.3035
 395  253.5031
 396  342.542
 397  416.4256
 398  357.7104
 399  397.7748
 400  354.4828
 401  265.3881
 402  318.0764
 403  201.1089
 404  278.7411
 405  313.4672
 406  279.6477
 407  213.9239
 408  197.5866
 409  188.2769
 410  267.9937
 411  349.6143
 412  242.6425
 413  317.1902
 414  381.0713
 415  439.8421
 416  281.0206
 417  209.0424
 418  294.5043
 419  379.4158
 420  497.6113
 421  381.7447
 422  350.909
 423  386.7488
 424  399.9809
 425  462.4579
 426  446.2699
 427  436.6049
 428  269.0575
 429  351.6833
 430  427.5338
 431  474.2336
 432  410.3221
 433  412.6104
 434  309.6074
 435  415.4516
 436  431.4836
 437  343.7982
 438  333.3452
 439  297.7193
 440  396.2907
 441  364.467
 442  400.929
 443  341.9763
 444  336.4789
 445  346.367
 446  350.4113
 447  386.304
 448  284.7964
 449  160.1557
 450  316.3903
 451  266.1501
 452  272.2815
 453  339.173
 454  325.0526
 455  352.1688
 456  363.6584
 457  310.1363
 458  307.7698
 459  209.1455
 460  192.7165
 461  205.4698
 462  396.3094
 463  393.858
 464  375.3452
 465  338.8947
 466  305.3143
 467  326.8498
 468  259.9653
 469  160.9756
 470  346.2357
 471  454.1161
 472  414.7464
 473  211.2696
 474  135.2719
 475  209.3795
 476  366.6456
 477  331.8947
 478  301.638
 479  278.8021
 480  250.1698
 481  216.0936
 482  315.7937
 483  292.6551
 484  223.9622
 485  272.9971
 486  315.8234
 487  343.0598
 488  202.0532
 489  126.5917
 490  170.2752
 491  409.804
 492  448.0348
 493  459.4464
 494  380.8815
 495  331.0871
 496  403.6839
 497  409.0483
 498  508.7738
 499  476.2384
 500  346.8725
 501  386.8829
 502  468.2268
 503  444.3555
 504  529.8348
 505  434.6138
 506  385.9909
 507  447.2779
 508  621.9266
 509  764.4682
 510  886.985
 511  936.866
