# Input file       =  1184113454.097065_cleaned.dat
# Candidate        =  PSR_0332+5434
# Telescope        =  AR
# Epoch_topo       =  57949.016621493807
# Epoch_bary       =  N/A
# T_sample         =  0.002
# Data Folded      =  7208960
# Data Avg         =  0.0331089464858121
# Data StdDev      =  1.0000729856281  
# Profile Bins     =  512
# Profile Avg      =  466.178854905395 
# Profile StdDev   =  118.667836208006 
# Reduced chi-sqr  =  1.346
# Prob(Noise)      <  2.7e-07   (~5.0 sigma)
# P_topo (ms)      =  714.478898945373  +/- 0.000239
# P'_topo (s/s)    =  -0                +/- 1.28e-10
# P''_topo (s/s^2) =  0                 +/- 5.77e-14
# P_bary (ms)      =  N/A
# P'_bary (s/s)    =  N/A
# P''_bary (s/s^2) =  N/A
# P_orb (s)        =  N/A
# asin(i)/c (s)    =  N/A
# eccentricity     =  N/A
# w (rad)          =  N/A
# T_peri           =  N/A
######################################################
   0  1141.639
   1  1158.065
   2  947.8138
   3  790.053
   4  600.9572
   5  549.408
   6  531.1243
   7  563.6219
   8  639.2002
   9  580.4899
  10  382.4209
  11  465.4263
  12  591.8276
  13  562.733
  14  526.8574
  15  516.6476
  16  464.9793
  17  546.9167
  18  561.2185
  19  534.3544
  20  586.0943
  21  424.1378
  22  432.3871
  23  466.7459
  24  490.1093
  25  527.1519
  26  418.202
  27  386.201
  28  468.9403
  29  455.9103
  30  500.3946
  31  380.6077
  32  402.5677
  33  423.2995
  34  414.0248
  35  441.1355
  36  485.0885
  37  483.8858
  38  492.7926
  39  509.0439
  40  409.5704
  41  441.2067
  42  345.6645
  43  446.7687
  44  480.6176
  45  465.922
  46  458.9503
  47  434.885
  48  333.5636
  49  345.8152
  50  373.8974
  51  492.1256
  52  357.706
  53  278.7604
  54  406.2365
  55  407.9128
  56  382.0561
  57  435.2152
  58  422.2039
  59  353.2011
  60  411.5718
  61  525.6083
  62  465.2724
  63  412.2518
  64  444.712
  65  553.1812
  66  494.1896
  67  498.1248
  68  527.8987
  69  513.5752
  70  450.1445
  71  564.5135
  72  591.7584
  73  579.0495
  74  501.3331
  75  435.829
  76  424.9688
  77  476.8695
  78  600.7761
  79  642.8845
  80  540.9578
  81  480.306
  82  626.576
  83  581.2256
  84  575.1337
  85  519.4476
  86  495.1479
  87  546.7701
  88  588.5025
  89  556.0566
  90  554.7729
  91  489.9505
  92  563.4358
  93  710.8557
  94  668.3613
  95  563.6886
  96  557.4166
  97  590.3405
  98  603.5762
  99  600.95
 100  471.4148
 101  460.034
 102  493.2172
 103  636.6922
 104  578.7616
 105  501.5153
 106  480.5844
 107  500.0382
 108  538.8411
 109  569.8264
 110  542.226
 111  527.815
 112  551.2503
 113  562.0789
 114  503.8845
 115  534.6535
 116  550.5772
 117  474.4677
 118  466.5626
 119  447.757
 120  513.9476
 121  433.709
 122  296.2173
 123  526.4368
 124  524.1443
 125  483.0519
 126  515.2641
 127  469.8055
 128  561.5115
 129  511.4375
 130  465.7538
 131  453.0151
 132  504.8123
 133  572.0865
 134  498.391
 135  507.1433
 136  426.1288
 137  488.7475
 138  395.6451
 139  457.7606
 140  496.9589
 141  516.8152
 142  506.3687
 143  445.5684
 144  360.5018
 145  348.044
 146  535.0812
 147  539.4324
 148  527.9579
 149  480.3347
 150  447.9166
 151  409.3855
 152  401.9343
 153  471.4376
 154  539.1443
 155  521.1201
 156  660.1892
 157  589.0519
 158  504.96
 159  502.1758
 160  496.0241
 161  558.3947
 162  599.2701
 163  572.2588
 164  503.2399
 165  538.6061
 166  484.9751
 167  476.8411
 168  440.6421
 169  494.3813
 170  448.8655
 171  334.5354
 172  402.2837
 173  383.351
 174  509.8435
 175  451.3607
 176  353.068
 177  430.1638
 178  406.7082
 179  432.8883
 180  478.9616
 181  362.0585
 182  357.5569
 183  355.1511
 184  393.6146
 185  388.4935
 186  342.9298
 187  293.9344
 188  359.2012
 189  405.6522
 190  418.1504
 191  376.1945
 192  457.5435
 193  448.9427
 194  434.3297
 195  429.8984
 196  418.2105
 197  385.2956
 198  396.1069
 199  281.0576
 200  320.7785
 201  349.5996
 202  423.349
 203  438.9946
 204  511.5735
 205  552.0199
 206  520.5643
 207  515.5161
 208  395.3886
 209  364.0294
 210  450.1119
 211  522.3148
 212  447.5804
 213  446.6193
 214  488.5903
 215  370.3158
 216  491.3088
 217  559.9638
 218  525.0823
 219  504.8113
 220  507.0337
 221  469.3769
 222  510.6569
 223  629.6266
 224  503.9509
 225  518.1107
 226  551.7676
 227  503.2814
 228  474.7654
 229  512.7954
 230  614.8123
 231  589.3743
 232  465.9542
 233  504.0592
 234  351.7561
 235  384.342
 236  541.0626
 237  487.9662
 238  394.5568
 239  550.8253
 240  633.6852
 241  428.9565
 242  339.0938
 243  433.6044
 244  358.9647
 245  435.4835
 246  526.9499
 247  516.2612
 248  492.8203
 249  422.738
 250  376.8436
 251  368.9414
 252  357.0357
 253  396.877
 254  400.6486
 255  462.5184
 256  526.1389
 257  441.0872
 258  399.2921
 259  455.6718
 260  402.1416
 261  365.5323
 262  440.3878
 263  423.575
 264  394.4302
 265  381.8099
 266  389.4426
 267  407.0774
 268  350.0877
 269  361.9163
 270  368.4337
 271  462.6988
 272  459.2197
 273  426.2182
 274  432.259
 275  469.4954
 276  539.8657
 277  498.1179
 278  409.6202
 279  351.0361
 280  525.7664
 281  548.0402
 282  462.2102
 283  403.5003
 284  532.4314
 285  571.225
 286  492.7151
 287  490.3718
 288  472.4069
 289  461.1052
 290  432.0718
 291  449.303
 292  506.2072
 293  647.6601
 294  603.8798
 295  398.9234
 296  501.6562
 297  560.2338
 298  513.6378
 299  434.8144
 300  505.2398
 301  590.056
 302  516.4659
 303  465.474
 304  485.0572
 305  575.3669
 306  585.0612
 307  526.304
 308  520.3173
 309  450.45
 310  363.1756
 311  337.9457
 312  381.7112
 313  486.5699
 314  513.1617
 315  609.5843
 316  623.2844
 317  522.6123
 318  462.1161
 319  378.9476
 320  394.3066
 321  529.1746
 322  592.0598
 323  453.962
 324  412.9626
 325  429.1577
 326  484.612
 327  500.8175
 328  491.0287
 329  572.7421
 330  407.7431
 331  373.9586
 332  379.083
 333  371.9438
 334  449.7614
 335  418.5892
 336  300.3011
 337  363.1885
 338  400.7903
 339  484.6573
 340  465.9851
 341  481.8573
 342  347.4237
 343  396.2859
 344  474.5071
 345  440.4766
 346  461.1438
 347  414.067
 348  419.65
 349  353.5249
 350  366.0824
 351  501.1823
 352  499.4742
 353  578.1287
 354  546.5306
 355  532.0202
 356  474.0338
 357  391.5466
 358  246.956
 359  432.3758
 360  505.7835
 361  409.5278
 362  367.7264
 363  473.25
 364  482.818
 365  379.3601
 366  464.6476
 367  449.4363
 368  528.5521
 369  487.9829
 370  471.6859
 371  461.3558
 372  376.7242
 373  487.6102
 374  495.6114
 375  409.1596
 376  450.4141
 377  473.529
 378  467.9592
 379  395.3832
 380  390.2149
 381  460.395
 382  424.615
 383  500.1406
 384  497.6703
 385  498.1751
 386  520.0712
 387  423.1606
 388  533.9602
 389  588.9628
 390  470.5862
 391  377.9646
 392  468.0302
 393  394.0773
 394  390.8214
 395  411.7827
 396  503.8466
 397  489.592
 398  410.8394
 399  486.0246
 400  419.9162
 401  406.0006
 402  320.8015
 403  313.9223
 404  385.8397
 405  413.6915
 406  451.3336
 407  429.9409
 408  386.2767
 409  365.6653
 410  383.4307
 411  397.6765
 412  356.1493
 413  401.6429
 414  423.5797
 415  376.5648
 416  284.4595
 417  274.894
 418  223.1091
 419  313.925
 420  396.422
 421  373.9442
 422  414.7419
 423  356.1709
 424  221.7831
 425  307.8691
 426  442.9403
 427  444.957
 428  348.9012
 429  303.7242
 430  419.0451
 431  339.681
 432  279.2142
 433  347.9707
 434  468.9681
 435  415.1308
 436  480.498
 437  488.5594
 438  478.469
 439  503.2504
 440  541.4405
 441  477.4006
 442  462.6099
 443  563.7849
 444  493.4826
 445  406.8394
 446  457.2977
 447  525.805
 448  495.0868
 449  526.4612
 450  600.9498
 451  625.1432
 452  573.2394
 453  413.055
 454  316.6424
 455  376.4641
 456  501.9579
 457  469.776
 458  404.6741
 459  383.0768
 460  378.5693
 461  380.0619
 462  443.9327
 463  449.1392
 464  364.4058
 465  304.8374
 466  413.2097
 467  450.8042
 468  439.7757
 469  494.0349
 470  424.0657
 471  430.3995
 472  350.2257
 473  310.1214
 474  425.1355
 475  404.0482
 476  402.2297
 477  436.7523
 478  424.3727
 479  388.1034
 480  390.164
 481  458.3703
 482  360.037
 483  368.3022
 484  360.7753
 485  379.9852
 486  489.0357
 487  534.7446
 488  454.5291
 489  381.9365
 490  332.9081
 491  355.4244
 492  482.0895
 493  438.4347
 494  450.2264
 495  492.9398
 496  422.2859
 497  451.6847
 498  384.6716
 499  405.696
 500  399.3725
 501  320.6979
 502  342.1988
 503  440.8622
 504  528.9116
 505  489.0691
 506  500.2013
 507  478.4144
 508  613.0906
 509  773.9745
 510  915.8943
 511  1056.698
