# Input file       =  1184056858.110486_cleaned.dat
# Candidate        =  PSR_0332+5434
# Telescope        =  AR
# Epoch_topo       =  57948.361575352850
# Epoch_bary       =  N/A
# T_sample         =  0.002
# Data Folded      =  7340032
# Data Avg         =  0.0321238035228437
# Data StdDev      =  1.00009690080087 
# Profile Bins     =  512
# Profile Avg      =  460.500805445365 
# Profile StdDev   =  119.744638603881 
# Reduced chi-sqr  =  0.927
# Prob(Noise)      <  0.88   (~0.0 sigma)
# P_topo (ms)      =  714.47968164225   +/- 0.000314
# P'_topo (s/s)    =  -0                +/- 1.66e-10
# P''_topo (s/s^2) =  0                 +/- 7.31e-14
# P_bary (ms)      =  N/A
# P'_bary (s/s)    =  N/A
# P''_bary (s/s^2) =  N/A
# P_orb (s)        =  N/A
# asin(i)/c (s)    =  N/A
# eccentricity     =  N/A
# w (rad)          =  N/A
# T_peri           =  N/A
######################################################
   0  1098.437
   1  1006.742
   2  849.3471
   3  700.6949
   4  483.0069
   5  413.8731
   6  377.9973
   7  413.8719
   8  405.4883
   9  476.8951
  10  395.1223
  11  441.7919
  12  520.9935
  13  395.7286
  14  368.8848
  15  530.9211
  16  517.8021
  17  459.1939
  18  395.6792
  19  418.9081
  20  475.3846
  21  427.2191
  22  450.221
  23  491.8957
  24  423.6857
  25  425.8747
  26  416.6238
  27  529.2179
  28  487.7214
  29  538.0002
  30  489.6275
  31  308.7127
  32  483.4367
  33  474.8336
  34  335.3961
  35  363.686
  36  453.2107
  37  586.1252
  38  400.8621
  39  429.5119
  40  530.258
  41  461.0765
  42  435.0305
  43  450.9225
  44  440.5541
  45  446.1877
  46  283.7638
  47  336.9781
  48  469.5208
  49  524.2723
  50  507.0122
  51  429.6404
  52  382.2075
  53  449.0989
  54  407.2213
  55  425.2072
  56  466.0468
  57  390.7865
  58  479.1661
  59  492.5716
  60  397.1402
  61  346.2834
  62  485.9531
  63  482.058
  64  468.6465
  65  388.5799
  66  466.8304
  67  472.2473
  68  421.5247
  69  527.2413
  70  454.1081
  71  474.5941
  72  421.6953
  73  354.4451
  74  509.1154
  75  476.1133
  76  463.5722
  77  447.6442
  78  483.3318
  79  437.8756
  80  407.1063
  81  417.9093
  82  422.2301
  83  534.656
  84  499.1764
  85  472.093
  86  668.3193
  87  618.3227
  88  530.3125
  89  580.6915
  90  457.4998
  91  451.0258
  92  469.8575
  93  489.1707
  94  457.6901
  95  451.2688
  96  437.1483
  97  551.0569
  98  513.1148
  99  527.1442
 100  473.4959
 101  453.5933
 102  495.8572
 103  508.2038
 104  538.2986
 105  467.5402
 106  503.468
 107  505.7443
 108  456.9428
 109  478.4833
 110  492.9766
 111  512.6227
 112  445.2372
 113  424.3336
 114  403.5817
 115  486.814
 116  498.1692
 117  442.1891
 118  385.5359
 119  411.7345
 120  356.4114
 121  469.7646
 122  476.1155
 123  488.9918
 124  484.9389
 125  479.8045
 126  514.2143
 127  486.5975
 128  391.3931
 129  387.5407
 130  391.0078
 131  468.1872
 132  398.2555
 133  458.394
 134  434.6671
 135  385.2292
 136  509.4363
 137  484.3172
 138  429.5001
 139  416.7881
 140  369.7126
 141  446.8107
 142  453.597
 143  483.4288
 144  434.2291
 145  508.3109
 146  500.2488
 147  526.4319
 148  507.6939
 149  515.4884
 150  491.1627
 151  440.4984
 152  467.7372
 153  405.8611
 154  378.0948
 155  382.1421
 156  245.8182
 157  202.3149
 158  204.0436
 159  288.3461
 160  331.1493
 161  417.9223
 162  440.9387
 163  381.2934
 164  398.6867
 165  452.1134
 166  473.1213
 167  425.7437
 168  417.5994
 169  417.5703
 170  441.5915
 171  404.5851
 172  471.8942
 173  530.6871
 174  545.9432
 175  591.2127
 176  543.7189
 177  561.3113
 178  503.7378
 179  537.4827
 180  486.8125
 181  479.382
 182  554.1725
 183  505.0056
 184  434.3936
 185  386.2961
 186  445.8441
 187  552.9108
 188  606.3187
 189  507.4942
 190  513.5702
 191  498.6673
 192  504.9646
 193  470.7674
 194  479.4621
 195  423.0558
 196  343.4429
 197  304.179
 198  342.0754
 199  420.9023
 200  385.0103
 201  361.1927
 202  367.3529
 203  426.9365
 204  423.8306
 205  382.0224
 206  440.8997
 207  495.1708
 208  391.1137
 209  415.3942
 210  440.0115
 211  525.1372
 212  581.9487
 213  627.4842
 214  524.4795
 215  435.519
 216  414.1486
 217  359.6952
 218  387.5814
 219  429.5264
 220  529.6003
 221  495.8675
 222  485.2027
 223  526.712
 224  477.9185
 225  532.1086
 226  476.3891
 227  470.0587
 228  450.5515
 229  431.6234
 230  514.5259
 231  473.9897
 232  430.0589
 233  388.3853
 234  457.1465
 235  437.2465
 236  325.8232
 237  333.1067
 238  406.5933
 239  432.0152
 240  420.7788
 241  386.1244
 242  474.5581
 243  435.5457
 244  432.031
 245  500.1678
 246  463.3142
 247  490.9097
 248  474.3029
 249  515.578
 250  588.5338
 251  549.8064
 252  470.5349
 253  485.198
 254  444.8046
 255  410.728
 256  460.3051
 257  485.5548
 258  484.9267
 259  358.2135
 260  421.8596
 261  492.037
 262  598.9554
 263  544.1458
 264  553.0291
 265  523.0955
 266  656.3467
 267  559.8166
 268  559.1133
 269  622.8522
 270  549.7066
 271  538.4176
 272  580.6649
 273  498.4794
 274  443.5548
 275  473.8597
 276  451.6096
 277  503.502
 278  535.4322
 279  471.6683
 280  469.5658
 281  440.6473
 282  480.3721
 283  363.1219
 284  397.1232
 285  422.3263
 286  454.5757
 287  496.914
 288  499.3129
 289  465.3792
 290  467.0862
 291  472.5255
 292  430.1393
 293  413.5923
 294  350.2929
 295  340.4979
 296  420.7643
 297  388.1047
 298  260.8664
 299  263.2662
 300  327.5992
 301  385.8485
 302  404.0867
 303  366.0908
 304  379.1463
 305  440.5912
 306  470.1388
 307  415.1741
 308  412.4411
 309  412.4514
 310  440.4044
 311  399.1005
 312  405.1411
 313  445.708
 314  398.7386
 315  440.4325
 316  402.0446
 317  409.9507
 318  445.6104
 319  388.3049
 320  390.9195
 321  341.8152
 322  370.2609
 323  393.8187
 324  310.0242
 325  413.068
 326  362.108
 327  335.1387
 328  303.5504
 329  291.7797
 330  398.2174
 331  413.0336
 332  439.1361
 333  431.9503
 334  373.139
 335  462.64
 336  517.8212
 337  400.5195
 338  359.173
 339  336.8991
 340  419.5189
 341  458.4948
 342  457.2456
 343  532.5894
 344  461.6416
 345  452.0486
 346  562.2417
 347  550.4781
 348  493.1431
 349  398.4367
 350  397.6922
 351  499.6304
 352  471.7898
 353  411.0633
 354  471.1773
 355  444.2704
 356  340.9023
 357  361.8903
 358  326.6549
 359  421.8689
 360  386.3781
 361  489.6341
 362  454.9845
 363  490.1508
 364  520.4055
 365  502.4215
 366  458.8755
 367  476.1618
 368  478.3434
 369  420.7986
 370  413.3902
 371  458.6501
 372  600.2575
 373  542.8691
 374  436.3365
 375  514.6335
 376  484.3134
 377  497.7813
 378  521.0618
 379  418.0554
 380  558.8406
 381  540.7269
 382  479.4272
 383  428.2754
 384  437.9743
 385  420.427
 386  469.465
 387  502.2736
 388  493.9306
 389  461.0659
 390  458.5311
 391  364.9671
 392  312.3176
 393  432.1776
 394  406.9237
 395  404.6815
 396  468.5161
 397  445.4949
 398  454.1834
 399  472.0668
 400  495.1712
 401  504.1694
 402  490.2052
 403  453.7873
 404  421.5601
 405  534.6128
 406  577.1459
 407  518.8965
 408  442.9199
 409  446.1028
 410  461.6247
 411  585.0742
 412  571.7648
 413  596.5147
 414  525.7047
 415  489.2208
 416  387.5135
 417  418.5962
 418  411.112
 419  493.7343
 420  641.1274
 421  576.0294
 422  544.1871
 423  456.0095
 424  501.4916
 425  585.1346
 426  622.5957
 427  477.7286
 428  408.8101
 429  531.0047
 430  522.0889
 431  460.1823
 432  501.3921
 433  513.2615
 434  548.7815
 435  441.7398
 436  509.4473
 437  514.8739
 438  371.7748
 439  424.6176
 440  458.7091
 441  531.0798
 442  570.6805
 443  573.2398
 444  527.9766
 445  400.1725
 446  458.644
 447  479.7283
 448  394.6971
 449  401.3275
 450  521.9828
 451  458.9308
 452  379.4238
 453  372.3055
 454  551.2633
 455  536.1213
 456  443.3384
 457  417.4694
 458  406.5728
 459  434.118
 460  422.8352
 461  554.1432
 462  525.6562
 463  387.6409
 464  455.0114
 465  428.2583
 466  475.8241
 467  443.3931
 468  420.1734
 469  373.906
 470  507.0321
 471  546.1248
 472  530.5322
 473  477.0169
 474  510.2806
 475  478.6196
 476  422.643
 477  530.7342
 478  514.6309
 479  487.5705
 480  557.3104
 481  399.4803
 482  443.4375
 483  402.0289
 484  548.983
 485  500.7711
 486  489.3719
 487  499.1904
 488  388.0687
 489  402.3517
 490  417.2996
 491  322.4326
 492  372.9383
 493  450.9056
 494  465.548
 495  424.6624
 496  382.8354
 497  355.1068
 498  380.37
 499  354.6022
 500  392.3175
 501  513.7435
 502  523.4842
 503  489.9385
 504  361.5045
 505  411.986
 506  475.3962
 507  554.9285
 508  581.1443
 509  579.2913
 510  676.8851
 511  928.7892
