# Input file       =  1184746163.112572_cleaned.dat
# Candidate        =  PSR_0332+5434
# Telescope        =  AR
# Epoch_topo       =  57956.339642506617
# Epoch_bary       =  N/A
# T_sample         =  0.002
# Data Folded      =  7340032
# Data Avg         =  0.0357114303785759
# Data StdDev      =  1.00018474283135 
# Profile Bins     =  512
# Profile Avg      =  511.997076326556 
# Profile StdDev   =  119.755156196913 
# Reduced chi-sqr  =  1.376
# Prob(Noise)      <  3.26e-08   (~5.4 sigma)
# P_topo (ms)      =  714.474690071772  +/- 0.000313
# P'_topo (s/s)    =  -0                +/- 1.65e-10
# P''_topo (s/s^2) =  0                 +/- 7.28e-14
# P_bary (ms)      =  N/A
# P'_bary (s/s)    =  N/A
# P''_bary (s/s^2) =  N/A
# P_orb (s)        =  N/A
# asin(i)/c (s)    =  N/A
# eccentricity     =  N/A
# w (rad)          =  N/A
# T_peri           =  N/A
######################################################
   0  1184.978
   1  1172.097
   2  949.4407
   3  720.1429
   4  574.0355
   5  443.174
   6  441.0335
   7  514.4216
   8  562.7707
   9  527.3591
  10  562.7311
  11  608.1151
  12  660.8215
  13  641.5789
  14  522.2777
  15  501.5618
  16  653.1042
  17  661.0654
  18  550.5849
  19  587.4555
  20  546.6821
  21  563.782
  22  418.5137
  23  515.0662
  24  624.0383
  25  635.4854
  26  713.0411
  27  693.7045
  28  696.2847
  29  625.5972
  30  640.6052
  31  587.8724
  32  624.5521
  33  616.3915
  34  531.2769
  35  487.9204
  36  581.5662
  37  618.6509
  38  580.8709
  39  467.456
  40  542.8486
  41  387.0951
  42  452.4924
  43  412.1752
  44  376.0074
  45  355.2597
  46  367.5522
  47  452.0867
  48  579.7377
  49  480.2165
  50  542.4861
  51  714.3475
  52  569.0459
  53  522.8904
  54  514.9122
  55  609.8915
  56  709.4088
  57  587.8385
  58  673.9269
  59  568.3121
  60  546.6793
  61  544.9687
  62  535.6575
  63  539.3597
  64  569.2669
  65  515.237
  66  540.7536
  67  558.5712
  68  578.2049
  69  586.4188
  70  553.1987
  71  567.5164
  72  583.926
  73  608.9254
  74  621.1085
  75  566.0961
  76  529.5117
  77  483.8603
  78  487.2066
  79  687.9871
  80  714.1356
  81  563.9971
  82  589.7379
  83  671.2482
  84  670.6907
  85  479.2935
  86  485.2513
  87  589.6342
  88  631.9548
  89  594.7184
  90  594.3679
  91  543.9232
  92  509.0501
  93  629.9704
  94  671.8175
  95  605.5023
  96  543.4859
  97  580.8088
  98  476.5392
  99  515.5129
 100  645.733
 101  713.08
 102  694.0396
 103  514.89
 104  576.4721
 105  716.9575
 106  707.9913
 107  603.4099
 108  530.8799
 109  612.2458
 110  574.0215
 111  539.2357
 112  528.6824
 113  513.3755
 114  498.169
 115  521.1335
 116  516.1007
 117  465.5774
 118  447.7577
 119  510.5493
 120  526.1415
 121  464.2096
 122  507.8266
 123  574.7808
 124  447.1872
 125  444.7188
 126  516.8112
 127  433.9358
 128  381.3312
 129  465.632
 130  503.9431
 131  483.7155
 132  553.118
 133  609.6208
 134  582.5281
 135  448.2724
 136  508.5765
 137  525.1268
 138  501.6849
 139  416.5145
 140  358.928
 141  468.0987
 142  540.7527
 143  473.8161
 144  432.665
 145  411.8239
 146  435.7993
 147  481.7908
 148  505.1523
 149  413.8807
 150  323.5482
 151  350.5708
 152  360.4086
 153  366.714
 154  564.5264
 155  427.5393
 156  442.1724
 157  459.4699
 158  412.7872
 159  535.3969
 160  586.5833
 161  535.3404
 162  377.4978
 163  509.1292
 164  457.0651
 165  396.5903
 166  443.0046
 167  429.4987
 168  418.8033
 169  383.5748
 170  514.4709
 171  445.2328
 172  393.3333
 173  521.7885
 174  497.941
 175  455.0002
 176  506.512
 177  498.5003
 178  468.9104
 179  471.7154
 180  461.4915
 181  508.2304
 182  466.4364
 183  528.8491
 184  559.0752
 185  476.3668
 186  472.2607
 187  429.8787
 188  485.4576
 189  449.1504
 190  453.7321
 191  466.7989
 192  545.6874
 193  578.2855
 194  477.4052
 195  417.6097
 196  526.4512
 197  545.5991
 198  482.901
 199  352.5276
 200  389.3926
 201  453.3017
 202  554.1789
 203  511.6541
 204  393.0686
 205  286.7676
 206  295.9714
 207  467.4353
 208  426.8824
 209  434.9738
 210  431.427
 211  415.5401
 212  488.9275
 213  462.6049
 214  383.756
 215  536.6478
 216  496.2334
 217  418.584
 218  467.1566
 219  444.0126
 220  529.9186
 221  556.0571
 222  501.2621
 223  391.0485
 224  428.9978
 225  573.302
 226  465.9116
 227  405.6873
 228  433.8868
 229  491.2353
 230  473.8159
 231  416.8217
 232  449.3991
 233  534.4742
 234  512.3154
 235  381.988
 236  408.0816
 237  534.6774
 238  528.8887
 239  519.7487
 240  552.9066
 241  569.8399
 242  512.7456
 243  454.8192
 244  461.6319
 245  540.3876
 246  612.8781
 247  575.2543
 248  592.8256
 249  667.5647
 250  605.2513
 251  525.1603
 252  532.8368
 253  546.0806
 254  502.2765
 255  540.8561
 256  477.2821
 257  443.081
 258  473.7179
 259  453.5442
 260  429.4724
 261  440.485
 262  383.8613
 263  497.0908
 264  506.2326
 265  467.3512
 266  430.7567
 267  572.4398
 268  499.993
 269  412.4825
 270  372.3539
 271  399.1091
 272  456.04
 273  535.4957
 274  601.3503
 275  447.0291
 276  469.4226
 277  423.6554
 278  403.7083
 279  488.9913
 280  489.1845
 281  448.4772
 282  500.5803
 283  552.8718
 284  397.0692
 285  424.6625
 286  448.011
 287  457.6797
 288  562.0053
 289  510.0466
 290  420.9877
 291  447.7633
 292  382.7196
 293  429.0016
 294  428.8059
 295  528.4081
 296  567.3793
 297  478.514
 298  562.5025
 299  611.2714
 300  392.4822
 301  437.4723
 302  466.0137
 303  527.4034
 304  433.5893
 305  438.1979
 306  456.3243
 307  468.8398
 308  536.1483
 309  522.7482
 310  542.9611
 311  541.057
 312  560.7831
 313  615.6558
 314  517.8934
 315  465.0632
 316  535.6819
 317  639.7704
 318  571.0006
 319  508.5667
 320  566.7444
 321  554.7833
 322  488.0616
 323  544.1373
 324  538.9503
 325  633.2688
 326  648.4166
 327  623.5419
 328  692.5445
 329  687.6982
 330  675.889
 331  666.6287
 332  524.269
 333  584.276
 334  747.1448
 335  698.9394
 336  672.96
 337  587.915
 338  596.6422
 339  618.3096
 340  594.065
 341  542.3503
 342  427.7609
 343  457.4177
 344  582.9155
 345  581.8402
 346  549.2681
 347  463.4892
 348  464.5914
 349  592.4014
 350  658.5088
 351  681.7739
 352  646.7731
 353  612.8898
 354  562.7411
 355  580.2132
 356  608.2028
 357  555.7632
 358  568.21
 359  455.724
 360  475.5797
 361  470.6302
 362  525.8502
 363  617.3192
 364  623.2888
 365  530.6787
 366  581.842
 367  486.5032
 368  409.7466
 369  559.792
 370  452.9788
 371  493.3078
 372  426.5976
 373  476.5792
 374  589.7365
 375  464.4487
 376  473.9471
 377  468.495
 378  484.5659
 379  599.8444
 380  485.4865
 381  474.5038
 382  464.6474
 383  503.4198
 384  505.2959
 385  420.2561
 386  343.3753
 387  479.1257
 388  508.086
 389  509.9375
 390  487.1106
 391  441.7668
 392  495.9064
 393  443.1235
 394  387.095
 395  425.6757
 396  557.8358
 397  525.8199
 398  485.801
 399  560.7293
 400  562.2193
 401  525.4584
 402  506.8693
 403  583.1563
 404  550.4794
 405  462.1077
 406  543.486
 407  481.2224
 408  511.6309
 409  539.1917
 410  542.6304
 411  563.4588
 412  560.2128
 413  556.6338
 414  471.8021
 415  423.7724
 416  423.4774
 417  435.7357
 418  474.5662
 419  449.5113
 420  496.4464
 421  478.2849
 422  456.9845
 423  501.3254
 424  428.1647
 425  541.7023
 426  519.6038
 427  497.8153
 428  476.0732
 429  415.3141
 430  413.007
 431  495.5598
 432  536.6213
 433  493.4624
 434  452.0066
 435  396.9993
 436  383.7141
 437  361.3174
 438  312.5675
 439  362.1517
 440  422.6051
 441  385.7912
 442  360.5463
 443  320.2254
 444  471.9453
 445  555.038
 446  358.0818
 447  390.779
 448  373.8611
 449  347.8518
 450  401.1428
 451  451.6645
 452  502.5455
 453  502.0793
 454  428.6275
 455  385.2744
 456  375.8547
 457  470.2429
 458  410.6451
 459  399.1425
 460  483.227
 461  468.2478
 462  506.3004
 463  445.062
 464  505.2827
 465  431.5868
 466  357.976
 467  320.806
 468  386.8278
 469  500.82
 470  481.739
 471  504.9467
 472  536.2219
 473  572.2088
 474  524.4791
 475  521.9322
 476  435.7246
 477  476.1353
 478  516.4288
 479  541.9846
 480  478.6484
 481  469.5501
 482  466.7024
 483  466.5695
 484  472.9518
 485  459.5326
 486  518.0447
 487  544.344
 488  399.8106
 489  372.6211
 490  445.3102
 491  526.9567
 492  545.946
 493  518.3616
 494  326.8032
 495  316.9743
 496  516.1483
 497  532.2651
 498  324.2504
 499  486.1107
 500  510.3823
 501  542.2258
 502  518.3133
 503  509.1735
 504  485.1213
 505  442.3391
 506  497.9413
 507  493.4215
 508  555.7769
 509  811.7568
 510  993.6318
 511  1142.015
