# Input file       =  1184573858.104995_cleaned.dat
# Candidate        =  PSR_0332+5434
# Telescope        =  AR
# Epoch_topo       =  57954.345371585594
# Epoch_bary       =  N/A
# T_sample         =  0.002
# Data Folded      =  7340032
# Data Avg         =  0.0487257000807877
# Data StdDev      =  1.00013830669717 
# Profile Bins     =  512
# Profile Avg      =  698.508358905989 
# Profile StdDev   =  119.74959625757  
# Reduced chi-sqr  =  1.286
# Prob(Noise)      <  1.21e-05   (~4.2 sigma)
# P_topo (ms)      =  714.475864846605  +/- 0.000312
# P'_topo (s/s)    =  -0                +/- 1.65e-10
# P''_topo (s/s^2) =  0                 +/- 7.28e-14
# P_bary (ms)      =  N/A
# P'_bary (s/s)    =  N/A
# P''_bary (s/s^2) =  N/A
# P_orb (s)        =  N/A
# asin(i)/c (s)    =  N/A
# eccentricity     =  N/A
# w (rad)          =  N/A
# T_peri           =  N/A
######################################################
   0  1322.158
   1  1213.943
   2  997.4564
   3  800.6981
   4  709.215
   5  721.2983
   6  684.0136
   7  638.8162
   8  607.8394
   9  624.9196
  10  628.3347
  11  709.0169
  12  679.8294
  13  707.949
  14  718.226
  15  598.5933
  16  673.5409
  17  748.1714
  18  746.4856
  19  632.78
  20  634.6115
  21  679.6041
  22  643.907
  23  552.8093
  24  545.6072
  25  642.5393
  26  771.8107
  27  824.244
  28  730.9232
  29  755.0824
  30  637.5526
  31  684.0594
  32  650.6186
  33  554.9741
  34  653.0615
  35  708.8661
  36  733.4803
  37  707.3045
  38  597.6727
  39  630.995
  40  583.8432
  41  599.9551
  42  586.6378
  43  656.6628
  44  605.7219
  45  556.4385
  46  532.6501
  47  519.7146
  48  651.5035
  49  679.977
  50  557.0578
  51  625.5103
  52  686.4849
  53  602.8719
  54  573.1385
  55  617.2222
  56  723.7734
  57  633.9017
  58  498.3788
  59  559.3378
  60  520.5874
  61  540.6618
  62  633.8278
  63  593.1475
  64  527.2023
  65  599.1423
  66  524.8614
  67  558.4776
  68  607.2759
  69  589.9958
  70  691.4673
  71  671.0725
  72  548.5776
  73  553.6981
  74  568.3959
  75  588.2509
  76  614.3258
  77  706.4692
  78  723.5223
  79  652.0293
  80  528.2892
  81  615.9018
  82  493.6278
  83  475.2543
  84  581.8011
  85  615.5478
  86  653.6743
  87  531.8619
  88  548.9468
  89  584.7507
  90  548.6781
  91  533.8967
  92  637.2025
  93  690.7672
  94  604.3066
  95  509.2359
  96  560.4842
  97  568.2136
  98  471.2872
  99  437.6887
 100  514.2956
 101  611.7314
 102  625.8072
 103  549.1329
 104  550.1843
 105  637.983
 106  645.156
 107  689.3447
 108  642.1411
 109  623.2396
 110  736.4966
 111  850.0764
 112  856.39
 113  717.264
 114  714.8802
 115  767.7932
 116  656.1769
 117  616.9351
 118  694.1677
 119  751.5994
 120  687.0505
 121  726.5422
 122  805.3765
 123  746.6005
 124  737.64
 125  743.8224
 126  655.7648
 127  643.3511
 128  645.0308
 129  620.8285
 130  513.9814
 131  564.3866
 132  593.0957
 133  575.811
 134  648.8279
 135  683.9713
 136  770.3527
 137  676.74
 138  578.1918
 139  585.7365
 140  546.1122
 141  617.1464
 142  572.43
 143  652.9728
 144  761.9815
 145  697.5309
 146  685.4627
 147  635.8237
 148  582.6224
 149  668.1289
 150  684.977
 151  705.7186
 152  700.7457
 153  689.4809
 154  679.0737
 155  629.6829
 156  753.813
 157  835.9047
 158  720.9949
 159  583.3696
 160  616.354
 161  741.4058
 162  746.2017
 163  705.3105
 164  673.3853
 165  703.1465
 166  636.7339
 167  677.6106
 168  827.2106
 169  779.0488
 170  705.4225
 171  707.109
 172  712.2701
 173  616.5434
 174  543.3398
 175  596.3082
 176  606.905
 177  592.8775
 178  735.7183
 179  749.3155
 180  661.3688
 181  689.2111
 182  784.1216
 183  777.5897
 184  631.8799
 185  591.212
 186  637.0092
 187  604.9561
 188  611.9711
 189  767.6036
 190  743.6593
 191  690.5886
 192  714.6378
 193  677.7717
 194  649.3506
 195  563.9347
 196  563.1827
 197  664.2682
 198  722.7847
 199  672.1862
 200  746.3309
 201  771.8736
 202  702.8944
 203  708.8704
 204  758.5054
 205  801.4486
 206  777.4206
 207  719.2487
 208  665.2907
 209  692.3022
 210  687.3044
 211  713.8144
 212  667.6179
 213  593.5734
 214  542.6917
 215  585.9371
 216  678.2311
 217  685.6343
 218  657.044
 219  707.195
 220  786.3019
 221  730.8359
 222  777.3919
 223  665.6439
 224  604.9226
 225  718.8032
 226  672.1737
 227  710.9085
 228  653.2745
 229  585.9727
 230  631.0817
 231  696.1285
 232  645.1273
 233  626.9713
 234  622.1156
 235  629.0111
 236  649.5317
 237  671.766
 238  669.1436
 239  600.1794
 240  676.7084
 241  762.8128
 242  743.2377
 243  808.4921
 244  834.6523
 245  750.7147
 246  769.6166
 247  762.5313
 248  732.9597
 249  678.3542
 250  648.4827
 251  719.8988
 252  640.178
 253  628.8322
 254  713.095
 255  745.5695
 256  790.4717
 257  685.7741
 258  623.9937
 259  685.1747
 260  712.6104
 261  741.3637
 262  707.0021
 263  683.8022
 264  629.6069
 265  724.3716
 266  713.3052
 267  738.0063
 268  765.0004
 269  723.1031
 270  772.7226
 271  689.5065
 272  763.7116
 273  752.9119
 274  792.2415
 275  724.1699
 276  620.5065
 277  839.9329
 278  884.5046
 279  695.593
 280  552.536
 281  640.9725
 282  723.5167
 283  587.0121
 284  571.7209
 285  616.2313
 286  770.2346
 287  792.9092
 288  638.661
 289  689.2835
 290  713.6812
 291  651.1285
 292  619.3091
 293  754.8126
 294  691.3712
 295  578.0515
 296  650.1476
 297  645.4255
 298  697.7781
 299  705.5767
 300  701.3723
 301  715.9285
 302  796.3302
 303  742.8057
 304  784.9107
 305  837.8693
 306  771.8417
 307  827.0194
 308  709.649
 309  609.3428
 310  575.218
 311  592.9189
 312  553.9866
 313  564.8926
 314  695.5128
 315  665.2542
 316  579.7142
 317  697.6929
 318  841.1602
 319  815.2507
 320  723.8409
 321  745.4031
 322  712.736
 323  698.6562
 324  664.3276
 325  809.4403
 326  872.0559
 327  892.7464
 328  828.4836
 329  707.1995
 330  776.9316
 331  819.3934
 332  902.6849
 333  842.5746
 334  795.4897
 335  759.0842
 336  792.2682
 337  750.6808
 338  712.252
 339  715.9525
 340  660.9374
 341  796.4705
 342  772.3538
 343  702.7026
 344  798.5273
 345  805.0339
 346  745.813
 347  640.1045
 348  590.8304
 349  687.4869
 350  754.6458
 351  776.3807
 352  704.4991
 353  820.8777
 354  756.5013
 355  798.8843
 356  693.798
 357  662.9347
 358  822.3491
 359  849.9189
 360  778.6687
 361  676.4769
 362  820.7838
 363  804.7716
 364  724.1464
 365  701.6423
 366  644.012
 367  703.2908
 368  728.3022
 369  675.3647
 370  650.4636
 371  732.202
 372  756.7061
 373  759.5436
 374  662.7106
 375  725.2119
 376  743.0858
 377  693.1837
 378  795.1844
 379  834.9832
 380  853.4565
 381  873.9283
 382  795.4377
 383  863.2602
 384  862.5532
 385  830.3751
 386  855.2195
 387  824.6193
 388  806.4395
 389  815.9926
 390  876.2198
 391  789.7614
 392  717.4808
 393  770.9876
 394  879.1015
 395  867.57
 396  702.4398
 397  708.1672
 398  717.1168
 399  733.1541
 400  723.7617
 401  616.9769
 402  685.3313
 403  663.469
 404  722.671
 405  704.2054
 406  717.308
 407  630.5999
 408  711.2781
 409  687.2272
 410  704.866
 411  726.4736
 412  678.8549
 413  711.5086
 414  675.4585
 415  726.8
 416  773.4011
 417  806.9468
 418  768.2291
 419  734.4044
 420  772.9354
 421  732.9872
 422  674.8587
 423  746.8705
 424  756.4042
 425  725.5608
 426  688.4018
 427  706.2777
 428  835.2162
 429  770.2094
 430  739.504
 431  804.4607
 432  739.1429
 433  683.2767
 434  763.817
 435  795.1848
 436  718.4324
 437  640.0135
 438  738.4745
 439  766.8381
 440  673.911
 441  667.8685
 442  692.5068
 443  674.8305
 444  742.9263
 445  672.6171
 446  763.7891
 447  766.7307
 448  728.8683
 449  660.8554
 450  736.9614
 451  732.154
 452  681.3824
 453  674.4171
 454  634.4588
 455  644.1307
 456  650.6736
 457  616.4844
 458  585.6085
 459  684.3727
 460  733.0916
 461  789.7195
 462  702.7827
 463  846.1382
 464  779.2078
 465  739.5482
 466  803.8885
 467  853.019
 468  796.0898
 469  865.2872
 470  874.155
 471  759.2223
 472  738.9969
 473  802.6887
 474  841.4949
 475  861.8857
 476  789.2631
 477  769.4913
 478  802.0565
 479  723.4142
 480  741.3777
 481  709.4913
 482  759.2961
 483  696.3538
 484  620.1202
 485  680.3792
 486  557.2365
 487  552.6017
 488  669.3149
 489  796.8021
 490  810.2549
 491  596.0877
 492  599.2736
 493  797.4763
 494  955.2092
 495  799.0519
 496  705.4808
 497  670.6011
 498  754.7242
 499  740.6078
 500  654.6221
 501  595.3288
 502  592.9071
 503  613.3897
 504  664.9648
 505  755.5617
 506  649.5573
 507  696.6921
 508  758.331
 509  926.3524
 510  1086.719
 511  1224.582
