# Input file       =  1184300437.121662_cleaned.dat
# Candidate        =  PSR_0332+5434
# Telescope        =  AR
# Epoch_topo       =  57951.180776871086
# Epoch_bary       =  N/A
# T_sample         =  0.002
# Data Folded      =  7340032
# Data Avg         =  0.029990893871871
# Data StdDev      =  1.0001912943917  
# Profile Bins     =  512
# Profile Avg      =  430.440038862396 
# Profile StdDev   =  119.755940635126 
# Reduced chi-sqr  =  1.501
# Prob(Noise)      <  1.45e-12   (~7.0 sigma)
# P_topo (ms)      =  714.477498226761  +/- 0.000203
# P'_topo (s/s)    =  -0                +/- 1.07e-10
# P''_topo (s/s^2) =  0                 +/- 4.73e-14
# P_bary (ms)      =  N/A
# P'_bary (s/s)    =  N/A
# P''_bary (s/s^2) =  N/A
# P_orb (s)        =  N/A
# asin(i)/c (s)    =  N/A
# eccentricity     =  N/A
# w (rad)          =  N/A
# T_peri           =  N/A
######################################################
   0  1209.757
   1  1224.931
   2  926.0807
   3  624.2806
   4  433.9385
   5  371.4982
   6  468.4769
   7  407.6506
   8  411.3295
   9  312.6558
  10  352.8367
  11  408.2762
  12  346.0435
  13  360.1559
  14  573.5338
  15  687.1669
  16  583.5809
  17  441.5003
  18  439.6403
  19  513.1497
  20  529.6346
  21  525.7134
  22  483.4434
  23  491.8365
  24  524.2087
  25  400.2106
  26  394.6446
  27  395.575
  28  450.8438
  29  488.873
  30  532.4888
  31  455.6544
  32  419.0378
  33  453.8527
  34  564.6935
  35  589.2257
  36  504.5853
  37  582.1486
  38  419.6183
  39  452.4361
  40  439.1463
  41  540.1249
  42  528.7256
  43  480.4137
  44  506.51
  45  542.1554
  46  433.6462
  47  269.7759
  48  499.8779
  49  554.4548
  50  487.4917
  51  569.8551
  52  444.3897
  53  348.5283
  54  414.5404
  55  491.4625
  56  478.1782
  57  505.8551
  58  521.0583
  59  404.7397
  60  323.5844
  61  438.8019
  62  428.3757
  63  475.0106
  64  488.3927
  65  446.909
  66  418.2744
  67  438.5348
  68  462.5455
  69  541.5251
  70  433.1966
  71  412.8145
  72  525.9554
  73  483.5393
  74  364.2179
  75  274.4976
  76  305.0664
  77  388.1485
  78  380.2972
  79  408.698
  80  345.2382
  81  416.0869
  82  562.4839
  83  608.5014
  84  506.9297
  85  327.2807
  86  354.9883
  87  356.8432
  88  478.8905
  89  522.5354
  90  644.264
  91  589.4615
  92  512.8224
  93  343.8263
  94  367.1029
  95  331.8133
  96  354.2539
  97  338.1842
  98  380.9528
  99  405.5403
 100  504.835
 101  305.7348
 102  398.9333
 103  493.3517
 104  424.2917
 105  265.2275
 106  301.7654
 107  392.0375
 108  376.9024
 109  496.3055
 110  452.491
 111  460.083
 112  371.5005
 113  394.5205
 114  390.867
 115  399.1686
 116  399.9953
 117  375.8609
 118  303.7901
 119  302.4461
 120  262.8527
 121  341.5488
 122  418.2401
 123  341.0442
 124  373.3345
 125  381.4672
 126  434.9401
 127  436.9543
 128  334.2272
 129  372.0051
 130  396.3174
 131  422.2733
 132  440.4742
 133  487.611
 134  386.609
 135  312.4284
 136  353.7447
 137  344.004
 138  223.6416
 139  364.6089
 140  248.6095
 141  283.7471
 142  317.6526
 143  337.7314
 144  332.2408
 145  357.8957
 146  328.7554
 147  426.8678
 148  360.8973
 149  330.5367
 150  311.8876
 151  421.894
 152  395.5121
 153  369.5769
 154  325.8071
 155  301.9566
 156  365.8484
 157  336.9713
 158  360.5155
 159  432.2007
 160  449.7028
 161  415.5038
 162  328.0128
 163  336.9862
 164  394.5726
 165  342.0332
 166  253.4142
 167  299.3275
 168  296.8922
 169  370.8612
 170  301.2904
 171  209.0761
 172  213.3761
 173  243.6051
 174  342.1215
 175  346.5851
 176  293.203
 177  264.8708
 178  327.3804
 179  271.8524
 180  223.1771
 181  254.4849
 182  361.515
 183  401.9425
 184  337.4735
 185  453.5128
 186  383.2981
 187  314.606
 188  235.0668
 189  453.3885
 190  450.75
 191  454.9075
 192  486.1482
 193  520.969
 194  490.6092
 195  366.8913
 196  438.7168
 197  476.5981
 198  553.3342
 199  428.9292
 200  395.9918
 201  332.2051
 202  291.152
 203  275.6382
 204  310.0259
 205  441.5984
 206  416.9387
 207  425.9013
 208  369.8949
 209  283.1219
 210  426.4432
 211  420.026
 212  394.2336
 213  386.8665
 214  345.1682
 215  454.0828
 216  459.546
 217  408.1346
 218  384.2191
 219  422.1996
 220  504.1131
 221  508.243
 222  486.5088
 223  496.7746
 224  434.426
 225  492.0015
 226  444.5905
 227  424.8456
 228  436.9879
 229  398.5545
 230  428.9178
 231  479.7963
 232  393.1585
 233  404.7662
 234  425.9361
 235  364.4144
 236  334.4767
 237  323.1697
 238  475.7219
 239  547.3188
 240  554.3758
 241  526.1603
 242  452.3453
 243  470.0938
 244  547.6208
 245  440.8109
 246  459.7202
 247  578.3265
 248  522.7802
 249  448.7322
 250  407.8742
 251  433.7139
 252  470.7665
 253  582.8063
 254  497.977
 255  390.7971
 256  367.6388
 257  351.5769
 258  456.0118
 259  487.8405
 260  442.2515
 261  432.6632
 262  457.7605
 263  456.1161
 264  397.7413
 265  364.406
 266  471.9788
 267  525.5627
 268  474.5465
 269  485.4451
 270  438.4532
 271  464.252
 272  462.9178
 273  465.1052
 274  505.2802
 275  567.1462
 276  419.7834
 277  250.9075
 278  435.8666
 279  493.2557
 280  490.6091
 281  429.8953
 282  545.6696
 283  526.7186
 284  408.9964
 285  390.2458
 286  400.1994
 287  483.7427
 288  450.3739
 289  341.0913
 290  305.0222
 291  337.1612
 292  318.3833
 293  386.8575
 294  312.9082
 295  278.0273
 296  294.2943
 297  343.9396
 298  380.2544
 299  431.0092
 300  490.3799
 301  560.3772
 302  429.9763
 303  351.6306
 304  406.7764
 305  419.5938
 306  269.0508
 307  279.7536
 308  489.2246
 309  426.8369
 310  290.2547
 311  399.3117
 312  432.3654
 313  471.911
 314  584.0795
 315  592.4237
 316  417.2839
 317  373.3871
 318  501.1125
 319  569.0902
 320  622.4133
 321  675.1456
 322  546.2719
 323  400.7272
 324  455.9431
 325  461.2429
 326  363.313
 327  407.5764
 328  360.084
 329  443.0558
 330  422.1587
 331  409.0415
 332  448.3223
 333  465.6234
 334  429.8386
 335  348.323
 336  371.049
 337  358.9811
 338  408.8568
 339  471.4636
 340  491.0832
 341  507.0672
 342  402.8428
 343  384.6589
 344  416.0038
 345  467.028
 346  496.3521
 347  388.2881
 348  355.9364
 349  342.7644
 350  373.6222
 351  446.7676
 352  445.4631
 353  355.1277
 354  408.04
 355  375.1813
 356  329.1949
 357  467.8463
 358  495.4105
 359  516.6341
 360  422.0579
 361  495.7552
 362  513.4943
 363  451.9512
 364  369.1976
 365  419.3018
 366  433.7189
 367  400.1607
 368  480.7395
 369  509.7921
 370  424.6968
 371  418.7622
 372  454.7848
 373  422.1677
 374  474.9587
 375  511.0452
 376  419.2146
 377  419.9707
 378  361.0604
 379  403.6393
 380  466.6907
 381  384.8416
 382  360.6336
 383  388.474
 384  477.2297
 385  474.5344
 386  502.0573
 387  527.9744
 388  545.9773
 389  357.4494
 390  345.7144
 391  428.8731
 392  513.0997
 393  439.7114
 394  431.6071
 395  422.9362
 396  491.5464
 397  360.4139
 398  364.7225
 399  403.9545
 400  435.3771
 401  380.5935
 402  417.6044
 403  461.723
 404  454.2131
 405  523.9427
 406  567.0621
 407  591.6171
 408  566.845
 409  519.586
 410  390.8294
 411  469.5428
 412  526.1143
 413  544.1562
 414  504.2975
 415  455.2331
 416  412.2786
 417  452.6444
 418  497.2198
 419  560.6492
 420  522.5829
 421  354.7705
 422  416.9573
 423  422.6313
 424  495.147
 425  362.7444
 426  358.6651
 427  382.5808
 428  391.9763
 429  332.0902
 430  386.1394
 431  407.4206
 432  348.6353
 433  281.3373
 434  388.2928
 435  355.4928
 436  324.144
 437  387.4979
 438  353.7356
 439  309.5779
 440  377.5292
 441  420.3807
 442  459.6347
 443  472.4133
 444  440.4939
 445  513.8882
 446  585.6761
 447  492.719
 448  355.4724
 449  308.8861
 450  301.5612
 451  335.4872
 452  388.7379
 453  445.9988
 454  342.9991
 455  366.2245
 456  460.4827
 457  415.3596
 458  346.7761
 459  365.6451
 460  405.3241
 461  494.702
 462  372.9873
 463  265.0149
 464  305.4423
 465  251.1485
 466  478.7627
 467  483.2188
 468  489.3713
 469  497.9929
 470  524.0303
 471  439.3549
 472  332.4169
 473  394.6894
 474  447.9255
 475  355.7551
 476  272.8546
 477  414.3518
 478  360.5294
 479  448.2668
 480  438.4098
 481  351.5255
 482  381.858
 483  420.388
 484  411.7193
 485  474.977
 486  560.1599
 487  585.66
 488  586.8514
 489  572.5972
 490  577.0173
 491  467.0162
 492  497.9968
 493  463.0094
 494  520.4413
 495  519.3029
 496  374.4679
 497  384.107
 498  578.4177
 499  465.8995
 500  436.1716
 501  406.4453
 502  447.0603
 503  466.8207
 504  479.2544
 505  475.2202
 506  330.2668
 507  383.8435
 508  615.194
 509  812.7584
 510  930.2059
 511  1103.341
