# Input file       =  1184802742.097903_cleaned.dat
# Candidate        =  PSR_0332+5434
# Telescope        =  AR
# Epoch_topo       =  57956.994491873877
# Epoch_bary       =  N/A
# T_sample         =  0.002
# Data Folded      =  7208960
# Data Avg         =  0.0324325248089297
# Data StdDev      =  1.00017023872457 
# Profile Bins     =  512
# Profile Avg      =  456.787542654748 
# Profile StdDev   =  118.679376180277 
# Reduced chi-sqr  =  1.392
# Prob(Noise)      <  9.78e-09   (~5.6 sigma)
# P_topo (ms)      =  714.473971764247  +/- 0.000142
# P'_topo (s/s)    =  -0                +/- 7.61e-11
# P''_topo (s/s^2) =  0                 +/- 3.42e-14
# P_bary (ms)      =  N/A
# P'_bary (s/s)    =  N/A
# P''_bary (s/s^2) =  N/A
# P_orb (s)        =  N/A
# asin(i)/c (s)    =  N/A
# eccentricity     =  N/A
# w (rad)          =  N/A
# T_peri           =  N/A
######################################################
   0  1279.26
   1  1125.081
   2  842.212
   3  614.9728
   4  624.6246
   5  518.1682
   6  440.5458
   7  473.134
   8  479.8475
   9  478.7508
  10  409.3762
  11  338.3486
  12  317.8298
  13  364.1748
  14  341.5227
  15  402.3224
  16  394.7946
  17  373.3799
  18  267.7859
  19  320.666
  20  379.2627
  21  442.2653
  22  441.6869
  23  464.684
  24  509.1611
  25  566.0135
  26  570.8275
  27  407.1799
  28  329.4773
  29  277.028
  30  358.5575
  31  343.8198
  32  413.0278
  33  384.8
  34  456.5799
  35  413.2852
  36  374.7922
  37  330.709
  38  418.2755
  39  473.375
  40  419.0701
  41  429.7362
  42  508.4117
  43  423.7808
  44  369.0487
  45  433.0745
  46  506.681
  47  469.4568
  48  553.4091
  49  516.8947
  50  426.0384
  51  450.4808
  52  376.0207
  53  383.511
  54  365.4554
  55  384.2203
  56  508.2975
  57  554.9835
  58  489.7683
  59  501.9647
  60  545.7211
  61  465.6705
  62  395.9357
  63  316.672
  64  427.8128
  65  418.26
  66  442.3411
  67  544.7688
  68  468.4763
  69  324.2072
  70  294.3027
  71  393.958
  72  393.4549
  73  456.498
  74  449.5059
  75  428.9733
  76  534.6989
  77  516.1633
  78  408.8301
  79  450.991
  80  412.0089
  81  425.9598
  82  451.246
  83  483.5901
  84  509.8203
  85  530.7678
  86  502.1055
  87  508.6065
  88  516.2389
  89  578.6537
  90  566.4547
  91  575.3597
  92  535.6627
  93  524.9725
  94  442.3056
  95  404.9052
  96  434.5511
  97  477.6534
  98  572.7563
  99  536.3759
 100  532.6301
 101  461.5199
 102  450.3966
 103  453.204
 104  482.4695
 105  542.3286
 106  434.7664
 107  393.9655
 108  402.4837
 109  372.16
 110  495.6974
 111  380.7668
 112  414.494
 113  410.216
 114  406.4917
 115  469.0665
 116  507.6206
 117  446.9504
 118  382.8967
 119  348.7137
 120  405.7571
 121  444.0941
 122  508.997
 123  548.4372
 124  526.1431
 125  500.9092
 126  501.0515
 127  421.0762
 128  340.1586
 129  375.2442
 130  438.6835
 131  465.9324
 132  442.911
 133  478.3122
 134  425.1389
 135  390.2459
 136  400.0202
 137  429.9079
 138  428.6682
 139  533.1227
 140  542.2491
 141  465.2406
 142  445.3022
 143  510.0024
 144  457.4898
 145  354.5437
 146  293.7987
 147  382.3932
 148  429.8878
 149  425.184
 150  478.8467
 151  516.5688
 152  495.0494
 153  418.6466
 154  518.7858
 155  486.755
 156  508.6942
 157  468.4733
 158  425.1096
 159  514.2445
 160  504.5711
 161  520.1108
 162  543.207
 163  581.2742
 164  462.1571
 165  428.8383
 166  434.5221
 167  401.3731
 168  444.3527
 169  537.7036
 170  667.8919
 171  545.4426
 172  548.1017
 173  596.3445
 174  501.2087
 175  540.991
 176  562.105
 177  597.9259
 178  507.5503
 179  497.7931
 180  519.3254
 181  500.173
 182  435.0129
 183  536.7468
 184  578.274
 185  512.3121
 186  524.238
 187  434.9953
 188  399.0329
 189  516.4013
 190  464.4873
 191  501.8936
 192  558.1395
 193  513.7837
 194  443.8199
 195  389.2806
 196  390.2485
 197  379.9533
 198  399.0359
 199  483.1792
 200  450.0898
 201  324.3535
 202  368.2389
 203  460.8004
 204  425.8149
 205  386.8228
 206  468.7423
 207  628.2665
 208  584.5605
 209  389.8465
 210  349.8434
 211  380.9766
 212  390.8966
 213  438.8801
 214  506.3344
 215  517.0827
 216  372.7799
 217  398.5681
 218  363.2598
 219  310.3923
 220  398.3724
 221  350.3284
 222  371.9583
 223  446.5403
 224  471.2754
 225  442.7784
 226  490.5639
 227  532.423
 228  587.8411
 229  483.6238
 230  379.2334
 231  344.9398
 232  298.0532
 233  371.2308
 234  419.1987
 235  432.8575
 236  369.2202
 237  336.4973
 238  379.9788
 239  395.3674
 240  382.8986
 241  470.1328
 242  496.2472
 243  389.9411
 244  326.241
 245  372.1235
 246  420.4123
 247  390.9691
 248  480.6923
 249  417.8738
 250  467.0229
 251  530.9199
 252  476.0987
 253  330.1874
 254  373.7504
 255  601.3356
 256  547.4579
 257  591.6656
 258  582.5551
 259  512.7166
 260  476.0793
 261  391.4329
 262  496.4978
 263  467.3886
 264  481.8589
 265  447.9544
 266  408.4568
 267  483.2922
 268  540.3676
 269  428.6934
 270  414.1657
 271  438.6189
 272  522.6045
 273  540.9899
 274  389.5076
 275  367.8372
 276  484.7057
 277  422.6091
 278  436.2173
 279  473.9571
 280  554.1273
 281  520.8582
 282  448.1608
 283  452.3062
 284  389.4059
 285  345.3872
 286  491.0552
 287  538.5619
 288  519.8019
 289  444.7447
 290  454.7333
 291  401.6378
 292  510.1291
 293  446.8413
 294  425.4783
 295  380.4563
 296  411.5498
 297  400.0124
 298  496.309
 299  505.9718
 300  498.4579
 301  395.2345
 302  382.4894
 303  402.0636
 304  392.5113
 305  509.0847
 306  596.5706
 307  586.6308
 308  399.5896
 309  438.7029
 310  368.9455
 311  309.0736
 312  403.6259
 313  304.3487
 314  338.347
 315  402.7236
 316  432.2072
 317  501.1201
 318  485.9294
 319  409.7209
 320  349.955
 321  363.1899
 322  398.2714
 323  464.2738
 324  532.797
 325  528.864
 326  397.8953
 327  368.434
 328  344.9445
 329  405.1449
 330  409.1091
 331  382.3591
 332  442.0456
 333  446.0243
 334  431.2355
 335  369.6606
 336  375.9574
 337  488.2688
 338  504.4798
 339  534.7268
 340  508.1149
 341  453.9948
 342  486.2441
 343  405.812
 344  358.2438
 345  437.1534
 346  479.8311
 347  410.0556
 348  286.0282
 349  349.485
 350  387.3906
 351  299.3772
 352  398.117
 353  433.4597
 354  383.3803
 355  453.7467
 356  477.341
 357  418.9582
 358  548.589
 359  527.4482
 360  347.4833
 361  367.4777
 362  403.0589
 363  352.2258
 364  386.7202
 365  402.8826
 366  355.1218
 367  324.101
 368  397.0413
 369  445.08
 370  429.631
 371  545.3571
 372  422.2288
 373  426.6558
 374  508.64
 375  499.9408
 376  505.0103
 377  444.9789
 378  387.7748
 379  472.6954
 380  432.485
 381  397.9842
 382  545.7842
 383  536.4615
 384  444.0062
 385  347.9733
 386  428.3824
 387  586.2755
 388  537.6004
 389  441.3298
 390  402.5868
 391  455.2519
 392  460.9788
 393  423.248
 394  417.8268
 395  476.7598
 396  497.0145
 397  476.1193
 398  355.7409
 399  418.0641
 400  411.9692
 401  412.073
 402  492.8236
 403  507.2242
 404  499.9736
 405  445.2681
 406  494.1565
 407  400.2973
 408  407.6571
 409  375.7397
 410  412.341
 411  453.7947
 412  509.8656
 413  546.7813
 414  444.0024
 415  506.9645
 416  555.9686
 417  480.4264
 418  295.323
 419  349.6316
 420  363.9982
 421  480.7329
 422  537.5094
 423  523.1953
 424  458.546
 425  352.3251
 426  301.7474
 427  229.8661
 428  275.6201
 429  338.9218
 430  403.0108
 431  429.2231
 432  449.3243
 433  516.499
 434  392.3465
 435  372.9819
 436  418.2864
 437  465.5422
 438  442.2838
 439  506.3668
 440  479.7679
 441  462.377
 442  449.5742
 443  446.7981
 444  472.129
 445  468.4609
 446  406.5564
 447  517.3769
 448  439.5948
 449  337.7303
 450  462.8307
 451  368.1042
 452  498.8155
 453  456.6659
 454  536.6651
 455  486.806
 456  390.8816
 457  383.6297
 458  372.1055
 459  413.4531
 460  413.8066
 461  479.0663
 462  405.897
 463  526.2543
 464  543.2205
 465  397.5904
 466  420.4803
 467  415.5343
 468  375.1452
 469  410.5569
 470  365.542
 471  426.9003
 472  449.9899
 473  452.1315
 474  468.8989
 475  452.9229
 476  375.2417
 477  317.7106
 478  390.1005
 479  658.4999
 480  584.1146
 481  508.3137
 482  391.965
 483  393.3257
 484  433.3512
 485  498.6346
 486  491.0729
 487  477.7996
 488  526.8798
 489  557.0889
 490  436.8701
 491  503.7173
 492  533.7573
 493  521.9895
 494  507.9901
 495  461.0066
 496  452.3149
 497  472.2515
 498  538.9136
 499  496.8215
 500  501.9099
 501  392.3701
 502  429.1136
 503  621.1132
 504  726.9774
 505  621.9684
 506  607.5775
 507  715.3237
 508  793.4885
 509  878.8152
 510  1044.635
 511  1228.87
