# Input file       =  1185866322.111711_cleaned.dat
# Candidate        =  PSR_0332+5434
# Telescope        =  AR
# Epoch_topo       =  57969.304445737398
# Epoch_bary       =  N/A
# T_sample         =  0.002
# Data Folded      =  7340032
# Data Avg         =  0.00572619937234888
# Data StdDev      =  1.00001629796258 
# Profile Bins     =  512
# Profile Avg      =  82.0403515700855 
# Profile StdDev   =  119.734987781313 
# Reduced chi-sqr  =  1.665
# Prob(Noise)      <  2.31e-19   (~8.9 sigma)
# P_topo (ms)      =  714.468480033569  +/- 0.000147
# P'_topo (s/s)    =  -0                +/- 7.75e-11
# P''_topo (s/s^2) =  0                 +/- 3.42e-14
# P_bary (ms)      =  N/A
# P'_bary (s/s)    =  N/A
# P''_bary (s/s^2) =  N/A
# P_orb (s)        =  N/A
# asin(i)/c (s)    =  N/A
# eccentricity     =  N/A
# w (rad)          =  N/A
# T_peri           =  N/A
######################################################
   0  -24.13172
   1  -6.081167
   2  69.66194
   3  134.1239
   4  91.97301
   5  67.31799
   6  54.6754
   7  48.5386
   8  199.522
   9  163.8783
  10  136.6298
  11  52.91045
  12  84.35886
  13  15.51557
  14  58.16715
  15  97.0265
  16  195.2442
  17  126.5924
  18  173.5191
  19  152.7092
  20  122.051
  21  228.8388
  22  167.3176
  23  -3.038306
  24  160.3185
  25  90.30942
  26  -218.0091
  27  -144.0046
  28  21.88037
  29  69.33031
  30  193.1828
  31  233.7925
  32  200.9992
  33  149.9694
  34  76.63287
  35  122.3849
  36  76.98539
  37  -11.65672
  38  -9.136749
  39  33.28827
  40  -111.0559
  41  -187.9574
  42  -95.99414
  43  116.9986
  44  269.7101
  45  217.007
  46  224.8374
  47  251.0518
  48  167.3558
  49  -17.30909
  50  -39.19455
  51  183.2201
  52  140.0499
  53  31.62127
  54  48.62204
  55  176.2528
  56  119.2546
  57  -12.2241
  58  -3.2083
  59  151.2826
  60  100.9999
  61  59.46147
  62  65.88799
  63  50.31361
  64  149.2498
  65  190.1198
  66  117.22
  67  108.7477
  68  94.41027
  69  96.17567
  70  98.11591
  71  130.8969
  72  348.8468
  73  557.3328
  74  685.7032
  75  745.4358
  76  618.7138
  77  634.5145
  78  587.9473
  79  322.4153
  80  258.7238
  81  184.1474
  82  43.35774
  83  48.62571
  84  251.9994
  85  320.2867
  86  209.4444
  87  133.7751
  88  75.10693
  89  62.697
  90  20.92245
  91  65.83752
  92  140.5914
  93  -50.25629
  94  -94.47618
  95  125.8294
  96  132.1031
  97  63.05991
  98  46.7902
  99  -74.18386
 100  50.195
 101  164.9122
 102  97.32909
 103  196.2903
 104  46.08273
 105  -19.54593
 106  -13.65386
 107  -109.4556
 108  -63.68816
 109  30.0916
 110  244.7861
 111  152.5652
 112  52.26676
 113  77.20215
 114  -27.24178
 115  -18.84594
 116  3.757504
 117  69.96933
 118  122.3899
 119  151.6857
 120  222.4735
 121  310.9102
 122  184.2092
 123  171.4552
 124  100.1391
 125  176.4226
 126  69.57082
 127  25.1851
 128  69.11012
 129  85.42859
 130  220.4685
 131  36.08882
 132  -87.68407
 133  17.74298
 134  151.5283
 135  82.37757
 136  151.3947
 137  179.921
 138  182.3866
 139  41.49153
 140  71.48119
 141  -60.0733
 142  98.27976
 143  124.6663
 144  76.32028
 145  212.0786
 146  235.485
 147  224.3833
 148  161.5145
 149  104.9868
 150  207.5925
 151  -9.474069
 152  97.45975
 153  -1.992496
 154  29.30951
 155  76.43412
 156  -9.018716
 157  -51.44408
 158  -140.1012
 159  -88.6291
 160  41.84419
 161  194.4667
 162  193.3549
 163  212.4516
 164  33.88345
 165  -24.67108
 166  45.93487
 167  82.02737
 168  136.5537
 169  132.9469
 170  61.45945
 171  -25.53682
 172  11.77621
 173  156.571
 174  166.5072
 175  125.1906
 176  64.29959
 177  -65.82501
 178  47.43756
 179  123.3478
 180  177.2149
 181  154.2314
 182  105.7495
 183  83.85265
 184  186.933
 185  191.5752
 186  17.41908
 187  91.84619
 188  24.84028
 189  -28.17163
 190  77.38158
 191  -5.024564
 192  107.3116
 193  196.2104
 194  146.6193
 195  156.5803
 196  398.0669
 197  411.9698
 198  142.0139
 199  6.564073
 200  31.00352
 201  81.04025
 202  57.55165
 203  162.1143
 204  194.3777
 205  147.3501
 206  173.9625
 207  122.8994
 208  21.99735
 209  78.16658
 210  198.6521
 211  144.7122
 212  107.6062
 213  87.11865
 214  43.04003
 215  63.6143
 216  44.16173
 217  108.2946
 218  131.1388
 219  31.96758
 220  11.8035
 221  -42.61538
 222  40.624
 223  36.59998
 224  -9.560759
 225  -34.56472
 226  76.50936
 227  124.6941
 228  150.2172
 229  108.8907
 230  162.1675
 231  112.5831
 232  71.89006
 233  159.3257
 234  159.8673
 235  53.43238
 236  50.63524
 237  161.8178
 238  205.3876
 239  143.9069
 240  100.0131
 241  79.06516
 242  10.3623
 243  -39.69305
 244  -77.53288
 245  -7.392277
 246  -90.98706
 247  71.14774
 248  105.8354
 249  -44.18748
 250  44.83198
 251  32.78079
 252  190.7758
 253  72.06444
 254  79.77728
 255  40.11234
 256  -13.56106
 257  -11.0807
 258  23.48978
 259  97.47079
 260  -30.57783
 261  -16.05634
 262  -23.7577
 263  35.1897
 264  -52.24109
 265  -72.06375
 266  93.78262
 267  93.79697
 268  82.60693
 269  97.20218
 270  43.34753
 271  36.62619
 272  -6.406465
 273  -64.48443
 274  23.57297
 275  94.62247
 276  152.9275
 277  64.32972
 278  -12.20822
 279  14.7372
 280  6.673272
 281  -26.11374
 282  82.7616
 283  175.3294
 284  127.7665
 285  144.6597
 286  70.89694
 287  -18.80447
 288  39.07323
 289  70.44654
 290  -39.15785
 291  1.599687
 292  70.89449
 293  107.7261
 294  21.03774
 295  51.10867
 296  11.13627
 297  -34.82058
 298  127.782
 299  102.2849
 300  -136.2504
 301  -4.187058
 302  107.9488
 303  144.5827
 304  118.4913
 305  47.1697
 306  -1.834791
 307  29.01495
 308  73.89792
 309  97.6868
 310  180.9698
 311  259.7889
 312  245.647
 313  230.06
 314  182.584
 315  68.11615
 316  92.32027
 317  -6.677388
 318  -14.39425
 319  90.64537
 320  146.9546
 321  58.2488
 322  18.79338
 323  93.71081
 324  52.43024
 325  -43.8522
 326  -79.5882
 327  -31.43552
 328  -209.1798
 329  -116.7907
 330  35.43769
 331  35.28189
 332  65.43283
 333  75.80077
 334  34.58443
 335  -135.3057
 336  -20.12211
 337  130.1764
 338  63.4636
 339  -1.552134
 340  48.01955
 341  99.06203
 342  103.7865
 343  93.31536
 344  18.7393
 345  -57.30656
 346  84.91703
 347  -4.361776
 348  50.8904
 349  118.5747
 350  100.4723
 351  87.83483
 352  -16.06133
 353  -74.24642
 354  -21.49567
 355  125.4673
 356  38.14013
 357  54.99057
 358  144.9649
 359  52.97091
 360  108.442
 361  -16.78509
 362  24.54128
 363  97.92535
 364  -20.36687
 365  -46.12518
 366  84.65193
 367  233.5317
 368  156.3362
 369  53.49256
 370  64.26537
 371  68.15266
 372  -62.16218
 373  -88.74365
 374  -108.1421
 375  37.67965
 376  273.786
 377  340.7954
 378  342.3309
 379  66.63598
 380  -92.49112
 381  -13.65822
 382  -0.7252536
 383  92.62331
 384  47.57275
 385  -166.9561
 386  -123.3178
 387  56.80809
 388  161.4632
 389  60.56583
 390  41.24666
 391  94.80045
 392  117.808
 393  80.88305
 394  106.1146
 395  204.2246
 396  89.91164
 397  33.26473
 398  31.06284
 399  39.05422
 400  40.43516
 401  41.36413
 402  7.040353
 403  -80.47847
 404  -0.2245211
 405  40.65917
 406  53.3537
 407  94.73399
 408  42.87789
 409  -66.23146
 410  -29.58495
 411  -89.8233
 412  -90.49431
 413  89.97507
 414  244.5552
 415  139.0328
 416  111.6826
 417  16.6229
 418  -36.18183
 419  14.84845
 420  78.48364
 421  35.83639
 422  21.94649
 423  -1.392067
 424  19.42919
 425  -20.70745
 426  -89.22557
 427  -7.496704
 428  143.8705
 429  134.8017
 430  177.6916
 431  182.1416
 432  262.3195
 433  174.8559
 434  1.877944
 435  92.34526
 436  27.97083
 437  50.74097
 438  38.12833
 439  1.749423
 440  -17.67267
 441  34.82093
 442  -12.47986
 443  9.636521
 444  77.89167
 445  215.465
 446  204.473
 447  -31.68032
 448  117.3051
 449  87.20924
 450  -92.80933
 451  -33.41377
 452  119.9477
 453  93.7787
 454  22.60382
 455  -2.72394
 456  183.7227
 457  172.9208
 458  184.3219
 459  27.04983
 460  9.107328
 461  -76.4954
 462  -106.8324
 463  79.52838
 464  104.4901
 465  209.2884
 466  202.3674
 467  131.1651
 468  107.8521
 469  83.81668
 470  147.2767
 471  85.82678
 472  166.5445
 473  146.4224
 474  180.1071
 475  115.9866
 476  138.2732
 477  13.13443
 478  29.82695
 479  -72.71539
 480  -190.9862
 481  -64.55983
 482  66.32887
 483  106.3671
 484  66.79216
 485  -7.533673
 486  113.9038
 487  138.3198
 488  125.7374
 489  124.9286
 490  91.85281
 491  26.27691
 492  154.9854
 493  256.3594
 494  156.0918
 495  186.0914
 496  208.6881
 497  35.15204
 498  163.7127
 499  106.6083
 500  294.6256
 501  106.1177
 502  153.4603
 503  99.94149
 504  40.54453
 505  135.9053
 506  62.43053
 507  90.55885
 508  108.6935
 509  117.5587
 510  177.0408
 511  120.684
