# Input file       =  1185147448.112553_cleaned.dat
# Candidate        =  PSR_0332+5434
# Telescope        =  AR
# Epoch_topo       =  57960.984144821217
# Epoch_bary       =  N/A
# T_sample         =  0.002
# Data Folded      =  7208960
# Data Avg         =  0.0198066231285054
# Data StdDev      =  1.00000399084906 
# Profile Bins     =  512
# Profile Avg      =  278.837284407891 
# Profile StdDev   =  118.659649344391 
# Reduced chi-sqr  =  1.391
# Prob(Noise)      <  1.03e-08   (~5.6 sigma)
# P_topo (ms)      =  714.471831878539  +/- 0.00029
# P'_topo (s/s)    =  -0                +/- 1.56e-10
# P''_topo (s/s^2) =  0                 +/- 6.99e-14
# P_bary (ms)      =  N/A
# P'_bary (s/s)    =  N/A
# P''_bary (s/s^2) =  N/A
# P_orb (s)        =  N/A
# asin(i)/c (s)    =  N/A
# eccentricity     =  N/A
# w (rad)          =  N/A
# T_peri           =  N/A
######################################################
   0  991.531
   1  952.6287
   2  778.0635
   3  628.1642
   4  416.1084
   5  353.4916
   6  375.4886
   7  329.9141
   8  244.3355
   9  160.4332
  10  162.0074
  11  260.6077
  12  257.5834
  13  324.4522
  14  287.5706
  15  368.4385
  16  287.0878
  17  266.551
  18  338.7113
  19  277.6683
  20  244.836
  21  246.5909
  22  187.7922
  23  212.3543
  24  221.4011
  25  176.9127
  26  152.0199
  27  264.5621
  28  256.7445
  29  240.1284
  30  271.722
  31  294.722
  32  268.3533
  33  220.8371
  34  217.2791
  35  280.4202
  36  315.2063
  37  280.3014
  38  218.2246
  39  215.7632
  40  147.4007
  41  121.0767
  42  260.2491
  43  288.0447
  44  148.7103
  45  183.5028
  46  272.563
  47  317.0156
  48  316.323
  49  156.1004
  50  220.4426
  51  306.3165
  52  414.4586
  53  360.8364
  54  349.4377
  55  309.5166
  56  380.2957
  57  291.1669
  58  291.8185
  59  292.4901
  60  318.5679
  61  283.5143
  62  188.8577
  63  415.9121
  64  394.9969
  65  361.9245
  66  290.2042
  67  333.2507
  68  379.1533
  69  274.8158
  70  129.731
  71  295.9839
  72  397.2339
  73  379.0635
  74  346.3659
  75  308.465
  76  163.3525
  77  136.8383
  78  234.7675
  79  305.6223
  80  283.0345
  81  278.3889
  82  334.2032
  83  341.1104
  84  339.1541
  85  355.8101
  86  418.1425
  87  341.8886
  88  325.4878
  89  341.1518
  90  374.899
  91  276.4915
  92  221.45
  93  271.5082
  94  349.2831
  95  450.1232
  96  388.5298
  97  259.3455
  98  141.2927
  99  204.3947
 100  282.1373
 101  282.3007
 102  308.0888
 103  307.4778
 104  263.6379
 105  266.5933
 106  241.7483
 107  209.7972
 108  284.5944
 109  392.798
 110  423.0041
 111  321.1711
 112  379.4177
 113  453.934
 114  400.9891
 115  279.5312
 116  311.3587
 117  246.7724
 118  176.1831
 119  244.2576
 120  291.4782
 121  307.3838
 122  317.6366
 123  343.205
 124  368.6178
 125  371.9495
 126  230.9542
 127  139.0156
 128  123.9024
 129  217.9454
 130  409.5722
 131  249.3959
 132  174.5436
 133  239.8027
 134  248.4127
 135  226.1375
 136  229.6956
 137  314.3039
 138  276.2003
 139  209.9871
 140  422.5976
 141  425.2863
 142  338.7676
 143  274.7315
 144  316.5214
 145  293.9578
 146  282.9452
 147  250.3182
 148  272.1676
 149  258.7443
 150  246.4621
 151  248.6882
 152  385.2582
 153  457.8666
 154  351.1164
 155  372.7043
 156  290.1154
 157  251.1171
 158  220.8352
 159  225.4043
 160  257.761
 161  241.9596
 162  241.6868
 163  306.4001
 164  324.7125
 165  365.4108
 166  213.9498
 167  179.3668
 168  274.8054
 169  335.3158
 170  475.5049
 171  465.5808
 172  298.6934
 173  151.6759
 174  244.1932
 175  336.1983
 176  316.7404
 177  416.0193
 178  399.1992
 179  203.6267
 180  287.0096
 181  344.6448
 182  311.5738
 183  319.206
 184  260.2633
 185  271.4732
 186  309.2859
 187  362.3666
 188  342.6899
 189  317.107
 190  361.8098
 191  178.039
 192  221.3775
 193  165.73
 194  189.7355
 195  215.1749
 196  358.2689
 197  348.082
 198  254.5946
 199  305.1357
 200  236.7592
 201  183.3757
 202  290.4228
 203  397.3271
 204  288.5907
 205  264.5574
 206  289.7535
 207  339.5658
 208  216.5408
 209  244.9545
 210  204.4714
 211  78.77299
 212  67.74504
 213  124.816
 214  323.8371
 215  267.9603
 216  175.1982
 217  291.5198
 218  320.8213
 219  249.1883
 220  254.7968
 221  289.1327
 222  379.8318
 223  203.3526
 224  116.4873
 225  282.0172
 226  297.1946
 227  258.9102
 228  223.5386
 229  299.8529
 230  285.0093
 231  215.7774
 232  166.9824
 233  178.452
 234  224.1414
 235  331.8995
 236  364.1646
 237  262.6453
 238  274.2847
 239  302.5154
 240  281.7433
 241  264.4919
 242  289.2185
 243  267.0648
 244  375.6767
 245  367.5795
 246  357.4607
 247  345.7376
 248  224.9054
 249  297.8786
 250  246.9704
 251  274.6417
 252  217.6373
 253  177.4276
 254  237.5344
 255  261.9831
 256  194.3483
 257  258.1244
 258  296.9726
 259  293.3395
 260  296.2849
 261  312.8052
 262  432.6993
 263  358.0856
 264  234.8699
 265  243.6385
 266  325.2296
 267  353.1522
 268  265.9
 269  301.3851
 270  372.7186
 271  314.4904
 272  286.5735
 273  311.3877
 274  367.8657
 275  389.4283
 276  306.5707
 277  390.9337
 278  377.7904
 279  274.3857
 280  172.392
 281  305.6067
 282  231.5566
 283  275.7852
 284  363.3551
 285  433.5638
 286  420.1929
 287  341.4032
 288  328.8661
 289  394.006
 290  259.9867
 291  364.0725
 292  374.512
 293  237.079
 294  413.0159
 295  388.1395
 296  387.4266
 297  335.1105
 298  148.8079
 299  177.0204
 300  255.3744
 301  310.8573
 302  390.68
 303  348.2289
 304  403.9147
 305  332.08
 306  264.0683
 307  302.5057
 308  256.4596
 309  119.1914
 310  131.4466
 311  102.1335
 312  14.99345
 313  158.3515
 314  328.911
 315  399.347
 316  294.0994
 317  182.2301
 318  145.7524
 319  275.9657
 320  242.6073
 321  303.0021
 322  325.7666
 323  366.4062
 324  344.875
 325  308.1302
 326  285.4511
 327  170.6267
 328  234.9143
 329  325.0433
 330  196.1221
 331  240.9987
 332  265.7708
 333  132.6507
 334  -6.30223
 335  122.7058
 336  173.1812
 337  157.4527
 338  88.49733
 339  167.7422
 340  151.3423
 341  310.065
 342  200.6551
 343  174.5924
 344  173.8583
 345  196.8577
 346  256.8788
 347  285.4999
 348  249.397
 349  245.3221
 350  157.7064
 351  208.987
 352  270.6414
 353  272.8053
 354  280.1654
 355  338.2227
 356  306.7354
 357  158.6968
 358  162.951
 359  272.9962
 360  356.5703
 361  316.5863
 362  211.5717
 363  205.9742
 364  258.0646
 365  313.223
 366  351.0551
 367  369.8103
 368  311.224
 369  156.7689
 370  181.5611
 371  265.1805
 372  280.8356
 373  287.5
 374  176.0956
 375  228.2883
 376  219.4984
 377  247.8127
 378  253.949
 379  182.6859
 380  216.5868
 381  269.6083
 382  325.8363
 383  319.9828
 384  310.2693
 385  359.8385
 386  387.5104
 387  205.6617
 388  191.3014
 389  207.7478
 390  232.7354
 391  325.0546
 392  310.8336
 393  166.4652
 394  252.8093
 395  258.426
 396  371.3434
 397  323.1982
 398  187.4021
 399  195.1167
 400  168.8091
 401  231.1807
 402  302.5229
 403  126.1168
 404  170.9859
 405  114.826
 406  167.9559
 407  202.5058
 408  205.2207
 409  200.9847
 410  195.4664
 411  219.6017
 412  241.9515
 413  347.0762
 414  333.488
 415  365.5526
 416  314.7164
 417  198.0589
 418  274.8983
 419  236.4638
 420  262.4776
 421  312.133
 422  245.7586
 423  212.724
 424  255.3373
 425  267.8404
 426  285.4882
 427  205.1616
 428  171.8473
 429  226.189
 430  202.5173
 431  263.1037
 432  334.9984
 433  207.1208
 434  107.7771
 435  238.9997
 436  309.6301
 437  295.4108
 438  239.6292
 439  190.3043
 440  220.8221
 441  288.2065
 442  253.0572
 443  196.6107
 444  239.0969
 445  247.6938
 446  232.0369
 447  171.9004
 448  190.0169
 449  101.4032
 450  165.9908
 451  297.174
 452  279.3007
 453  155.4476
 454  167.7953
 455  208.5076
 456  241.125
 457  159.0553
 458  167.5966
 459  296.9896
 460  387.0504
 461  320.6157
 462  358.3449
 463  215.7286
 464  164.0937
 465  235.6556
 466  254.793
 467  229.2696
 468  286.5302
 469  240.4736
 470  174.2522
 471  228.3825
 472  185.0754
 473  150.8356
 474  216.9693
 475  171.5335
 476  143.5661
 477  250.7654
 478  353.4009
 479  323.1008
 480  223.5247
 481  256.91
 482  301.0002
 483  311.6038
 484  200.5423
 485  157.3254
 486  151.8665
 487  202.3505
 488  274.3417
 489  314.7233
 490  324.3774
 491  365.28
 492  296.6095
 493  402.0162
 494  317.986
 495  288.5811
 496  245.9054
 497  187.2328
 498  258.7103
 499  341.8164
 500  316.7157
 501  326.5949
 502  359.9346
 503  392.2593
 504  416.267
 505  306.3004
 506  427.344
 507  413.8371
 508  386.1057
 509  627.6467
 510  773.3107
 511  944.9968
