# Input file       =  1185693974.115253_cleaned.dat
# Candidate        =  PSR_0332+5434
# Telescope        =  AR
# Epoch_topo       =  57967.309677259873
# Epoch_bary       =  N/A
# T_sample         =  0.002
# Data Folded      =  7340032
# Data Avg         =  0.00321994336047004
# Data StdDev      =  1.00003602062493 
# Profile Bins     =  512
# Profile Avg      =  46.1350193606175 
# Profile StdDev   =  119.737349235561 
# Reduced chi-sqr  =  1.460
# Prob(Noise)      <  4.77e-11   (~6.5 sigma)
# P_topo (ms)      =  714.469273732131  +/- 0.000184
# P'_topo (s/s)    =  -0                +/- 9.69e-11
# P''_topo (s/s^2) =  0                 +/- 4.28e-14
# P_bary (ms)      =  N/A
# P'_bary (s/s)    =  N/A
# P''_bary (s/s^2) =  N/A
# P_orb (s)        =  N/A
# asin(i)/c (s)    =  N/A
# eccentricity     =  N/A
# w (rad)          =  N/A
# T_peri           =  N/A
######################################################
   0  196.6078
   1  -2.432182
   2  -7.681408
   3  26.10628
   4  -79.91192
   5  -60.16431
   6  147.2984
   7  161.2684
   8  -63.14038
   9  -227.8577
  10  -11.28276
  11  190.6175
  12  215.2769
  13  130.3114
  14  241.5426
  15  137.6226
  16  104.9413
  17  105.1604
  18  83.51554
  19  -42.40007
  20  -154.7449
  21  -6.202889
  22  -27.83469
  23  90.81363
  24  138.2156
  25  177.4424
  26  86.37612
  27  -53.60925
  28  31.09289
  29  85.25338
  30  95.81197
  31  -23.25418
  32  -127.83
  33  -52.2159
  34  1.157646
  35  118.8087
  36  81.75191
  37  80.09556
  38  163.0908
  39  17.7884
  40  16.32005
  41  22.90003
  42  137.6424
  43  19.764
  44  67.79994
  45  151.3979
  46  86.2339
  47  -14.5585
  48  -40.53888
  49  -177.8089
  50  14.85821
  51  46.53298
  52  -13.68836
  53  -85.19884
  54  -77.66371
  55  77.3117
  56  27.53121
  57  28.44803
  58  68.81023
  59  -51.69631
  60  15.3762
  61  37.54539
  62  -3.22775
  63  74.67252
  64  98.22199
  65  18.04787
  66  14.80062
  67  41.36293
  68  82.47324
  69  30.1053
  70  48.24744
  71  24.66644
  72  -56.28123
  73  172.488
  74  170.7743
  75  66.21478
  76  -1.683362
  77  113.4141
  78  34.80532
  79  -3.088174
  80  -13.21706
  81  -0.9067395
  82  -11.00799
  83  116.5291
  84  224.229
  85  56.2247
  86  -26.17743
  87  -65.28912
  88  -115.9238
  89  -85.4531
  90  114.0126
  91  49.45493
  92  -14.28293
  93  30.46547
  94  -5.18685
  95  36.96924
  96  48.37906
  97  45.742
  98  -1.76586
  99  -17.2412
 100  70.12401
 101  45.5923
 102  75.09787
 103  37.63326
 104  -22.04049
 105  20.11431
 106  26.59031
 107  8.549904
 108  22.11879
 109  117.3642
 110  17.31073
 111  -149.8557
 112  -54.1098
 113  29.80018
 114  77.67314
 115  19.81146
 116  67.61187
 117  184.4487
 118  49.90426
 119  119.5499
 120  167.509
 121  123.1547
 122  91.13747
 123  -1.739077
 124  70.97105
 125  121.6576
 126  42.76855
 127  -75.472
 128  60.43741
 129  186.0653
 130  151.7356
 131  82.97594
 132  138.4839
 133  178.5333
 134  85.38107
 135  -94.5005
 136  11.03085
 137  6.619786
 138  -13.18424
 139  174.0445
 140  84.87988
 141  139.6038
 142  197.6463
 143  27.50438
 144  -108.8811
 145  10.37717
 146  95.82759
 147  -39.20991
 148  2.098221
 149  27.40099
 150  7.562875
 151  92.52156
 152  17.12867
 153  99.88023
 154  181.7092
 155  149.9571
 156  100.6432
 157  -1.33425
 158  106.6871
 159  140.8571
 160  87.81023
 161  -18.46192
 162  80.17746
 163  178.0771
 164  46.00716
 165  136.8194
 166  65.38396
 167  -161.5108
 168  -67.01536
 169  -63.61903
 170  36.7578
 171  46.66265
 172  8.738134
 173  177.1528
 174  125.8191
 175  -45.33691
 176  -91.20958
 177  9.881158
 178  -18.9154
 179  48.8194
 180  36.85834
 181  -42.36879
 182  -129.1587
 183  14.44184
 184  54.87836
 185  14.84863
 186  81.10158
 187  119.0477
 188  74.92422
 189  -81.54869
 190  127.3091
 191  96.56551
 192  48.28029
 193  -48.02455
 194  -142.7104
 195  -5.879725
 196  71.73654
 197  -38.63023
 198  16.09827
 199  200.0005
 200  159.3239
 201  49.58305
 202  162.5668
 203  142.0969
 204  102.8407
 205  -42.47633
 206  -75.23495
 207  -54.32319
 208  78.76381
 209  18.14736
 210  33.01447
 211  105.1638
 212  2.866832
 213  -63.58939
 214  52.96944
 215  10.89169
 216  116.9362
 217  114.0624
 218  159.0736
 219  -36.04707
 220  -18.61387
 221  44.27452
 222  -84.4054
 223  -0.220452
 224  98.01662
 225  154.7488
 226  67.87827
 227  70.22491
 228  -58.65173
 229  -50.44936
 230  14.57776
 231  -26.74729
 232  -39.11013
 233  51.72917
 234  68.09721
 235  14.31168
 236  37.52813
 237  151.6463
 238  82.36995
 239  -41.70284
 240  49.90739
 241  96.3193
 242  23.39057
 243  -36.28799
 244  81.18422
 245  75.75254
 246  145.5328
 247  210.5397
 248  236.5904
 249  154.6801
 250  270.9773
 251  359.0793
 252  344.4264
 253  529.4774
 254  569.5406
 255  718.1534
 256  731.6447
 257  635.5756
 258  374.8532
 259  171.2205
 260  157.6775
 261  103.9869
 262  156.6599
 263  252.8866
 264  59.97837
 265  -69.39534
 266  -132.1167
 267  -76.88882
 268  157.0213
 269  -10.6646
 270  -14.35963
 271  5.194717
 272  42.38782
 273  0.6605513
 274  -64.70502
 275  21.88846
 276  103.8082
 277  126.8637
 278  -10.51977
 279  -162.481
 280  -111.9989
 281  7.498331
 282  8.032979
 283  84.58389
 284  183.9086
 285  139.7675
 286  -90.43701
 287  -74.96439
 288  -60.77573
 289  -102.2873
 290  -39.40824
 291  -20.38491
 292  87.13062
 293  180.9837
 294  2.400924
 295  -18.31812
 296  46.85223
 297  2.6101
 298  137.8544
 299  101.9315
 300  -60.63271
 301  -101.2866
 302  22.31879
 303  2.67759
 304  -36.29786
 305  140.0992
 306  202.6095
 307  120.7198
 308  64.93044
 309  8.697013
 310  24.12435
 311  90.68221
 312  133.9068
 313  92.01502
 314  23.58676
 315  60.51871
 316  51.51363
 317  69.79947
 318  76.87892
 319  34.67897
 320  -121.1182
 321  86.7187
 322  87.8895
 323  -99.03683
 324  -16.218
 325  97.98136
 326  94.01546
 327  3.868793
 328  55.85255
 329  49.73182
 330  107.787
 331  132.778
 332  -70.24562
 333  -96.07453
 334  84.46705
 335  31.91117
 336  -36.72683
 337  31.40378
 338  30.61438
 339  95.50163
 340  223.1528
 341  123.3155
 342  64.61692
 343  103.1824
 344  117.249
 345  30.30005
 346  44.99415
 347  111.6865
 348  104.3608
 349  50.13989
 350  71.7446
 351  116.9895
 352  104.3335
 353  82.19778
 354  -74.25311
 355  -21.69906
 356  -22.92411
 357  -136.1171
 358  -116.1901
 359  -34.61861
 360  -48.28225
 361  50.90268
 362  -17.21078
 363  -76.57332
 364  50.95175
 365  -4.611119
 366  -1.480594
 367  -180.287
 368  19.91243
 369  98.30241
 370  -8.884154
 371  86.21697
 372  83.5603
 373  59.51064
 374  147.2982
 375  37.68476
 376  46.23304
 377  -7.487751
 378  -26.60422
 379  146.7133
 380  140.0927
 381  139.8639
 382  72.24561
 383  110.5267
 384  -59.39896
 385  -43.62715
 386  108.3069
 387  143.9635
 388  87.29538
 389  0.9917935
 390  -2.280327
 391  61.25601
 392  48.2428
 393  95.15234
 394  21.36036
 395  16.57389
 396  70.38337
 397  43.89118
 398  19.67501
 399  -121.4133
 400  -33.82811
 401  159.8416
 402  -25.02962
 403  -74.5507
 404  -19.61029
 405  11.17997
 406  80.34527
 407  -50.11919
 408  -18.31667
 409  164.3647
 410  249.9364
 411  141.4054
 412  67.59643
 413  229.0363
 414  141.1442
 415  -72.51161
 416  -34.68437
 417  -43.47801
 418  45.19274
 419  102.8915
 420  5.801383
 421  37.94673
 422  -25.5575
 423  73.01257
 424  219.4873
 425  116.7078
 426  -23.3974
 427  -16.13165
 428  -125.6113
 429  -198.5322
 430  -112.4534
 431  -114.8499
 432  -106.2608
 433  -79.26513
 434  67.73087
 435  77.15971
 436  55.36331
 437  30.01198
 438  103.0392
 439  26.8331
 440  17.60426
 441  40.73061
 442  23.0817
 443  27.676
 444  101.0903
 445  41.53887
 446  63.78033
 447  119.1291
 448  80.42232
 449  -65.54638
 450  -5.350406
 451  114.6862
 452  142.9207
 453  67.25434
 454  -104.4373
 455  -29.8668
 456  -37.81227
 457  87.88282
 458  94.60486
 459  24.54321
 460  -11.47499
 461  10.89818
 462  29.06088
 463  43.50738
 464  44.23008
 465  -63.92924
 466  0.4202111
 467  -76.47724
 468  3.985735
 469  81.28817
 470  14.5947
 471  17.21557
 472  135.3463
 473  53.36795
 474  -64.39347
 475  -2.013291
 476  -13.84081
 477  -30.62506
 478  87.90565
 479  29.90492
 480  -53.54308
 481  -9.717355
 482  78.4313
 483  35.19433
 484  -8.166228
 485  -1.40746
 486  55.15439
 487  77.63955
 488  105.6521
 489  92.00885
 490  -9.438548
 491  -51.93398
 492  -70.47759
 493  41.80072
 494  13.40136
 495  -88.15659
 496  2.404676
 497  45.77333
 498  -92.9192
 499  -84.7126
 500  -18.44244
 501  -27.83419
 502  133.9492
 503  60.94944
 504  40.40242
 505  -38.70583
 506  -58.20266
 507  113.5472
 508  134.5094
 509  63.70869
 510  200.8791
 511  193.1548
