# Input file       =  1185233632.110816_cleaned.dat
# Candidate        =  PSR_0332+5434
# Telescope        =  AR
# Epoch_topo       =  57961.981644801112
# Epoch_bary       =  N/A
# T_sample         =  0.002
# Data Folded      =  7208960
# Data Avg         =  0.0252145429385425
# Data StdDev      =  1.00004508669388 
# Profile Bins     =  512
# Profile Avg      =  354.996511070508 
# Profile StdDev   =  118.664525743465 
# Reduced chi-sqr  =  1.526
# Prob(Noise)      <  1.6e-13   (~7.3 sigma)
# P_topo (ms)      =  714.471334195998  +/- 0.000282
# P'_topo (s/s)    =  -0                +/- 1.51e-10
# P''_topo (s/s^2) =  0                 +/- 6.81e-14
# P_bary (ms)      =  N/A
# P'_bary (s/s)    =  N/A
# P''_bary (s/s^2) =  N/A
# P_orb (s)        =  N/A
# asin(i)/c (s)    =  N/A
# eccentricity     =  N/A
# w (rad)          =  N/A
# T_peri           =  N/A
######################################################
   0  1218.862
   1  1076.725
   2  862.1843
   3  728.2776
   4  548.0623
   5  414.6926
   6  354.0889
   7  296.2777
   8  353.4031
   9  329.3124
  10  397.2651
  11  320.1332
  12  505.7957
  13  507.524
  14  320.8568
  15  358.057
  16  429.6272
  17  477.1024
  18  475.8852
  19  409.1045
  20  511.7858
  21  459.4018
  22  272.2656
  23  282.082
  24  444.2746
  25  379.6772
  26  322.7851
  27  253.6903
  28  325.2917
  29  330.0297
  30  402.8262
  31  477.5819
  32  462.7594
  33  391.6306
  34  378.0186
  35  374.6379
  36  463.1706
  37  389.1657
  38  392.4183
  39  414.6074
  40  369.6479
  41  365.6423
  42  389.1926
  43  303.7224
  44  337.1297
  45  333.27
  46  350.5866
  47  445.8891
  48  337.7096
  49  390.6615
  50  474.3497
  51  402.6508
  52  384.8229
  53  344.9058
  54  357.5908
  55  414.804
  56  386.8306
  57  337.4775
  58  438.9798
  59  448.9491
  60  318.4328
  61  364.4143
  62  311.5379
  63  320.0918
  64  288.1743
  65  446.998
  66  341.5679
  67  310.0147
  68  363.0435
  69  312.5596
  70  393.8466
  71  309.3717
  72  331.7646
  73  388.846
  74  424.7233
  75  436.0157
  76  356.1541
  77  421.0273
  78  439.9917
  79  466.5133
  80  416.3522
  81  278.8464
  82  304.1211
  83  282.4409
  84  375.3097
  85  377.3389
  86  436.8847
  87  523.1078
  88  437.6604
  89  541.6995
  90  548.9952
  91  365.9234
  92  336.6062
  93  399.597
  94  462.4391
  95  360.1774
  96  307.7323
  97  410.0338
  98  350.1969
  99  353.826
 100  238.2156
 101  206.5853
 102  375.864
 103  432.4466
 104  490.0281
 105  459.4096
 106  402.2591
 107  338.3077
 108  367.3169
 109  410.9249
 110  317.4369
 111  341.822
 112  328.8893
 113  358.0361
 114  487.1209
 115  476.0616
 116  331.6353
 117  309.0449
 118  368.4761
 119  426.0619
 120  447.2225
 121  521.3435
 122  414.962
 123  376.5281
 124  359.2409
 125  419.0847
 126  418.2513
 127  309.8888
 128  278.6043
 129  365.7092
 130  360.8372
 131  394.6897
 132  486.1253
 133  524.8399
 134  341.5712
 135  401.9727
 136  484.0402
 137  442.6123
 138  525.4276
 139  397.2809
 140  476.6632
 141  429.3438
 142  557.9385
 143  443.7936
 144  408.8627
 145  349.6205
 146  318.8181
 147  258.7628
 148  439.726
 149  425.8556
 150  304.7277
 151  398.1682
 152  369.9782
 153  261.9638
 154  261.5603
 155  339.9955
 156  406.0549
 157  364.5945
 158  301.7116
 159  377.0361
 160  472.0116
 161  492.2541
 162  425.3788
 163  411.7291
 164  421.7419
 165  449.4135
 166  413.657
 167  424.4786
 168  420.6146
 169  365.2162
 170  253.3754
 171  270.1202
 172  317.6043
 173  349.8925
 174  348.7971
 175  451.0382
 176  355.6394
 177  238.4315
 178  365.0963
 179  324.3944
 180  346.0803
 181  318.8392
 182  341.679
 183  342.6098
 184  394.4924
 185  241.0707
 186  316.8941
 187  388.4634
 188  426.8595
 189  396.2989
 190  316.2492
 191  306.9502
 192  398.9405
 193  389.4541
 194  300.9136
 195  213.7086
 196  279.4093
 197  416.6418
 198  379.7473
 199  375.0975
 200  421.1101
 201  406.6465
 202  389.583
 203  304.5338
 204  298.803
 205  390.9562
 206  451.3742
 207  436.5797
 208  311.8506
 209  295.5081
 210  300.3417
 211  349.0562
 212  333.162
 213  286.7592
 214  370.4857
 215  370.9943
 216  352.8753
 217  381.9078
 218  310.9791
 219  351.1679
 220  394.7671
 221  338.9894
 222  302.9554
 223  344.4957
 224  421.0375
 225  415.5199
 226  440.7291
 227  384.6956
 228  388.9163
 229  448.0058
 230  384.2195
 231  488.0253
 232  394.5863
 233  319.9333
 234  402.0448
 235  409.8739
 236  352.7593
 237  206.6449
 238  292.3933
 239  362.6822
 240  325.978
 241  222.8168
 242  220.8192
 243  319.5685
 244  326.8293
 245  316.9269
 246  205.4998
 247  327.7723
 248  309.8461
 249  350.0861
 250  291.0148
 251  204.042
 252  255.9172
 253  380.7164
 254  419.2558
 255  342.0602
 256  277.2437
 257  299.885
 258  371.5635
 259  398.6725
 260  339.6052
 261  222.0641
 262  301.0604
 263  284.1764
 264  298.6827
 265  258.0477
 266  316.1909
 267  373.4544
 268  357.928
 269  325.7817
 270  184.8387
 271  322.941
 272  417.8677
 273  359.3043
 274  378.9951
 275  262.4598
 276  255.9903
 277  235.1108
 278  358.5883
 279  362.6852
 280  344.7903
 281  449.7196
 282  352.3065
 283  258.8832
 284  317.036
 285  304.2219
 286  317.2434
 287  348.588
 288  347.1691
 289  410.5042
 290  480.5801
 291  479.175
 292  301.1179
 293  322.4273
 294  363.2362
 295  382.1504
 296  291.1697
 297  486.4222
 298  390.251
 299  248.5806
 300  183.7374
 301  343.032
 302  270.0067
 303  250.513
 304  392.7331
 305  290.535
 306  253.15
 307  395.0284
 308  343.0357
 309  329.4975
 310  376.5206
 311  374.7452
 312  338.5417
 313  294.1736
 314  236.4085
 315  221.2826
 316  241.3739
 317  288.7333
 318  332.7439
 319  377.9839
 320  307.3182
 321  285.8191
 322  340.6493
 323  418.158
 324  320.4493
 325  264.2882
 326  305.6251
 327  221.4481
 328  314.6362
 329  355.896
 330  409.4713
 331  264.5607
 332  215.4039
 333  291.0231
 334  238.5038
 335  206.8669
 336  215.9703
 337  253.2528
 338  342.1512
 339  300.3059
 340  410.2242
 341  322.6718
 342  256.9083
 343  284.4538
 344  266.325
 345  235.3382
 346  171.8114
 347  207.0057
 348  258.3326
 349  323.4814
 350  316.9262
 351  245.5207
 352  229.861
 353  311.9364
 354  335.8854
 355  335.6945
 356  303.2282
 357  197.1095
 358  210.2198
 359  187.7641
 360  98.76148
 361  194.3541
 362  278.0238
 363  323.9679
 364  315.2932
 365  271.4821
 366  350.4243
 367  414.018
 368  302.2925
 369  378.0628
 370  413.7142
 371  351.1473
 372  312.1482
 373  337.452
 374  473.7137
 375  380.6685
 376  182.295
 377  323.1508
 378  335.4096
 379  335.5585
 380  419.5367
 381  339.2944
 382  365.3937
 383  319.1624
 384  304.1804
 385  345.1934
 386  293.267
 387  303.8324
 388  208.0274
 389  258.2324
 390  266.2006
 391  241.5415
 392  256.7846
 393  212.9985
 394  281.7241
 395  163.7144
 396  255.6401
 397  256.1116
 398  158.706
 399  197.6141
 400  273.8106
 401  206.5089
 402  286.2365
 403  424.767
 404  314.0645
 405  311.8635
 406  325.0851
 407  351.0918
 408  388.6758
 409  288.1339
 410  341.3651
 411  391.1807
 412  299.1305
 413  397.8102
 414  450.5303
 415  326.5086
 416  279.2444
 417  260.3297
 418  329.9128
 419  397.5758
 420  319.7091
 421  305.3098
 422  210.881
 423  260.4915
 424  176.9169
 425  307.5455
 426  402.0367
 427  333.3479
 428  275.5682
 429  269.6674
 430  307.4763
 431  348.5759
 432  381.0305
 433  309.1417
 434  320.4827
 435  337.3204
 436  346.657
 437  359.2249
 438  478.9152
 439  435.3906
 440  311.1154
 441  226.8519
 442  225.3405
 443  213.9397
 444  273.3645
 445  353.3793
 446  300.6848
 447  206.4738
 448  351.0369
 449  337.3091
 450  347.8914
 451  362.4055
 452  275.4472
 453  383.6667
 454  480.416
 455  277.4345
 456  323.7311
 457  338.267
 458  331.8129
 459  287.0399
 460  360.598
 461  243.5734
 462  283.0534
 463  313.2454
 464  354.1971
 465  301.0843
 466  324.7392
 467  350.2205
 468  277.6725
 469  347.4706
 470  302.7916
 471  277.9573
 472  392.1929
 473  423.7642
 474  312.6045
 475  186.5331
 476  380.3875
 477  398.0462
 478  366.1807
 479  431.4483
 480  297.5798
 481  321.5262
 482  391.0314
 483  356.0278
 484  341.4759
 485  282.0568
 486  307.4319
 487  433.5227
 488  334.1511
 489  153.7585
 490  199.5472
 491  354.066
 492  405.8828
 493  228.3248
 494  188.0016
 495  422.2384
 496  445.4334
 497  367.6004
 498  399.659
 499  411.8647
 500  325.7258
 501  404.4402
 502  530.002
 503  566.9877
 504  551.6562
 505  570.2539
 506  435.6292
 507  384.8008
 508  590.2209
 509  819.4064
 510  854.6703
 511  1064.018
