# Input file       =  1185405938.11192_cleaned.dat
# Candidate        =  PSR_0332+5434
# Telescope        =  AR
# Epoch_topo       =  57963.975927221298
# Epoch_bary       =  N/A
# T_sample         =  0.002
# Data Folded      =  7208960
# Data Avg         =  0.0332345584180342
# Data StdDev      =  1.00021552339627 
# Profile Bins     =  512
# Profile Avg      =  467.778163750872 
# Profile StdDev   =  118.684749622097 
# Reduced chi-sqr  =  1.056
# Prob(Noise)      <  0.185   (~0.9 sigma)
# P_topo (ms)      =  714.470384207554  +/- 0.000302
# P'_topo (s/s)    =  -0                +/- 1.62e-10
# P''_topo (s/s^2) =  0                 +/- 7.29e-14
# P_bary (ms)      =  N/A
# P'_bary (s/s)    =  N/A
# P''_bary (s/s^2) =  N/A
# P_orb (s)        =  N/A
# asin(i)/c (s)    =  N/A
# eccentricity     =  N/A
# w (rad)          =  N/A
# T_peri           =  N/A
######################################################
   0  1028.42
   1  989.3084
   2  806.0871
   3  551.6356
   4  445.292
   5  487.1325
   6  500.8511
   7  448.7014
   8  456.7686
   9  501.4952
  10  432.5335
  11  483.793
  12  551.6674
  13  645.1181
  14  654.0226
  15  602.1727
  16  673.0098
  17  587.1693
  18  411.2206
  19  423.5594
  20  482.4556
  21  581.5598
  22  582.1078
  23  458.4331
  24  450.2679
  25  520.3187
  26  535.3516
  27  577.4572
  28  412.6851
  29  438.2129
  30  384.0453
  31  420.8393
  32  447.1588
  33  485.3299
  34  362.7229
  35  383.6545
  36  402.7574
  37  542.9346
  38  453.9651
  39  514.0517
  40  515.7599
  41  447.7361
  42  507.7657
  43  360.4866
  44  340.1689
  45  413.5174
  46  457.9446
  47  457.5973
  48  411.1636
  49  407.669
  50  345.2024
  51  484.157
  52  392.1039
  53  275.4624
  54  337.7247
  55  420.1462
  56  347.2169
  57  470.5618
  58  402.5216
  59  434.9585
  60  356.2856
  61  442.1334
  62  482.5865
  63  384.2886
  64  392.2601
  65  497.7101
  66  478.8711
  67  497.3836
  68  407.5143
  69  450.0505
  70  497.9897
  71  467.275
  72  507.2134
  73  472.4161
  74  279.6245
  75  207.7135
  76  405.7252
  77  381.9918
  78  482.6773
  79  493.6209
  80  496.9383
  81  477.0071
  82  369.265
  83  438.6564
  84  393.6048
  85  419.9675
  86  458.7876
  87  369.2756
  88  350.3765
  89  433.7534
  90  468.7218
  91  416.2593
  92  485.0864
  93  397.4127
  94  353.8799
  95  474.5133
  96  548.395
  97  517.4672
  98  486.7641
  99  431.016
 100  437.0257
 101  405.8349
 102  599.6598
 103  584.8929
 104  527.7645
 105  509.8693
 106  386.7945
 107  370.1234
 108  532.0526
 109  486.8679
 110  292.8761
 111  425.8467
 112  494.8596
 113  443.2694
 114  439.731
 115  338.8311
 116  476.927
 117  435.2093
 118  272.3338
 119  374.7522
 120  417.7867
 121  457.7954
 122  479.5811
 123  505.538
 124  378.9651
 125  379.0584
 126  405.2989
 127  329.1864
 128  323.8338
 129  390.5483
 130  417.8314
 131  418.164
 132  364.541
 133  406.6574
 134  409.8389
 135  447.7504
 136  517.9138
 137  538.9072
 138  502.8312
 139  437.6293
 140  453.6333
 141  586.7883
 142  454.2933
 143  469.1758
 144  538.186
 145  503.6011
 146  527.123
 147  487.0172
 148  472.6783
 149  381.2622
 150  440.7144
 151  481.4811
 152  425.4731
 153  443.8237
 154  440.2256
 155  460.6755
 156  422.3907
 157  549.9506
 158  456.1512
 159  423.1633
 160  359.9389
 161  438.3028
 162  427.3059
 163  500.467
 164  460.7305
 165  495.7672
 166  461.6146
 167  399.2208
 168  342.8058
 169  438.5436
 170  402.1736
 171  293.5607
 172  257.9261
 173  382.4719
 174  533.5853
 175  551.9254
 176  436.8676
 177  387.5125
 178  411.5836
 179  531.9332
 180  538.1732
 181  545.3458
 182  423.1874
 183  440.2265
 184  552.4027
 185  486.2241
 186  520.5218
 187  541.356
 188  500.0628
 189  423.6089
 190  346.2046
 191  463.6343
 192  534.6162
 193  373.4667
 194  441.892
 195  380.5993
 196  253.707
 197  333.9922
 198  482.3123
 199  388.9009
 200  429.9534
 201  497.403
 202  459.6061
 203  518.2413
 204  440.4747
 205  491.9099
 206  458.0821
 207  456.1331
 208  434.3947
 209  394.3191
 210  485.1581
 211  440.1086
 212  287.9932
 213  365.9437
 214  411.2746
 215  316.64
 216  411.214
 217  532.2889
 218  540.1299
 219  599.3622
 220  483.7269
 221  376.8976
 222  376.62
 223  456.0609
 224  454.0314
 225  468.0085
 226  455.21
 227  557.2462
 228  539.4696
 229  421.4608
 230  463.7542
 231  423.3556
 232  325.1803
 233  249.944
 234  339.594
 235  403.7574
 236  480.1644
 237  516.5095
 238  468.2468
 239  397.5975
 240  432.0883
 241  537.8
 242  406.9784
 243  472.5274
 244  524.6619
 245  481.6512
 246  586.0093
 247  486.8066
 248  494.0083
 249  472.4175
 250  498.5254
 251  452.1522
 252  484.7349
 253  538.3569
 254  453.5142
 255  557.7192
 256  566.16
 257  654.8431
 258  480.0592
 259  568.9802
 260  547.5623
 261  601.7359
 262  699.3777
 263  634.5967
 264  483.7393
 265  526.9722
 266  597.4201
 267  475.8077
 268  427.6895
 269  506.7709
 270  457.0508
 271  442.5366
 272  459.144
 273  485.5336
 274  418.2964
 275  532.5583
 276  545.0117
 277  479.3821
 278  516.1082
 279  572.6361
 280  514.6673
 281  437.5704
 282  324.9708
 283  350.6447
 284  465.866
 285  446.2212
 286  473.1266
 287  437.8739
 288  327.1142
 289  381.2222
 290  499.8549
 291  524.5407
 292  458.5616
 293  486.7743
 294  608.4915
 295  529.5541
 296  437.1779
 297  396.2069
 298  500.3764
 299  599.4916
 300  518.9296
 301  495.0375
 302  564.9846
 303  575.1681
 304  504.8481
 305  546.9957
 306  581.7874
 307  457.6956
 308  528.7962
 309  493.6803
 310  470.163
 311  388.2858
 312  567.4982
 313  562.299
 314  455.9572
 315  396.9952
 316  437.3095
 317  488.2103
 318  416.8209
 319  385.252
 320  528.1113
 321  507.9596
 322  556.473
 323  551.0798
 324  529.455
 325  508.1416
 326  380.6931
 327  435.5593
 328  470.8952
 329  527.2754
 330  620.7686
 331  598.1051
 332  589.1991
 333  489.0114
 334  506.1111
 335  511.1903
 336  557.5071
 337  596.6721
 338  592.4829
 339  502.8681
 340  454.4658
 341  427.3496
 342  422.1129
 343  467.8033
 344  648.2629
 345  569.3941
 346  568.5948
 347  497.8141
 348  454.6224
 349  505.4221
 350  595.2451
 351  558.8721
 352  310.3864
 353  414.6109
 354  477.856
 355  543.5316
 356  430.221
 357  422.1349
 358  532.9728
 359  409.7315
 360  449.0169
 361  443.6158
 362  448.5588
 363  388.0598
 364  460.6818
 365  489.0985
 366  525.2244
 367  393.8011
 368  462.4603
 369  458.3577
 370  480.6051
 371  500.4821
 372  366.3283
 373  432.5459
 374  514.2025
 375  473.8962
 376  398.0226
 377  414.7801
 378  428.3639
 379  425.2068
 380  411.2593
 381  515.6874
 382  507.3326
 383  400.8181
 384  317.9241
 385  505.3388
 386  496.7998
 387  449.7909
 388  500.6038
 389  527.9453
 390  584.8714
 391  577.684
 392  504.5497
 393  495.5204
 394  594.0858
 395  451.0752
 396  388.5329
 397  464.3116
 398  453.4346
 399  503.7033
 400  489.02
 401  527.5672
 402  515.3501
 403  517.9279
 404  419.5349
 405  428.1422
 406  514.3925
 407  458.9574
 408  397.008
 409  389.254
 410  433.6243
 411  455.4387
 412  549.5514
 413  630.3764
 414  604.1
 415  506.7773
 416  473.1308
 417  491.7881
 418  524.0822
 419  453.0897
 420  521.6584
 421  463.1645
 422  446.8015
 423  386.3939
 424  388.7734
 425  533.1636
 426  440.6283
 427  392.3901
 428  387.2289
 429  424.1717
 430  348.2242
 431  405.5334
 432  441.5578
 433  418.8917
 434  460.3784
 435  493.8723
 436  469.0117
 437  539.0226
 438  461.411
 439  463.6079
 440  567.2549
 441  558.4822
 442  466.2109
 443  479.9428
 444  530.1301
 445  479.0677
 446  389.6885
 447  319.2439
 448  365.6112
 449  502.8187
 450  567.2389
 451  490.0189
 452  502.2862
 453  581.7211
 454  578.7949
 455  529.3522
 456  627.2466
 457  534.8288
 458  434.3656
 459  391.5665
 460  487.4996
 461  521.3198
 462  393.3765
 463  394.5018
 464  463.2281
 465  429.5991
 466  395.607
 467  290.2599
 468  295.38
 469  380.9905
 470  492.2993
 471  490.8951
 472  462.0414
 473  464.3704
 474  433.4743
 475  436.5964
 476  384.6578
 477  399.4039
 478  336.51
 479  468.4729
 480  419.3289
 481  269.6459
 482  403.6649
 483  445.9834
 484  439.0338
 485  407.7039
 486  517.1881
 487  460.4976
 488  329.5593
 489  309.6895
 490  384.3723
 491  411.1447
 492  514.3544
 493  583.1615
 494  611.5214
 495  533.2458
 496  454.0844
 497  407.9139
 498  405.715
 499  401.7122
 500  410.349
 501  403.9342
 502  404.5729
 503  503.5941
 504  526.5963
 505  454.9242
 506  512.9148
 507  519.7328
 508  527.8534
 509  665.3124
 510  855.3602
 511  940.1796
