# Input file       =  1185780131.118868_cleaned.dat
# Candidate        =  PSR_0332+5434
# Telescope        =  AR
# Epoch_topo       =  57968.306864801714
# Epoch_bary       =  N/A
# T_sample         =  0.002
# Data Folded      =  7340032
# Data Avg         =  0.00449081532313126
# Data StdDev      =  1.00003460559268 
# Profile Bins     =  512
# Profile Avg      =  64.371141454847  
# Profile StdDev   =  119.737179809454 
# Reduced chi-sqr  =  1.463
# Prob(Noise)      <  3.63e-11   (~6.5 sigma)
# P_topo (ms)      =  714.468868097316  +/- 0.000174
# P'_topo (s/s)    =  -0                +/- 9.19e-11
# P''_topo (s/s^2) =  0                 +/- 4.06e-14
# P_bary (ms)      =  N/A
# P'_bary (s/s)    =  N/A
# P''_bary (s/s^2) =  N/A
# P_orb (s)        =  N/A
# asin(i)/c (s)    =  N/A
# eccentricity     =  N/A
# w (rad)          =  N/A
# T_peri           =  N/A
######################################################
   0  690.8265
   1  459.7701
   2  422.0213
   3  351.0398
   4  87.80381
   5  0.2010975
   6  94.71111
   7  -98.66869
   8  -93.45689
   9  -77.62123
  10  -11.05135
  11  98.40258
  12  166.711
  13  43.60165
  14  -102.0848
  15  78.0423
  16  32.66328
  17  11.07845
  18  -39.92099
  19  -0.5223322
  20  166.5891
  21  115.6076
  22  80.81566
  23  71.9565
  24  82.87085
  25  55.92956
  26  195.4954
  27  41.21461
  28  46.97178
  29  106.2648
  30  126.1241
  31  146.9458
  32  211.209
  33  78.37057
  34  62.39694
  35  -95.21124
  36  -56.20793
  37  97.18233
  38  53.74431
  39  13.26767
  40  106.3216
  41  36.64384
  42  -41.30967
  43  -42.17375
  44  46.67884
  45  -24.19814
  46  126.4848
  47  141.7145
  48  0.06384614
  49  6.954035
  50  132.6929
  51  77.67406
  52  -59.8582
  53  10.35267
  54  78.48874
  55  95.84004
  56  66.39548
  57  43.06414
  58  108.9403
  59  124.9096
  60  43.94913
  61  -129.8911
  62  -13.82602
  63  -19.16127
  64  -30.55377
  65  36.49291
  66  34.78097
  67  65.10886
  68  -23.55296
  69  75.16959
  70  1.877413
  71  48.70827
  72  40.03117
  73  77.41474
  74  58.54596
  75  -119.6394
  76  -26.68991
  77  89.38245
  78  122.5441
  79  33.30639
  80  35.76138
  81  94.25604
  82  3.401569
  83  -117.4909
  84  41.19355
  85  100.1044
  86  23.57968
  87  2.487584
  88  -14.4936
  89  152.1909
  90  107.7366
  91  126.734
  92  285.6143
  93  186.1118
  94  185.8696
  95  100.0624
  96  87.71768
  97  14.80004
  98  -39.4898
  99  20.3876
 100  130.0608
 101  126.4768
 102  17.08383
 103  109.2378
 104  140.9398
 105  18.40657
 106  16.44002
 107  99.92335
 108  126.3816
 109  60.0273
 110  54.39076
 111  42.47294
 112  78.93118
 113  94.80819
 114  243.5934
 115  217.7475
 116  188.8453
 117  -26.39429
 118  -9.674819
 119  5.673868
 120  175.2337
 121  55.26011
 122  0.2946812
 123  118.9972
 124  100.3425
 125  129.1042
 126  161.3941
 127  108.8505
 128  21.3564
 129  44.82182
 130  -32.68781
 131  102.1286
 132  138.558
 133  125.6708
 134  193.1818
 135  39.40618
 136  5.036923
 137  -4.737774
 138  111.1983
 139  177.7882
 140  29.63546
 141  95.4152
 142  53.33991
 143  96.7833
 144  52.90524
 145  2.680949
 146  -149.2858
 147  -239.8923
 148  -19.60108
 149  69.00687
 150  90.47365
 151  70.85897
 152  59.16725
 153  187.2849
 154  93.55219
 155  -34.20117
 156  197.2833
 157  225.4716
 158  111.233
 159  20.10786
 160  105.7739
 161  28.12387
 162  -16.7647
 163  99.87337
 164  111.8983
 165  29.11224
 166  57.24195
 167  55.2281
 168  85.45258
 169  37.88197
 170  -15.09275
 171  46.29296
 172  192.0258
 173  243.5325
 174  299.5482
 175  205.4412
 176  99.89504
 177  77.3465
 178  151.7146
 179  207.1304
 180  123.5868
 181  242.5546
 182  155.1197
 183  113.7128
 184  38.82677
 185  9.6561
 186  8.87887
 187  124.5126
 188  -27.72317
 189  48.74313
 190  33.71265
 191  38.11251
 192  135.5557
 193  233.3936
 194  86.63446
 195  141.9405
 196  131.7906
 197  116.5553
 198  96.2421
 199  22.60777
 200  -0.5598779
 201  -102.9445
 202  93.63439
 203  249.7805
 204  190.7144
 205  169.1695
 206  136.6067
 207  90.92315
 208  102.0878
 209  157.7225
 210  158.9994
 211  173.5475
 212  18.89563
 213  -121.7886
 214  92.25137
 215  156.0329
 216  135.8334
 217  50.5016
 218  -71.5778
 219  -68.90678
 220  -16.69042
 221  65.62317
 222  -5.677987
 223  -7.441075
 224  135.5815
 225  43.89605
 226  -58.65459
 227  56.78679
 228  27.84524
 229  150.5908
 230  112.3675
 231  163.6028
 232  1.196991
 233  121.2013
 234  82.81246
 235  -21.15187
 236  85.14593
 237  78.51357
 238  161.4587
 239  57.34441
 240  54.13039
 241  44.26541
 242  55.70978
 243  132.2073
 244  26.39421
 245  99.78061
 246  62.84488
 247  77.02706
 248  50.40373
 249  -62.27046
 250  -27.62729
 251  -4.154273
 252  -39.18362
 253  64.4412
 254  7.398539
 255  -20.69495
 256  24.53876
 257  37.32537
 258  10.52464
 259  29.30117
 260  300.917
 261  188.9839
 262  200.9353
 263  193.0903
 264  95.38668
 265  107.5852
 266  -7.490499
 267  68.08961
 268  67.25775
 269  110.8353
 270  173.187
 271  70.81021
 272  276.2704
 273  198.2847
 274  72.90478
 275  115.193
 276  73.01933
 277  23.17162
 278  101.7918
 279  116.6095
 280  -6.426164
 281  50.85519
 282  60.74898
 283  9.570194
 284  39.88549
 285  106.1293
 286  -15.82817
 287  -144.4914
 288  -124.8729
 289  0.898766
 290  -44.15284
 291  45.57578
 292  92.57677
 293  207.7457
 294  150.7847
 295  141.4026
 296  24.60595
 297  -31.28703
 298  41.06301
 299  131.6028
 300  -34.97232
 301  68.42027
 302  46.63084
 303  -1.352181
 304  37.93219
 305  100.8481
 306  153.6246
 307  -13.91516
 308  0.2206677
 309  217.6119
 310  143.1498
 311  -31.79645
 312  -5.243139
 313  -76.92455
 314  -16.1987
 315  5.370018
 316  -41.43603
 317  -0.6223485
 318  125.5363
 319  60.51717
 320  24.31823
 321  52.80397
 322  31.79757
 323  112.1533
 324  16.11833
 325  -193.0917
 326  -108.2382
 327  -58.42497
 328  99.71015
 329  8.332243
 330  53.06125
 331  74.64768
 332  -67.4145
 333  -49.91069
 334  -13.64184
 335  -89.0158
 336  -4.463295
 337  29.98433
 338  4.746692
 339  -22.05047
 340  42.56791
 341  161.5807
 342  96.99329
 343  157.4389
 344  11.94422
 345  -70.59008
 346  -29.09918
 347  -11.14423
 348  141.0897
 349  214.5028
 350  193.2939
 351  68.00565
 352  -79.24138
 353  -78.07876
 354  21.67985
 355  -102.0485
 356  -82.48168
 357  28.84283
 358  108.4771
 359  59.31643
 360  -24.39298
 361  35.49324
 362  57.38493
 363  24.32559
 364  113.9297
 365  132.4974
 366  -50.25006
 367  -28.53604
 368  82.24397
 369  -45.71856
 370  71.11688
 371  238.7535
 372  181.4426
 373  15.92731
 374  -70.25985
 375  15.89149
 376  5.054617
 377  -3.499902
 378  -29.96843
 379  -24.33046
 380  19.2467
 381  52.09081
 382  -14.06227
 383  -45.71367
 384  47.53707
 385  46.17378
 386  -34.83738
 387  49.60495
 388  124.9322
 389  221.6057
 390  50.4152
 391  -3.588756
 392  14.92969
 393  132.4126
 394  130.1091
 395  95.46336
 396  60.59594
 397  -72.51649
 398  61.57725
 399  80.02752
 400  -57.89585
 401  -32.22268
 402  32.50121
 403  69.7076
 404  57.98886
 405  -127.0672
 406  -2.667598
 407  56.11202
 408  -52.46108
 409  -105.6827
 410  -54.89337
 411  35.22181
 412  107.0207
 413  76.93363
 414  56.08749
 415  75.4285
 416  175.148
 417  -31.26631
 418  36.64846
 419  99.91171
 420  131.4059
 421  62.65239
 422  102.9266
 423  124.9877
 424  55.41269
 425  140.9016
 426  80.05167
 427  -46.92816
 428  139.8107
 429  -112.2957
 430  -82.58237
 431  118.2551
 432  26.299
 433  35.01348
 434  107.9711
 435  186.2016
 436  154.9683
 437  32.10894
 438  208.212
 439  100.0035
 440  167.9605
 441  135.1839
 442  -49.26373
 443  17.53482
 444  38.87509
 445  129.5856
 446  37.51314
 447  70.18669
 448  213.8115
 449  1.064973
 450  -10.86044
 451  -78.44163
 452  -173.782
 453  -102.8164
 454  58.96291
 455  6.009986
 456  71.02752
 457  90.9099
 458  -27.91959
 459  19.57644
 460  80.05473
 461  186.0262
 462  70.60232
 463  -25.82054
 464  37.6056
 465  -46.94981
 466  17.78417
 467  -15.45299
 468  100.0569
 469  172.4407
 470  194.1722
 471  107.8359
 472  70.50607
 473  117.4412
 474  89.42619
 475  -43.57293
 476  -72.92491
 477  -98.60989
 478  41.37768
 479  -1.202774
 480  31.58257
 481  138.3251
 482  7.780122
 483  75.72529
 484  18.72405
 485  -20.26258
 486  -148.4147
 487  -169.7275
 488  27.71531
 489  59.76059
 490  -39.55421
 491  75.6405
 492  165.8765
 493  -71.61929
 494  -16.5676
 495  163.4202
 496  188.5229
 497  109.0587
 498  162.6838
 499  88.55081
 500  -47.08758
 501  215.0535
 502  98.64724
 503  72.78538
 504  214.1696
 505  297.8747
 506  332.3522
 507  208.7557
 508  344.8104
 509  430.3716
 510  581.7842
 511  823.4491
