# Input file       =  1185319809.105933_cleaned.dat
# Candidate        =  PSR_0332+5434
# Telescope        =  AR
# Epoch_topo       =  57962.979063726074
# Epoch_bary       =  N/A
# T_sample         =  0.002
# Data Folded      =  7208960
# Data Avg         =  0.0299484047895263
# Data StdDev      =  1.00007837669132 
# Profile Bins     =  512
# Profile Avg      =  421.658682079457 
# Profile StdDev   =  118.668475907124 
# Reduced chi-sqr  =  1.099
# Prob(Noise)      <  0.0606   (~1.5 sigma)
# P_topo (ms)      =  714.470851376874  +/- 0.000225
# P'_topo (s/s)    =  -0                +/- 1.21e-10
# P''_topo (s/s^2) =  0                 +/- 5.44e-14
# P_bary (ms)      =  N/A
# P'_bary (s/s)    =  N/A
# P''_bary (s/s^2) =  N/A
# P_orb (s)        =  N/A
# asin(i)/c (s)    =  N/A
# eccentricity     =  N/A
# w (rad)          =  N/A
# T_peri           =  N/A
######################################################
   0  963.504
   1  890.8622
   2  825.6932
   3  611.9753
   4  571.2908
   5  554.3057
   6  530.9297
   7  496.1265
   8  480.3219
   9  435.1344
  10  321.8047
  11  239.349
  12  371.4995
  13  406.7831
  14  404.1748
  15  335.7317
  16  441.2679
  17  515.6077
  18  410.6782
  19  430.7072
  20  418.1888
  21  403.0656
  22  354.0745
  23  313.4011
  24  222.078
  25  171.1139
  26  292.7463
  27  297.3716
  28  320.8312
  29  376.701
  30  419.3471
  31  496.2679
  32  383.385
  33  409.0079
  34  338.9501
  35  290.1708
  36  491.0538
  37  447.3573
  38  301.6805
  39  347.1166
  40  358.4112
  41  361.55
  42  334.4426
  43  243.5893
  44  401.1239
  45  369.9297
  46  367.8336
  47  435.5679
  48  424.6745
  49  458.5561
  50  313.8776
  51  341.0077
  52  426.7037
  53  506.6307
  54  472.9402
  55  473.4903
  56  446.7297
  57  368.5914
  58  360.8235
  59  326.1736
  60  244.3042
  61  364.3158
  62  455.1239
  63  471.8525
  64  309.8057
  65  309.8779
  66  341.4591
  67  442.5434
  68  346.4358
  69  480.8593
  70  581.8356
  71  517.7301
  72  569.9802
  73  466.2482
  74  415.4187
  75  421.4611
  76  410.8242
  77  472.9497
  78  477.8506
  79  409.0532
  80  321.4196
  81  374.9675
  82  420.8707
  83  364.9159
  84  347.945
  85  411.9685
  86  493.7255
  87  420.4468
  88  414.9613
  89  361.8707
  90  365.3566
  91  412.2506
  92  474.6252
  93  494.4353
  94  425.5734
  95  395.8352
  96  446.9825
  97  390.7457
  98  404.14
  99  520.6476
 100  459.4445
 101  446.0998
 102  409.7964
 103  442.7296
 104  359.8976
 105  342.8082
 106  424.4631
 107  548.4172
 108  389.7668
 109  377.3685
 110  441.9551
 111  368.9902
 112  414.6281
 113  363.8342
 114  454.8342
 115  531.0561
 116  543.2858
 117  431.887
 118  425.8541
 119  373.5866
 120  389.6624
 121  448.444
 122  479.8441
 123  506.3185
 124  465.0041
 125  435.2223
 126  352.8004
 127  380.0636
 128  565.2545
 129  590.751
 130  539.33
 131  304.1822
 132  364.8245
 133  456.0082
 134  426.05
 135  505.3527
 136  438.5281
 137  420.7771
 138  313.9601
 139  347.0307
 140  384.1144
 141  366.5341
 142  480.4869
 143  490.696
 144  453.6135
 145  444.2477
 146  493.3622
 147  531.279
 148  483.6374
 149  402.4783
 150  440.4857
 151  395.7871
 152  500.1819
 153  636.4804
 154  573.3704
 155  462.0212
 156  403.3585
 157  472.073
 158  354.3478
 159  295.0616
 160  429.2917
 161  453.6121
 162  476.2011
 163  569.8401
 164  467.2753
 165  476.9062
 166  395.926
 167  419.3008
 168  381.2621
 169  403.0472
 170  407.0772
 171  437.2385
 172  390.8135
 173  242.5948
 174  333.1075
 175  461.0124
 176  454.7802
 177  390.8952
 178  387.229
 179  412.8592
 180  472.2448
 181  476.8281
 182  431.3469
 183  347.6908
 184  462.43
 185  405.6806
 186  413.4606
 187  451.1118
 188  390.1085
 189  402.4876
 190  480.9417
 191  507.6753
 192  420.4672
 193  542.0131
 194  395.4022
 195  422.2603
 196  412.3853
 197  439.3379
 198  436.2052
 199  400.4334
 200  478.5228
 201  462.0152
 202  514.7786
 203  406.9454
 204  355.7873
 205  432.7154
 206  454.3275
 207  479.5741
 208  404.2184
 209  507.9423
 210  479.3406
 211  392.8365
 212  447.7979
 213  513.4692
 214  458.8041
 215  578.8739
 216  594.3339
 217  579.6504
 218  582.549
 219  488.0156
 220  386.9678
 221  315.2932
 222  431.177
 223  524.7958
 224  451.8404
 225  453.6264
 226  411.6372
 227  463.7895
 228  496.6192
 229  384.1559
 230  435.7296
 231  418.3928
 232  430.6274
 233  322.996
 234  405.9042
 235  420.2607
 236  359.3848
 237  281.8147
 238  239.502
 239  355.2879
 240  350.4339
 241  387.5401
 242  407.0951
 243  381.0447
 244  424.6451
 245  442.8618
 246  434.0063
 247  325.2718
 248  343.9583
 249  283.1102
 250  376.7086
 251  398.6069
 252  297.8922
 253  339.8204
 254  447.7221
 255  416.7319
 256  456.1491
 257  487.4905
 258  311.855
 259  389.5428
 260  362.8399
 261  358.4004
 262  289.8937
 263  319.0894
 264  286.7866
 265  374.249
 266  302.7152
 267  257.4071
 268  222.3497
 269  269.486
 270  314.2095
 271  387.9957
 272  441.3568
 273  376.3106
 274  388.4737
 275  338.6357
 276  298.1651
 277  278.2177
 278  377.8565
 279  417.8147
 280  543.2309
 281  503.1136
 282  441.9476
 283  409.3859
 284  352.7887
 285  406.5322
 286  362.4376
 287  406.6888
 288  476.2022
 289  497.789
 290  381.084
 291  433.0154
 292  455.1337
 293  391.3097
 294  391.8091
 295  409.6897
 296  306.5945
 297  459.3777
 298  502.4932
 299  421.7867
 300  411.8073
 301  519.5801
 302  498.7843
 303  422.1011
 304  441.4191
 305  379.1483
 306  360.1749
 307  341.8174
 308  395.8107
 309  497.8776
 310  627.0204
 311  572.1936
 312  471.1844
 313  377.2161
 314  347.4626
 315  453.634
 316  390.512
 317  504.5847
 318  487.938
 319  478.7212
 320  474.1378
 321  487.9814
 322  507.1489
 323  402.5881
 324  469.242
 325  455.6511
 326  409.9488
 327  445.0269
 328  417.0049
 329  351.582
 330  368.1083
 331  453.6313
 332  373.9162
 333  352.7861
 334  477.1949
 335  613.5048
 336  517.577
 337  370.3164
 338  340.6174
 339  365.2593
 340  507.9012
 341  438.4441
 342  393.1792
 343  502.8668
 344  507.3275
 345  451.59
 346  396.141
 347  446.0269
 348  441.1043
 349  405.386
 350  436.6703
 351  462.3215
 352  518.0227
 353  498.3474
 354  344.3012
 355  453.7379
 356  350.9077
 357  412.885
 358  447.9147
 359  507.7369
 360  494.0722
 361  576.9351
 362  458.3682
 363  410.5273
 364  415.7631
 365  452.6516
 366  370.9638
 367  293.8721
 368  390.7981
 369  458.6104
 370  509.2509
 371  482.2391
 372  439.7456
 373  384.8607
 374  472.2537
 375  463.8308
 376  509.0999
 377  655.2138
 378  498.1325
 379  466.0441
 380  461.7399
 381  375.5366
 382  330.8357
 383  344.6633
 384  429.0631
 385  388.5972
 386  466.3345
 387  534.6663
 388  394.3938
 389  436.7211
 390  411.3609
 391  448.5978
 392  464.8466
 393  515.7974
 394  592.2098
 395  521.4267
 396  483.843
 397  543.6779
 398  559.1155
 399  426.3982
 400  426.4749
 401  471.4166
 402  554.4269
 403  457.2686
 404  445.0583
 405  379.4895
 406  430.0888
 407  421.5532
 408  440.9133
 409  497.0192
 410  419.5764
 411  358.9828
 412  344.9888
 413  421.0448
 414  520.4034
 415  515.2006
 416  472.0624
 417  535.5308
 418  526.6891
 419  475.228
 420  423.8733
 421  342.0028
 422  276.5799
 423  408.893
 424  409.4757
 425  410.0863
 426  503.7434
 427  537.7428
 428  334.8686
 429  454.9973
 430  518.2139
 431  526.9925
 432  419.8475
 433  437.6552
 434  542.9795
 435  487.6564
 436  443.3561
 437  465.3695
 438  510.4807
 439  326.1729
 440  384.0849
 441  397.1186
 442  360.5044
 443  403.2934
 444  343.615
 445  360.3291
 446  377.8604
 447  475.6151
 448  525.992
 449  508.5366
 450  442.6978
 451  340.1387
 452  381.9969
 453  509.2665
 454  606.6277
 455  478.3907
 456  385.3806
 457  462.3004
 458  443.3297
 459  317.0642
 460  331.7677
 461  322.0998
 462  262.2925
 463  367.0085
 464  355.2432
 465  412.3568
 466  366.842
 467  384.7018
 468  413.8085
 469  377.4774
 470  315.374
 471  400.095
 472  421.338
 473  399.5261
 474  313.2302
 475  350.9039
 476  314.7118
 477  232.27
 478  262.0834
 479  275.8181
 480  250.8391
 481  232.8032
 482  272.3204
 483  341.9098
 484  310.641
 485  295.5246
 486  356.3094
 487  391.932
 488  258.1945
 489  150.1093
 490  200.0383
 491  296.1136
 492  384.527
 493  396.5241
 494  258.1353
 495  334.4515
 496  382.0945
 497  408.3832
 498  416.3507
 499  377.3937
 500  370.0352
 501  236.6676
 502  270.568
 503  377.1429
 504  424.3382
 505  461.7983
 506  476.2453
 507  415.7663
 508  386.2578
 509  508.093
 510  767.5695
 511  852.7136
