# Input file       =  1185750573.115542_cleaned.dat
# Candidate        =  PSR_0332+5434
# Telescope        =  AR
# Epoch_topo       =  57967.964758281734
# Epoch_bary       =  N/A
# T_sample         =  0.002
# Data Folded      =  7208960
# Data Avg         =  0.0300907341025996
# Data StdDev      =  1.00044186680315 
# Profile Bins     =  512
# Profile Avg      =  423.692002080836 
# Profile StdDev   =  118.711607344203 
# Reduced chi-sqr  =  1.244
# Prob(Noise)      <  0.000138   (~3.6 sigma)
# P_topo (ms)      =  714.468660026669  +/- 0.00023
# P'_topo (s/s)    =  -0                +/- 1.24e-10
# P''_topo (s/s^2) =  0                 +/- 5.57e-14
# P_bary (ms)      =  N/A
# P'_bary (s/s)    =  N/A
# P''_bary (s/s^2) =  N/A
# P_orb (s)        =  N/A
# asin(i)/c (s)    =  N/A
# eccentricity     =  N/A
# w (rad)          =  N/A
# T_peri           =  N/A
######################################################
   0  1034.544
   1  914.2333
   2  720.2275
   3  648.1475
   4  530.3823
   5  432.723
   6  351.1335
   7  489.5284
   8  399.7054
   9  442.2317
  10  486.649
  11  417.1018
  12  332.864
  13  339.9432
  14  447.8966
  15  326.482
  16  373.7041
  17  495.6136
  18  245.4944
  19  309.3178
  20  423.1814
  21  422.5935
  22  418.0384
  23  507.5308
  24  567.3779
  25  492.3554
  26  422.9312
  27  309.5239
  28  301.0342
  29  393.1642
  30  451.7003
  31  450.9098
  32  461.617
  33  430.6292
  34  546.9958
  35  434.1887
  36  448.6132
  37  467.6416
  38  373.9924
  39  379.6071
  40  485.2063
  41  484.7641
  42  400.0556
  43  415.9587
  44  401.8693
  45  392.524
  46  347.2155
  47  348.6263
  48  308.1269
  49  377.0641
  50  464.56
  51  442.1841
  52  399.9125
  53  297.0154
  54  446.2642
  55  366.1544
  56  290.7729
  57  228.4125
  58  455.6086
  59  458.3791
  60  514.6746
  61  468.8864
  62  491.9477
  63  385.1306
  64  398.5869
  65  441.7509
  66  368.5116
  67  412.9096
  68  471.9182
  69  296.3087
  70  285.2561
  71  278.0087
  72  387.2563
  73  534.46
  74  636.0631
  75  422.5512
  76  406.4997
  77  449.5722
  78  395.6874
  79  291.2946
  80  371.4304
  81  495.8111
  82  365.4772
  83  460.4441
  84  402.1753
  85  252.8566
  86  263.5259
  87  365.004
  88  470.4455
  89  497.7815
  90  502.3293
  91  336.4451
  92  324.5995
  93  328.1046
  94  316.4443
  95  345.0566
  96  387.2073
  97  395.7782
  98  280.1761
  99  286.0473
 100  383.7038
 101  282.3827
 102  316.3299
 103  301.6427
 104  286.8741
 105  370.9712
 106  463.5684
 107  349.1287
 108  257.8533
 109  339.9062
 110  461.7624
 111  512.302
 112  620.5854
 113  486.8649
 114  323.208
 115  445.0775
 116  472.0134
 117  479.1007
 118  480.9653
 119  471.7914
 120  425.0422
 121  375.6895
 122  335.0661
 123  405.9645
 124  469.6263
 125  472.2641
 126  474.3336
 127  415.3729
 128  432.5385
 129  480.4794
 130  557.5565
 131  509.1313
 132  438.9748
 133  533.2139
 134  405.0696
 135  374.6573
 136  419.0025
 137  431.1162
 138  402.4498
 139  433.3562
 140  542.2533
 141  449.7166
 142  524.6228
 143  504.1619
 144  412.5674
 145  436.3719
 146  369.1347
 147  430.3941
 148  443.5484
 149  386.172
 150  403.8684
 151  345.8511
 152  387.5504
 153  486.3494
 154  417.5208
 155  457.2691
 156  479.1718
 157  352.7036
 158  361.5381
 159  403.1433
 160  367.0062
 161  405.4692
 162  539.2231
 163  531.2626
 164  428.6005
 165  424.2762
 166  349.5127
 167  468.6177
 168  351.0179
 169  442.7956
 170  484.6749
 171  437.3536
 172  312.2717
 173  385.3257
 174  548.3405
 175  473.4985
 176  308.8594
 177  374.7089
 178  351.3013
 179  346.6149
 180  471.6107
 181  497.3473
 182  509.6687
 183  493.9503
 184  489.3995
 185  464.0573
 186  352.8651
 187  399.1624
 188  426.8873
 189  480.4474
 190  404.4406
 191  363.1638
 192  339.6797
 193  426.6145
 194  377.224
 195  395.6748
 196  580.0029
 197  510.0927
 198  546.2953
 199  465.497
 200  481.7091
 201  529.5762
 202  525.4196
 203  569.3794
 204  474.3457
 205  500.7798
 206  343.447
 207  335.9485
 208  212.2361
 209  207.9712
 210  448.7155
 211  492.7267
 212  411.4169
 213  420.9465
 214  457.5236
 215  479.7151
 216  383.1878
 217  408.7292
 218  362.9736
 219  334.906
 220  419.0125
 221  454.806
 222  503.6911
 223  457.886
 224  454.2721
 225  530.5081
 226  451.2381
 227  345.123
 228  379.077
 229  508.7304
 230  432.6369
 231  415.38
 232  325.9546
 233  286.2578
 234  338.0347
 235  411.1234
 236  437.6192
 237  435.6895
 238  409.2192
 239  340.4406
 240  270.9975
 241  489.5266
 242  586.4459
 243  391.2527
 244  472.7938
 245  505.8412
 246  406.6551
 247  457.6074
 248  489.7748
 249  402.6226
 250  528.0567
 251  586.2294
 252  406.2273
 253  382.5784
 254  453.1945
 255  381.9643
 256  416.7781
 257  381.9821
 258  400.4359
 259  422.1085
 260  430.7181
 261  390.6104
 262  324.299
 263  422.4621
 264  410.2979
 265  347.4523
 266  489.8264
 267  491.4806
 268  449.7077
 269  418.9148
 270  332.2359
 271  262.7689
 272  358.5487
 273  505.6537
 274  452.3474
 275  387.3353
 276  402.8468
 277  310.7067
 278  343.3194
 279  411.892
 280  304.5331
 281  322.5412
 282  429.8716
 283  527.4914
 284  405.9742
 285  365.4498
 286  204.2223
 287  294.2218
 288  388.0539
 289  497.1798
 290  572.381
 291  478.5315
 292  448.2221
 293  373.1755
 294  444.2917
 295  306.8127
 296  406.6992
 297  432.2356
 298  379.9077
 299  320.9751
 300  262.016
 301  297.1457
 302  400.6038
 303  371.221
 304  418.0765
 305  511.3094
 306  411.7351
 307  311.7508
 308  391.2675
 309  435.3172
 310  311.3245
 311  310.7189
 312  372.7581
 313  280.9558
 314  319.6347
 315  455.7979
 316  423.0725
 317  283.7987
 318  393.735
 319  444.5827
 320  397.3213
 321  427.3108
 322  482.5623
 323  355.5405
 324  423.5636
 325  463.5887
 326  459.0771
 327  473.9406
 328  350.4302
 329  452.4009
 330  423.7025
 331  448.7282
 332  506.9765
 333  411.7708
 334  503.6722
 335  413.7611
 336  381.706
 337  401.6657
 338  380.2099
 339  401.0334
 340  410.0959
 341  452.6929
 342  469.8836
 343  470.0949
 344  411.7343
 345  477.4947
 346  492.1693
 347  443.0143
 348  433.3058
 349  496.4122
 350  507.8091
 351  464.3036
 352  396.6751
 353  343.4346
 354  257.3463
 355  364.1194
 356  443.9156
 357  461.298
 358  493.5186
 359  405.179
 360  379.5359
 361  371.466
 362  326.0586
 363  410.9216
 364  345.9315
 365  307.1385
 366  523.6613
 367  375.4975
 368  346.2791
 369  473.5642
 370  417.3654
 371  421.7867
 372  456.2595
 373  333.3353
 374  322.6035
 375  393.7151
 376  339.9617
 377  475.2232
 378  390.4785
 379  339.7772
 380  435.4679
 381  458.9288
 382  430.0895
 383  404.8694
 384  474.2271
 385  387.7548
 386  560.5505
 387  707.2549
 388  657.5271
 389  521.4955
 390  509.0402
 391  462.5291
 392  376.8872
 393  512.1439
 394  544.3763
 395  454.5221
 396  493.8727
 397  369.876
 398  385.3846
 399  336.7426
 400  263.2087
 401  270.8147
 402  409.3645
 403  448.9457
 404  503.5091
 405  453.3744
 406  453.0068
 407  382.8713
 408  508.4882
 409  418.1037
 410  450.184
 411  342.0993
 412  351.5969
 413  435.1382
 414  395.5096
 415  399.562
 416  444.9562
 417  385.8878
 418  359.8585
 419  377.9621
 420  342.1368
 421  315.0298
 422  407.9514
 423  513.5022
 424  338.649
 425  282.7019
 426  473.1952
 427  428.175
 428  527.3045
 429  423.548
 430  335.5496
 431  388.8645
 432  359.7494
 433  336.28
 434  392.1261
 435  395.067
 436  276.8689
 437  339.9316
 438  406.1627
 439  252.111
 440  397.9889
 441  503.6622
 442  435.1249
 443  433.1517
 444  478.2571
 445  548.1049
 446  548.7896
 447  502.8969
 448  636.5027
 449  550.7411
 450  480.3991
 451  355.7759
 452  278.5396
 453  292.6305
 454  253.6752
 455  381.3512
 456  501.3494
 457  469.0225
 458  384.3368
 459  531.0633
 460  488.5996
 461  430.0566
 462  525.3029
 463  405.8052
 464  392.4168
 465  428.6748
 466  467.9734
 467  473.2693
 468  414.1344
 469  295.5918
 470  474.2658
 471  471.4535
 472  512.2521
 473  553.3144
 474  544.9719
 475  458.9395
 476  452.7838
 477  379.0545
 478  326.6969
 479  290.9285
 480  351.7751
 481  265.1528
 482  305.7466
 483  497.4463
 484  432.5009
 485  369.3868
 486  419.4507
 487  361.2267
 488  331.0479
 489  306.6384
 490  411.5489
 491  510.0155
 492  408.215
 493  617.3101
 494  562.4484
 495  356.3962
 496  282.436
 497  347.1311
 498  327.6577
 499  399.8599
 500  534.1384
 501  434.7568
 502  503.2337
 503  526.5052
 504  536.0271
 505  581.7908
 506  539.5273
 507  603.4348
 508  561.2313
 509  780.1625
 510  1010.444
 511  972.1668
