# Input file       =  1185162103.119705_cleaned.dat
# Candidate        =  PSR_0332+5434
# Telescope        =  AR
# Epoch_topo       =  57961.153762959548
# Epoch_bary       =  N/A
# T_sample         =  0.002
# Data Folded      =  7340032
# Data Avg         =  0.0353324736619398
# Data StdDev      =  1.00004071978747 
# Profile Bins     =  512
# Profile Avg      =  505.719012175031 
# Profile StdDev   =  119.737911880561 
# Reduced chi-sqr  =  1.370
# Prob(Noise)      <  4.75e-08   (~5.3 sigma)
# P_topo (ms)      =  714.471759356984  +/- 0.000278
# P'_topo (s/s)    =  -0                +/- 1.46e-10
# P''_topo (s/s^2) =  0                 +/- 6.47e-14
# P_bary (ms)      =  N/A
# P'_bary (s/s)    =  N/A
# P''_bary (s/s^2) =  N/A
# P_orb (s)        =  N/A
# asin(i)/c (s)    =  N/A
# eccentricity     =  N/A
# w (rad)          =  N/A
# T_peri           =  N/A
######################################################
   0  330.2998
   1  383.312
   2  421.1056
   3  365.287
   4  494.8933
   5  519.3305
   6  380.8207
   7  433.2287
   8  307.9586
   9  362.2414
  10  424.7453
  11  484.608
  12  596.5273
  13  518.4116
  14  577.3954
  15  555.2881
  16  456.1805
  17  512.185
  18  502.6732
  19  484.9949
  20  394.8386
  21  345.9225
  22  369.3383
  23  379.5566
  24  431.9981
  25  454.5082
  26  466.8435
  27  352.057
  28  375.2787
  29  443.9995
  30  493.6935
  31  515.9915
  32  346.9319
  33  356.5542
  34  417.4825
  35  472.1543
  36  477.7075
  37  443.3456
  38  347.4532
  39  413.0081
  40  378.5003
  41  371.5969
  42  376.4542
  43  460.6588
  44  552.2847
  45  529.3279
  46  618.5265
  47  495.4804
  48  442.5376
  49  536.6713
  50  486.7935
  51  480.1778
  52  518.0353
  53  620.7759
  54  640.8007
  55  457.5038
  56  439.7218
  57  489.4582
  58  535.2787
  59  507.5727
  60  439.3898
  61  499.1262
  62  515.6718
  63  396.282
  64  351.6024
  65  438.671
  66  429.2155
  67  432.6554
  68  548.1999
  69  475.7513
  70  492.0833
  71  439.1336
  72  401.5361
  73  494.4982
  74  564.324
  75  583.3693
  76  561.9306
  77  562.5204
  78  587.0128
  79  572.1247
  80  669.3882
  81  605.0317
  82  501.9565
  83  469.1215
  84  472.2614
  85  506.7843
  86  594.9757
  87  607.7405
  88  479.5011
  89  446.4689
  90  496.2841
  91  482.4468
  92  532.1658
  93  543.7584
  94  570.5651
  95  527.1006
  96  534.8871
  97  520.3311
  98  464.9497
  99  570.6498
 100  786.8423
 101  893.363
 102  879.4843
 103  977.4128
 104  1063.538
 105  1131.441
 106  1040.851
 107  742.4845
 108  567.6997
 109  438.8018
 110  416.2082
 111  380.3203
 112  405.0704
 113  347.0818
 114  427.7717
 115  628.243
 116  690.1213
 117  538.759
 118  443.7094
 119  483.9658
 120  544.1597
 121  576.5456
 122  540.9016
 123  420.7821
 124  425.2631
 125  493.6023
 126  410.3682
 127  582.7809
 128  520.6945
 129  484.8159
 130  472.2912
 131  394.3339
 132  399.4599
 133  484.0493
 134  471.5464
 135  494.0639
 136  448.4324
 137  387.8523
 138  552.0228
 139  473.7501
 140  387.0722
 141  389.0009
 142  475.8737
 143  490.1683
 144  466.8364
 145  416.9287
 146  454.9563
 147  553.4124
 148  716.0423
 149  634.2428
 150  500.5893
 151  491.1399
 152  622.9444
 153  616.8206
 154  626.4741
 155  666.874
 156  622.8104
 157  589.8439
 158  529.4661
 159  520.3076
 160  623.8481
 161  470.6874
 162  366.9544
 163  376.459
 164  429.5598
 165  508.1552
 166  643.1714
 167  651.718
 168  622.3607
 169  538.8972
 170  562.5454
 171  585.4925
 172  430.3946
 173  412.7754
 174  434.2098
 175  524.3813
 176  550.2523
 177  590.578
 178  711.5688
 179  487.2999
 180  490.7495
 181  565.7279
 182  610.1989
 183  602.5068
 184  566.9801
 185  529.9067
 186  565.9132
 187  603.5522
 188  661.8245
 189  647.511
 190  585.0264
 191  576.7144
 192  468.8933
 193  432.5373
 194  468.4162
 195  541.8921
 196  621.1456
 197  530.9523
 198  549.26
 199  525.015
 200  509.4576
 201  484.7245
 202  463.6743
 203  491.6621
 204  484.7654
 205  577.0388
 206  660.545
 207  700.9926
 208  631.3339
 209  538.2363
 210  577.7562
 211  573.6096
 212  540.2405
 213  585.315
 214  531.214
 215  539.2917
 216  591.399
 217  601.5558
 218  640.7023
 219  556.1646
 220  496.5764
 221  480.1295
 222  468.467
 223  552.0553
 224  608.7763
 225  625.0351
 226  508.8294
 227  395.5608
 228  474.0324
 229  520.374
 230  489.5886
 231  464.8648
 232  557.5008
 233  667.8517
 234  607.1906
 235  521.0855
 236  527.2364
 237  601.573
 238  634.082
 239  592.6688
 240  619.0417
 241  679.9102
 242  746.7209
 243  734.1732
 244  625.4746
 245  596.5921
 246  623.8893
 247  596.6749
 248  648.5987
 249  596.5359
 250  655.0101
 251  514.3997
 252  496.7458
 253  557.8806
 254  525.235
 255  566.1137
 256  540.6702
 257  576.9616
 258  592.7435
 259  508.4962
 260  507.6565
 261  525.4411
 262  534.1144
 263  576.6249
 264  500.5052
 265  530.0836
 266  441.4503
 267  451.5446
 268  626.468
 269  595.4412
 270  530.351
 271  624.5584
 272  706.7643
 273  609.9548
 274  530.4514
 275  511.9204
 276  555.6734
 277  682.1771
 278  711.7186
 279  635.5903
 280  593.8378
 281  525.8341
 282  560.916
 283  496.9592
 284  511.8104
 285  518.1201
 286  588.8198
 287  581.4927
 288  541.0627
 289  496.8382
 290  454.8792
 291  421.5756
 292  541.498
 293  461.4078
 294  548.8724
 295  626.6031
 296  566.1088
 297  566.4144
 298  444.0661
 299  441.3341
 300  536.4019
 301  533.8309
 302  428.7675
 303  518.6113
 304  559.3934
 305  586.8241
 306  620.5312
 307  559.0878
 308  584.9102
 309  663.2208
 310  563.9105
 311  506.651
 312  509.7729
 313  699.1285
 314  698.0528
 315  578.7773
 316  532.4391
 317  515.3116
 318  455.2165
 319  599.8468
 320  569.8824
 321  563.2276
 322  568.0378
 323  465.3082
 324  558.2714
 325  531.1706
 326  458.7088
 327  505.5564
 328  614.6147
 329  582.1513
 330  605.6898
 331  669.703
 332  645.22
 333  509.1055
 334  532.5021
 335  416.2773
 336  368.5648
 337  409.8744
 338  513.9062
 339  538.3323
 340  605.1436
 341  655.9734
 342  506.5035
 343  536.4263
 344  384.759
 345  457.9523
 346  534.2189
 347  558.2627
 348  508.0708
 349  543.9188
 350  549.885
 351  453.2119
 352  513.3597
 353  494.7948
 354  486.1515
 355  479.4635
 356  478.6439
 357  553.2367
 358  463.3918
 359  471.679
 360  395.4196
 361  376.7545
 362  504.0284
 363  524.9236
 364  478.9441
 365  497.8928
 366  486.857
 367  471.3236
 368  448.4069
 369  543.9806
 370  437.1575
 371  446.8115
 372  463.2824
 373  442.9756
 374  473.8876
 375  497.3303
 376  486.8207
 377  545.7406
 378  503.2696
 379  553.4379
 380  511.4447
 381  551.1917
 382  542.9186
 383  477.3623
 384  543.0578
 385  445.4096
 386  375.9669
 387  411.5924
 388  519.7205
 389  621.8412
 390  577.3105
 391  461.5597
 392  522.4809
 393  541.4305
 394  410.3385
 395  329.3499
 396  459.8231
 397  538.0843
 398  481.0721
 399  457.0242
 400  385.7035
 401  372.8181
 402  471.543
 403  521.8824
 404  505.3561
 405  490.8356
 406  514.7299
 407  521.6888
 408  441.8603
 409  398.5275
 410  472.6501
 411  391.4707
 412  378.7282
 413  530.1553
 414  445.6267
 415  415.9557
 416  429.3596
 417  446.5911
 418  422.2016
 419  348.9877
 420  356.5665
 421  422.1731
 422  423.3664
 423  449.773
 424  450.6698
 425  516.1609
 426  555.4969
 427  472.1821
 428  368.5666
 429  384.2904
 430  398.2354
 431  426.0671
 432  345.6167
 433  371.872
 434  393.0883
 435  342.2796
 436  410.0705
 437  451.4428
 438  439.1271
 439  552.5343
 440  481.1128
 441  345.3428
 442  397.6785
 443  487.7184
 444  492.3134
 445  460.7917
 446  467.3412
 447  447.9078
 448  400.8811
 449  444.6971
 450  382.981
 451  445.2124
 452  533.8063
 453  405.7071
 454  423.5946
 455  463.3384
 456  425.2042
 457  372.763
 458  473.6607
 459  470.9559
 460  399.0501
 461  294.3641
 462  345.4201
 463  468.1597
 464  482.9518
 465  440.1077
 466  487.2413
 467  453.9467
 468  417.8665
 469  435.7291
 470  485.1573
 471  472.3349
 472  452.6396
 473  487.6509
 474  370.6011
 475  324.6996
 476  335.9255
 477  383.8588
 478  484.1976
 479  539.4282
 480  471.3607
 481  395.1673
 482  434.6288
 483  518.4477
 484  432.5808
 485  365.2543
 486  463.7944
 487  433.835
 488  493.1951
 489  504.6119
 490  487.9622
 491  497.1524
 492  356.2911
 493  382.0197
 494  424.243
 495  427.5138
 496  420.3052
 497  510.6284
 498  426.7559
 499  385.7552
 500  381.5372
 501  294.2568
 502  368.6196
 503  470.8521
 504  398.9913
 505  441.372
 506  477.6449
 507  438.3823
 508  311.3145
 509  329.6629
 510  482.5312
 511  430.3512
