# Input file       =  1185952524.105534_cleaned.dat
# Candidate        =  PSR_0332+5434
# Telescope        =  AR
# Epoch_topo       =  57970.302153999241
# Epoch_bary       =  N/A
# T_sample         =  0.002
# Data Folded      =  7340032
# Data Avg         =  0.0042042066971654
# Data StdDev      =  1.00002591028935 
# Profile Bins     =  512
# Profile Avg      =  60.2593627717605 
# Profile StdDev   =  119.736138694384 
# Reduced chi-sqr  =  1.365
# Prob(Noise)      <  6.97e-08   (~5.3 sigma)
# P_topo (ms)      =  714.468105667216  +/- 0.000239
# P'_topo (s/s)    =  -0                +/- 1.26e-10
# P''_topo (s/s^2) =  0                 +/- 5.56e-14
# P_bary (ms)      =  N/A
# P'_bary (s/s)    =  N/A
# P''_bary (s/s^2) =  N/A
# P_orb (s)        =  N/A
# asin(i)/c (s)    =  N/A
# eccentricity     =  N/A
# w (rad)          =  N/A
# T_peri           =  N/A
######################################################
   0  129.9116
   1  157.4833
   2  91.0537
   3  97.5755
   4  117.5519
   5  8.069974
   6  91.6741
   7  92.98748
   8  68.00484
   9  132.4574
  10  24.84651
  11  -64.53284
  12  61.91125
  13  54.28942
  14  5.551677
  15  33.34567
  16  89.18627
  17  11.71463
  18  -79.81866
  19  -4.155201
  20  59.81256
  21  -5.952353
  22  -98.89768
  23  30.27359
  24  50.18576
  25  5.824295
  26  -148.7931
  27  -87.40661
  28  -39.93564
  29  84.71301
  30  115.4116
  31  132.6535
  32  19.03021
  33  -11.01337
  34  -14.42154
  35  -102.4055
  36  10.61421
  37  85.64221
  38  87.13828
  39  -15.03355
  40  58.47586
  41  6.214062
  42  -10.78905
  43  32.0946
  44  -18.4707
  45  -67.61613
  46  16.36602
  47  -21.257
  48  -60.19702
  49  -97.0435
  50  -94.9483
  51  43.89421
  52  70.24412
  53  105.966
  54  8.342965
  55  -138.8372
  56  -18.10692
  57  -56.0787
  58  -15.87259
  59  -28.74578
  60  -47.19234
  61  3.560974
  62  -1.292381
  63  40.05214
  64  -176.3498
  65  -71.0799
  66  6.409198
  67  7.024084
  68  14.3078
  69  25.87734
  70  -39.47884
  71  -28.79116
  72  26.13275
  73  110.8614
  74  142.7753
  75  35.28102
  76  61.14281
  77  -42.01001
  78  -127.4103
  79  -31.66913
  80  63.10613
  81  90.71811
  82  23.92527
  83  87.87988
  84  189.3248
  85  146.8031
  86  98.93736
  87  146.5879
  88  202.8942
  89  16.89384
  90  -8.43002
  91  82.44292
  92  199.97
  93  212.096
  94  387.5473
  95  388.8698
  96  472.3614
  97  595.9096
  98  684.5842
  99  672.8948
 100  535.9498
 101  311.9954
 102  65.36243
 103  38.56659
 104  -0.1885579
 105  90.63596
 106  -91.609
 107  6.086014
 108  150.3117
 109  92.34788
 110  153.5968
 111  248.9148
 112  139.5228
 113  7.143298
 114  -69.55898
 115  118.1798
 116  94.24127
 117  60.20954
 118  32.28841
 119  50.16862
 120  116.2563
 121  66.7625
 122  89.05785
 123  22.99002
 124  122.9564
 125  102.6335
 126  26.5326
 127  58.80446
 128  6.259788
 129  28.66963
 130  243.6037
 131  240.9215
 132  147.5953
 133  86.89061
 134  -99.0694
 135  -32.15793
 136  47.37945
 137  107.0677
 138  49.44935
 139  111.2136
 140  72.74302
 141  138.5347
 142  102.5179
 143  106.3101
 144  4.887174
 145  -5.245873
 146  103.1382
 147  116.6684
 148  132.4651
 149  55.81833
 150  -54.45214
 151  -144.3282
 152  52.49432
 153  133.9027
 154  142.146
 155  67.91885
 156  44.18873
 157  145.6217
 158  116.0113
 159  90.45674
 160  201.9647
 161  208.0439
 162  170.3596
 163  -66.03385
 164  -15.32971
 165  -99.02028
 166  -20.43478
 167  102.3877
 168  84.46475
 169  36.81107
 170  60.16088
 171  39.41151
 172  36.05334
 173  276.7987
 174  300.0318
 175  19.48663
 176  -24.38023
 177  28.51739
 178  -10.93307
 179  103.1789
 180  192.5887
 181  121.402
 182  47.4617
 183  138.2714
 184  99.75671
 185  -4.026569
 186  121.1884
 187  129.216
 188  25.36433
 189  -1.015952
 190  1.06776
 191  53.58899
 192  33.05924
 193  131.1611
 194  -15.16029
 195  -123.07
 196  -122.8372
 197  16.32966
 198  -78.29885
 199  -33.008
 200  -64.35786
 201  76.53471
 202  16.00342
 203  108.0546
 204  78.28276
 205  24.52734
 206  -2.669842
 207  44.07532
 208  -7.649822
 209  -22.02367
 210  -13.18335
 211  -15.52732
 212  35.97305
 213  45.30724
 214  163.0461
 215  153.8674
 216  56.57464
 217  36.30735
 218  166.6211
 219  72.34518
 220  54.09566
 221  46.78672
 222  184.6773
 223  188.0576
 224  136.9006
 225  113.0548
 226  221.5762
 227  141.213
 228  83.63999
 229  75.47876
 230  -16.86165
 231  97.72593
 232  189.5651
 233  74.88908
 234  51.98632
 235  150.498
 236  116.5409
 237  -63.79257
 238  -30.69002
 239  115.5079
 240  64.09145
 241  28.99277
 242  -6.677294
 243  -21.47111
 244  49.73783
 245  91.80209
 246  135.0573
 247  -75.71282
 248  -64.02823
 249  98.64697
 250  153.4299
 251  60.11224
 252  62.57069
 253  26.67714
 254  -78.49351
 255  -106.1567
 256  -16.99636
 257  57.60574
 258  -87.3722
 259  -35.28605
 260  -39.46765
 261  -84.42773
 262  -2.875187
 263  99.96925
 264  85.76015
 265  78.25848
 266  75.27576
 267  101.7964
 268  40.68824
 269  111.8591
 270  98.8685
 271  -8.397433
 272  -0.6184645
 273  110.0651
 274  42.62954
 275  -75.65885
 276  -17.54815
 277  148.9525
 278  45.13742
 279  -43.2007
 280  -26.28242
 281  -22.60914
 282  -0.7225377
 283  -38.11726
 284  -85.6245
 285  -20.75006
 286  75.17332
 287  35.1132
 288  0.3849249
 289  116.941
 290  162.5725
 291  102.255
 292  47.14649
 293  44.78428
 294  1.424684
 295  205.4
 296  124.2158
 297  20.21
 298  15.41018
 299  100.134
 300  73.5434
 301  -35.78557
 302  24.20953
 303  18.56406
 304  141.0135
 305  292.0805
 306  210.481
 307  28.45508
 308  -22.28352
 309  44.92163
 310  41.72974
 311  74.86935
 312  139.055
 313  137.985
 314  139.6224
 315  63.05349
 316  103.922
 317  103.6723
 318  82.93871
 319  134.188
 320  140.9165
 321  61.28386
 322  91.96774
 323  137.3011
 324  61.36471
 325  -15.20302
 326  -2.600627
 327  -25.08934
 328  32.43467
 329  81.94238
 330  -3.847959
 331  87.08344
 332  87.49491
 333  59.65415
 334  -5.113764
 335  89.66854
 336  193.589
 337  38.33614
 338  73.65096
 339  150.2725
 340  56.02578
 341  29.09598
 342  121.6844
 343  175.348
 344  108.9075
 345  78.36163
 346  75.96774
 347  -48.81945
 348  -27.47962
 349  84.43973
 350  75.63126
 351  -108.9428
 352  -89.3443
 353  57.21751
 354  134.7681
 355  107.0415
 356  85.51173
 357  45.59072
 358  -8.062537
 359  80.10915
 360  12.08172
 361  89.05643
 362  44.62212
 363  -2.521722
 364  -72.37086
 365  24.47956
 366  49.95192
 367  71.70544
 368  125.8501
 369  69.18323
 370  57.66834
 371  65.41988
 372  -83.9982
 373  -84.67881
 374  54.7573
 375  20.1116
 376  104.0843
 377  92.98014
 378  119.9424
 379  153.9081
 380  18.45154
 381  145.7548
 382  129.8278
 383  271.7512
 384  202.7486
 385  -39.69902
 386  -30.63281
 387  6.58167
 388  17.32759
 389  111.7897
 390  171.3533
 391  195.2614
 392  206.1251
 393  149.7589
 394  128.2582
 395  -5.093102
 396  158.0978
 397  158.7498
 398  53.58938
 399  64.72937
 400  -0.06040586
 401  -85.65878
 402  41.57931
 403  81.03485
 404  74.55322
 405  115.5724
 406  216.063
 407  84.38731
 408  84.35551
 409  7.307802
 410  51.65321
 411  164.8721
 412  95.46313
 413  83.94293
 414  147.8631
 415  108.9186
 416  64.34409
 417  171.5146
 418  295.263
 419  158.2591
 420  -29.93466
 421  -80.94662
 422  1.065096
 423  52.29081
 424  50.81487
 425  78.26574
 426  -28.55761
 427  17.50824
 428  -113.984
 429  -70.06501
 430  152.6358
 431  -3.20492
 432  78.43542
 433  171.9924
 434  149.3184
 435  154.7755
 436  170.5932
 437  155.2462
 438  208.3826
 439  225.3478
 440  175.3688
 441  68.60497
 442  69.98972
 443  53.20922
 444  56.29488
 445  36.95259
 446  3.590608
 447  66.1512
 448  69.05085
 449  81.22919
 450  187.0229
 451  44.82587
 452  8.76963
 453  95.9875
 454  217.0765
 455  36.53716
 456  19.0471
 457  65.64619
 458  73.42421
 459  16.22979
 460  136.8247
 461  139.5105
 462  36.51837
 463  -112.8005
 464  -109.3442
 465  -39.76521
 466  -20.22986
 467  67.2283
 468  -7.863236
 469  -116.2331
 470  -46.75905
 471  77.59163
 472  36.86869
 473  -51.52307
 474  91.47134
 475  55.56129
 476  104.9067
 477  92.37298
 478  168.4181
 479  225.2222
 480  165.1278
 481  51.99995
 482  -54.56061
 483  -99.91446
 484  148.7538
 485  28.02524
 486  -156.1248
 487  -28.83106
 488  48.34036
 489  20.20029
 490  32.23183
 491  92.51712
 492  -10.10249
 493  -20.19524
 494  -42.70961
 495  -35.0574
 496  -57.92591
 497  -204.4385
 498  -155.6137
 499  -35.06065
 500  159.8603
 501  142.4312
 502  32.78634
 503  3.76477
 504  -15.36442
 505  159.3753
 506  31.22215
 507  -36.03452
 508  66.0445
 509  148.2273
 510  72.25755
 511  74.38999
