# Input file       =  1185780131.118868_cleaned.dat
# Candidate        =  PSR_0332+5434
# Telescope        =  AR
# Epoch_topo       =  57968.306864801714
# Epoch_bary       =  N/A
# T_sample         =  0.002
# Data Folded      =  7340032
# Data Avg         =  0.00449081532313126
# Data StdDev      =  1.00003460559268 
# Profile Bins     =  512
# Profile Avg      =  64.3711467150792 
# Profile StdDev   =  119.737179809454 
# Reduced chi-sqr  =  1.474
# Prob(Noise)      <  1.45e-11   (~6.7 sigma)
# P_topo (ms)      =  714.468869234141  +/- 0.000263
# P'_topo (s/s)    =  -0                +/- 1.39e-10
# P''_topo (s/s^2) =  0                 +/- 6.12e-14
# P_bary (ms)      =  N/A
# P'_bary (s/s)    =  N/A
# P''_bary (s/s^2) =  N/A
# P_orb (s)        =  N/A
# asin(i)/c (s)    =  N/A
# eccentricity     =  N/A
# w (rad)          =  N/A
# T_peri           =  N/A
######################################################
   0  118.3692
   1  90.69706
   2  30.46233
   3  -29.35641
   4  82.23245
   5  59.57311
   6  -14.08226
   7  51.48672
   8  40.68005
   9  43.2532
  10  238.1629
  11  149.8099
  12  105.6075
  13  157.1611
  14  102.2297
  15  117.3799
  16  72.33558
  17  9.243939
  18  -36.89523
  19  -76.08855
  20  227.6741
  21  218.3665
  22  175.7837
  23  148.8571
  24  132.4603
  25  75.12466
  26  149.0964
  27  142.0711
  28  167.7849
  29  122.5379
  30  -84.633
  31  -32.78248
  32  143.7534
  33  156.4057
  34  114.625
  35  -5.427969
  36  -87.91663
  37  -60.82584
  38  27.74488
  39  47.31386
  40  -17.01078
  41  36.59017
  42  152.591
  43  -78.39625
  44  30.81942
  45  35.96937
  46  101.0351
  47  130.9999
  48  139.7628
  49  98.72754
  50  15.21238
  51  153.4216
  52  -18.94538
  53  41.73348
  54  87.45137
  55  126.6768
  56  133.2307
  57  10.48559
  58  83.49641
  59  5.892959
  60  134.2687
  61  75.12358
  62  52.03315
  63  95.47786
  64  39.02438
  65  88.72913
  66  -19.69939
  67  -42.13559
  68  -13.6178
  69  -7.747968
  70  -27.53925
  71  103.322
  72  -63.0893
  73  41.98381
  74  -11.28776
  75  87.99219
  76  -62.07695
  77  210.7981
  78  244.7864
  79  174.7185
  80  239.9669
  81  111.4353
  82  131.3498
  83  30.20103
  84  23.68635
  85  70.32895
  86  65.35672
  87  162.7112
  88  127.369
  89  139.2611
  90  298.6888
  91  104.2266
  92  84.92245
  93  132.2123
  94  8.720105
  95  59.48419
  96  132.2035
  97  55.50755
  98  8.330357
  99  57.96219
 100  50.74536
 101  -4.824746
 102  89.79759
 103  69.5218
 104  -101.6895
 105  -143.5286
 106  -57.40641
 107  -4.70802
 108  -24.33661
 109  81.48271
 110  129.0224
 111  210.1867
 112  140.2563
 113  109.3141
 114  -26.74584
 115  -33.82987
 116  135.0756
 117  35.79532
 118  0.380722
 119  72.23574
 120  32.84545
 121  -0.4215963
 122  62.15445
 123  140.7846
 124  82.05808
 125  -37.86868
 126  97.81592
 127  247.6962
 128  36.97418
 129  -23.52441
 130  -40.70113
 131  -83.26801
 132  10.18981
 133  -17.87571
 134  -32.29123
 135  63.2272
 136  126.5323
 137  19.12362
 138  44.09829
 139  47.49924
 140  63.61507
 141  118.877
 142  -131.3261
 143  -156.6083
 144  -99.7764
 145  33.92886
 146  71.00167
 147  -6.180822
 148  89.34377
 149  18.18083
 150  -88.39711
 151  -11.4691
 152  -45.05653
 153  -88.71733
 154  53.98741
 155  -10.50314
 156  14.74343
 157  -16.7257
 158  123.7058
 159  125.1217
 160  121.8181
 161  117.3657
 162  -58.99944
 163  -50.48245
 164  -30.74066
 165  65.83849
 166  186.6715
 167  226.3236
 168  141.9788
 169  -19.80267
 170  -94.05647
 171  -20.4527
 172  -11.50676
 173  -128.3701
 174  -47.57048
 175  90.46666
 176  76.15806
 177  37.01706
 178  -28.81635
 179  91.15417
 180  0.5717522
 181  77.08014
 182  123.4482
 183  99.09513
 184  -110.6153
 185  52.2708
 186  25.0914
 187  -48.4564
 188  207.3514
 189  202.025
 190  123.2076
 191  -45.93704
 192  -46.04478
 193  46.81044
 194  -34.23401
 195  11.4791
 196  -48.52464
 197  1.650751
 198  48.63404
 199  27.78918
 200  -49.93391
 201  -18.81835
 202  90.72112
 203  -14.43702
 204  12.38173
 205  46.27971
 206  212.3916
 207  143.691
 208  19.09282
 209  -16.54469
 210  62.25277
 211  164.5986
 212  106.0164
 213  114.9697
 214  -10.63524
 215  -60.65047
 216  113.9118
 217  -3.65926
 218  -57.88118
 219  -2.42957
 220  45.46712
 221  92.56953
 222  -22.83278
 223  -122.836
 224  93.08199
 225  -15.27883
 226  -61.52911
 227  -111.0903
 228  -12.49347
 229  72.3992
 230  90.3504
 231  72.63921
 232  50.41317
 233  146.9322
 234  87.0171
 235  -45.23185
 236  92.38242
 237  106.1736
 238  104.3042
 239  63.98914
 240  140.7995
 241  100.2458
 242  58.92059
 243  172.8004
 244  -41.27068
 245  59.01057
 246  50.26451
 247  -164.0697
 248  35.86068
 249  100.8508
 250  -4.069629
 251  86.22866
 252  129.1664
 253  219.5934
 254  56.31192
 255  135.552
 256  177.4971
 257  97.97231
 258  196.7259
 259  24.81643
 260  -39.90074
 261  33.0848
 262  72.76346
 263  117.8165
 264  7.064802
 265  171.6216
 266  143.5735
 267  -64.18151
 268  2.740751
 269  -156.168
 270  -152.7927
 271  -17.045
 272  59.77018
 273  17.26414
 274  101.4262
 275  29.64628
 276  -29.36077
 277  51.18036
 278  128.5035
 279  178.0335
 280  -14.85815
 281  21.3532
 282  5.751782
 283  -44.35255
 284  20.78098
 285  -12.04208
 286  172.6181
 287  174.1578
 288  192.7241
 289  57.82385
 290  97.21809
 291  115.6785
 292  33.53115
 293  -73.11781
 294  -79.84265
 295  -68.75408
 296  66.7627
 297  -31.92687
 298  112.7077
 299  69.92081
 300  28.82414
 301  67.57684
 302  7.24277
 303  -73.4226
 304  -196.1897
 305  -90.20751
 306  86.0253
 307  5.977656
 308  -20.07396
 309  156.6712
 310  61.42629
 311  -73.98164
 312  64.33567
 313  224.175
 314  115.9875
 315  132.0271
 316  157.1715
 317  -6.294614
 318  52.08961
 319  228.2309
 320  30.75376
 321  167.1769
 322  236.7136
 323  328.1442
 324  258.4861
 325  245.4857
 326  416.6236
 327  479.5543
 328  715.39
 329  803.0581
 330  567.6785
 331  409.7888
 332  421.6796
 333  239.0909
 334  -1.60381
 335  67.70502
 336  8.767297
 337  -124.0499
 338  -88.38529
 339  -42.00062
 340  28.18014
 341  165.7393
 342  124.3612
 343  -44.71166
 344  -36.57627
 345  84.90578
 346  -5.822407
 347  9.146058
 348  -46.50301
 349  92.83521
 350  168.5063
 351  73.56424
 352  80.91727
 353  84.48584
 354  50.29256
 355  116.678
 356  158.679
 357  -3.419915
 358  101.0058
 359  121.5325
 360  131.2017
 361  185.4569
 362  152.5615
 363  53.64259
 364  27.17179
 365  -124.7359
 366  31.71329
 367  102.2821
 368  -7.390674
 369  77.93169
 370  74.81359
 371  4.035442
 372  -78.84157
 373  36.93265
 374  6.768811
 375  25.84793
 376  164.988
 377  69.31078
 378  0.3199796
 379  51.66258
 380  146.5934
 381  -17.77612
 382  -44.30111
 383  51.16327
 384  79.66425
 385  99.98023
 386  32.32571
 387  90.05702
 388  112.4646
 389  121.6493
 390  -52.87816
 391  -100.7368
 392  19.94941
 393  -56.81514
 394  21.12433
 395  15.04775
 396  69.1377
 397  -3.169151
 398  25.18267
 399  54.20143
 400  4.887203
 401  61.93174
 402  24.1465
 403  135.8354
 404  -66.86454
 405  -64.78627
 406  1.369424
 407  148.6625
 408  69.21863
 409  38.75696
 410  65.93981
 411  81.06483
 412  -90.22054
 413  -69.76655
 414  96.10361
 415  69.38175
 416  11.68303
 417  -27.92016
 418  52.82146
 419  163.4683
 420  90.75401
 421  216.7627
 422  259.2878
 423  168.8145
 424  156.5981
 425  98.56615
 426  38.85757
 427  2.743164
 428  -54.54156
 429  96.59846
 430  118.806
 431  77.71362
 432  45.18362
 433  162.8158
 434  97.21889
 435  -17.79861
 436  57.69062
 437  121.6602
 438  100.7355
 439  59.98231
 440  49.549
 441  50.67244
 442  80.40052
 443  161.9406
 444  239.1626
 445  226.7751
 446  74.53529
 447  -25.96134
 448  -24.16497
 449  103.2995
 450  148.6101
 451  5.99524
 452  27.71177
 453  139.7162
 454  99.61585
 455  161.3221
 456  137.7799
 457  46.9128
 458  51.58034
 459  -3.974075
 460  21.96191
 461  127.3304
 462  124.8784
 463  171.5304
 464  143.9913
 465  -1.032997
 466  -4.162809
 467  20.45382
 468  189.5811
 469  106.9594
 470  42.61448
 471  87.74968
 472  42.49458
 473  107.0913
 474  23.33537
 475  -29.78277
 476  -233.1927
 477  -163.8259
 478  55.80198
 479  52.515
 480  117.3132
 481  43.96267
 482  116.6169
 483  189.4619
 484  -14.54777
 485  69.99152
 486  245.5876
 487  173.9919
 488  54.74923
 489  49.35754
 490  103.9283
 491  -31.99595
 492  35.32104
 493  131.4195
 494  53.63104
 495  45.79707
 496  42.57294
 497  84.85386
 498  73.81241
 499  15.06186
 500  -5.738658
 501  98.26876
 502  224.4573
 503  273.886
 504  280.9801
 505  146.3852
 506  73.27006
 507  106.8778
 508  191.7899
 509  168.2736
 510  159.8983
 511  233.5173
