# Input file       =  1185248272.118458_cleaned.dat
# Candidate        =  PSR_0332+5434
# Telescope        =  AR
# Epoch_topo       =  57962.151089334002
# Epoch_bary       =  N/A
# T_sample         =  0.002
# Data Folded      =  7340032
# Data Avg         =  0.0373415950138734
# Data StdDev      =  1.00016367744216 
# Profile Bins     =  512
# Profile Avg      =  535.267501592837 
# Profile StdDev   =  119.752633973903 
# Reduced chi-sqr  =  1.576
# Prob(Noise)      <  1.59e-15   (~7.9 sigma)
# P_topo (ms)      =  714.471263530548  +/- 0.000297
# P'_topo (s/s)    =  -0                +/- 1.57e-10
# P''_topo (s/s^2) =  0                 +/- 6.93e-14
# P_bary (ms)      =  N/A
# P'_bary (s/s)    =  N/A
# P''_bary (s/s^2) =  N/A
# P_orb (s)        =  N/A
# asin(i)/c (s)    =  N/A
# eccentricity     =  N/A
# w (rad)          =  N/A
# T_peri           =  N/A
######################################################
   0  1091.539
   1  970.9357
   2  743.0109
   3  639.967
   4  619.1017
   5  501.1713
   6  378.9404
   7  420.1787
   8  470.1133
   9  375.7192
  10  388.777
  11  449.7458
  12  461.9351
  13  536.6155
  14  648.6034
  15  600.0239
  16  551.9356
  17  502.4352
  18  403.6957
  19  336.9364
  20  327.5804
  21  337.0308
  22  460.9961
  23  517.8347
  24  433.6155
  25  452.266
  26  568.2957
  27  532.9558
  28  569.1602
  29  578.5271
  30  451.4446
  31  403.0208
  32  394.2179
  33  430.1868
  34  478.0626
  35  440.4893
  36  453.7336
  37  404.3514
  38  406.6538
  39  379.4934
  40  523.844
  41  565.5999
  42  655.1948
  43  629.7538
  44  598.9826
  45  539.5196
  46  529.5677
  47  501.8202
  48  483.7715
  49  466.4004
  50  489.1235
  51  479.8614
  52  507.7067
  53  473.1973
  54  511.456
  55  455.7918
  56  459.2263
  57  565.8688
  58  642.9498
  59  378.4125
  60  449.8639
  61  499.2888
  62  531.4178
  63  507.9772
  64  584.6573
  65  469.7312
  66  485.5703
  67  565.9373
  68  521.0943
  69  539.1464
  70  662.264
  71  736.3193
  72  714.5103
  73  581.3184
  74  527.9892
  75  480.3886
  76  462.3159
  77  445.9074
  78  453.1146
  79  463.5757
  80  427.3274
  81  558.4359
  82  630.8347
  83  552.3738
  84  553.9428
  85  550.5232
  86  550.1318
  87  530.1785
  88  616.1398
  89  649.2693
  90  533.8996
  91  686.1075
  92  666.9706
  93  677.5595
  94  663.2389
  95  544.7739
  96  589.5653
  97  560.6789
  98  545.2313
  99  522.6929
 100  509.2257
 101  506.944
 102  531.1288
 103  552.6609
 104  668.7248
 105  576.9479
 106  539.1395
 107  543.1171
 108  513.2244
 109  606.1116
 110  543.6211
 111  525.5804
 112  542.6021
 113  490.0211
 114  576.5663
 115  677.107
 116  680.83
 117  675.3564
 118  548.3681
 119  510.1287
 120  491.4413
 121  582.5935
 122  491.6223
 123  449.031
 124  437.8557
 125  460.784
 126  374.7709
 127  452.1084
 128  498.5367
 129  485.4337
 130  501.7791
 131  489.8742
 132  473.3466
 133  571.5775
 134  570.5229
 135  474.3931
 136  406.0759
 137  462.782
 138  487.1187
 139  440.1972
 140  465.7949
 141  497.8742
 142  387.8814
 143  451.6744
 144  464.2238
 145  530.4418
 146  502.3521
 147  493.0344
 148  518.0616
 149  433.298
 150  605.4337
 151  503.3489
 152  528.6732
 153  611.177
 154  531.995
 155  546.8767
 156  517.6626
 157  476.2199
 158  409.571
 159  366.1478
 160  456.2226
 161  483.6333
 162  475.4519
 163  519.8408
 164  467.9392
 165  471.7576
 166  492.1878
 167  460.7478
 168  398.4096
 169  341.8505
 170  309.5807
 171  410.7125
 172  465.4009
 173  338.4695
 174  327.8524
 175  466.0628
 176  432.1023
 177  363.6053
 178  342.0114
 179  458.3982
 180  408.8758
 181  386.1757
 182  327.882
 183  375.4613
 184  442.4512
 185  362.121
 186  424.206
 187  468.9029
 188  558.4058
 189  646.1263
 190  576.6234
 191  461.4285
 192  464.3698
 193  472.2498
 194  582.2655
 195  597.6573
 196  519.3949
 197  471.1852
 198  579.9648
 199  532.5292
 200  543.686
 201  561.5329
 202  535.3482
 203  529.8566
 204  599.6708
 205  688.0206
 206  641.6802
 207  552.8228
 208  553.9768
 209  522.8694
 210  603.8232
 211  545.2705
 212  460.3999
 213  443.6098
 214  513.1889
 215  468.6641
 216  442.0211
 217  444.433
 218  453.0346
 219  499.909
 220  417.4936
 221  460.4786
 222  557.4409
 223  544.5676
 224  471.8932
 225  409.5393
 226  539.4017
 227  579.0524
 228  557.8611
 229  537.0385
 230  495.7557
 231  453.3571
 232  477.4743
 233  375.5891
 234  384.7568
 235  437.7012
 236  404.7654
 237  293.1002
 238  365.8889
 239  432.0924
 240  512.0298
 241  585.3832
 242  602.0425
 243  484.7303
 244  486.129
 245  502.256
 246  507.6809
 247  473.1711
 248  408.0614
 249  441.3769
 250  512.1386
 251  507.3235
 252  417.7503
 253  436.935
 254  412.4797
 255  400.243
 256  435.9279
 257  415.2823
 258  436.2961
 259  588.0026
 260  510.5955
 261  469.6236
 262  562.571
 263  537.3966
 264  492.7111
 265  479.3905
 266  488.3816
 267  517.3826
 268  557.1191
 269  610.9867
 270  669.971
 271  621.3331
 272  535.8409
 273  556.2972
 274  648.7536
 275  720.7723
 276  750.8721
 277  616.1588
 278  627.9307
 279  602.9857
 280  643.1913
 281  659.987
 282  648.441
 283  627.9796
 284  726.5497
 285  772.0203
 286  706.9397
 287  773.3351
 288  790.2483
 289  738.4309
 290  592.7222
 291  641.4472
 292  649.0137
 293  643.1443
 294  590.158
 295  697.3261
 296  663.36
 297  651.0941
 298  747.0085
 299  695.0366
 300  666.8672
 301  675.1697
 302  613.5406
 303  592.1509
 304  632.4532
 305  663.9191
 306  765.815
 307  758.1087
 308  682.6285
 309  606.7772
 310  539.359
 311  605.2684
 312  601.7811
 313  566.3162
 314  618.1462
 315  644.5869
 316  562.3711
 317  524.6517
 318  566.7917
 319  526.8337
 320  538.2556
 321  601.1313
 322  637.2863
 323  532.6187
 324  507.6161
 325  589.2654
 326  638.2692
 327  600.022
 328  551.3877
 329  579.1179
 330  626.4062
 331  710.4347
 332  663.6887
 333  636.4841
 334  630.6851
 335  659.9944
 336  580.6846
 337  583.1519
 338  625.709
 339  605.3434
 340  567.1127
 341  600.9832
 342  599.1625
 343  665.8779
 344  706.4279
 345  646.3074
 346  694.5012
 347  689.1789
 348  660.0944
 349  720.0198
 350  522.3203
 351  658.3154
 352  802.2821
 353  698.3176
 354  682.3963
 355  668.6965
 356  614.9229
 357  542.2244
 358  583.0983
 359  615.6399
 360  706.4253
 361  724.4425
 362  769.5602
 363  682.9265
 364  567.5364
 365  593.132
 366  659.4104
 367  790.5004
 368  714.9876
 369  556.1591
 370  616.7125
 371  706.2429
 372  632.8458
 373  631.0391
 374  620.6957
 375  549.4454
 376  603.9039
 377  738.5217
 378  569.7883
 379  505.4549
 380  603.0468
 381  641.5912
 382  710.548
 383  634.7936
 384  670.4443
 385  574.4776
 386  468.4334
 387  588.5319
 388  525.4367
 389  535.9614
 390  688.5071
 391  738.5034
 392  654.6163
 393  609.9689
 394  519.2943
 395  469.3919
 396  502.3503
 397  485.521
 398  400.8528
 399  417.9481
 400  506.4203
 401  506.8414
 402  484.0756
 403  466.4342
 404  341.2301
 405  385.5704
 406  487.1573
 407  511.2593
 408  413.1007
 409  466.5599
 410  527.7704
 411  524.8488
 412  501.2711
 413  557.9314
 414  567.5832
 415  558.2426
 416  514.3024
 417  507.6206
 418  415.6537
 419  541.2022
 420  643.8353
 421  610.7581
 422  492.476
 423  490.7447
 424  500.9588
 425  443.7149
 426  483.352
 427  524.3848
 428  460.5741
 429  446.5982
 430  550.2206
 431  626.7063
 432  633.4023
 433  602.8162
 434  649.2408
 435  551.9295
 436  577.31
 437  590.6285
 438  540.8309
 439  599.5687
 440  577.4634
 441  443.3532
 442  446.6082
 443  405.4369
 444  498.4879
 445  585.8201
 446  523.6137
 447  402.8379
 448  497.4857
 449  436.3106
 450  389.3416
 451  354.7691
 452  523.3072
 453  584.8307
 454  471.9072
 455  387.6873
 456  454.5728
 457  504.1986
 458  488.9504
 459  493.5644
 460  444.9066
 461  467.0988
 462  451.1018
 463  439.7118
 464  371.8881
 465  331.409
 466  381.2965
 467  386.5546
 468  410.384
 469  448.9133
 470  487.6114
 471  469.503
 472  449.8863
 473  240.6984
 474  279.8533
 475  388.5454
 476  418.4991
 477  428.5261
 478  393.5224
 479  440.6854
 480  383.6749
 481  491.4528
 482  466.8798
 483  512.0312
 484  534.8159
 485  489.2076
 486  428.043
 487  418.7485
 488  392.297
 489  431.2521
 490  451.1118
 491  519.6446
 492  511.2859
 493  518.9417
 494  526.808
 495  463.6939
 496  426.43
 497  559.579
 498  548.1558
 499  579.4476
 500  562.9496
 501  536.608
 502  522.4447
 503  505.3153
 504  442.5291
 505  469.5942
 506  547.4897
 507  630.2781
 508  684.3535
 509  799.5829
 510  1034.694
 511  1070.504
