# Input file       =  1185664428.103452_cleaned.dat
# Candidate        =  PSR_0332+5434
# Telescope        =  AR
# Epoch_topo       =  57966.967709530691
# Epoch_bary       =  N/A
# T_sample         =  0.002
# Data Folded      =  7208960
# Data Avg         =  0.0151163567528315
# Data StdDev      =  1.00010248571782 
# Profile Bins     =  512
# Profile Avg      =  212.83245262607  
# Profile StdDev   =  118.671336664337 
# Reduced chi-sqr  =  1.469
# Prob(Noise)      <  2.24e-11   (~6.6 sigma)
# P_topo (ms)      =  714.469070040778  +/- 0.000189
# P'_topo (s/s)    =  -0                +/- 1.02e-10
# P''_topo (s/s^2) =  0                 +/- 4.57e-14
# P_bary (ms)      =  N/A
# P'_bary (s/s)    =  N/A
# P''_bary (s/s^2) =  N/A
# P_orb (s)        =  N/A
# asin(i)/c (s)    =  N/A
# eccentricity     =  N/A
# w (rad)          =  N/A
# T_peri           =  N/A
######################################################
   0  78.90447
   1  151.8332
   2  79.54354
   3  229.8479
   4  350.8603
   5  218.5183
   6  143.8526
   7  147.3149
   8  177.5667
   9  209.6957
  10  202.0528
  11  135.9748
  12  25.34327
  13  64.61047
  14  188.2699
  15  290.8053
  16  126.4186
  17  124.1111
  18  108.0415
  19  274.6763
  20  180.0689
  21  247.2421
  22  325.6218
  23  177.6644
  24  155.9729
  25  84.23211
  26  174.6161
  27  77.25771
  28  53.47276
  29  119.9098
  30  155.6992
  31  39.68532
  32  -0.6337516
  33  86.28445
  34  152.2438
  35  177.4813
  36  127.9796
  37  267.9446
  38  373.6845
  39  266.3798
  40  96.13091
  41  210.2358
  42  148.8987
  43  137.7339
  44  229.9224
  45  217.8843
  46  297.7397
  47  192.0687
  48  105.8233
  49  310.1562
  50  302.7156
  51  255.0797
  52  271.3452
  53  177.9539
  54  115.6442
  55  212.5998
  56  198.7007
  57  233.4623
  58  210.6717
  59  314.7924
  60  280.4238
  61  300.888
  62  262.8369
  63  246.1622
  64  182.4194
  65  176.7307
  66  195.8819
  67  186.5073
  68  296.0265
  69  225.6199
  70  203.5282
  71  186.722
  72  67.59233
  73  59.27782
  74  144.6152
  75  148.7046
  76  188.6088
  77  127.3127
  78  148.2115
  79  202.0062
  80  184.5089
  81  172.2261
  82  211.3516
  83  85.21971
  84  124.4952
  85  183.692
  86  82.01983
  87  61.51933
  88  220.3331
  89  307.4178
  90  347.6382
  91  352.4279
  92  300.5848
  93  210.6354
  94  143.7098
  95  151.4299
  96  17.98698
  97  111.7942
  98  180.095
  99  161.1742
 100  204.9863
 101  172.2908
 102  279.3163
 103  357.0401
 104  239.3045
 105  104.7061
 106  58.47957
 107  136.1564
 108  195.114
 109  121.2827
 110  143.9693
 111  174.5524
 112  164.1123
 113  100.9203
 114  125.2589
 115  12.17335
 116  168.4297
 117  139.721
 118  169.4015
 119  242.5893
 120  197.8646
 121  195.7178
 122  128.0559
 123  100.5718
 124  118.5965
 125  144.0621
 126  356.1689
 127  285.351
 128  148.6096
 129  221.3377
 130  278.7759
 131  219.5572
 132  181.4803
 133  64.58892
 134  253.2004
 135  208.0525
 136  218.7135
 137  306.9863
 138  186.4955
 139  129.7755
 140  191.549
 141  142.0724
 142  108.6419
 143  366.3617
 144  297.3012
 145  348.3061
 146  360.3164
 147  407.7124
 148  382.899
 149  407.7459
 150  406.1224
 151  566.8685
 152  879.049
 153  1002.653
 154  916.2299
 155  731.1659
 156  611.8369
 157  413.5397
 158  315.5641
 159  193.5885
 160  227.5187
 161  185.2323
 162  273.6892
 163  362.8174
 164  281.7773
 165  297.8494
 166  291.6278
 167  338.24
 168  211.5422
 169  178.2722
 170  223.4722
 171  252.6364
 172  188.3328
 173  249.2283
 174  288.229
 175  313.9727
 176  189.4425
 177  49.47875
 178  293.6356
 179  150.7924
 180  192.2437
 181  349.8428
 182  246.8908
 183  221.637
 184  196.7045
 185  235.2867
 186  241.3513
 187  273.1562
 188  325.8682
 189  347.8822
 190  168.7842
 191  200.2101
 192  196.9151
 193  282.7601
 194  369.6086
 195  249.2459
 196  226.9969
 197  305.7704
 198  127.5381
 199  158.2534
 200  175.0154
 201  296.6141
 202  261.7358
 203  178.0161
 204  427.4528
 205  369.5023
 206  237.2202
 207  257.9477
 208  282.2784
 209  403.5458
 210  312.7231
 211  268.1488
 212  191.0868
 213  49.16227
 214  140.698
 215  162.7024
 216  189.1376
 217  232.0829
 218  353.4385
 219  253.5884
 220  179.2302
 221  144.2635
 222  220.9354
 223  217.4646
 224  252.2208
 225  341.2314
 226  200.6877
 227  171.4674
 228  232.133
 229  170.6934
 230  188.2599
 231  284.1632
 232  253.3215
 233  289.9554
 234  212.9767
 235  205.0113
 236  137.1193
 237  132.5109
 238  197.5541
 239  243.6982
 240  340.7402
 241  324.3345
 242  233.4321
 243  184.8564
 244  143.2328
 245  237.4997
 246  273.1422
 247  217.9988
 248  189.1338
 249  176.9745
 250  264.3391
 251  365.4232
 252  185.4308
 253  196.9509
 254  258.7134
 255  261.3563
 256  149.3149
 257  197.3598
 258  411.2314
 259  286.0572
 260  268.4778
 261  358.9989
 262  328.7896
 263  122.7945
 264  145.7196
 265  180.0664
 266  142.3654
 267  137.2274
 268  273.9258
 269  282.196
 270  275.9423
 271  163.0402
 272  177.6689
 273  248.4783
 274  292.7314
 275  298.6267
 276  152.1645
 277  189.2628
 278  272.5254
 279  197.6448
 280  167.2837
 281  184.2531
 282  234.7252
 283  316.2754
 284  341.0135
 285  195.533
 286  290.4921
 287  236.9037
 288  155.881
 289  141.4543
 290  187.6373
 291  95.58112
 292  114.9172
 293  268.6075
 294  334.5546
 295  348.1816
 296  169.3403
 297  134.5126
 298  133.4874
 299  190.7501
 300  251.9885
 301  115.8722
 302  218.2543
 303  334.8337
 304  248.0048
 305  166.5415
 306  204.0096
 307  317.6035
 308  130.03
 309  246.7019
 310  304.8072
 311  267.8503
 312  266.4544
 313  105.3703
 314  59.74434
 315  251.8157
 316  240.9881
 317  224.2463
 318  331.6195
 319  298.845
 320  203.9662
 321  291.1003
 322  273.8278
 323  172.5938
 324  155.7221
 325  308.6732
 326  263.7866
 327  161.0713
 328  274.3824
 329  288.81
 330  80.03645
 331  84.76113
 332  217.7551
 333  354.3087
 334  360.1135
 335  173.798
 336  221.9352
 337  183.0953
 338  171.6771
 339  249.1095
 340  101.8059
 341  102.794
 342  276.3975
 343  165.821
 344  87.26859
 345  54.68318
 346  101.4262
 347  183.6166
 348  98.89024
 349  50.55614
 350  205.3802
 351  210.6761
 352  282.1474
 353  295.8222
 354  69.953
 355  134.7876
 356  16.78177
 357  176.4518
 358  168.0336
 359  159.625
 360  294.7024
 361  201.6189
 362  105.2127
 363  150.6136
 364  216.0921
 365  244.2915
 366  268.0524
 367  183.7234
 368  175.4053
 369  191.2994
 370  244.7583
 371  239.5759
 372  164.1647
 373  201.6159
 374  284.8647
 375  147.1624
 376  163.6589
 377  295.7018
 378  266.7393
 379  97.53036
 380  66.25121
 381  35.90868
 382  182.5807
 383  114.0086
 384  107.3748
 385  299.3551
 386  286.1606
 387  169.5832
 388  172.5393
 389  185.4504
 390  277.5507
 391  216.3902
 392  327.2412
 393  305.484
 394  271.7054
 395  308.9805
 396  201.782
 397  124.2231
 398  225.7085
 399  181.4041
 400  148.4522
 401  183.5076
 402  238.1726
 403  250.3725
 404  215.6793
 405  206.9925
 406  163.9167
 407  113.9996
 408  120.4747
 409  157.0634
 410  145.0893
 411  214.5813
 412  126.3812
 413  167.9913
 414  141.1827
 415  321.9091
 416  196.4637
 417  204.3526
 418  249.3335
 419  84.08894
 420  113.9305
 421  227.4798
 422  124.6329
 423  172.3453
 424  125.6045
 425  184.7769
 426  181.529
 427  288.7141
 428  264.6864
 429  164.1622
 430  217.5702
 431  298.1977
 432  213.4078
 433  224.8331
 434  306.6451
 435  257.5395
 436  272.3127
 437  208.9715
 438  304.3274
 439  362.4933
 440  292.3519
 441  272.4746
 442  344.8622
 443  349.3056
 444  202.8873
 445  205.2369
 446  256.7458
 447  184.3761
 448  82.31774
 449  190.7522
 450  333.3081
 451  319.3213
 452  226.2157
 453  154.8827
 454  160.0493
 455  215.9076
 456  134.9455
 457  228.2173
 458  285.0245
 459  253.355
 460  221.87
 461  94.01626
 462  213.9121
 463  173.2341
 464  212.458
 465  101.6672
 466  174.9691
 467  281.7805
 468  333.7558
 469  189.5869
 470  78.6157
 471  184.3295
 472  345.8783
 473  202.299
 474  140.5863
 475  115.5096
 476  70.43237
 477  180.4133
 478  237.4039
 479  187.4078
 480  139.027
 481  71.64651
 482  192.1884
 483  127.7852
 484  183.9629
 485  165.0334
 486  153.0086
 487  233.6194
 488  76.58385
 489  84.44639
 490  106.4614
 491  243.2002
 492  63.93298
 493  66.12301
 494  52.67036
 495  111.1112
 496  157.3428
 497  100.2365
 498  273.1977
 499  379.9712
 500  196.6086
 501  212.1832
 502  283.3148
 503  213.1152
 504  171.7955
 505  125.1563
 506  62.83658
 507  145.5702
 508  207.79
 509  120.997
 510  70.44086
 511  83.02426
