# Input file       =  1185664428.103452_cleaned.dat
# Candidate        =  PSR_0332+5434
# Telescope        =  AR
# Epoch_topo       =  57966.967709530691
# Epoch_bary       =  N/A
# T_sample         =  0.002
# Data Folded      =  7208960
# Data Avg         =  0.0151163567528315
# Data StdDev      =  1.00010248571782 
# Profile Bins     =  512
# Profile Avg      =  212.832428658423 
# Profile StdDev   =  118.671336664337 
# Reduced chi-sqr  =  1.471
# Prob(Noise)      <  1.95e-11   (~6.6 sigma)
# P_topo (ms)      =  714.469068865497  +/- 0.00019
# P'_topo (s/s)    =  -0                +/- 1.02e-10
# P''_topo (s/s^2) =  0                 +/- 4.59e-14
# P_bary (ms)      =  N/A
# P'_bary (s/s)    =  N/A
# P''_bary (s/s^2) =  N/A
# P_orb (s)        =  N/A
# asin(i)/c (s)    =  N/A
# eccentricity     =  N/A
# w (rad)          =  N/A
# T_peri           =  N/A
######################################################
   0  988.5604
   1  901.7288
   2  719.1287
   3  573.8077
   4  410.2827
   5  289.4362
   6  197.582
   7  218.5285
   8  186.33
   9  299.0405
  10  354.1844
  11  278.9669
  12  296.5463
  13  299.8481
  14  333.7225
  15  188.6264
  16  187.902
  17  227.071
  18  246.1356
  19  195.4874
  20  248.9091
  21  307.4041
  22  302.9088
  23  159.6849
  24  67.37504
  25  295.5954
  26  137.2518
  27  213.3134
  28  355.6161
  29  229.7625
  30  232.9677
  31  195.4725
  32  232.0207
  33  246.9201
  34  271.0844
  35  340.0324
  36  329.1076
  37  161.2239
  38  202.855
  39  189.981
  40  311.2913
  41  356.9598
  42  239.0143
  43  241.0728
  44  302.9321
  45  102.5215
  46  171.3832
  47  178.3607
  48  312.3279
  49  245.2243
  50  197.2294
  51  443.5946
  52  346.7569
  53  233.2961
  54  261.3122
  55  289.7977
  56  406.7169
  57  294.5641
  58  268.5863
  59  168.8133
  60  49.60431
  61  159.3674
  62  155.8133
  63  197.0564
  64  243.3981
  65  358.1166
  66  234.4473
  67  173.5741
  68  146.5557
  69  233.8452
  70  210.3106
  71  263.6981
  72  335.4847
  73  180.9342
  74  187.8233
  75  224.798
  76  166.6515
  77  207.0658
  78  278.6095
  79  262.1745
  80  279.7082
  81  214.9218
  82  192.0861
  83  136.6169
  84  136.9884
  85  204.5354
  86  252.5117
  87  340.2949
  88  322.0106
  89  214.2869
  90  190.5842
  91  140.8002
  92  252.1099
  93  272.9701
  94  210.0804
  95  189.2177
  96  171.7021
  97  293.2843
  98  349.8634
  99  168.3172
 100  208.6817
 101  254.2342
 102  256.2535
 103  139.882
 104  226.7029
 105  417.5609
 106  267.9058
 107  275.632
 108  368.9609
 109  298.1611
 110  126.5728
 111  145.079
 112  185.3362
 113  125.9719
 114  159.7483
 115  282.6174
 116  275.8173
 117  265.3265
 118  148.2867
 119  207.4146
 120  241.9681
 121  311.5677
 122  274.2966
 123  145.6105
 124  208.594
 125  266.0606
 126  185.7725
 127  167.4046
 128  189.5471
 129  252.4044
 130  328.3288
 131  317.1628
 132  199.2116
 133  292.5383
 134  226.0093
 135  144.6892
 136  151.8575
 137  183.9525
 138  90.44142
 139  124.0897
 140  281.2394
 141  344.0175
 142  331.5915
 143  156.8009
 144  131.7765
 145  137.5307
 146  206.2497
 147  236.7589
 148  108.6368
 149  242.6235
 150  334.9986
 151  237.1405
 152  155.341
 153  233.0949
 154  297.0059
 155  132.6137
 156  262.947
 157  299.8783
 158  270.8285
 159  253.7861
 160  77.1291
 161  82.41582
 162  263.989
 163  230.0713
 164  239.2873
 165  339.3961
 166  276.6801
 167  209.3486
 168  298.9402
 169  256.61
 170  173.801
 171  159.7609
 172  319.7005
 173  255.0627
 174  156.2555
 175  302.6406
 176  256.4695
 177  71.74586
 178  91.15594
 179  243.126
 180  367.4655
 181  341.2968
 182  158.0772
 183  231.0574
 184  174.516
 185  186.1058
 186  242.0856
 187  77.9875
 188  131.3337
 189  273.3663
 190  148.2157
 191  80.85423
 192  56.49295
 193  118.6353
 194  186.9984
 195  76.24509
 196  64.09362
 197  214.1289
 198  204.1465
 199  310.7866
 200  257.1136
 201  76.31276
 202  129.6213
 203  8.905557
 204  207.8441
 205  142.0415
 206  191.1303
 207  285.6992
 208  191.7729
 209  100.6056
 210  157.076
 211  223.6709
 212  243.4897
 213  267.7769
 214  168.2848
 215  187.9042
 216  189.6799
 217  251.6438
 218  234.7588
 219  153.438
 220  217.551
 221  281.4048
 222  128.9875
 223  185.1491
 224  298.835
 225  249.3344
 226  90.61835
 227  51.28686
 228  51.32419
 229  194.3138
 230  99.59505
 231  128.4629
 232  313.9251
 233  272.6472
 234  159.5747
 235  172.2626
 236  194.0914
 237  279.6201
 238  214.8045
 239  341.5837
 240  294.8488
 241  275.475
 242  309.6446
 243  176.8086
 244  137.4224
 245  223.623
 246  173.6369
 247  160.6604
 248  177.7767
 249  254.5091
 250  236.1464
 251  223.2665
 252  192.1052
 253  164.6956
 254  106.2273
 255  131.9983
 256  142.6415
 257  159.417
 258  199.059
 259  144.4066
 260  150.0262
 261  172.3417
 262  319.1317
 263  175.7995
 264  230.9787
 265  229.0402
 266  75.69772
 267  121.3581
 268  230.6319
 269  115.739
 270  174.8403
 271  135.3617
 272  176.9981
 273  194.2558
 274  291.5589
 275  255.0656
 276  158.591
 277  230.8244
 278  304.908
 279  198.5141
 280  234.6626
 281  312.0265
 282  251.5382
 283  276.4635
 284  191.1863
 285  338.3894
 286  345.4036
 287  286.8326
 288  277.9918
 289  351.4639
 290  342.7565
 291  178.6969
 292  225.8007
 293  243.9002
 294  180.4541
 295  78.79432
 296  216.7296
 297  338.4213
 298  303.6605
 299  220.6043
 300  149.2066
 301  167.7685
 302  215.7032
 303  128.5484
 304  242.1601
 305  287.0504
 306  250.3923
 307  206.6006
 308  96.4744
 309  222.2041
 310  176.2356
 311  203.0135
 312  104.0602
 313  175.6873
 314  303.4568
 315  323.771
 316  168.4817
 317  88.96636
 318  200.4036
 319  353.5548
 320  168.1418
 321  144.2587
 322  108.8697
 323  69.82616
 324  203.2149
 325  226.4499
 326  183.754
 327  119.0965
 328  92.92171
 329  190.8192
 330  121.8219
 331  196.7784
 332  159.422
 333  165.4066
 334  224.7843
 335  51.31804
 336  102.2453
 337  115.1876
 338  245.7731
 339  38.80128
 340  75.27155
 341  46.04835
 342  121.8021
 343  147.554
 344  112.4737
 345  312.2455
 346  359.5449
 347  180.7122
 348  226.563
 349  279.3196
 350  202.6816
 351  173.7719
 352  116.928
 353  71.66035
 354  148.9035
 355  209.2424
 356  94.88193
 357  82.9791
 358  78.37579
 359  91.98535
 360  149.245
 361  64.23957
 362  271.2507
 363  335.0461
 364  210.091
 365  135.8792
 366  154.3568
 367  181.266
 368  204.5841
 369  204.0689
 370  118.1425
 371  24.13621
 372  73.56722
 373  207.0293
 374  283.3332
 375  111.7
 376  121.066
 377  122.0032
 378  280.4043
 379  176.7911
 380  272.8846
 381  308.4339
 382  169.7317
 383  141.5377
 384  95.93961
 385  168.7507
 386  67.401
 387  61.80111
 388  135.8169
 389  144.0418
 390  17.95639
 391  10.8776
 392  95.70486
 393  157.0137
 394  168.1153
 395  146.1027
 396  285.4851
 397  375.9272
 398  237.9225
 399  96.35949
 400  219.0423
 401  131.2994
 402  157.6134
 403  221.3576
 404  230.9744
 405  294.9854
 406  164.8443
 407  128.5485
 408  327.222
 409  286.3244
 410  259.4835
 411  269.4394
 412  157.9757
 413  126.6328
 414  206.871
 415  216.9432
 416  219.5652
 417  224.0908
 418  320.2971
 419  280.8323
 420  299.8097
 421  253.3291
 422  251.7122
 423  165.0204
 424  188.4129
 425  191.3765
 426  198.5032
 427  297.2563
 428  211.4976
 429  209.7337
 430  168.4882
 431  60.21014
 432  74.67872
 433  144.1909
 434  155.8684
 435  188.0787
 436  113.2081
 437  167.3251
 438  198.3469
 439  174.9005
 440  178.8077
 441  198.9882
 442  85.72096
 443  127.1405
 444  188.487
 445  60.37452
 446  81.13727
 447  241.2613
 448  308.5149
 449  357.2833
 450  343.1186
 451  292.1347
 452  193.5847
 453  147.0142
 454  140.5094
 455  12.59206
 456  130.9965
 457  170.4938
 458  173.7471
 459  204.2648
 460  173.3751
 461  304.398
 462  338.1528
 463  233.669
 464  89.28331
 465  65.71162
 466  143.9593
 467  183.4093
 468  119.4696
 469  150.6401
 470  180.143
 471  149.0434
 472  106.8937
 473  117.2335
 474  6.869377
 475  193.8621
 476  130.2814
 477  181.6631
 478  245.6701
 479  190.6556
 480  193.6337
 481  111.358
 482  114.9729
 483  106.0787
 484  169.2187
 485  365.2718
 486  263.4471
 487  149.8181
 488  242.9671
 489  261.7905
 490  233.058
 491  142.5945
 492  94.1375
 493  252.766
 494  203.135
 495  225.4003
 496  304.1741
 497  168.5295
 498  135.4743
 499  200.5131
 500  116.5991
 501  140.8672
 502  380.2096
 503  290.9358
 504  356.1815
 505  359.1681
 506  405.561
 507  393.4555
 508  390.0356
 509  440.0876
 510  578.4119
 511  929.6121
