# Input file       =  1185836768.110852_cleaned.dat
# Candidate        =  PSR_0332+5434
# Telescope        =  AR
# Epoch_topo       =  57968.962385542269
# Epoch_bary       =  N/A
# T_sample         =  0.002
# Data Folded      =  7208960
# Data Avg         =  0.0131445138954937
# Data StdDev      =  0.999984520745855
# Profile Bins     =  512
# Profile Avg      =  185.093389901205 
# Profile StdDev   =  118.657339037992 
# Reduced chi-sqr  =  1.439
# Prob(Noise)      <  2.62e-10   (~6.2 sigma)
# P_topo (ms)      =  714.468264814108  +/- 0.000128
# P'_topo (s/s)    =  -0                +/- 6.87e-11
# P''_topo (s/s^2) =  0                 +/- 3.09e-14
# P_bary (ms)      =  N/A
# P'_bary (s/s)    =  N/A
# P''_bary (s/s^2) =  N/A
# P_orb (s)        =  N/A
# asin(i)/c (s)    =  N/A
# eccentricity     =  N/A
# w (rad)          =  N/A
# T_peri           =  N/A
######################################################
   0  892.0821
   1  748.0688
   2  582.9564
   3  358.8817
   4  203.9794
   5  167.3977
   6  315.3425
   7  355.4826
   8  365.1593
   9  244.3786
  10  232.2584
  11  324.584
  12  191.771
  13  199.2011
  14  82.88674
  15  268.4842
  16  460.4567
  17  210.7474
  18  105.3719
  19  244.0727
  20  329.013
  21  142.3368
  22  96.80615
  23  151.6448
  24  276.4984
  25  177.3224
  26  141.398
  27  233.7395
  28  207.8791
  29  266.5452
  30  210.1944
  31  103.4327
  32  143.8339
  33  176.2503
  34  238.3064
  35  176.1953
  36  100.3361
  37  167.4121
  38  126.1746
  39  193.8734
  40  100.5613
  41  238.8847
  42  312.1765
  43  192.3366
  44  46.97103
  45  172.7334
  46  267.9844
  47  165.0459
  48  134.2095
  49  48.96538
  50  163.9006
  51  204.9335
  52  299.5987
  53  102.2035
  54  130.1424
  55  206.6731
  56  175.9948
  57  83.39495
  58  205.225
  59  119.3959
  60  164.537
  61  89.82108
  62  132.9959
  63  291.9329
  64  290.0206
  65  168.6771
  66  142.524
  67  260.5472
  68  187.4496
  69  110.9707
  70  205.5732
  71  321.0993
  72  257.304
  73  145.0131
  74  113.3703
  75  101.58
  76  104.2335
  77  29.73744
  78  87.9383
  79  222.7253
  80  153.7484
  81  135.7954
  82  211.3845
  83  220.8374
  84  132.4721
  85  236.0707
  86  210.3411
  87  255.9638
  88  228.3855
  89  260.2664
  90  200.6714
  91  174.6006
  92  161.9561
  93  166.2484
  94  202.7171
  95  83.14268
  96  -41.78602
  97  -46.44561
  98  -50.50505
  99  96.0636
 100  207.4815
 101  151.1219
 102  198.5015
 103  228.8514
 104  204.2292
 105  209.0745
 106  208.5755
 107  191.8017
 108  92.73142
 109  22.69222
 110  96.23814
 111  192.9975
 112  233.2714
 113  222.0746
 114  272.0336
 115  76.30137
 116  40.00182
 117  50.48187
 118  87.35277
 119  160.8317
 120  52.3339
 121  101.7962
 122  110.7302
 123  84.20282
 124  114.5347
 125  41.07452
 126  -78.21457
 127  113.1598
 128  52.31825
 129  86.14607
 130  98.81049
 131  123.1101
 132  142.5844
 133  79.92028
 134  100.1063
 135  157.3781
 136  138.7487
 137  151.8971
 138  254.5897
 139  193.6728
 140  213.1364
 141  257.3924
 142  210.6269
 143  171.6087
 144  132.9953
 145  254.9179
 146  317.8244
 147  191.8773
 148  98.35966
 149  204.6329
 150  274.0899
 151  235.8304
 152  219.8802
 153  90.33022
 154  150.6268
 155  242.1065
 156  266.8803
 157  29.17414
 158  39.35437
 159  154.5264
 160  253.0318
 161  165.0344
 162  208.396
 163  222.1293
 164  237.6388
 165  119.7071
 166  249.2722
 167  327.9218
 168  198.3852
 169  137.2021
 170  143.2278
 171  303.6495
 172  226.9557
 173  51.7264
 174  137.3267
 175  272.6955
 176  350.3315
 177  279.3882
 178  228.7054
 179  129.5149
 180  84.69616
 181  24.73744
 182  176.1169
 183  125.4675
 184  114.641
 185  87.73848
 186  153.5695
 187  202.9214
 188  154.3704
 189  147.9278
 190  221.1063
 191  244.0798
 192  218.837
 193  36.0538
 194  -31.97424
 195  76.65905
 196  161.5907
 197  63.21334
 198  109.0267
 199  109.0584
 200  134.9079
 201  189.9932
 202  213.007
 203  162.3829
 204  94.64684
 205  128.2322
 206  86.95134
 207  201.4046
 208  166.5773
 209  194.8188
 210  217.5419
 211  242.5775
 212  231.9351
 213  289.7238
 214  316.819
 215  228.8178
 216  142.9132
 217  151.7109
 218  73.2854
 219  170.9082
 220  197.3435
 221  207.156
 222  96.77012
 223  119.4916
 224  198.122
 225  140.4129
 226  167.6819
 227  261.7316
 228  84.22769
 229  17.29637
 230  183.5268
 231  183.3785
 232  49.92107
 233  42.48989
 234  -67.60448
 235  80.25923
 236  178.0568
 237  160.3748
 238  68.05797
 239  219.954
 240  268.1141
 241  147.8383
 242  107.5427
 243  102.0923
 244  114.2803
 245  148.6151
 246  177.9312
 247  286.9586
 248  282.4505
 249  197.5912
 250  200.3828
 251  241.267
 252  314.2432
 253  287.6872
 254  227.8951
 255  -26.00818
 256  8.766047
 257  19.6358
 258  77.25937
 259  7.91638
 260  94.9492
 261  74.89371
 262  141.9205
 263  180.1606
 264  110.8589
 265  112.0532
 266  36.90594
 267  53.73018
 268  135.5973
 269  100.9898
 270  268.3548
 271  228.4622
 272  98.51258
 273  175.4176
 274  160.727
 275  186.1731
 276  164.8025
 277  294.1829
 278  314.2979
 279  105.9607
 280  22.5146
 281  83.96052
 282  149.7586
 283  259.6896
 284  239.0357
 285  173.4488
 286  145.9349
 287  120.6164
 288  138.3389
 289  240.1034
 290  63.52334
 291  72.67175
 292  247.7316
 293  218.8705
 294  193.5737
 295  124.343
 296  178.5706
 297  173.956
 298  278.1474
 299  261.1947
 300  201.9855
 301  271.8763
 302  140.6377
 303  113.0809
 304  206.5408
 305  286.7148
 306  187.7231
 307  21.07334
 308  66.50214
 309  231.9137
 310  234.0853
 311  232.019
 312  189.5304
 313  295.4567
 314  229.3383
 315  202.0629
 316  104.2309
 317  167.8206
 318  158.0937
 319  300.6483
 320  200.942
 321  85.18521
 322  261.8935
 323  334.302
 324  210.0856
 325  189.9942
 326  260.4351
 327  317.3046
 328  256.2554
 329  136.4371
 330  104.9173
 331  165.4496
 332  188.4165
 333  39.23094
 334  181.627
 335  194.4356
 336  138.7035
 337  164.4274
 338  239.9161
 339  82.1909
 340  78.40878
 341  131.4218
 342  130.4231
 343  31.17874
 344  88.77348
 345  108.2536
 346  137.44
 347  93.17767
 348  76.41998
 349  -24.8618
 350  152.8145
 351  320.7874
 352  384.1544
 353  394.5793
 354  239.2553
 355  157.2647
 356  143.7894
 357  150.2507
 358  168.5675
 359  227.6933
 360  175.494
 361  90.80318
 362  48.30531
 363  132.7728
 364  217.7522
 365  298.7173
 366  146.2608
 367  98.30274
 368  260.984
 369  306.7353
 370  256.4805
 371  115.3683
 372  99.89075
 373  213.3717
 374  255.899
 375  279.3277
 376  485.1834
 377  426.886
 378  193.5782
 379  238.9458
 380  297.4362
 381  117.8607
 382  226.2621
 383  83.34897
 384  219.4008
 385  212.8169
 386  260.2219
 387  286.5828
 388  225.3839
 389  261.3867
 390  307.5185
 391  60.13643
 392  37.54121
 393  293.1814
 394  295.6124
 395  274.6696
 396  238.1135
 397  139.6881
 398  185.4701
 399  202.5107
 400  327.0661
 401  244.1606
 402  237.9074
 403  202.8432
 404  253.0786
 405  226.6149
 406  233.6154
 407  219.8149
 408  265.4038
 409  255.2824
 410  222.1519
 411  185.2838
 412  215.278
 413  221.0975
 414  202.1197
 415  168.7842
 416  183.6191
 417  273.571
 418  335.1432
 419  285.4572
 420  213.6706
 421  274.7419
 422  248.3183
 423  91.16199
 424  32.43985
 425  92.35534
 426  113.1628
 427  216.4172
 428  279.8435
 429  213.9186
 430  73.28171
 431  -51.52089
 432  122.6391
 433  306.1222
 434  134.2856
 435  146.1896
 436  205.324
 437  282.1444
 438  218.2091
 439  59.18149
 440  27.04882
 441  214.9692
 442  306.8696
 443  286.2584
 444  147.4762
 445  61.00466
 446  147.9056
 447  150.8796
 448  290.3965
 449  263.59
 450  224.6305
 451  235.1957
 452  254.0672
 453  185.9806
 454  185.9677
 455  273.5481
 456  203.1
 457  162.8259
 458  294.4326
 459  366.0219
 460  393.3626
 461  223.3949
 462  88.50053
 463  53.56199
 464  149.7663
 465  76.11012
 466  144.8456
 467  140.1413
 468  272.2135
 469  143.3739
 470  216.9456
 471  178.2674
 472  128.3055
 473  130.8519
 474  175.5738
 475  212.2809
 476  103.3748
 477  206.6246
 478  217.491
 479  173.5563
 480  185.3448
 481  193.9118
 482  229.797
 483  150.9689
 484  17.93497
 485  133.7556
 486  234.2752
 487  111.3252
 488  40.89618
 489  82.73438
 490  166.7877
 491  122.4392
 492  257.4221
 493  279.9295
 494  321.4598
 495  394.4691
 496  344.9424
 497  243.8142
 498  164.9687
 499  244.2214
 500  185.1095
 501  80.99567
 502  160.2365
 503  244.8098
 504  261.2317
 505  266.1097
 506  346.1655
 507  386.5446
 508  455.2914
 509  525.2039
 510  521.4717
 511  729.8229
