# Input file       =  1185836768.110852_cleaned.dat
# Candidate        =  PSR_0332+5434
# Telescope        =  AR
# Epoch_topo       =  57968.962385542269
# Epoch_bary       =  N/A
# T_sample         =  0.002
# Data Folded      =  7208960
# Data Avg         =  0.0131445138954937
# Data StdDev      =  0.999984520745855
# Profile Bins     =  512
# Profile Avg      =  185.093389932995 
# Profile StdDev   =  118.657339037992 
# Reduced chi-sqr  =  1.435
# Prob(Noise)      <  3.68e-10   (~6.2 sigma)
# P_topo (ms)      =  714.468264743599  +/- 0.000129
# P'_topo (s/s)    =  -0                +/- 6.95e-11
# P''_topo (s/s^2) =  0                 +/- 3.12e-14
# P_bary (ms)      =  N/A
# P'_bary (s/s)    =  N/A
# P''_bary (s/s^2) =  N/A
# P_orb (s)        =  N/A
# asin(i)/c (s)    =  N/A
# eccentricity     =  N/A
# w (rad)          =  N/A
# T_peri           =  N/A
######################################################
   0  847.0545
   1  653.9121
   2  463.3592
   3  271.1384
   4  141.7758
   5  258.6774
   6  343.2527
   7  373.2891
   8  317.8364
   9  192.0981
  10  306.2943
  11  248.791
  12  201.5563
  13  140.7008
  14  122.6752
  15  443.6619
  16  326.7847
  17  118.7745
  18  143.295
  19  358.7657
  20  227.5306
  21  108.9225
  22  97.62141
  23  235.0698
  24  244.7832
  25  118.9423
  26  214.3317
  27  210.4086
  28  239.3143
  29  256.9158
  30  146.8358
  31  111.37
  32  174.6243
  33  196.6475
  34  233.4429
  35  116.3406
  36  129.5191
  37  144.8916
  38  153.9371
  39  174.1627
  40  134.0305
  41  311.865
  42  253.1197
  43  76.79562
  44  122.6878
  45  233.5276
  46  219.0972
  47  149.2933
  48  66.97238
  49  127.3468
  50  169.5112
  51  292.1995
  52  188.7963
  53  87.3236
  54  174.8733
  55  214.7919
  56  96.47605
  57  150.4939
  58  175.3898
  59  141.8572
  60  142.2382
  61  76.44157
  62  224.9012
  63  305.9967
  64  224.577
  65  133.2788
  66  214.8403
  67  253.16
  68  120.877
  69  167.7341
  70  265.033
  71  308.4869
  72  156.2038
  73  127.9419
  74  103.502
  75  135.877
  76  59.76278
  77  38.85324
  78  177.813
  79  195.8572
  80  129.3386
  81  156.5737
  82  252.7101
  83  147.6162
  84  196.4305
  85  217.8236
  86  244.9995
  87  237.626
  88  255.9072
  89  232.0174
  90  171.4524
  91  166.1945
  92  175.0921
  93  169.2735
  94  176.6586
  95  -18.70225
  96  -40.49477
  97  -44.4888
  98  -7.042647
  99  201.1481
 100  156.4316
 101  169.0067
 102  231.5858
 103  222.3888
 104  199.644
 105  211.7355
 106  204.8018
 107  140.3156
 108  40.24393
 109  32.2128
 110  163.8828
 111  232.8109
 112  216.7747
 113  289.5766
 114  165.1788
 115  15.97204
 116  57.51581
 117  40.8972
 118  160.9184
 119  96.99236
 120  72.88779
 121  123.1843
 122  88.62735
 123  94.16005
 124  120.1918
 125  -84.04713
 126  52.70172
 127  71.38067
 128  78.97826
 129  80.9185
 130  122.4327
 131  134.1734
 132  116.4093
 133  82.22552
 134  117.3528
 135  168.2229
 136  109.589
 137  250.9547
 138  199.264
 139  219.6738
 140  220.2253
 141  255.2141
 142  173.9785
 143  141.7529
 144  186.0087
 145  304.7997
 146  290.1343
 147  78.09604
 148  163.1675
 149  245.1463
 150  278.2839
 151  233.4906
 152  143.459
 153  97.14784
 154  195.1745
 155  302.0726
 156  116.4551
 157  22.63922
 158  87.12506
 159  237.456
 160  193.0397
 161  182.095
 162  230.5557
 163  242.3775
 164  178.9856
 165  139.479
 166  342.5529
 167  247.6986
 168  169.2052
 169  119.0384
 170  227.8012
 171  293.8669
 172  113.1138
 173  73.44968
 174  226.9465
 175  323.3461
 176  311.8552
 177  259.8866
 178  160.3924
 179  116.0422
 180  38.25205
 181  100.6568
 182  177.9205
 183  85.44154
 184  129.3426
 185  83.84196
 186  227.2377
 187  157.9187
 188  161.513
 189  167.7748
 190  256.4372
 191  218.8612
 192  148.2796
 193  -53.11131
 194  34.30042
 195  123.6003
 196  124.2516
 197  58.74255
 198  132.128
 199  110.767
 200  173.751
 201  207.9489
 202  208.2519
 203  86.03754
 204  137.3708
 205  82.66942
 206  161.4673
 207  187.686
 208  177.3799
 209  206.6644
 210  242.2964
 211  221.3711
 212  264.6141
 213  314.802
 214  273.7229
 215  158.1054
 216  156.3761
 217  101.2269
 218  130.2072
 219  183.3614
 220  221.4735
 221  154.5395
 222  83.1283
 223  188.8618
 224  164.0334
 225  136.2414
 226  226.7486
 227  201.8429
 228  -20.11965
 229  139.4587
 230  201.0228
 231  113.2875
 232  37.97685
 233  -30.09177
 234  -4.353761
 235  142.7789
 236  190.4111
 237  76.67643
 238  140.7234
 239  284.4733
 240  197.9305
 241  129.516
 242  91.46584
 243  118.432
 244  113.0106
 245  157.5525
 246  237.0767
 247  307.4738
 248  244.1354
 249  183.6915
 250  223.9527
 251  303.468
 252  285.0707
 253  283.4948
 254  72.38341
 255  -34.13945
 256  34.36417
 257  52.93533
 258  31.30606
 259  50.80136
 260  94.84357
 261  83.91772
 262  212.0668
 263  107.4771
 264  137.267
 265  62.46216
 266  24.86086
 267  111.476
 268  100.9038
 269  176.3044
 270  312.9573
 271  106.5111
 272  149.2124
 273  173.061
 274  170.0617
 275  182.717
 276  199.1663
 277  374.634
 278  200.2202
 279  38.49009
 280  42.36843
 281  108.4499
 282  223.8657
 283  248.5936
 284  216.0907
 285  137.913
 286  146.7614
 287  108.7449
 288  205.9602
 289  184.0783
 290  -8.470037
 291  201.5939
 292  230.9151
 293  211.6355
 294  159.52
 295  132.259
 296  194.2768
 297  214.1519
 298  305.9549
 299  195.8311
 300  260.0337
 301  199.0428
 302  112.9432
 303  152.6972
 304  266.3459
 305  247.1322
 306  96.1935
 307  4.978398
 308  185.9274
 309  229.4685
 310  246.8879
 311  181.9354
 312  268.7823
 313  269.6055
 314  219.0293
 315  147.8532
 316  99.0948
 317  175.9524
 318  208.5775
 319  327.5996
 320  77.36706
 321  197.1606
 322  306.9494
 323  291.7039
 324  158.8338
 325  241.5659
 326  298.092
 327  291.3503
 328  183.4285
 329  84.80163
 330  135.2215
 331  210.9518
 332  83.16844
 333  113.3526
 334  201.1346
 335  192.8844
 336  119.7235
 337  230.5157
 338  164.1
 339  45.8205
 340  111.0046
 341  150.3674
 342  50.52703
 343  67.72233
 344  102.6388
 345  127.6806
 346  105.7693
 347  97.45645
 348  7.035295
 349  49.00774
 350  262.2097
 351  345.5777
 352  424.6489
 353  302.5092
 354  201.6039
 355  134.6822
 356  156.953
 357  157.8013
 358  203.8787
 359  207.7322
 360  125.0585
 361  43.14404
 362  99.45516
 363  168.1216
 364  285.4569
 365  235.7196
 366  84.24976
 367  180.5264
 368  315.4266
 369  284.7445
 370  182.4691
 371  82.19193
 372  161.2245
 373  250.5595
 374  247.4945
 375  389.9135
 376  506.5837
 377  275.1386
 378  181.9068
 379  311.7245
 380  185.9572
 381  164.1472
 382  161.2681
 383  122.0237
 384  249.4083
 385  222.226
 386  291.9217
 387  262.3566
 388  228.6569
 389  308.7338
 390  181.9774
 391  -18.09495
 392  211.209
 393  299.5513
 394  282.7451
 395  261.5011
 396  180.5474
 397  157.9921
 398  193.7399
 399  270.6436
 400  309.9045
 401  224.141
 402  224.521
 403  229.0011
 404  241.4581
 405  225.6272
 406  217.7953
 407  246.3521
 408  249.171
 409  245.5887
 410  184.5101
 411  208.3054
 412  229.3495
 413  192.1911
 414  206.5341
 415  153.955
 416  250.0025
 417  305.5819
 418  333.2957
 419  223.0367
 420  250.2022
 421  262.6188
 422  178.9775
 423  23.78468
 424  68.9902
 425  103.0037
 426  158.4475
 427  283.7166
 428  231.1447
 429  172.1795
 430  -39.52963
 431  31.95728
 432  254.2834
 433  222.5184
 434  121.2201
 435  175.8794
 436  247.8223
 437  258.7158
 438  141.3463
 439  9.421618
 440  140.9138
 441  273.1432
 442  302.4986
 443  216.828
 444  63.66859
 445  121.2676
 446  136.8081
 447  227.3669
 448  307.246
 449  207.8931
 450  255.6758
 451  222.8386
 452  259.2307
 453  155.236
 454  243.0201
 455  252.7388
 456  128.851
 457  247.449
 458  325.592
 459  414.0354
 460  311.6276
 461  137.9598
 462  49.0209
 463  124.8801
 464  97.28568
 465  127.9747
 466  117.2375
 467  233.072
 468  196.7958
 469  154.2773
 470  233.4334
 471  136.6873
 472  138.306
 473  135.6316
 474  231.5984
 475  130.7632
 476  164.3593
 477  211.2442
 478  205.7633
 479  169.5962
 480  195.9268
 481  201.6844
 482  215.4049
 483  52.47281
 484  65.75925
 485  210.2629
 486  184.6208
 487  45.57716
 488  53.63086
 489  138.0317
 490  151.6404
 491  178.9877
 492  304.3864
 493  281.4972
 494  368.0361
 495  371.379
 496  299.1195
 497  181.5546
 498  220.6266
 499  204.3908
 500  145.2223
 501  73.41547
 502  249.1102
 503  227.2908
 504  292.0351
 505  285.61
 506  393.409
 507  386.5084
 508  523.9822
 509  488.1507
 510  634.1685
 511  839.8577
