# Input file       =  1185061324.110495_cleaned.dat
# Candidate        =  PSR_0332+5434
# Telescope        =  AR
# Epoch_topo       =  57959.987339241845
# Epoch_bary       =  N/A
# T_sample         =  0.002
# Data Folded      =  7143424
# Data Avg         =  0.0213717482467747
# Data StdDev      =  1.00002531235137 
# Profile Bins     =  512
# Profile Avg      =  298.229958184475 
# Profile StdDev   =  118.121574340981 
# Reduced chi-sqr  =  1.293
# Prob(Noise)      <  8.24e-06   (~4.3 sigma)
# P_topo (ms)      =  714.472343609282  +/- 0.000189
# P'_topo (s/s)    =  -0                +/- 1.03e-10
# P''_topo (s/s^2) =  0                 +/- 4.66e-14
# P_bary (ms)      =  N/A
# P'_bary (s/s)    =  N/A
# P''_bary (s/s^2) =  N/A
# P_orb (s)        =  N/A
# asin(i)/c (s)    =  N/A
# eccentricity     =  N/A
# w (rad)          =  N/A
# T_peri           =  N/A
######################################################
   0  1042.352
   1  807.8224
   2  724.3442
   3  488.1338
   4  377.0132
   5  379.071
   6  298.3212
   7  304.4854
   8  319.6758
   9  317.0311
  10  270.0999
  11  307.7808
  12  262.8413
  13  245.2627
  14  273.8259
  15  302.7704
  16  265.6086
  17  316.0015
  18  183.0746
  19  243.3715
  20  387.0021
  21  373.1814
  22  295.2118
  23  258.2237
  24  276.2471
  25  239.7478
  26  202.5373
  27  300.7403
  28  343.6049
  29  250.0701
  30  358.663
  31  430.293
  32  323.7647
  33  329.199
  34  377.8806
  35  467.5549
  36  379.706
  37  278.8972
  38  236.4015
  39  267.3839
  40  257.1306
  41  208.7142
  42  207.8347
  43  357.0529
  44  316.9559
  45  398.1392
  46  283.8901
  47  300.9498
  48  259.745
  49  352.4959
  50  271.2299
  51  267.3257
  52  343.5977
  53  276.5772
  54  266.4487
  55  374.2006
  56  363.8709
  57  337.5405
  58  344.6305
  59  301.0495
  60  219.76
  61  252.0793
  62  414.318
  63  389.2418
  64  368.0631
  65  307.8668
  66  349.7899
  67  188.3714
  68  118.6506
  69  225.767
  70  294.7731
  71  204.2628
  72  191.1137
  73  278.3583
  74  335.5498
  75  309.7382
  76  269.4154
  77  210.5767
  78  317.1795
  79  387.9028
  80  208.6268
  81  91.00832
  82  161.621
  83  403.0705
  84  286.6592
  85  218.9743
  86  241.7457
  87  305.6331
  88  292.3703
  89  274.0583
  90  333.2404
  91  305.2269
  92  260.611
  93  247.0615
  94  331.4525
  95  405.0067
  96  341.2076
  97  367.4663
  98  239.546
  99  180.7039
 100  223.9129
 101  223.8096
 102  180.833
 103  232.6412
 104  358.7012
 105  176.221
 106  48.59507
 107  277.963
 108  232.7897
 109  269.9752
 110  405.8029
 111  400.7511
 112  399.4766
 113  388.991
 114  359.156
 115  367.1947
 116  383.1387
 117  318.3805
 118  409.6305
 119  273.8425
 120  96.12291
 121  178.3055
 122  267.4286
 123  317.4117
 124  219.526
 125  267.4859
 126  329.088
 127  355.1541
 128  308.5144
 129  468.8657
 130  331.3108
 131  293.7975
 132  269.3134
 133  297.7455
 134  373.5162
 135  386.907
 136  475.3319
 137  381.3295
 138  317.9401
 139  179.5806
 140  354.9042
 141  335.5543
 142  336.7384
 143  310.4196
 144  372.256
 145  322.7899
 146  405.4712
 147  308.904
 148  242.1375
 149  395.6147
 150  435.7892
 151  283.6796
 152  307.2162
 153  309.2879
 154  294.6322
 155  240.3039
 156  355.4434
 157  326.5776
 158  316.2048
 159  214.247
 160  304.228
 161  363.144
 162  295.1096
 163  285.1216
 164  196.3792
 165  308.7084
 166  425.0907
 167  330.7614
 168  347.2491
 169  274.3824
 170  286.2147
 171  240.4482
 172  138.219
 173  176.6437
 174  314.2625
 175  363.9414
 176  333.6202
 177  290.4255
 178  222.3029
 179  293.3978
 180  320.5521
 181  272.818
 182  180.5944
 183  239.9521
 184  276.3013
 185  244.6495
 186  269.2912
 187  223.0799
 188  238.8345
 189  138.3648
 190  114.1191
 191  150.7571
 192  238.923
 193  212.3569
 194  147.2261
 195  295.0588
 196  279.1985
 197  214.9592
 198  279.0371
 199  319.565
 200  184.3757
 201  198.0226
 202  181.6193
 203  378.3292
 204  316.0949
 205  232.615
 206  235.155
 207  344.0821
 208  288.0478
 209  274.3309
 210  231.9489
 211  272.3978
 212  283.954
 213  257.6761
 214  305.0027
 215  361.8509
 216  353.4882
 217  265.727
 218  252.05
 219  235.3042
 220  327.2578
 221  373.909
 222  283.2098
 223  255.5166
 224  135.335
 225  163.1014
 226  109.0063
 227  134.0598
 228  110.6774
 229  131.1511
 230  267.7682
 231  227.251
 232  197.9387
 233  197.6053
 234  315.2945
 235  392.5393
 236  277.5245
 237  220.6105
 238  308.5585
 239  323.7234
 240  263.7518
 241  235.8288
 242  353.3617
 243  282.1153
 244  290.305
 245  279.511
 246  274.8898
 247  266.0512
 248  288.811
 249  206.2855
 250  372.6601
 251  255.5224
 252  274.4247
 253  242.9678
 254  313.1189
 255  323.7863
 256  369.7422
 257  357.9256
 258  355.0968
 259  306.1133
 260  334.4865
 261  192.2539
 262  165.4434
 263  288.6982
 264  257.3096
 265  235.0007
 266  311.8017
 267  340.1922
 268  369.7338
 269  290.8673
 270  172.0298
 271  221.7281
 272  312.0055
 273  423.7339
 274  313.1416
 275  347.7777
 276  329.1105
 277  234.7764
 278  366.0434
 279  499.7832
 280  496.7545
 281  383.435
 282  367.4656
 283  264.2622
 284  174.5778
 285  274.745
 286  315.2192
 287  315.0336
 288  258.9804
 289  268.1623
 290  392.9359
 291  373.2363
 292  383.896
 293  249.2982
 294  298.9536
 295  399.2288
 296  276.918
 297  329.2719
 298  276.6263
 299  186.4751
 300  152.2426
 301  310.8707
 302  271.8723
 303  446.6167
 304  390.4696
 305  242.6621
 306  215.2843
 307  298.7134
 308  335.2746
 309  299.7025
 310  324.4905
 311  385.9995
 312  300.9572
 313  286.8167
 314  265.3236
 315  212.5004
 316  273.5775
 317  327.9963
 318  307.7277
 319  236.2164
 320  229.5165
 321  277.7335
 322  352.8358
 323  271.5171
 324  256.2645
 325  329.6715
 326  340.6269
 327  284.9053
 328  211.9357
 329  330.7636
 330  374.092
 331  327.7963
 332  317.7994
 333  237.7062
 334  255.7677
 335  156.4014
 336  210.9303
 337  366.8659
 338  386.2073
 339  309.9785
 340  271.8665
 341  245.0956
 342  282.1155
 343  330.8324
 344  395.7309
 345  318.9293
 346  323.37
 347  329.8297
 348  173.9032
 349  163.7289
 350  194.0312
 351  198.7553
 352  159.3975
 353  167.3196
 354  184.1244
 355  159.9892
 356  308.6862
 357  310.9992
 358  190.2857
 359  183.6564
 360  313.4012
 361  300.4557
 362  311.2986
 363  454.4312
 364  338.2394
 365  200.5417
 366  230.694
 367  261.9962
 368  275.916
 369  248.0587
 370  299.5478
 371  305.4454
 372  216.13
 373  194.0898
 374  236.2317
 375  277.0122
 376  275.0159
 377  265.3496
 378  420.7743
 379  341.4686
 380  301.6398
 381  280.2697
 382  420.2878
 383  438.6352
 384  387.6127
 385  396.223
 386  344.3692
 387  323.2411
 388  237.0838
 389  259.627
 390  271.8822
 391  303.1157
 392  350.3483
 393  280.9024
 394  175.81
 395  219.4217
 396  299.7932
 397  340.5522
 398  322.0944
 399  313.8762
 400  397.9294
 401  383.8768
 402  271.4999
 403  201.0644
 404  210.0542
 405  305.1227
 406  255.902
 407  194.5901
 408  187.4495
 409  216.7025
 410  286.4163
 411  268.7647
 412  257.0299
 413  256.7849
 414  319.4656
 415  226.6103
 416  409.9111
 417  399.0489
 418  360.9968
 419  411.7537
 420  210.0927
 421  194.6614
 422  287.5116
 423  277.7095
 424  320.9714
 425  338.7666
 426  414.6515
 427  351.5116
 428  82.273
 429  38.56623
 430  175.8205
 431  183.8707
 432  65.82987
 433  -19.86528
 434  197.7027
 435  218.4272
 436  233.7334
 437  256.858
 438  272.0389
 439  279.1177
 440  243.809
 441  192.2983
 442  232.5743
 443  202.1158
 444  320.2219
 445  374.3626
 446  371.0233
 447  269.8997
 448  321.9641
 449  379.6106
 450  307.2536
 451  360.9896
 452  425.9119
 453  327.1087
 454  201.5173
 455  224.4047
 456  306.3252
 457  265.5797
 458  273.6533
 459  303.4834
 460  299.2432
 461  371.0626
 462  371.7112
 463  393.0965
 464  302.8851
 465  293.3641
 466  370.4507
 467  417.5705
 468  318.6489
 469  208.458
 470  253.989
 471  315.3751
 472  386.1383
 473  261.2401
 474  228.5983
 475  156.4862
 476  218.8617
 477  363.6653
 478  278.8647
 479  237.55
 480  322.2421
 481  310.6263
 482  326.0908
 483  346.5859
 484  370.3893
 485  435.7698
 486  403.3268
 487  350.1712
 488  387.6886
 489  410.5941
 490  433.7855
 491  429.5722
 492  382.2712
 493  392.4681
 494  299.2489
 495  268.8788
 496  365.1508
 497  371.273
 498  312.5275
 499  329.8049
 500  323.5157
 501  398.5147
 502  413.2711
 503  406.0696
 504  390.8841
 505  342.4295
 506  414.2718
 507  482.897
 508  485.617
 509  608.3796
 510  716.0099
 511  980.301
