# Input file       =  1185061324.110495_cleaned.dat
# Candidate        =  PSR_0332+5434
# Telescope        =  AR
# Epoch_topo       =  57959.987339241845
# Epoch_bary       =  N/A
# T_sample         =  0.002
# Data Folded      =  7143424
# Data Avg         =  0.0213717482467747
# Data StdDev      =  1.00002531235137 
# Profile Bins     =  512
# Profile Avg      =  298.22996105833  
# Profile StdDev   =  118.121574340981 
# Reduced chi-sqr  =  1.296
# Prob(Noise)      <  6.74e-06   (~4.4 sigma)
# P_topo (ms)      =  714.472344612873  +/- 0.000188
# P'_topo (s/s)    =  -0                +/- 1.02e-10
# P''_topo (s/s^2) =  0                 +/- 4.63e-14
# P_bary (ms)      =  N/A
# P'_bary (s/s)    =  N/A
# P''_bary (s/s^2) =  N/A
# P_orb (s)        =  N/A
# asin(i)/c (s)    =  N/A
# eccentricity     =  N/A
# w (rad)          =  N/A
# T_peri           =  N/A
######################################################
   0  285.5678
   1  297.2706
   2  156.9963
   3  294.8469
   4  390.0411
   5  357.347
   6  276.321
   7  252.4117
   8  288.9724
   9  228.1863
  10  211.3632
  11  319.265
  12  327.7722
  13  253.1066
  14  400.4143
  15  405.041
  16  316.6752
  17  344.7884
  18  390.6766
  19  462.9576
  20  339.8302
  21  278.7317
  22  243.6663
  23  270.844
  24  246.7915
  25  193.9865
  26  236.8181
  27  356.6366
  28  330.5747
  29  386.065
  30  266.8633
  31  304.944
  32  265.0018
  33  362.0918
  34  241.1224
  35  300.194
  36  327.6763
  37  271.1437
  38  278.1698
  39  397.6255
  40  345.9837
  41  337.1176
  42  341.529
  43  284.8555
  44  212.3045
  45  296.466
  46  407.1679
  47  392.5207
  48  346.193
  49  320.6028
  50  326.325
  51  163.5788
  52  127.5233
  53  262.5172
  54  274.5106
  55  188.3097
  56  202.8433
  57  301.1691
  58  328.1287
  59  308.6201
  60  249.6435
  61  221.0948
  62  353.9152
  63  361.6405
  64  168.2025
  65  85.26665
  66  221.0529
  67  404.5167
  68  245.6651
  69  240.5415
  70  241.7278
  71  320.112
  72  274.4009
  73  288.1475
  74  333.5697
  75  295.9337
  76  254.5626
  77  262.0102
  78  353.8372
  79  391.0182
  80  345.7865
  81  346.36
  82  215.4462
  83  187.5323
  84  224.8436
  85  227.0508
  86  166.7608
  87  279.1436
  88  336.8697
  89  122.4793
  90  87.60579
  91  305.689
  92  200.3151
  93  316.0787
  94  406.2974
  95  404.6951
  96  397.3329
  97  384.5249
  98  350.3685
  99  384.7826
 100  363.4972
 101  344.149
 102  390.7873
 103  227.7247
 104  86.54169
 105  211.7077
 106  279.8875
 107  305.9153
 108  201.8602
 109  307.3662
 110  330.4398
 111  340.8773
 112  333.3726
 113  469.7281
 114  306.1523
 115  287.3796
 116  279.5746
 117  297.5468
 118  387.76
 119  397.1458
 120  476.4533
 121  377.7314
 122  269.474
 123  196.6951
 124  369.0685
 125  328.3832
 126  334.8452
 127  315.9143
 128  373.9734
 129  333.4612
 130  413.6341
 131  267.8276
 132  257.5239
 133  428.2042
 134  400.9915
 135  270.4869
 136  320.9679
 137  308.1006
 138  279.3586
 139  260.8052
 140  359.5132
 141  319.7682
 142  301.2914
 143  208.7556
 144  343.8445
 145  343.4802
 146  302.816
 147  257.5921
 148  209.6526
 149  341.4092
 150  419.039
 151  319.8876
 152  343.7105
 153  258.6361
 154  289.2076
 155  211.4779
 156  142.433
 157  201.9961
 158  344.2238
 159  353.1939
 160  328.9784
 161  266.0977
 162  213.6605
 163  318.1709
 164  323.903
 165  255.1185
 166  188.5675
 167  241.5841
 168  270.9377
 169  244.0943
 170  264.0818
 171  217.866
 172  233.0468
 173  117.8065
 174  136.9951
 175  147.6536
 176  263.0494
 177  175.3838
 178  167.7809
 179  313.5535
 180  266.9247
 181  217.5508
 182  304.4023
 183  287.9375
 184  175.3159
 185  194.7088
 186  199.1854
 187  404.8508
 188  292.4707
 189  228.5206
 190  253.234
 191  338.7126
 192  286.1752
 193  252.7175
 194  237.8331
 195  285.3004
 196  284.3726
 197  264.3441
 198  309.7861
 199  377.4268
 200  331.0103
 201  252.1998
 202  253.8885
 203  231.6854
 204  359.2517
 205  344.5883
 206  293.5896
 207  220.8309
 208  145.9089
 209  145.1031
 210  110.7429
 211  139.5494
 212  98.508
 213  168.0165
 214  265.7183
 215  211.5555
 216  194.387
 217  216.5657
 218  346.9307
 219  374.9742
 220  253.3157
 221  228.5004
 222  325.2386
 223  332.8121
 224  228.4413
 225  273.3458
 226  349.3093
 227  280.2467
 228  280.5047
 229  284.7436
 230  262.5572
 231  284.868
 232  262.5472
 233  229.068
 234  370.2323
 235  239.5806
 236  281.9484
 237  246.7312
 238  323.2694
 239  327.5602
 240  373.296
 241  351.7873
 242  348.0287
 243  311.9581
 244  318.7395
 245  158.5162
 246  195.8863
 247  300.1289
 248  245.0111
 249  247.4813
 250  318.2398
 251  336.0676
 252  377.1021
 253  249.9182
 254  186.94
 255  222.8963
 256  362.5656
 257  410.0352
 258  296.8227
 259  358.8925
 260  302.325
 261  242.3741
 262  395.5468
 263  526.9528
 264  462.5013
 265  382.6098
 266  351.175
 267  240.0738
 268  185.8792
 269  290.2246
 270  331.1803
 271  292.5722
 272  258.0789
 273  274.0055
 274  410.3621
 275  366.5232
 276  381.3013
 277  215.455
 278  348.5322
 279  364.3644
 280  277.9755
 281  335.1718
 282  265.3687
 283  159.1872
 284  184.1211
 285  311.4974
 286  293.0112
 287  465.595
 288  355.8309
 289  215.924
 290  239.2936
 291  308.351
 292  333.7096
 293  290.3872
 294  338.1982
 295  398.5999
 296  270.6616
 297  302.1704
 298  236.418
 299  223.7592
 300  291.4467
 301  326.5892
 302  295.2022
 303  223.1666
 304  244.3269
 305  283.7076
 306  350.266
 307  250.4551
 308  280.1248
 309  342.0039
 310  332.496
 311  262.9711
 312  222.0949
 313  362.3925
 314  353.7539
 315  338.004
 316  294.0501
 317  239.7142
 318  235.8301
 319  147.2518
 320  252.5604
 321  388.1507
 322  367.0551
 323  292.1176
 324  267.7417
 325  247.6459
 326  307.6985
 327  335.0576
 328  393.3261
 329  299.1614
 330  340.0115
 331  306.3336
 332  146.5341
 333  184.5741
 334  187.9868
 335  198.8398
 336  152.615
 337  175.4918
 338  181.6454
 339  164.8014
 340  347.3603
 341  273.5172
 342  185.5258
 343  204.682
 344  328.3361
 345  277.6322
 346  345.9202
 347  457.9928
 348  303.0644
 349  194.5509
 350  237.996
 351  267.1473
 352  268.0031
 353  250.9349
 354  306.9834
 355  289.9832
 356  207.758
 357  199.4994
 358  243.1965
 359  285.1916
 360  263.3622
 361  292.3709
 362  428.1801
 363  323.9066
 364  297.1887
 365  295.6895
 366  447.6339
 367  416.4368
 368  401.0284
 369  376.8329
 370  340.2653
 371  307.9124
 372  233.1892
 373  266.6079
 374  277.2938
 375  305.5565
 376  350.4655
 377  253.4136
 378  174.9441
 379  245.4304
 380  308.4802
 381  346.1733
 382  301.9767
 383  322.4805
 384  421.2013
 385  362.6539
 386  256.5392
 387  175.8354
 388  246.4935
 389  297.4194
 390  234.5316
 391  195.7108
 392  181.8168
 393  244.5758
 394  294.8794
 395  254.2859
 396  252.8994
 397  270.6701
 398  304.1981
 399  244.2524
 400  441.477
 401  370.21
 402  382.5326
 403  377.5564
 404  192.529
 405  208.5421
 406  296.0517
 407  268.6689
 408  337.55
 409  335.5062
 410  433.888
 411  307.8048
 412  42.72396
 413  74.73159
 414  181.5455
 415  173.3463
 416  24.15859
 417  9.089022
 418  227.1811
 419  214.8868
 420  236.301
 421  261.7744
 422  270.4762
 423  281.0524
 424  229.3133
 425  200.2674
 426  230.5211
 427  210.7065
 428  341.5369
 429  377.8103
 430  357.4867
 431  252.093
 432  353.3091
 433  369.4464
 434  300.9507
 435  390.6356
 436  407.5305
 437  308.7141
 438  177.7481
 439  257.4224
 440  298.6485
 441  262.89
 442  278.2842
 443  291.292
 444  327.8347
 445  366.8895
 446  384.0194
 447  385.1181
 448  279.8352
 449  316.8653
 450  372.4099
 451  414.5163
 452  290.0101
 453  207.5333
 454  270.0581
 455  339.1671
 456  369.2187
 457  244.9254
 458  218.1972
 459  146.9697
 460  265.8561
 461  355.5351
 462  255.8506
 463  250.9789
 464  330.0898
 465  307.2559
 466  328.7732
 467  353.0809
 468  388.8336
 469  435.9062
 470  383.148
 471  347.5966
 472  408.897
 473  407.7447
 474  445.5585
 475  411.914
 476  380.7308
 477  385.4248
 478  281.1823
 479  279.0427
 480  387.6079
 481  347.5813
 482  325.9258
 483  320.9933
 484  326.4068
 485  415.2423
 486  398.12
 487  407.8864
 488  376.5513
 489  362.7368
 490  431.2973
 491  484.2195
 492  501.4159
 493  627.9395
 494  764.3218
 495  1033.227
 496  1001.828
 497  772.6137
 498  696.3851
 499  432.2543
 500  384.5338
 501  363.4417
 502  287.593
 503  312.8408
 504  314.5938
 505  324.3651
 506  260.1268
 507  319.9222
 508  244.4762
 509  237.2462
 510  294.8998
 511  290.0978
