# Input file       =  1185233632.110816_cleaned.dat
# Candidate        =  PSR_0332+5434
# Telescope        =  AR
# Epoch_topo       =  57961.981644801112
# Epoch_bary       =  N/A
# T_sample         =  0.002
# Data Folded      =  7208960
# Data Avg         =  0.0252145429385425
# Data StdDev      =  1.00004508669388 
# Profile Bins     =  512
# Profile Avg      =  354.996497021376 
# Profile StdDev   =  118.664525743465 
# Reduced chi-sqr  =  1.517
# Prob(Noise)      <  3.59e-13   (~7.2 sigma)
# P_topo (ms)      =  714.471335219908  +/- 0.000315
# P'_topo (s/s)    =  -0                +/- 1.69e-10
# P''_topo (s/s^2) =  0                 +/- 7.6e-14
# P_bary (ms)      =  N/A
# P'_bary (s/s)    =  N/A
# P''_bary (s/s^2) =  N/A
# P_orb (s)        =  N/A
# asin(i)/c (s)    =  N/A
# eccentricity     =  N/A
# w (rad)          =  N/A
# T_peri           =  N/A
######################################################
   0  258.4963
   1  315.7968
   2  465.3182
   3  391.284
   4  312.7756
   5  407.691
   6  339.7662
   7  241.3333
   8  289.7154
   9  350.1494
  10  421.0334
  11  332.0307
  12  323.0617
  13  404.5385
  14  494.8965
  15  465.6992
  16  412.8582
  17  411.4897
  18  438.3543
  19  444.8999
  20  411.5211
  21  417.9121
  22  412.1427
  23  339.4557
  24  248.1292
  25  278.8961
  26  330.7809
  27  345.6686
  28  367.4412
  29  460.4107
  30  305.8239
  31  259.9099
  32  374.155
  33  305.0409
  34  354.1597
  35  329.1924
  36  314.2152
  37  387.1852
  38  340.8174
  39  248.6016
  40  343.0507
  41  397.7068
  42  433.5074
  43  374.5613
  44  303.2197
  45  325.4642
  46  413.2501
  47  377.5266
  48  265.6571
  49  208.7533
  50  331.9283
  51  410.4622
  52  376.2351
  53  389.6212
  54  421.3398
  55  400.3976
  56  368.8344
  57  288.3984
  58  324.6485
  59  417.7195
  60  446.7015
  61  415.2765
  62  291.1983
  63  294.2719
  64  323.8655
  65  345.6477
  66  317.4319
  67  298.0591
  68  386.9391
  69  355.1502
  70  369.9455
  71  360.6777
  72  304.7374
  73  379.2383
  74  373.3122
  75  343.8546
  76  287.1114
  77  389.689
  78  402.8831
  79  435.4172
  80  440.2749
  81  358.8801
  82  424.3764
  83  417.1543
  84  399.7164
  85  493.1638
  86  345.1481
  87  353.5907
  88  410.8071
  89  405.928
  90  294.8938
  91  219.1308
  92  325.245
  93  359.5825
  94  285.4879
  95  213.5841
  96  247.7945
  97  331.8433
  98  324.7158
  99  288.4671
 100  232.0893
 101  334.9292
 102  318.5921
 103  342.948
 104  260.5015
 105  193.0782
 106  308.3417
 107  390.2662
 108  416.5146
 109  308.673
 110  296.1812
 111  295.8709
 112  396.3011
 113  386.8447
 114  303.9276
 115  237.7629
 116  301.3829
 117  282.299
 118  282.1601
 119  274.7331
 120  342.3727
 121  363.4107
 122  358.6776
 123  274.3672
 124  204.9043
 125  377.1567
 126  399.4747
 127  366.39
 128  362.7589
 129  233.4474
 130  251.7549
 131  253.7546
 132  391.0596
 133  333.2656
 134  375.5766
 135  454.7758
 136  297.434
 137  280.6325
 138  309.1978
 139  300.7274
 140  345.0597
 141  339.2337
 142  369.7534
 143  412.5469
 144  522.2562
 145  408.4388
 146  284.9969
 147  330.8762
 148  390.2182
 149  345.2916
 150  341.6297
 151  489.3839
 152  341.2874
 153  206.4623
 154  234.518
 155  343.3573
 156  240.6528
 157  295.3229
 158  381.8271
 159  259.31
 160  282.3514
 161  414.5385
 162  311.81
 163  358.0978
 164  375.8735
 165  376.6672
 166  320.2987
 167  276.5516
 168  224.1398
 169  222.2736
 170  268.5181
 171  276.9682
 172  376.4569
 173  345.4272
 174  297.1125
 175  299.841
 176  357.6028
 177  415.8725
 178  278.479
 179  296.1191
 180  272.1274
 181  244.9049
 182  319.3023
 183  392.5773
 184  367.2941
 185  231.6457
 186  239.5364
 187  286.8612
 188  243.4854
 189  188.5049
 190  235.7646
 191  265.5064
 192  327.6075
 193  331.8691
 194  411.3062
 195  289.6407
 196  262.4039
 197  272.1926
 198  269.4403
 199  210.7537
 200  182.5359
 201  218.9501
 202  280.6656
 203  315.3683
 204  307.0227
 205  224.8383
 206  258.9323
 207  324.8658
 208  331.3794
 209  338.571
 210  268.5534
 211  184.8652
 212  209.3412
 213  170.1523
 214  106.5767
 215  236.4004
 216  279.3224
 217  344.4509
 218  284.9677
 219  283.3302
 220  381.8364
 221  398.5107
 222  289.1275
 223  426.6045
 224  373.9824
 225  347.798
 226  304.6552
 227  371.0686
 228  499.6102
 229  288.479
 230  205.9557
 231  360.5847
 232  309.3615
 233  385.9074
 234  383.7116
 235  331.547
 236  371.5565
 237  290.2908
 238  342.2309
 239  315.0421
 240  306.0413
 241  266.0421
 242  222.16
 243  264.0268
 244  263.501
 245  246.5559
 246  235.1495
 247  239.2499
 248  257.4482
 249  166.3357
 250  278.5967
 251  230.1993
 252  150.7551
 253  214.0048
 254  278.965
 255  184.5966
 256  371.633
 257  385.8534
 258  315.6843
 259  298.6726
 260  340.9799
 261  364.5609
 262  376.0858
 263  268.4755
 264  383.9579
 265  356.947
 266  302.2849
 267  439.2859
 268  416.4873
 269  300.0301
 270  285.1287
 271  254.122
 272  388.0282
 273  360.0188
 274  332.9721
 275  262.9886
 276  214.6296
 277  250.4903
 278  184.3807
 279  361.5132
 280  392.1595
 281  301.8031
 282  280.2853
 283  261.8337
 284  335.8368
 285  357.9019
 286  370.9595
 287  293.3751
 288  337.1656
 289  329.3206
 290  359.414
 291  376.9862
 292  500.1942
 293  378.6924
 294  299.7061
 295  205.8993
 296  241.0264
 297  200.134
 298  318.8604
 299  343.9699
 300  266.2137
 301  230.5847
 302  376.8308
 303  308.1302
 304  377.5588
 305  321.4297
 306  292.576
 307  442.2751
 308  436.8087
 309  250.9439
 310  347.7739
 311  334.9413
 312  314.1095
 313  308.2158
 314  352.9044
 315  229.6172
 316  288.9101
 317  324.9058
 318  338.8454
 319  305.442
 320  356.4309
 321  317.3217
 322  288.0292
 323  350.4245
 324  279.4109
 325  305.4671
 326  416.817
 327  406.4981
 328  253.9313
 329  227.4228
 330  417.688
 331  377.0645
 332  386.8361
 333  409.3303
 334  274.0508
 335  352.3544
 336  388.3161
 337  340.9964
 338  338.0534
 339  251.9241
 340  367.8235
 341  423.4013
 342  279.876
 343  125.4392
 344  260.5809
 345  373.7565
 346  391.8625
 347  154.777
 348  270.3852
 349  452.6908
 350  435.3621
 351  349.3659
 352  427.5797
 353  373.7124
 354  323.9933
 355  458.163
 356  538.6663
 357  572.062
 358  556.9983
 359  550.9901
 360  390.8155
 361  414.1642
 362  686.7366
 363  819.4149
 364  924.0962
 365  1118.51
 366  1215.701
 367  986.4261
 368  829.0731
 369  687.8798
 370  485.4866
 371  404.0858
 372  305.2429
 373  334.8611
 374  335.6936
 375  357.7425
 376  368.2653
 377  354.8259
 378  549.543
 379  448.3709
 380  307.0829
 381  394.5594
 382  443.3364
 383  487.179
 384  443.0599
 385  425.9487
 386  529.0072
 387  395.8859
 388  246.0891
 389  344.9425
 390  429.9245
 391  365.7276
 392  287.8432
 393  278.831
 394  331.7611
 395  338.8105
 396  443.7419
 397  466.8323
 398  457.8068
 399  374.2239
 400  372.6521
 401  402.2576
 402  451.4075
 403  364.8549
 404  415.1859
 405  409.654
 406  357.8902
 407  385.8732
 408  351.6133
 409  314.9146
 410  338.0789
 411  323.3086
 412  392.0193
 413  430.8228
 414  328.929
 415  420.9867
 416  459.0157
 417  395.7129
 418  386.8676
 419  323.5222
 420  382.1317
 421  419.8143
 422  359.7819
 423  353.101
 424  474.6571
 425  395.2463
 426  319.0483
 427  359.2153
 428  314.4473
 429  303.5624
 430  331.0594
 431  434.591
 432  318.1015
 433  326.7473
 434  360.6656
 435  329.5613
 436  381.8472
 437  299.2628
 438  346.4957
 439  401.8771
 440  436.9367
 441  402.1042
 442  380.0474
 443  426.0833
 444  461.4529
 445  453.7604
 446  377.9662
 447  269.9823
 448  299.3849
 449  300.4601
 450  389.9916
 451  384.8876
 452  458.2609
 453  524.0296
 454  424.4883
 455  606.9799
 456  469.7191
 457  355.709
 458  346.1293
 459  417.8044
 460  452.7785
 461  305.5279
 462  360.0652
 463  378.9387
 464  369.7863
 465  310.1125
 466  221.0744
 467  251.0047
 468  408.7678
 469  452.6237
 470  474.4603
 471  463.2844
 472  359.3933
 473  343.2165
 474  379.6419
 475  394.7847
 476  307.2357
 477  349.3146
 478  331.3839
 479  380.1664
 480  522.6749
 481  419.0343
 482  330.15
 483  312.4421
 484  402.3772
 485  420.5333
 486  476.6927
 487  493.7415
 488  404.0151
 489  358.5119
 490  374.82
 491  429.1096
 492  386.0179
 493  296.5528
 494  287.5187
 495  385.5095
 496  358.4334
 497  422.9727
 498  515.0692
 499  468.3101
 500  328.5699
 501  458.8289
 502  452.4311
 503  480.7901
 504  481.6475
 505  427.5688
 506  457.9931
 507  461.1538
 508  532.8992
 509  434.6613
 510  377.9194
 511  364.2169
