# Input file       =  1185233632.110816_cleaned.dat
# Candidate        =  PSR_0332+5434
# Telescope        =  AR
# Epoch_topo       =  57961.981644801112
# Epoch_bary       =  N/A
# T_sample         =  0.002
# Data Folded      =  7208960
# Data Avg         =  0.0252145429385425
# Data StdDev      =  1.00004508669388 
# Profile Bins     =  512
# Profile Avg      =  354.996511002051 
# Profile StdDev   =  118.664525743465 
# Reduced chi-sqr  =  1.522
# Prob(Noise)      <  2.23e-13   (~7.2 sigma)
# P_topo (ms)      =  714.471334188792  +/- 0.000311
# P'_topo (s/s)    =  -0                +/- 1.67e-10
# P''_topo (s/s^2) =  0                 +/- 7.5e-14
# P_bary (ms)      =  N/A
# P'_bary (s/s)    =  N/A
# P''_bary (s/s^2) =  N/A
# P_orb (s)        =  N/A
# asin(i)/c (s)    =  N/A
# eccentricity     =  N/A
# w (rad)          =  N/A
# T_peri           =  N/A
######################################################
   0  1182.861
   1  927.4907
   2  797.0005
   3  642.3729
   4  443.9818
   5  400.0678
   6  274.1512
   7  357.4968
   8  313.8431
   9  392.8384
  10  348.9586
  11  408.6216
  12  553.1808
  13  391.2565
  14  308.8645
  15  410.7077
  16  453.7931
  17  492.6277
  18  424.6549
  19  457.7373
  20  520.7211
  21  347.6226
  22  246.1939
  23  388.2704
  24  410.0951
  25  358.0146
  26  251.7115
  27  310.6411
  28  331.2639
  29  356.4021
  30  470.0923
  31  457.4607
  32  434.4451
  33  370.6724
  34  377.2645
  35  429.0337
  36  424.3845
  37  372.4246
  38  420.2914
  39  399.1179
  40  335.0856
  41  400.7118
  42  330.3015
  43  327.7881
  44  349.7241
  45  311.8059
  46  427.0302
  47  397.6498
  48  335.1762
  49  452.5028
  50  444.2405
  51  381.7301
  52  378.5604
  53  338.2094
  54  398.0519
  55  403.9444
  56  340.6983
  57  383.252
  58  482.8294
  59  357.8724
  60  333.0001
  61  344.2294
  62  319.4565
  63  283.3861
  64  379.631
  65  407.6559
  66  305.6166
  67  343.956
  68  345.1615
  69  352.9392
  70  362.6897
  71  304.1021
  72  356.8499
  73  414.8117
  74  444.1062
  75  374.9414
  76  403.2479
  77  418.9551
  78  476.1347
  79  439.8731
  80  342.7829
  81  279.6458
  82  284.8817
  83  331.3855
  84  392.146
  85  397.8177
  86  490.5323
  87  494.3755
  88  436.9383
  89  612.4225
  90  426.4146
  91  343.9127
  92  369.7069
  93  436.7069
  94  428.2441
  95  275.9183
  96  401.2971
  97  353.6951
  98  380.1746
  99  276.4026
 100  210.6066
 101  301.4573
 102  413.0342
 103  484.3785
 104  459.3453
 105  451.926
 106  337.1119
 107  354.1559
 108  395.0663
 109  367.8039
 110  323.21
 111  340.5033
 112  331.7386
 113  411.3143
 114  529.2214
 115  373.4676
 116  328.4836
 117  321.7104
 118  417.3829
 119  420.8859
 120  503.1674
 121  463.0119
 122  393.34
 123  356.1186
 124  391.9218
 125  442.2811
 126  348.6874
 127  283.7673
 128  305.5946
 129  382.4108
 130  371.2096
 131  440.252
 132  531.8155
 133  416.8835
 134  342.5602
 135  494.1691
 136  423.3017
 137  520.5169
 138  432.084
 139  460.7453
 140  437.9552
 141  514.0353
 142  493.2779
 143  432.963
 144  349.0793
 145  360.7781
 146  236.4096
 147  367.7923
 148  462.212
 149  343.1018
 150  347.3948
 151  408.8971
 152  310.2528
 153  237.6323
 154  311.7868
 155  373.9722
 156  404.7338
 157  315.1902
 158  334.7791
 159  436.111
 160  494.3291
 161  458.4516
 162  413.3419
 163  405.1922
 164  451.9688
 165  431.8522
 166  411.2108
 167  411.7504
 168  408.095
 169  297.3042
 170  259.4058
 171  299.0584
 172  334.7934
 173  334.252
 174  398.5793
 175  449.3917
 176  262.8246
 177  295.644
 178  363.3317
 179  325.1105
 180  334.3418
 181  342.9809
 182  298.5656
 183  415.185
 184  285.1377
 185  268.9023
 186  364.7577
 187  412.9491
 188  429.0433
 189  348.3474
 190  297.7337
 191  352.9021
 192  406.013
 193  355.8253
 194  245.8116
 195  219.1945
 196  381.9081
 197  402.3593
 198  370.3674
 199  398.7758
 200  411.1166
 201  402.2202
 202  344.7771
 203  285.7527
 204  350.7108
 205  437.0355
 206  448.0661
 207  378.1928
 208  283.8538
 209  298.4998
 210  328.679
 211  339.3382
 212  304.4762
 213  312.8329
 214  398.2484
 215  354.5747
 216  386.7106
 217  342.0432
 218  304.2856
 219  396.7371
 220  353.7538
 221  333.07
 222  288.4273
 223  416.8162
 224  401.4951
 225  439.9175
 226  425.6617
 227  367.4073
 228  445.695
 229  387.0453
 230  431.6888
 231  472.0741
 232  329.018
 233  383.6744
 234  400.2198
 235  391.409
 236  250.2625
 237  240.2449
 238  346.9927
 239  351.7303
 240  264.5849
 241  214.7359
 242  272.1495
 243  324.5565
 244  336.5586
 245  243.737
 246  274.2899
 247  320.8817
 248  334.4967
 249  321.6465
 250  244.364
 251  202.3145
 252  342.5545
 253  396.2841
 254  405.1345
 255  287.4846
 256  293.5569
 257  327.9132
 258  399.9043
 259  378.9751
 260  259.7679
 261  259.3996
 262  298.8603
 263  288.8988
 264  279.3531
 265  278.7135
 266  365.1913
 267  359.3303
 268  348.6495
 269  236.4888
 270  224.8778
 271  411.6081
 272  388.7596
 273  376.2283
 274  326.2648
 275  235.6453
 276  248.7492
 277  283.3232
 278  389.6031
 279  326.0489
 280  407.5091
 281  429.5544
 282  260.4353
 283  302.9691
 284  303.2
 285  314.7324
 286  340.0403
 287  330.5593
 288  392.7616
 289  437.3264
 290  524.8053
 291  358.0327
 292  294.2425
 293  335.0714
 294  409.8145
 295  309.8773
 296  400.2822
 297  458.349
 298  314.9588
 299  169.6328
 300  292.18
 301  322.6006
 302  228.3083
 303  344.612
 304  346.231
 305  244.8273
 306  325.5794
 307  404.8594
 308  311.7564
 309  372.3531
 310  367.813
 311  366.3784
 312  305.8857
 313  264.144
 314  218.386
 315  225.6267
 316  281.1153
 317  290.4288
 318  379.8436
 319  333.2112
 320  289.6573
 321  321.4776
 322  378.1404
 323  392.9301
 324  254.8533
 325  321.5436
 326  237.8325
 327  274.0675
 328  318.936
 329  417.4824
 330  336.712
 331  208.2718
 332  269.3029
 333  268.8385
 334  235.7158
 335  184.9305
 336  233.4783
 337  299.8706
 338  311.3993
 339  372.4774
 340  376.4167
 341  276.4144
 342  271.084
 343  274.4483
 344  260.2176
 345  186.9685
 346  186.7345
 347  238.5742
 348  297.9674
 349  315.9348
 350  290.3892
 351  209.8064
 352  281.7699
 353  339.2993
 354  333.1446
 355  330.1461
 356  233.0609
 357  184.9411
 358  214.849
 359  136.6147
 360  129.6058
 361  257.5329
 362  293.1064
 363  350.1787
 364  275.9949
 365  308.7541
 366  386.0043
 367  363.7621
 368  308.8417
 369  453.2222
 370  358.09
 371  334.7581
 372  307.6861
 373  403.1519
 374  479.2444
 375  224.9473
 376  250.6054
 377  367.0446
 378  301.7108
 379  408.1299
 380  366.5128
 381  347.677
 382  363.4734
 383  267.6714
 384  370.0032
 385  281.6074
 386  332.6486
 387  219.432
 388  238.9386
 389  268.4435
 390  253.8334
 391  251.0497
 392  224.9917
 393  262.3811
 394  223.2846
 395  191.7191
 396  281.4078
 397  189.3886
 398  160.6185
 399  244.5503
 400  268.1597
 401  188.4324
 402  429.7453
 403  349.7828
 404  316.3143
 405  297.4276
 406  347.0806
 407  375.9559
 408  348.8857
 409  278.0585
 410  409.4699
 411  326.9162
 412  327.1801
 413  455.0164
 414  382.3931
 415  282.9922
 416  289.4558
 417  259.18
 418  411.3214
 419  337.8525
 420  334.916
 421  232.6144
 422  234.0667
 423  218.7656
 424  222.4456
 425  390.8607
 426  380.5235
 427  274.5622
 428  279.6164
 429  273.7081
 430  343.4867
 431  367.1716
 432  353.3774
 433  299.5443
 434  340.2168
 435  332.2073
 436  359.9449
 437  409.17
 438  491.7422
 439  342.4925
 440  276.8701
 441  206.206
 442  247.2128
 443  206.4241
 444  346.6323
 445  322.7703
 446  236.7746
 447  269.9871
 448  380.4059
 449  310.9283
 450  381.0739
 451  290.5708
 452  321.9559
 453  468.5707
 454  382.9069
 455  270.1436
 456  348.7807
 457  342.8315
 458  292.7758
 459  336.3394
 460  322.0194
 461  236.8705
 462  299.2079
 463  340.5991
 464  314.8073
 465  311.4355
 466  365.0424
 467  292.2444
 468  320.1889
 469  335.3351
 470  261.223
 471  336.8532
 472  427.7905
 473  379.8852
 474  218.8937
 475  276.7483
 476  427.4964
 477  359.8769
 478  411.6155
 479  374.6288
 480  276.3247
 481  376.5141
 482  381.6711
 483  334.1998
 484  318.7328
 485  255.3035
 486  411.5077
 487  392.0731
 488  233.8145
 489  129.7588
 490  314.2357
 491  387.2437
 492  345.7384
 493  134.2746
 494  340.0121
 495  448.2573
 496  414.486
 497  356.1227
 498  440.4738
 499  353.7305
 500  337.1664
 501  488.6048
 502  544.6694
 503  569.4146
 504  568.8318
 505  514.856
 506  371.0991
 507  461.3888
 508  767.0438
 509  815.9108
 510  978.7825
 511  1160.431
