# Input file       =  1185750573.115542_cleaned.dat
# Candidate        =  PSR_0332+5434
# Telescope        =  AR
# Epoch_topo       =  57967.964758281734
# Epoch_bary       =  N/A
# T_sample         =  0.002
# Data Folded      =  7208960
# Data Avg         =  0.0300907341025996
# Data StdDev      =  1.00044186680315 
# Profile Bins     =  512
# Profile Avg      =  423.692031824904 
# Profile StdDev   =  118.711607344203 
# Reduced chi-sqr  =  1.248
# Prob(Noise)      <  0.000107   (~3.7 sigma)
# P_topo (ms)      =  714.46866127079   +/- 0.000222
# P'_topo (s/s)    =  -0                +/- 1.19e-10
# P''_topo (s/s^2) =  0                 +/- 5.37e-14
# P_bary (ms)      =  N/A
# P'_bary (s/s)    =  N/A
# P''_bary (s/s^2) =  N/A
# P_orb (s)        =  N/A
# asin(i)/c (s)    =  N/A
# eccentricity     =  N/A
# w (rad)          =  N/A
# T_peri           =  N/A
######################################################
   0  430.3851
   1  456.6408
   2  414.1274
   3  652.7269
   4  704.6333
   5  588.0147
   6  499.8489
   7  516.8667
   8  407.9182
   9  431.582
  10  528.2942
  11  509.028
  12  474.1818
  13  449.1388
  14  362.4747
  15  362.8831
  16  328.4075
  17  227.5975
  18  348.8011
  19  410.7612
  20  485.9498
  21  485.953
  22  461.8043
  23  418.4526
  24  418.7702
  25  496.041
  26  398.8892
  27  445.4626
  28  310.795
  29  400.037
  30  431.0085
  31  389.615
  32  404.6843
  33  445.372
  34  336.8726
  35  390.6715
  36  359.8839
  37  337.2089
  38  332.5034
  39  463.9031
  40  479.6539
  41  267.4398
  42  360.6761
  43  466.7956
  44  465.9799
  45  519.7079
  46  376.8936
  47  342.4825
  48  380.8363
  49  338.8599
  50  338.9701
  51  431.6409
  52  340.946
  53  284.5345
  54  390.4392
  55  339.7286
  56  277.863
  57  473.7736
  58  478.4514
  59  415.1043
  60  449.585
  61  502.0218
  62  583.2285
  63  499.4176
  64  559.5747
  65  617.2762
  66  522.9068
  67  443.3341
  68  303.2621
  69  290.2303
  70  271.4953
  71  286.5404
  72  433.9794
  73  523.4818
  74  420.2257
  75  424.7387
  76  554.3077
  77  423.0662
  78  481.6001
  79  482.2417
  80  383.441
  81  411.4903
  82  462.4851
  83  459.4102
  84  496.1888
  85  317.9289
  86  357.5522
  87  488.3601
  88  471.7611
  89  546.9796
  90  554.5721
  91  527.9692
  92  426.5536
  93  439.4487
  94  352.248
  95  304.2828
  96  318.9412
  97  332.4481
  98  238.766
  99  391.7289
 100  487.7135
 101  405.0295
 102  376.5125
 103  429.1168
 104  327.4927
 105  337.5562
 106  301.248
 107  507.8547
 108  445.7681
 109  480.0275
 110  618.5715
 111  491.4437
 112  293.7176
 113  314.0973
 114  351.6464
 115  322.0599
 116  477.4953
 117  485.3647
 118  448.6751
 119  513.9391
 120  541.9639
 121  550.4503
 122  579.2388
 123  557.6675
 124  592.2375
 125  608.3254
 126  890.0645
 127  1015.389
 128  977.0867
 129  1035.616
 130  823.2989
 131  686.5952
 132  616.4091
 133  481.7917
 134  395.3231
 135  394.7538
 136  475.5301
 137  387.2308
 138  460.0963
 139  487.9801
 140  362.722
 141  339.3398
 142  371.5245
 143  443.8566
 144  270.6342
 145  491.1582
 146  393.8719
 147  239.428
 148  361.1046
 149  430.0757
 150  417.8634
 151  439.9544
 152  543.1257
 153  545.0212
 154  471.9351
 155  368.6496
 156  290.4358
 157  336.9702
 158  425.1238
 159  459.2112
 160  456.2368
 161  441.0759
 162  454.8291
 163  555.6871
 164  400.7023
 165  493.6886
 166  414.7209
 167  355.1792
 168  410.9402
 169  502.1727
 170  447.6031
 171  401.449
 172  431.0581
 173  390.3384
 174  373.2879
 175  339.562
 176  325.5789
 177  331.6152
 178  406.3883
 179  481.5431
 180  435.2921
 181  352.1116
 182  337.1293
 183  443.4861
 184  326.9007
 185  250.0354
 186  289.7754
 187  503.026
 188  476.9911
 189  506.4455
 190  477.4052
 191  443.2984
 192  380.9009
 193  417.8591
 194  421.5074
 195  356.9684
 196  465.3977
 197  429.1628
 198  258.3912
 199  294.7788
 200  291.8007
 201  454.343
 202  569.9706
 203  587.8221
 204  357.0135
 205  456.1189
 206  441.2136
 207  347.6346
 208  291.2268
 209  442.8081
 210  462.2598
 211  366.0454
 212  478.496
 213  321.3579
 214  254.3542
 215  298.7052
 216  408.7504
 217  486.2697
 218  510.9828
 219  457.3732
 220  306.7848
 221  333.0026
 222  311.2101
 223  327.2947
 224  357.9135
 225  402.4093
 226  349.9272
 227  260.3741
 228  341.0739
 229  359.4488
 230  275.1457
 231  315.9998
 232  293.8069
 233  295.9064
 234  437.6831
 235  432.2907
 236  304.7114
 237  267.1923
 238  386.0436
 239  497.4435
 240  547.5347
 241  628.679
 242  374.5383
 243  357.4664
 244  472.8896
 245  475.5578
 246  471.1363
 247  490.3153
 248  446.5327
 249  408.8635
 250  365.4007
 251  333.3062
 252  465.9374
 253  436.8847
 254  499.7152
 255  431.4552
 256  424.4932
 257  452.8987
 258  503.0887
 259  564.0173
 260  448.3056
 261  489.2788
 262  489.469
 263  381.5939
 264  392.0435
 265  432.1962
 266  419.8342
 267  395.2184
 268  493.5951
 269  517.3345
 270  448.8057
 271  547.1317
 272  466.5729
 273  416.8592
 274  410.3616
 275  361.6486
 276  472.0489
 277  417.6401
 278  386.1819
 279  393.5656
 280  330.436
 281  445.8347
 282  468.6891
 283  412.9951
 284  496.4013
 285  433.1767
 286  333.5744
 287  394.3399
 288  368.6917
 289  383.7786
 290  427.2987
 291  600.2161
 292  447.6218
 293  461.6177
 294  359.5053
 295  413.2597
 296  435.0136
 297  358.5795
 298  477.1666
 299  480.7241
 300  375.26
 301  324.5153
 302  449.5009
 303  560.9949
 304  381.357
 305  317.844
 306  391.5745
 307  322.0968
 308  396.7731
 309  476.8495
 310  505.5248
 311  517.9235
 312  491.2528
 313  505.3363
 314  388.7303
 315  364.0525
 316  398.1653
 317  469.9804
 318  460.4457
 319  404.2077
 320  337.8972
 321  379.6228
 322  416.6109
 323  359.903
 324  470.0325
 325  555.8524
 326  525.2079
 327  518.5123
 328  453.7708
 329  505.5531
 330  525.7398
 331  557.7947
 332  521.3396
 333  483.3085
 334  450.4861
 335  337.4355
 336  299.0161
 337  187.1627
 338  278.9532
 339  510.5455
 340  453.0526
 341  418.9955
 342  425.3999
 343  477.7774
 344  444.6024
 345  375.1607
 346  428.4513
 347  326.6161
 348  357.317
 349  432.3753
 350  484.7691
 351  485.1819
 352  461.6416
 353  461.5697
 354  541.3554
 355  393.8383
 356  326.7183
 357  456.1382
 358  484.1818
 359  399.3015
 360  403.1801
 361  291.8469
 362  321.2389
 363  353.771
 364  417.2088
 365  454.2626
 366  413.4985
 367  406.8209
 368  281.531
 369  331.7303
 370  574.016
 371  503.5434
 372  402.9713
 373  517.9852
 374  465.9359
 375  412.972
 376  469.735
 377  473.1552
 378  399.6329
 379  610.4073
 380  514.5232
 381  375.7483
 382  407.7428
 383  426.3374
 384  388.9616
 385  398.3742
 386  402.0658
 387  390.8306
 388  437.838
 389  414.1494
 390  364.5751
 391  347.6326
 392  462.629
 393  369.1323
 394  371.3869
 395  519.0208
 396  462.0236
 397  458.6776
 398  393.1321
 399  289.6924
 400  272.8547
 401  427.5508
 402  513.9797
 403  405.407
 404  404.562
 405  364.0981
 406  290.648
 407  397.043
 408  385.666
 409  293.7567
 410  349.5204
 411  499.9073
 412  491.9132
 413  383.1897
 414  303.5643
 415  187.059
 416  352.9738
 417  410.3836
 418  542.9309
 419  551.8288
 420  466.5507
 421  427.0747
 422  391.801
 423  404.8249
 424  309.3082
 425  453.6843
 426  399.8573
 427  370.38
 428  276.7252
 429  273.4738
 430  327.3728
 431  404.9197
 432  372.669
 433  465.6604
 434  509.4562
 435  344.0122
 436  334.9943
 437  419.002
 438  393.3629
 439  293.9529
 440  344.5305
 441  358.189
 442  257.5335
 443  368.9957
 444  473.7097
 445  355.3372
 446  302.896
 447  444.4935
 448  423.4292
 449  400.8385
 450  455.1061
 451  458.0271
 452  335.4138
 453  479.2209
 454  406.9829
 455  529.025
 456  380.782
 457  399.2307
 458  443.3002
 459  423.297
 460  485.3051
 461  477.1414
 462  423.8872
 463  503.9205
 464  371.3731
 465  399.1238
 466  400.5008
 467  378.086
 468  414.5403
 469  417.5898
 470  460.3753
 471  483.347
 472  436.3521
 473  436.3549
 474  490.2137
 475  478.6348
 476  429.7859
 477  464.5519
 478  492.5661
 479  505.7469
 480  416.2466
 481  406.4384
 482  273.5534
 483  303.078
 484  396.8076
 485  446.9085
 486  495.6838
 487  447.3545
 488  393.8785
 489  367.0012
 490  356.4706
 491  345.1415
 492  437.3695
 493  277.6105
 494  410.1264
 495  496.1709
 496  320.8965
 497  412.0307
 498  469.2154
 499  403.351
 500  448.8403
 501  414.3508
 502  305.9891
 503  349.6274
 504  381.8492
 505  366.573
 506  496.9309
 507  325.8503
 508  393.9563
 509  426.0649
 510  469.6054
 511  407.7363
