# Input file       =  1185851408.100563_cleaned.dat
# Candidate        =  PSR_0332+5434
# Telescope        =  AR
# Epoch_topo       =  57969.131829867627
# Epoch_bary       =  N/A
# T_sample         =  0.002
# Data Folded      =  7340032
# Data Avg         =  0.00655586423126173
# Data StdDev      =  1.00022656473759 
# Profile Bins     =  512
# Profile Avg      =  93.8588141884792 
# Profile StdDev   =  119.760163660734 
# Reduced chi-sqr  =  1.525
# Prob(Noise)      <  1.77e-13   (~7.3 sigma)
# P_topo (ms)      =  714.468211243232  +/- 0.000198
# P'_topo (s/s)    =  -0                +/- 1.05e-10
# P''_topo (s/s^2) =  0                 +/- 4.62e-14
# P_bary (ms)      =  N/A
# P'_bary (s/s)    =  N/A
# P''_bary (s/s^2) =  N/A
# P_orb (s)        =  N/A
# asin(i)/c (s)    =  N/A
# eccentricity     =  N/A
# w (rad)          =  N/A
# T_peri           =  N/A
######################################################
   0  897.5983
   1  864.3355
   2  661.9199
   3  305.0191
   4  183.6517
   5  29.82799
   6  92.82106
   7  164.9032
   8  177.166
   9  123.4025
  10  255.3759
  11  61.29325
  12  41.45942
  13  207.811
  14  44.97827
  15  20.36893
  16  223.0272
  17  57.19864
  18  -49.65027
  19  101.4309
  20  171.3699
  21  128.9105
  22  107.6032
  23  43.02834
  24  197.7826
  25  91.9044
  26  44.72589
  27  -1.073558
  28  52.73421
  29  80.12051
  30  79.66698
  31  116.5791
  32  158.6206
  33  53.8674
  34  47.09483
  35  -99.28806
  36  -132.3359
  37  171.759
  38  180.8532
  39  121.8432
  40  203.7261
  41  18.34274
  42  98.0419
  43  65.57856
  44  -15.07279
  45  71.41083
  46  49.98439
  47  82.08587
  48  49.63273
  49  51.57591
  50  218.302
  51  174.7693
  52  94.06547
  53  75.10329
  54  65.63759
  55  41.25616
  56  -12.48046
  57  13.81369
  58  81.62081
  59  115.0146
  60  125.0954
  61  140.46
  62  58.69476
  63  87.44952
  64  29.126
  65  110.4406
  66  175.8297
  67  19.81544
  68  75.74485
  69  36.74851
  70  112.9431
  71  141.6623
  72  101.1716
  73  95.23399
  74  11.32801
  75  71.6279
  76  40.68326
  77  -18.85546
  78  38.76769
  79  54.61198
  80  84.3234
  81  113.0739
  82  17.73717
  83  35.80025
  84  216.6989
  85  102.6163
  86  85.17074
  87  70.27837
  88  47.75688
  89  146.7012
  90  141.6129
  91  142.4591
  92  110.9287
  93  169.2837
  94  210.1812
  95  245.9899
  96  98.82074
  97  69.85938
  98  118.6106
  99  41.10253
 100  61.24327
 101  125.8963
 102  212.0669
 103  206.9175
 104  138.646
 105  146.7262
 106  121.9635
 107  128.1478
 108  130.1568
 109  126.4739
 110  3.160828
 111  -39.49349
 112  28.39529
 113  32.93808
 114  3.110132
 115  -9.143333
 116  113.6887
 117  138.3688
 118  162.8979
 119  216.5232
 120  220.1723
 121  106.1328
 122  157.5965
 123  42.72555
 124  28.96656
 125  -65.39054
 126  91.19077
 127  130.2329
 128  15.05999
 129  169.8188
 130  254.1542
 131  230.7952
 132  149.0493
 133  213.0898
 134  2.993043
 135  -35.58713
 136  112.1673
 137  161.0673
 138  -16.0558
 139  85.01582
 140  91.24249
 141  160.5296
 142  90.88435
 143  67.92997
 144  92.43508
 145  109.5222
 146  85.21332
 147  217.1606
 148  188.06
 149  71.51855
 150  58.86356
 151  121.6107
 152  165.2722
 153  50.23096
 154  132.96
 155  48.77645
 156  -19.02419
 157  90.30218
 158  124.0291
 159  131.135
 160  36.62805
 161  132.4987
 162  118.8479
 163  134.8655
 164  56.55882
 165  32.17341
 166  12.02789
 167  94.6681
 168  182.0008
 169  156.2269
 170  149.8293
 171  100.7049
 172  82.5273
 173  -41.23503
 174  82.81618
 175  118.8227
 176  94.17219
 177  184.1163
 178  164.934
 179  122.5877
 180  90.49891
 181  45.47717
 182  2.268869
 183  99.9408
 184  158.119
 185  -40.47754
 186  -154.5569
 187  71.56635
 188  165.5672
 189  153.5771
 190  150.6926
 191  -0.5282196
 192  -65.99315
 193  -15.83513
 194  119.1115
 195  66.64912
 196  234.6252
 197  160.1178
 198  79.10063
 199  -19.49139
 200  119.1308
 201  229.9272
 202  157.6178
 203  19.35305
 204  80.46191
 205  69.35838
 206  100.6989
 207  -25.63526
 208  81.92436
 209  275.007
 210  163.1479
 211  132.1023
 212  105.4791
 213  77.47829
 214  151.9882
 215  93.84504
 216  103.6516
 217  33.26218
 218  -124.4021
 219  -67.28738
 220  31.75327
 221  164.2642
 222  192.3714
 223  93.1189
 224  74.79773
 225  102.5201
 226  65.65101
 227  124.8235
 228  63.76752
 229  104.7068
 230  134.4763
 231  99.70428
 232  114.9487
 233  64.68855
 234  -56.94379
 235  -102.8904
 236  29.24336
 237  64.15405
 238  171.2345
 239  137.8595
 240  29.51736
 241  59.86116
 242  129.0994
 243  178.4815
 244  130.7807
 245  139.8995
 246  75.8812
 247  79.59821
 248  176.0502
 249  244.9426
 250  124.2261
 251  78.77091
 252  -35.90591
 253  130.7571
 254  106.2324
 255  99.85147
 256  66.60828
 257  41.08949
 258  89.31065
 259  32.56093
 260  138.3944
 261  189.0356
 262  143.2014
 263  94.73325
 264  74.65476
 265  106.0297
 266  95.86179
 267  165.718
 268  -61.19022
 269  -11.01211
 270  94.62961
 271  112.6035
 272  44.93394
 273  110.0114
 274  51.107
 275  120.0173
 276  59.43033
 277  4.154551
 278  95.99113
 279  82.3869
 280  110.5126
 281  137.4586
 282  95.74722
 283  135.1066
 284  101.4923
 285  12.70514
 286  116.3146
 287  158.2897
 288  190.8629
 289  212.1174
 290  101.2506
 291  116.197
 292  107.721
 293  -3.846303
 294  59.06291
 295  68.73186
 296  94.30624
 297  145.7288
 298  166.1937
 299  107.755
 300  122.3752
 301  156.7512
 302  49.56325
 303  7.57682
 304  123.4727
 305  105.9808
 306  22.87211
 307  12.94823
 308  -39.44023
 309  -99.79426
 310  -30.90678
 311  90.20361
 312  -5.967871
 313  164.1819
 314  66.48008
 315  153.7433
 316  -11.66045
 317  -126.5583
 318  38.89956
 319  55.72772
 320  106.5285
 321  149.8647
 322  99.42979
 323  57.8115
 324  191.3474
 325  142.425
 326  -17.96969
 327  27.57777
 328  93.70416
 329  100.2352
 330  48.3298
 331  31.07037
 332  53.44807
 333  51.45945
 334  -43.16037
 335  -24.94288
 336  -28.9016
 337  103.1245
 338  183.7821
 339  56.16805
 340  46.03116
 341  86.67823
 342  32.3378
 343  23.56819
 344  58.92572
 345  170.2547
 346  194.6485
 347  123.2333
 348  81.38732
 349  -33.81481
 350  -71.45776
 351  99.01709
 352  122.0506
 353  122.925
 354  78.4427
 355  111.0211
 356  146.9403
 357  110.4856
 358  54.10648
 359  59.29749
 360  47.64107
 361  7.684582
 362  58.19075
 363  107.8033
 364  118.6796
 365  112.2389
 366  63.64801
 367  -62.67414
 368  -30.52268
 369  46.48177
 370  17.16557
 371  53.64759
 372  59.94715
 373  -56.85417
 374  51.10732
 375  146.2055
 376  64.78985
 377  -7.342517
 378  148.1609
 379  107.8043
 380  46.72112
 381  79.51788
 382  129.9805
 383  -68.1484
 384  -50.09639
 385  229.154
 386  83.25539
 387  74.85135
 388  56.26523
 389  29.41575
 390  1.578067
 391  55.14577
 392  14.62211
 393  47.88595
 394  106.333
 395  60.22875
 396  -31.68442
 397  -46.79457
 398  -94.56411
 399  -19.24399
 400  45.21968
 401  57.13305
 402  -2.820502
 403  152.1737
 404  43.29164
 405  -70.34769
 406  52.20348
 407  228.6499
 408  95.35337
 409  73.64377
 410  240.3557
 411  199.8342
 412  13.85944
 413  -59.93019
 414  207.4661
 415  225.9845
 416  94.72488
 417  47.12342
 418  54.46079
 419  -20.27286
 420  41.93624
 421  104.3582
 422  116.1958
 423  164.8074
 424  157.5908
 425  89.67941
 426  18.92948
 427  -24.72001
 428  9.617799
 429  67.75383
 430  58.25348
 431  91.22756
 432  64.002
 433  44.48699
 434  72.26545
 435  117.0808
 436  6.256042
 437  34.61729
 438  78.69968
 439  -6.570169
 440  109.4958
 441  125.3625
 442  31.04604
 443  -14.22404
 444  69.3053
 445  202.6494
 446  68.9017
 447  3.029873
 448  -98.10686
 449  -109.4701
 450  53.57859
 451  207.1181
 452  97.97986
 453  50.56096
 454  9.360096
 455  66.04897
 456  -30.25041
 457  -19.60369
 458  -46.8356
 459  127.4865
 460  232.5062
 461  101.9597
 462  61.22356
 463  122.5021
 464  128.1722
 465  100.5962
 466  171.5341
 467  28.93125
 468  -119.2575
 469  58.3521
 470  167.835
 471  227.6585
 472  121.0495
 473  1.606576
 474  52.23272
 475  84.9868
 476  90.35701
 477  164.8949
 478  161.4395
 479  123.0356
 480  113.8836
 481  172.4667
 482  316.8428
 483  155.3793
 484  100.7722
 485  72.65756
 486  103.1144
 487  147.9758
 488  164.9668
 489  154.1236
 490  93.26025
 491  179.1951
 492  105.6725
 493  11.63302
 494  107.329
 495  187.3696
 496  69.15572
 497  6.129744
 498  104.3915
 499  122.3642
 500  0.2421048
 501  42.3032
 502  124.7402
 503  202.3993
 504  224.2229
 505  157.3196
 506  216.4516
 507  216.0536
 508  322.8401
 509  469.8672
 510  837.2505
 511  901.8279
