# Input file       =  1185578274.108979_cleaned.dat
# Candidate        =  PSR_0332+5434
# Telescope        =  AR
# Epoch_topo       =  57965.970556816887
# Epoch_bary       =  N/A
# T_sample         =  0.002
# Data Folded      =  7208960
# Data Avg         =  0.0218793247097544
# Data StdDev      =  1.0000177516643  
# Profile Bins     =  512
# Profile Avg      =  308.104574805954 
# Profile StdDev   =  118.661282191386 
# Reduced chi-sqr  =  1.154
# Prob(Noise)      <  0.00883   (~2.4 sigma)
# P_topo (ms)      =  714.469492648018  +/- 0.00017
# P'_topo (s/s)    =  -0                +/- 9.13e-11
# P''_topo (s/s^2) =  0                 +/- 4.1e-14
# P_bary (ms)      =  N/A
# P'_bary (s/s)    =  N/A
# P''_bary (s/s^2) =  N/A
# P_orb (s)        =  N/A
# asin(i)/c (s)    =  N/A
# eccentricity     =  N/A
# w (rad)          =  N/A
# T_peri           =  N/A
######################################################
   0  997.4207
   1  864.3639
   2  610.7989
   3  400.2762
   4  408.2452
   5  412.2974
   6  387.5471
   7  339.2064
   8  242.1691
   9  190.5893
  10  177.6545
  11  201.1059
  12  140.6371
  13  321.1605
  14  378.6995
  15  315.7902
  16  273.6369
  17  443.3107
  18  379.5641
  19  306.8808
  20  215.7143
  21  154.3564
  22  141.0694
  23  271.0815
  24  285.2934
  25  201.6559
  26  256.4176
  27  162.336
  28  296.0093
  29  353.3745
  30  240.5946
  31  332.2502
  32  208.7034
  33  266.6351
  34  130.0277
  35  221.9782
  36  405.5968
  37  289.6757
  38  292.1583
  39  336.0626
  40  290.0442
  41  380.4287
  42  320.371
  43  396.5414
  44  252.9313
  45  257.5995
  46  226.8662
  47  209.24
  48  239.9765
  49  269.9678
  50  261.2979
  51  217.4398
  52  155.8676
  53  186.2668
  54  220.2907
  55  213.11
  56  263.7269
  57  293.503
  58  360.0437
  59  337.8715
  60  273.2556
  61  290.906
  62  326.5157
  63  144.5086
  64  95.94979
  65  247.2338
  66  283.0344
  67  387.2489
  68  277.6318
  69  277.6793
  70  269.6717
  71  327.2868
  72  257.4948
  73  223.5032
  74  177.176
  75  277.0037
  76  302.9642
  77  297.0898
  78  327.2076
  79  326.7664
  80  246.0913
  81  210.0351
  82  236.6488
  83  450.8844
  84  394.0683
  85  196.1175
  86  207.8447
  87  402.3925
  88  428.0909
  89  267.2329
  90  283.9741
  91  402.5804
  92  345.2262
  93  258.0469
  94  255.869
  95  297.3836
  96  273.6001
  97  346.2853
  98  322.3096
  99  337.2848
 100  398.7469
 101  318.0965
 102  322.6211
 103  286.3336
 104  326.4471
 105  282.0284
 106  291.7957
 107  285.0849
 108  254.2014
 109  283.8116
 110  280.0651
 111  453.5629
 112  333.8097
 113  336.7956
 114  357.9226
 115  311.8782
 116  265.8816
 117  211.6926
 118  150.2294
 119  325.5648
 120  342.8289
 121  281.296
 122  356.7396
 123  263.822
 124  225.5552
 125  297.5821
 126  326.2762
 127  283.7145
 128  181.1922
 129  165.5376
 130  98.25971
 131  260.2669
 132  377.6242
 133  345.3217
 134  197.9897
 135  253.3165
 136  229.3798
 137  309.5467
 138  291.5245
 139  242.7574
 140  271.9486
 141  369.0988
 142  303.0982
 143  277.5837
 144  275.7949
 145  283.8615
 146  251.7249
 147  226.73
 148  328.4665
 149  352.8774
 150  381.4596
 151  234.5576
 152  274.9478
 153  262.1209
 154  295.895
 155  242.6139
 156  201.2851
 157  335.3404
 158  388.8474
 159  327.3536
 160  187.5718
 161  214.9452
 162  183.2494
 163  298.2837
 164  349.5121
 165  361.8842
 166  311.659
 167  441.0053
 168  369.3707
 169  332.4955
 170  271.0768
 171  250.4377
 172  308.7255
 173  187.2033
 174  163.4181
 175  381.1426
 176  303.3177
 177  290.2802
 178  241.5181
 179  267.112
 180  253.9865
 181  266.6211
 182  364.6605
 183  442.5403
 184  501.5895
 185  356.6036
 186  197.5198
 187  257.7154
 188  215.6835
 189  265.6263
 190  359.701
 191  408.4332
 192  287.7193
 193  412.2646
 194  305.0162
 195  159.477
 196  198.8008
 197  383.6093
 198  332.7645
 199  312.0893
 200  297.2875
 201  303.0017
 202  324.9435
 203  333.5965
 204  391.7943
 205  375.5544
 206  384.7181
 207  339.4757
 208  320.0758
 209  289.8658
 210  157.7702
 211  17.90666
 212  100.6198
 213  197.5549
 214  448.9849
 215  443.1941
 216  367.5647
 217  296.3388
 218  356.2768
 219  333.4352
 220  250.756
 221  267.7969
 222  372.2082
 223  345.1832
 224  279.0444
 225  288.9565
 226  156.4562
 227  335.0753
 228  327.2634
 229  245.1075
 230  218.9968
 231  310.7386
 232  370.1498
 233  422.8766
 234  314.7361
 235  246.6434
 236  229.1867
 237  217.3641
 238  292.9541
 239  265.3837
 240  328.73
 241  353.1851
 242  319.6317
 243  282.625
 244  292.7983
 245  283.7565
 246  225.9165
 247  309.1955
 248  366.21
 249  357.3878
 250  341.3202
 251  331.4193
 252  281.3326
 253  159.8282
 254  201.375
 255  316.3181
 256  348.5446
 257  313.4985
 258  385.1466
 259  317.7436
 260  203.6416
 261  342.268
 262  409.0183
 263  291.2876
 264  281.7559
 265  317.0357
 266  287.3817
 267  270.2404
 268  287.568
 269  315.1514
 270  269.4875
 271  282.7204
 272  246.8766
 273  316.191
 274  388.2571
 275  398.329
 276  352.2422
 277  318.767
 278  247.0711
 279  211.7293
 280  212.038
 281  234.6609
 282  292.6761
 283  298.5736
 284  332.9093
 285  292.75
 286  265.9448
 287  327.9321
 288  378.8911
 289  388.8867
 290  416.0704
 291  349.5002
 292  288.087
 293  148.1989
 294  231.0742
 295  273.0814
 296  312.4105
 297  344.8403
 298  247.7129
 299  250.7358
 300  428.1475
 301  437.7212
 302  358.8427
 303  251.2199
 304  175.8974
 305  307.7782
 306  250.3306
 307  284.563
 308  331.2111
 309  308.3091
 310  280.3873
 311  347.0382
 312  398.1296
 313  188.0495
 314  239.3525
 315  337.4236
 316  331.4678
 317  360.8543
 318  427.8172
 319  373.7913
 320  228.9903
 321  321.2541
 322  346.7803
 323  289.8639
 324  217.5134
 325  294.5901
 326  364.5067
 327  357.2369
 328  256.1122
 329  257.3786
 330  110.9334
 331  233.5712
 332  269.3651
 333  269.0196
 334  280.2601
 335  364.5015
 336  432.221
 337  337.1905
 338  279.3499
 339  202.6411
 340  277.8783
 341  376.3826
 342  314.0948
 343  344.8174
 344  327.2639
 345  339.3257
 346  394.2227
 347  359.8078
 348  344.4393
 349  379.6155
 350  287.6107
 351  164.937
 352  127.6675
 353  250.607
 354  444.5332
 355  405.2101
 356  197.0069
 357  213.901
 358  309.4865
 359  393.1505
 360  160.4873
 361  212.0222
 362  311.3904
 363  401.644
 364  378.3574
 365  430.0146
 366  365.7342
 367  282.6168
 368  216.7456
 369  368.1946
 370  287.676
 371  369.0795
 372  292.2263
 373  205.7884
 374  241.3392
 375  177.8393
 376  153.3968
 377  258.83
 378  279.3841
 379  301.7156
 380  330.7096
 381  341.401
 382  407.0356
 383  307.0243
 384  237.6356
 385  336.1673
 386  310.8089
 387  217.404
 388  254.6271
 389  248.185
 390  270.2424
 391  253.6639
 392  287.4474
 393  414.5781
 394  347.6144
 395  330.2615
 396  321.1791
 397  321.5491
 398  476.0685
 399  434.3211
 400  369.3078
 401  381.6089
 402  432.7421
 403  321.1718
 404  409.1296
 405  492.7849
 406  484.3905
 407  446.458
 408  377.0794
 409  256.6742
 410  296.5299
 411  397.4963
 412  421.6896
 413  316.1523
 414  301.7724
 415  393.5441
 416  419.2648
 417  343.5446
 418  354.7993
 419  297.2274
 420  318.2023
 421  365.7597
 422  424.5928
 423  395.1328
 424  359.109
 425  250.5253
 426  320.8923
 427  367.2271
 428  354.757
 429  386.4042
 430  395.4377
 431  426.0144
 432  389.4081
 433  266.5706
 434  324.9115
 435  290.869
 436  274.9997
 437  325.2405
 438  368.3839
 439  359.3354
 440  382.1648
 441  340.8668
 442  284.9668
 443  384.424
 444  406.9785
 445  410.7369
 446  364.6425
 447  325.757
 448  251.995
 449  285.3488
 450  136.1998
 451  200.6304
 452  222.7527
 453  261.9119
 454  364.1265
 455  189.1003
 456  91.66663
 457  252.9552
 458  413.5988
 459  338.3479
 460  193.7296
 461  196.9678
 462  298.5942
 463  388.7481
 464  292.5651
 465  279.7185
 466  314.3708
 467  327.0864
 468  322.232
 469  262.1237
 470  302.2833
 471  349.5463
 472  327.0856
 473  294.5604
 474  285.3684
 475  274.6959
 476  256.7881
 477  308.6082
 478  329.3891
 479  396.1902
 480  374.8859
 481  313.6174
 482  293.3189
 483  324.3166
 484  329.5599
 485  316.8848
 486  283.1096
 487  358.1772
 488  310.9359
 489  406.3378
 490  446.6638
 491  411.2481
 492  303.3141
 493  298.5363
 494  330.0758
 495  328.1525
 496  304.5028
 497  379.3162
 498  277.7493
 499  189.8911
 500  343.2586
 501  277.0895
 502  250.0463
 503  318.7235
 504  362.8216
 505  363.0238
 506  275.3654
 507  395.4552
 508  493.1047
 509  575.5371
 510  772.9281
 511  904.6978
