# Input file       =  1185952524.105534_cleaned.dat
# Candidate        =  PSR_0332+5434
# Telescope        =  AR
# Epoch_topo       =  57970.302153999241
# Epoch_bary       =  N/A
# T_sample         =  0.002
# Data Folded      =  7340032
# Data Avg         =  0.0042042066971654
# Data StdDev      =  1.00002591028935 
# Profile Bins     =  512
# Profile Avg      =  60.2593691581153 
# Profile StdDev   =  119.736138694384 
# Reduced chi-sqr  =  1.369
# Prob(Noise)      <  5.35e-08   (~5.3 sigma)
# P_topo (ms)      =  714.468104304402  +/- 0.00024
# P'_topo (s/s)    =  -0                +/- 1.27e-10
# P''_topo (s/s^2) =  0                 +/- 5.6e-14
# P_bary (ms)      =  N/A
# P'_bary (s/s)    =  N/A
# P''_bary (s/s^2) =  N/A
# P_orb (s)        =  N/A
# asin(i)/c (s)    =  N/A
# eccentricity     =  N/A
# w (rad)          =  N/A
# T_peri           =  N/A
######################################################
   0  698.3647
   1  665.0245
   2  525.2413
   3  281.2784
   4  51.47131
   5  32.25863
   6  9.129138
   7  84.65681
   8  -102.8695
   9  30.68254
  10  149.8058
  11  88.68571
  12  166.9023
  13  246.6305
  14  127.7382
  15  -3.932087
  16  -63.25948
  17  131.1841
  18  82.97878
  19  60.26693
  20  36.90635
  21  50.12587
  22  116.4772
  23  63.39442
  24  87.57255
  25  24.46777
  26  130.4096
  27  99.25327
  28  21.97906
  29  58.89209
  30  -6.371564
  31  53.22172
  32  253.8372
  33  231.8832
  34  139.2905
  35  77.07404
  36  -109.9516
  37  -17.10073
  38  55.68275
  39  102.0443
  40  50.70042
  41  114.0601
  42  72.34879
  43  138.7454
  44  100.3716
  45  106.6756
  46  -10.91558
  47  7.637242
  48  109.6203
  49  118.8532
  50  127.3474
  51  49.76723
  52  -67.22836
  53  -140.9935
  54  71.87532
  55  130.694
  56  151.3161
  57  43.91602
  58  61.77297
  59  144.7696
  60  113.4281
  61  95.79888
  62  212.8856
  63  200.0616
  64  150.222
  65  -68.81459
  66  -13.62083
  67  -104.4886
  68  -1.192884
  69  97.3176
  70  88.09615
  71  26.89449
  72  68.65207
  73  27.65878
  74  48.72844
  75  300.4446
  76  274.8103
  77  10.115
  78  -20.5591
  79  26.3628
  80  -3.357976
  81  110.9351
  82  192.1008
  83  112.6897
  84  40.86197
  85  156.2137
  86  82.05824
  87  4.671394
  88  125.5469
  89  119.9682
  90  17.74276
  91  2.786335
  92  9.085583
  93  53.10327
  94  38.88836
  95  127.3288
  96  -28.53499
  97  -133.1084
  98  -106.0459
  99  12.43891
 100  -81.27916
 101  -34.4352
 102  -60.53929
 103  86.7949
 104  8.632773
 105  123.4162
 106  65.3848
 107  21.74432
 108  2.420375
 109  45.93826
 110  -18.29009
 111  -18.50801
 112  -15.87068
 113  -6.742324
 114  29.23365
 115  57.45562
 116  166.1346
 117  150.0301
 118  45.82137
 119  51.04644
 120  164.5126
 121  67.29234
 122  46.38218
 123  63.73971
 124  185.0219
 125  186.4448
 126  129.616
 127  123.0765
 128  220.5733
 129  131.2441
 130  85.60511
 131  66.32925
 132  -14.34273
 133  110.1507
 134  190.8799
 135  62.1563
 136  55.92506
 137  159.0995
 138  103.5904
 139  -76.62252
 140  -15.05822
 141  117.2524
 142  58.93001
 143  30.39725
 144  -16.18212
 145  -16.0353
 146  53.53769
 147  102.9431
 148  124.1215
 149  -88.13284
 150  -50.6884
 151  108.3039
 152  147.7323
 153  53.96526
 154  70.25472
 155  18.32582
 156  -87.48666
 157  -108.0243
 158  1.349957
 159  47.41848
 160  -96.41731
 161  -29.78645
 162  -44.83591
 163  -81.18723
 164  15.05816
 165  99.56882
 166  82.85293
 167  69.68227
 168  83.40459
 169  98.82169
 170  43.78869
 171  116.7275
 172  89.57278
 173  -19.15573
 174  8.432509
 175  111.709
 176  33.61956
 177  -80.85833
 178  4.546541
 179  145.4044
 180  36.18173
 181  -47.58516
 182  -21.45983
 183  -21.63534
 184  0.2319717
 185  -44.42849
 186  -84.94738
 187  -7.428241
 188  72.81264
 189  29.28389
 190  6.884011
 191  125.2366
 192  161.2376
 193  95.58387
 194  45.46014
 195  35.86966
 196  14.70416
 197  217.3198
 198  106.3301
 199  17.60149
 200  18.0982
 201  103.8943
 202  64.81355
 203  -36.58047
 204  31.41243
 205  15.88074
 206  154.3379
 207  299.7102
 208  194.2184
 209  17.6647
 210  -18.32085
 211  48.69287
 212  41.49335
 213  81.65861
 214  139.0219
 215  136.6171
 216  136.9358
 217  63.23222
 218  107.7859
 219  98.87789
 220  87.81197
 221  136.0257
 222  136.1058
 223  53.64967
 224  97.6625
 225  142.819
 226  50.87109
 227  -15.69463
 228  -2.960727
 229  -23.32901
 230  37.4529
 231  80.03111
 232  -4.998964
 233  95.06364
 234  84.71014
 235  54.26674
 236  -17.72922
 237  117.6249
 238  182.6641
 239  29.83084
 240  83.38107
 241  153.1111
 242  37.83431
 243  44.92287
 244  119.5315
 245  182.9505
 246  94.28482
 247  85.84377
 248  68.6888
 249  -60.24643
 250  -11.04521
 251  85.54109
 252  67.53482
 253  -128.7413
 254  -72.49403
 255  66.97972
 256  140.4614
 257  105.5175
 258  86.80214
 259  31.76305
 260  0.3932003
 261  77.4566
 262  12.98761
 263  93.85852
 264  34.04859
 265  -3.49042
 266  -76.12735
 267  41.57053
 268  38.01633
 269  84.81578
 270  125.0843
 271  64.97569
 272  56.02079
 273  58.94561
 274  -99.87007
 275  -61.13626
 276  51.03088
 277  22.3683
 278  105.3949
 279  90.34542
 280  138.9576
 281  132.297
 282  25.0898
 283  152.4401
 284  131.3833
 285  278.49
 286  181.4584
 287  -47.39043
 288  -20.26335
 289  1.321166
 290  29.04912
 291  115.1954
 292  170.529
 293  197.9106
 294  202.4514
 295  150.7475
 296  121.2155
 297  0.2198904
 298  166.7584
 299  146.4057
 300  52.11827
 301  67.93964
 302  -25.06766
 303  -73.03945
 304  53.76057
 305  81.81449
 306  74.20956
 307  116.4697
 308  222.5909
 309  72.88534
 310  86.86347
 311  -3.543171
 312  67.57294
 313  162.0412
 314  96.19096
 315  81.62569
 316  151.613
 317  101.6241
 318  68.53777
 319  185.9197
 320  294.5792
 321  141.7786
 322  -47.4239
 323  -70.67644
 324  -1.046754
 325  58.21268
 326  53.21548
 327  72.37472
 328  -26.6274
 329  16.07796
 330  -133.4075
 331  -39.98234
 332  144.7853
 333  -5.970761
 334  93.00652
 335  169.5359
 336  159.2654
 337  144.3839
 338  175.921
 339  153.5972
 340  214.0885
 341  217.8485
 342  163.7347
 343  67.52744
 344  75.22465
 345  52.99011
 346  53.96532
 347  29.26295
 348  14.93839
 349  65.20938
 350  66.81637
 351  95.83089
 352  177.0179
 353  38.23674
 354  7.275488
 355  117.8287
 356  200.6508
 357  31.00063
 358  23.0573
 359  70.78412
 360  65.7992
 361  24.85665
 362  141.239
 363  138.0804
 364  18.41436
 365  -124.9385
 366  -98.00398
 367  -40.08644
 368  -8.159755
 369  62.82208
 370  -21.44843
 371  -118.874
 372  -27.96649
 373  81.68448
 374  23.15805
 375  -49.61273
 376  103.8277
 377  50.4011
 378  110.2087
 379  95.49761
 380  177.0278
 381  221.0838
 382  152.3522
 383  47.77071
 384  -68.09841
 385  -78.84013
 386  153.1121
 387  5.991749
 388  -155.0943
 389  -16.35915
 390  48.01542
 391  14.60421
 392  41.46278
 393  90.61393
 394  -15.68132
 395  -26.02716
 396  -44.04786
 397  -26.47246
 398  -69.11945
 399  -207.4762
 400  -151.248
 401  -15.03098
 402  165.3961
 403  133.9087
 404  24.26665
 405  -1.854701
 406  -3.169353
 407  168.4804
 408  12.70861
 409  -30.28502
 410  76.56534
 411  141.6425
 412  71.44748
 413  73.95248
 414  139.2075
 415  154.1653
 416  86.68848
 417  103.0294
 418  113.1146
 419  -0.8309194
 420  100.0014
 421  86.12525
 422  75.54407
 423  135.7906
 424  9.082638
 425  -65.53734
 426  74.26212
 427  49.53419
 428  3.478156
 429  36.15804
 430  90.48677
 431  -0.8845292
 432  -77.77522
 433  4.715613
 434  63.93463
 435  -19.26515
 436  -92.57941
 437  35.29697
 438  48.6372
 439  -5.733086
 440  -154.3766
 441  -71.2642
 442  -40.01484
 443  98.79241
 444  116.3894
 445  119.9962
 446  19.63879
 447  -17.33881
 448  -19.79906
 449  -103.2296
 450  23.85284
 451  92.01147
 452  72.8873
 453  -9.465706
 454  63.09769
 455  -5.887691
 456  -4.425574
 457  32.47815
 458  -24.94496
 459  -61.40815
 460  15.31403
 461  -23.63038
 462  -64.24639
 463  -98.94077
 464  -93.27989
 465  55.7318
 466  68.91062
 467  108.7637
 468  -6.864682
 469  -142.3756
 470  -5.434389
 471  -61.03097
 472  -11.92662
 473  -34.43741
 474  -43.09928
 475  0.4137675
 476  8.325412
 477  31.66612
 478  -190.4715
 479  -53.06844
 480  4.415282
 481  5.51392
 482  15.29161
 483  26.7845
 484  -47.45176
 485  -21.35586
 486  33.53973
 487  121.8154
 488  131.8386
 489  32.96115
 490  57.47984
 491  -52.87171
 492  -128.6684
 493  -19.90084
 494  72.89391
 495  83.20252
 496  20.38105
 497  102.4108
 498  189.9554
 499  136.1724
 500  107.8336
 501  145.9226
 502  209.392
 503  -8.770587
 504  6.36615
 505  89.05425
 506  206.6451
 507  218.1604
 508  400.3622
 509  381.1884
 510  489.5074
 511  597.3386
