# Input file       =  1185061324.110495_cleaned.dat
# Candidate        =  PSR_0332+5434
# Telescope        =  AR
# Epoch_topo       =  57959.987339241845
# Epoch_bary       =  N/A
# T_sample         =  0.002
# Data Folded      =  7143424
# Data Avg         =  0.0213717482467747
# Data StdDev      =  1.00002531235137 
# Profile Bins     =  512
# Profile Avg      =  298.229958183446 
# Profile StdDev   =  118.121574340981 
# Reduced chi-sqr  =  1.298
# Prob(Noise)      <  5.99e-06   (~4.4 sigma)
# P_topo (ms)      =  714.472343558485  +/- 0.000181
# P'_topo (s/s)    =  -0                +/- 9.83e-11
# P''_topo (s/s^2) =  0                 +/- 4.46e-14
# P_bary (ms)      =  N/A
# P'_bary (s/s)    =  N/A
# P''_bary (s/s^2) =  N/A
# P_orb (s)        =  N/A
# asin(i)/c (s)    =  N/A
# eccentricity     =  N/A
# w (rad)          =  N/A
# T_peri           =  N/A
######################################################
   0  1066.62
   1  944.3795
   2  761.0103
   3  648.0905
   4  391.3833
   5  385.9866
   6  348.0454
   7  279.2215
   8  319.2334
   9  309.3796
  10  312.4627
  11  270.5302
  12  318.5205
  13  235.2581
  14  245.6121
  15  303.7986
  16  281.5755
  17  304.69
  18  274.4648
  19  145.225
  20  331.6136
  21  385.4173
  22  348.0735
  23  264.4258
  24  262.2124
  25  284.1017
  26  216.7229
  27  229.6192
  28  332.9044
  29  303.4448
  30  270.1191
  31  424.7922
  32  386.9532
  33  306.3214
  34  356.0564
  35  413.7548
  36  453.8018
  37  314.4279
  38  270.0893
  39  241.3022
  40  267.5116
  41  231.3154
  42  187.1315
  43  279.5199
  44  348.4878
  45  354.9706
  46  363.5674
  47  264.0665
  48  293.5102
  49  273.2625
  50  360.5509
  51  220.997
  52  332.0911
  53  317.7812
  54  259.7711
  55  308.2224
  56  394.3117
  57  342.5934
  58  344.4888
  59  329.3815
  60  263.6422
  61  205.5587
  62  339.6628
  63  403.9592
  64  391.7602
  65  328.2348
  66  334.7317
  67  297.0152
  68  140.8262
  69  145.3049
  70  291.1876
  71  246.9083
  72  185.8161
  73  217.3132
  74  323.9421
  75  319.5537
  76  302.6651
  77  233.2302
  78  234.8839
  79  386.2708
  80  316.6466
  81  139.5479
  82  79.80618
  83  292.706
  84  393.1775
  85  220.4464
  86  250.8509
  87  254.4199
  88  327.5658
  89  258.9903
  90  297.2679
  91  328.7967
  92  282.6476
  93  251.0004
  94  276.9499
  95  377.2253
  96  372.947
  97  352.6291
  98  320.5565
  99  185.8748
 100  201.9891
 101  225.4734
 102  223.3838
 103  166.4363
 104  319.2416
 105  307.0133
 106  81.55546
 107  137.9048
 108  307.5042
 109  198.7157
 110  351.3489
 111  396.439
 112  406.3341
 113  396.6221
 114  382.7656
 115  347.3684
 116  398.8772
 117  334.4427
 118  372.595
 119  370.608
 120  173.2364
 121  104.1818
 122  237.905
 123  296.8968
 124  283.2215
 125  204.3153
 126  327.0011
 127  338.8295
 128  318.8206
 129  380.0341
 130  434.9292
 131  304.5884
 132  271.2078
 133  290.4403
 134  312.5866
 135  393.0487
 136  422.3143
 137  455.8891
 138  367.444
 139  220.2488
 140  244.4437
 141  366.7101
 142  333.8165
 143  317.8761
 144  337.2668
 145  363.6907
 146  349.0598
 147  388.5863
 148  246.998
 149  296.4799
 150  448.4945
 151  366.6543
 152  254.0983
 153  333.5269
 154  308.4927
 155  258.0806
 156  293.287
 157  347.1902
 158  331.9772
 159  264.7421
 160  229.9993
 161  359.9471
 162  331.0785
 163  305.6376
 164  235.6035
 165  216.1715
 166  381.8961
 167  395.617
 168  329.9264
 169  333.069
 170  247.4475
 171  281.4665
 172  178.3716
 173  155.019
 174  240.4715
 175  356.5969
 176  345.3209
 177  312.2894
 178  247.6941
 179  230.7969
 180  327.6138
 181  316.6897
 182  236.2965
 183  191.7984
 184  261.7499
 185  262.8304
 186  240.8108
 187  254.4289
 188  225.4841
 189  219.9846
 190  100.4985
 191  149.3588
 192  164.1821
 193  267.5055
 194  141.0309
 195  213.826
 196  318.2517
 197  250.604
 198  216.9901
 199  333.8163
 200  244.1692
 201  188.9483
 202  183.3735
 203  245.1224
 204  404.0329
 205  258.4769
 206  222.3706
 207  285.7866
 208  322.0716
 209  291.6277
 210  234.6659
 211  251.1012
 212  291.1542
 213  270.4502
 214  273.8128
 215  321.3632
 216  376.4187
 217  313.8105
 218  245.9588
 219  253.0628
 220  241.2256
 221  389.4564
 222  314.3922
 223  300.4791
 224  181.7574
 225  154.2208
 226  118.895
 227  126.0252
 228  141.8092
 229  95.15187
 230  203.0931
 231  258.3185
 232  205.2614
 233  189.9891
 234  239.8867
 235  383.0065
 236  339.5786
 237  230.1948
 238  253.9586
 239  328.8747
 240  324.2382
 241  206.2779
 242  318.6879
 243  315.1582
 244  291.8371
 245  273.0092
 246  297.0469
 247  253.9643
 248  294.9778
 249  235.358
 250  273.227
 251  348.9588
 252  226.9561
 253  270.9382
 254  263.843
 255  335.0699
 256  335.9012
 257  369.4356
 258  360.2681
 259  326.0521
 260  328.0881
 261  287.9836
 262  133.6714
 263  230.8988
 264  298.6422
 265  239.7934
 266  266.08
 267  321.4492
 268  336.3293
 269  374.0931
 270  205.1645
 271  202.2632
 272  245.4234
 273  403.1732
 274  381.1129
 275  297.5618
 276  364.1191
 277  263.8268
 278  279.845
 279  417.6751
 280  534.8563
 281  428.1903
 282  389.3602
 283  334.4088
 284  208.9187
 285  210.7791
 286  302.74
 287  333.8391
 288  280.9651
 289  250.6393
 290  305.758
 291  408.5993
 292  360.7227
 293  358.8466
 294  211.4911
 295  392.8637
 296  331.071
 297  295.7049
 298  331.5729
 299  233.0367
 300  139.1733
 301  230.6958
 302  292.0006
 303  337.2149
 304  460.7372
 305  322.8091
 306  195.3377
 307  264.7661
 308  314.3083
 309  328.6415
 310  291.9679
 311  358.2905
 312  391.9897
 313  251.3582
 314  308.7773
 315  210.0993
 316  241.429
 317  304.0858
 318  325.3638
 319  277.3474
 320  217.7233
 321  252.7894
 322  309.8523
 323  328.869
 324  242.1191
 325  290.9906
 326  354.1531
 327  326.2839
 328  240.7264
 329  241.1659
 330  387.5935
 331  339.0153
 332  342.4483
 333  261.606
 334  246.1768
 335  214.5797
 336  152.2133
 337  290.8127
 338  402.6241
 339  353.0931
 340  272.6326
 341  261.334
 342  246.2782
 343  326.4323
 344  356.3808
 345  381.695
 346  284.2698
 347  349.6078
 348  268.9785
 349  139.02
 350  199.5566
 351  193.9744
 352  186.4121
 353  147.4134
 354  177.9305
 355  172.6275
 356  197.5713
 357  371.1405
 358  236.4737
 359  178.7302
 360  228.9213
 361  339.5762
 362  264.2582
 363  389.9383
 364  441.2432
 365  262.7486
 366  201.5784
 367  243.2941
 368  270.2372
 369  257.6131
 370  258.1016
 371  313.6019
 372  272.3825
 373  206.6897
 374  206.8416
 375  253.2148
 376  275.1904
 377  253.8782
 378  344.8087
 379  418.531
 380  307.4721
 381  288.692
 382  320.0726
 383  466.9062
 384  398.2916
 385  393.0601
 386  370.919
 387  338.0012
 388  282.6133
 389  242.2673
 390  263.7726
 391  278.6688
 392  325.4105
 393  339.5626
 394  227.0446
 395  179.4033
 396  270.1689
 397  315.7037
 398  340.6501
 399  291.3154
 400  348.2975
 401  430.0392
 402  338.142
 403  241.1378
 404  165.4351
 405  274.088
 406  287.8818
 407  215.0959
 408  190.2253
 409  197.4255
 410  263.4096
 411  283.1186
 412  253.9904
 413  242.1211
 414  289.3062
 415  275.3971
 416  290.3402
 417  456.5986
 418  350.607
 419  407.4576
 420  325.1711
 421  181.7737
 422  228.8349
 423  305.9319
 424  263.4819
 425  353.0943
 426  346.3149
 427  429.2565
 428  238.3446
 429  22.7916
 430  117.2458
 431  187.7168
 432  146.7637
 433  -12.6202
 434  62.74849
 435  244.088
 436  215.8685
 437  242.1194
 438  265.2164
 439  269.0777
 440  278.5517
 441  216.038
 442  205.4962
 443  219.8413
 444  233.1074
 445  362.9352
 446  377.4666
 447  332.0223
 448  258.6166
 449  371.6638
 450  358.658
 451  296.5944
 452  428.0135
 453  378.428
 454  280.4131
 455  178.4364
 456  274.2634
 457  298.1041
 458  257.0467
 459  289.8805
 460  280.1921
 461  348.8506
 462  362.8892
 463  391.5321
 464  369.3199
 465  265.1673
 466  345.3781
 467  385.4045
 468  399.1238
 469  257.0213
 470  213.1835
 471  280.0979
 472  367.4127
 473  346.4738
 474  233.1261
 475  198.2803
 476  140.4837
 477  311.8
 478  341.4977
 479  247.6467
 480  264.9837
 481  329.741
 482  309.3677
 483  334.5875
 484  354.4335
 485  407.1248
 486  430.9998
 487  375.7363
 488  347.7932
 489  418.6663
 490  408.8026
 491  449.305
 492  393.9276
 493  390.7697
 494  359.2341
 495  272.0062
 496  303.7789
 497  400.0577
 498  330.4524
 499  323.107
 500  318.084
 501  345.7088
 502  421.8908
 503  386.3818
 504  420.6918
 505  358.691
 506  368.9164
 507  456.0484
 508  475.6913
 509  527.3509
 510  655.6458
 511  820.4264
