# Input file       =  1185679067.110193_cleaned.dat
# Candidate        =  PSR_0332+5434
# Telescope        =  AR
# Epoch_topo       =  57967.137142479085
# Epoch_bary       =  N/A
# T_sample         =  0.002
# Data Folded      =  7340032
# Data Avg         =  0.0083759859686335
# Data StdDev      =  1.00003642478395 
# Profile Bins     =  512
# Profile Avg      =  120.072688146303 
# Profile StdDev   =  119.737397626748 
# Reduced chi-sqr  =  1.736
# Prob(Noise)      <  1.2e-22   (~9.7 sigma)
# P_topo (ms)      =  714.469010050242  +/- 0.00016
# P'_topo (s/s)    =  -0                +/- 8.43e-11
# P''_topo (s/s^2) =  0                 +/- 3.72e-14
# P_bary (ms)      =  N/A
# P'_bary (s/s)    =  N/A
# P''_bary (s/s^2) =  N/A
# P_orb (s)        =  N/A
# asin(i)/c (s)    =  N/A
# eccentricity     =  N/A
# w (rad)          =  N/A
# T_peri           =  N/A
######################################################
   0  999.8956
   1  781.6977
   2  517.2473
   3  274.1257
   4  165.4663
   5  82.42645
   6  186.9945
   7  234.5872
   8  160.7896
   9  148.9098
  10  139.4929
  11  80.10126
  12  -56.58557
  13  -18.36787
  14  209.5481
  15  189.194
  16  114.2098
  17  43.0294
  18  108.9392
  19  194.6744
  20  161.3354
  21  227.9341
  22  137.8391
  23  123.9308
  24  150.0648
  25  151.9459
  26  117.7217
  27  54.14714
  28  50.43615
  29  2.031794
  30  104.2396
  31  -79.10877
  32  8.142409
  33  -8.601386
  34  27.2368
  35  14.13675
  36  25.34199
  37  -47.59855
  38  78.19802
  39  109.678
  40  233.9738
  41  201.4112
  42  153.2121
  43  178.9681
  44  101.0445
  45  154.8399
  46  193.3397
  47  219.9444
  48  110.5379
  49  137.3871
  50  216.0296
  51  179.0887
  52  44.39885
  53  -17.58938
  54  51.13914
  55  124.1279
  56  53.48919
  57  129.2938
  58  24.62358
  59  35.35118
  60  48.5212
  61  187.9004
  62  237.9049
  63  141.8376
  64  49.09707
  65  119.2696
  66  67.94219
  67  116.031
  68  3.306238
  69  -8.285604
  70  187.4368
  71  233.604
  72  55.62965
  73  189.0753
  74  108.343
  75  90.21855
  76  31.63135
  77  39.8487
  78  -40.04201
  79  136.8051
  80  225.156
  81  120.1725
  82  105.4472
  83  133.0272
  84  187.2576
  85  227.1519
  86  229.4746
  87  114.1719
  88  -13.79905
  89  64.61292
  90  96.29398
  91  121.1012
  92  2.655127
  93  16.20473
  94  -23.68053
  95  151.7092
  96  176.8664
  97  203.7125
  98  177.5785
  99  0.5309454
 100  -76.96357
 101  18.99319
 102  103.829
 103  152.2344
 104  97.83914
 105  105.5128
 106  125.3509
 107  94.95264
 108  113.2612
 109  121.4042
 110  244.4241
 111  119.2177
 112  55.69999
 113  247.5274
 114  170.6066
 115  215.106
 116  104.2242
 117  187.0324
 118  256.2495
 119  121.9566
 120  173.8879
 121  310.8641
 122  106.135
 123  161.5813
 124  125.7454
 125  148.1927
 126  208.4656
 127  179.6004
 128  200.3402
 129  138.9978
 130  54.49324
 131  56.07933
 132  135.9522
 133  106.3789
 134  -32.33911
 135  56.37326
 136  60.65831
 137  131.3611
 138  90.46181
 139  93.70823
 140  178.7068
 141  92.22662
 142  91.24203
 143  180.9637
 144  60.54943
 145  115.4743
 146  186.9369
 147  73.37917
 148  42.80634
 149  193.2391
 150  201.9243
 151  174.8883
 152  62.90453
 153  163.6012
 154  296.1506
 155  275.6775
 156  65.30024
 157  145.0973
 158  95.0224
 159  142.8571
 160  84.81027
 161  134.0662
 162  256.0598
 163  81.67031
 164  29.1644
 165  158.049
 166  100.8321
 167  100.8696
 168  157.7794
 169  25.82483
 170  86.18121
 171  215.2841
 172  177.7918
 173  167.9791
 174  58.25519
 175  39.93676
 176  152.4047
 177  105.184
 178  74.03429
 179  229.0954
 180  95.17525
 181  114.9765
 182  172.3788
 183  175.6545
 184  169.6921
 185  88.79906
 186  175.1512
 187  301.6657
 188  230.1695
 189  170.3639
 190  91.00723
 191  55.87672
 192  152.4782
 193  133.2284
 194  118.2177
 195  204.8291
 196  187.3505
 197  167.0679
 198  121.4459
 199  147.999
 200  164.7696
 201  211.7849
 202  135.1526
 203  102.8402
 204  99.94698
 205  232.7098
 206  315.0726
 207  325.8665
 208  386.6768
 209  260.2231
 210  103.6115
 211  211.8597
 212  248.5078
 213  137.6156
 214  144.6725
 215  218.8466
 216  170.6764
 217  99.59721
 218  140.7316
 219  202.8418
 220  219.7422
 221  101.3278
 222  27.47155
 223  78.29342
 224  167.9084
 225  149.7977
 226  148.4286
 227  244.3888
 228  344.5745
 229  203.411
 230  42.28286
 231  -197.0407
 232  -80.68645
 233  131.6113
 234  260.1384
 235  123.8254
 236  15.14023
 237  49.83998
 238  222.8072
 239  229.8049
 240  300.0071
 241  157.7032
 242  70.13573
 243  126.5103
 244  65.05169
 245  73.83516
 246  82.73198
 247  114.7056
 248  71.133
 249  98.80024
 250  154.8132
 251  77.3829
 252  55.62524
 253  132.6967
 254  180.5769
 255  95.78616
 256  111.4939
 257  222.0061
 258  266.5039
 259  152.5569
 260  184.5679
 261  260.3415
 262  172.4291
 263  -38.82655
 264  -43.21478
 265  18.77857
 266  -15.11442
 267  -56.964
 268  -17.88367
 269  -4.446841
 270  97.14931
 271  217.6061
 272  176.1289
 273  89.46365
 274  81.10481
 275  55.65394
 276  104.6606
 277  206.5854
 278  214.4873
 279  99.58501
 280  168.7593
 281  242.0457
 282  279.8058
 283  95.86966
 284  167.0745
 285  172.9127
 286  209.1757
 287  135.4607
 288  20.2685
 289  73.14891
 290  132.6849
 291  51.68665
 292  -104.9125
 293  124.2686
 294  169.5456
 295  -109.5295
 296  -89.47033
 297  -33.11946
 298  54.7593
 299  -47.29726
 300  62.4362
 301  153.4849
 302  198.2137
 303  58.71786
 304  204.1815
 305  -3.966608
 306  -187.5076
 307  -162.8815
 308  -19.10494
 309  118.3991
 310  239.7681
 311  209.1937
 312  199.1072
 313  116.035
 314  -61.80273
 315  -44.96018
 316  40.13516
 317  160.4961
 318  140.9294
 319  -98.52828
 320  -78.69209
 321  160.0867
 322  104.5965
 323  56.30432
 324  42.41387
 325  136.4387
 326  202.958
 327  143.1921
 328  157.7231
 329  120.9548
 330  186.1866
 331  199.7881
 332  177.8375
 333  250.1262
 334  126.4697
 335  55.44717
 336  98.64722
 337  152.1702
 338  68.89228
 339  63.64238
 340  139.2735
 341  62.78631
 342  121.1357
 343  168.3589
 344  259.1262
 345  275.2546
 346  86.33842
 347  94.04816
 348  133.7853
 349  276.3357
 350  195.3833
 351  185.3058
 352  137.9482
 353  145.7921
 354  104.8145
 355  75.03565
 356  78.27821
 357  50.99575
 358  98.31657
 359  181.6927
 360  148.9264
 361  371.8394
 362  277.7623
 363  134.3054
 364  -22.98849
 365  33.92486
 366  93.20931
 367  142.54
 368  227.8124
 369  116.1847
 370  -71.72249
 371  71.73319
 372  200.4284
 373  189.9373
 374  305.295
 375  279.168
 376  135.5323
 377  -16.8377
 378  96.39854
 379  27.45961
 380  -25.10246
 381  155.1418
 382  127.7885
 383  1.1224
 384  123.3819
 385  69.0323
 386  12.55369
 387  12.0807
 388  33.70275
 389  62.86604
 390  129.0178
 391  37.7802
 392  -2.569461
 393  157.4299
 394  120.7235
 395  -48.13871
 396  15.23552
 397  96.35593
 398  52.99122
 399  42.08538
 400  189.5948
 401  121.3853
 402  54.11017
 403  -29.93114
 404  -13.04012
 405  118.3589
 406  183.2662
 407  168.9022
 408  122.5005
 409  101.0514
 410  20.48306
 411  36.80915
 412  102.7072
 413  29.88454
 414  12.79401
 415  103.9414
 416  93.90234
 417  117.8617
 418  122.9329
 419  30.65401
 420  24.04453
 421  24.3253
 422  -26.17571
 423  164.8113
 424  177.7983
 425  35.44907
 426  34.81323
 427  18.79045
 428  113.7956
 429  80.95779
 430  94.49505
 431  70.20325
 432  -115.9769
 433  6.10119
 434  116.7533
 435  236.6162
 436  206.166
 437  105.1095
 438  107.5757
 439  47.33775
 440  113.6945
 441  118.0549
 442  30.2838
 443  -30.48155
 444  73.22623
 445  69.28544
 446  66.16495
 447  159.4002
 448  130.1119
 449  184.116
 450  202.3176
 451  180.5748
 452  38.49781
 453  22.62663
 454  -84.6469
 455  10.27433
 456  227.231
 457  146.7801
 458  270.3896
 459  330.6778
 460  95.48826
 461  107.3566
 462  184.8124
 463  155.4001
 464  68.01254
 465  121.1546
 466  80.91371
 467  63.17901
 468  104.9282
 469  5.383621
 470  76.6754
 471  100.2881
 472  93.19637
 473  89.30376
 474  111.2035
 475  10.89349
 476  -92.74149
 477  -84.69483
 478  -42.035
 479  -15.8772
 480  55.49319
 481  58.25475
 482  1.368226
 483  68.92339
 484  34.87924
 485  75.94992
 486  171.833
 487  105.9978
 488  42.95504
 489  124.8514
 490  95.49006
 491  -37.50499
 492  5.783648
 493  49.45386
 494  113.7915
 495  62.3837
 496  30.1137
 497  129.5065
 498  129.1016
 499  50.16207
 500  44.10098
 501  49.42348
 502  110.7567
 503  151.8359
 504  134.9078
 505  388.1979
 506  391.2081
 507  282.9397
 508  438.0045
 509  579.8832
 510  709.6776
 511  835.7329
