# Input file       =  1185922931.11324_cleaned.dat
# Candidate        =  PSR_0332+5434
# Telescope        =  AR
# Epoch_topo       =  57969.959642514354
# Epoch_bary       =  N/A
# T_sample         =  0.002
# Data Folded      =  7208960
# Data Avg         =  0.0165197339885915
# Data StdDev      =  1.00002511943294 
# Profile Bins     =  512
# Profile Avg      =  232.655107548103 
# Profile StdDev   =  118.66215644474  
# Reduced chi-sqr  =  1.426
# Prob(Noise)      <  7.56e-10   (~6.0 sigma)
# P_topo (ms)      =  714.467885620843  +/- 0.000168
# P'_topo (s/s)    =  -0                +/- 9.01e-11
# P''_topo (s/s^2) =  0                 +/- 4.05e-14
# P_bary (ms)      =  N/A
# P'_bary (s/s)    =  N/A
# P''_bary (s/s^2) =  N/A
# P_orb (s)        =  N/A
# asin(i)/c (s)    =  N/A
# eccentricity     =  N/A
# w (rad)          =  N/A
# T_peri           =  N/A
######################################################
   0  196.3602
   1  150.2301
   2  190.2388
   3  268.8709
   4  263.9009
   5  358.2691
   6  314.3131
   7  290.3707
   8  232.5
   9  117.0338
  10  221.3553
  11  230.0355
  12  138.7174
  13  267.9473
  14  253.1115
  15  295.0807
  16  310.9807
  17  360.2139
  18  129.6889
  19  275.6098
  20  351.6912
  21  257.2883
  22  326.8332
  23  393.3536
  24  314.8994
  25  177.7464
  26  221.5297
  27  293.9454
  28  183.3266
  29  248.151
  30  388.3614
  31  354.0063
  32  325.7659
  33  312.9651
  34  356.86
  35  446.4567
  36  256.1898
  37  265.8738
  38  221.4706
  39  306.2463
  40  302.3711
  41  303.412
  42  220.7847
  43  249.8663
  44  226.2108
  45  104.0042
  46  286.311
  47  370.3871
  48  433.1415
  49  377.6326
  50  393.6891
  51  308.2915
  52  148.9798
  53  283.1454
  54  320.6026
  55  268.0631
  56  323.3518
  57  239.1558
  58  267.7537
  59  280.4921
  60  240.1946
  61  166.7285
  62  196.828
  63  141.2398
  64  97.0711
  65  272.2309
  66  314.1644
  67  180.6972
  68  190.875
  69  208.4851
  70  213.989
  71  284.3583
  72  246.2207
  73  286.6489
  74  302.6505
  75  236.744
  76  293.1873
  77  352.7169
  78  179.974
  79  199.5869
  80  310.8116
  81  391.2984
  82  461.2591
  83  350.1099
  84  332.4021
  85  456.166
  86  276.268
  87  181.7937
  88  347.7785
  89  339.9174
  90  496.9212
  91  506.5038
  92  298.5777
  93  392.4242
  94  292.5607
  95  227.7336
  96  193.9245
  97  232.7217
  98  258.0665
  99  318.7569
 100  267.8968
 101  177.95
 102  277.9576
 103  303.1183
 104  216.4397
 105  202.9659
 106  260.2969
 107  266.4209
 108  221.6853
 109  236.7959
 110  173.5317
 111  249.3598
 112  376.4197
 113  232.4716
 114  248.8368
 115  220.586
 116  233.858
 117  317.1675
 118  190.2229
 119  253.2505
 120  301.9859
 121  381.5231
 122  294.0236
 123  418.0481
 124  477.2955
 125  316.0925
 126  266.3377
 127  380.5762
 128  135.3135
 129  162.8093
 130  171.8579
 131  181.6835
 132  170.2
 133  265.1906
 134  319.1254
 135  221.9132
 136  224.9941
 137  258.897
 138  262.1235
 139  223.9093
 140  311.4977
 141  253.5407
 142  330.3864
 143  300.0258
 144  294.2188
 145  159.2971
 146  55.38802
 147  246.4286
 148  327.9751
 149  407.4998
 150  321.4807
 151  215.7117
 152  189.9912
 153  103.6851
 154  127.0777
 155  211.5111
 156  365.7758
 157  353.6577
 158  371.8392
 159  317.554
 160  264.7385
 161  182.9523
 162  274.9579
 163  321.7966
 164  193.1338
 165  195.5081
 166  209.8931
 167  321.5345
 168  260.6343
 169  230.9272
 170  353.9876
 171  365.9164
 172  127.476
 173  164.9887
 174  202.5898
 175  247.4832
 176  242.9698
 177  167.5356
 178  177.6453
 179  191.4532
 180  310.0701
 181  286.9226
 182  188.5136
 183  148.9863
 184  154.6937
 185  316.7614
 186  392.2457
 187  312.4506
 188  247.3719
 189  221.5714
 190  220.5328
 191  273.7339
 192  243.1792
 193  174.1992
 194  217.8084
 195  91.94864
 196  150.2035
 197  174.7923
 198  293.1997
 199  390.3759
 200  327.8631
 201  228.1302
 202  230.5148
 203  220.7901
 204  176.841
 205  288.0798
 206  307.4633
 207  317.4951
 208  178.5433
 209  216.1271
 210  212.7961
 211  216.8641
 212  150.4668
 213  98.68535
 214  96.23645
 215  189.8789
 216  219.2538
 217  107.5711
 218  66.91416
 219  232.4267
 220  342.1049
 221  303.673
 222  347.2465
 223  212.6816
 224  122.2285
 225  181.9223
 226  254.6732
 227  223.2456
 228  173.8341
 229  272.6481
 230  267.3722
 231  256.5829
 232  246.6299
 233  299.6845
 234  311.6476
 235  244.0832
 236  274.9286
 237  224.2184
 238  187.798
 239  248.1053
 240  319.6564
 241  317.9315
 242  265.9481
 243  180.0002
 244  187.7583
 245  232.3437
 246  176.6294
 247  151.7809
 248  193.3758
 249  211.6125
 250  301.2764
 251  205.1207
 252  187.7549
 253  120.1132
 254  61.19474
 255  109.4717
 256  82.44769
 257  222.0714
 258  188.9223
 259  227.2767
 260  175.814
 261  235.1513
 262  290.2478
 263  301.2022
 264  241.7919
 265  188.7388
 266  187.7097
 267  111.4693
 268  46.20729
 269  208.0165
 270  96.27133
 271  78.61121
 272  155.4689
 273  244.17
 274  146.3009
 275  75.35162
 276  126.1698
 277  73.77513
 278  45.61194
 279  63.56754
 280  36.89817
 281  150.7523
 282  249.2135
 283  241.0989
 284  232.9156
 285  187.1985
 286  107.153
 287  152.7533
 288  127.6755
 289  74.32424
 290  95.34767
 291  112.944
 292  141.2852
 293  264.9073
 294  325.5225
 295  205.2719
 296  245.0935
 297  237.5369
 298  252.4185
 299  98.48991
 300  118.1092
 301  212.0418
 302  212.1423
 303  326.6432
 304  375.3394
 305  266.82
 306  211.7703
 307  136.8317
 308  251.2555
 309  138.7023
 310  146.4478
 311  164.8929
 312  229.416
 313  233.7328
 314  235.9755
 315  243.1047
 316  327.641
 317  262.3387
 318  57.92424
 319  56.16476
 320  149.7709
 321  141.8403
 322  198.0296
 323  243.718
 324  348.5973
 325  242.8601
 326  232.1526
 327  202.8199
 328  227.6011
 329  233.6197
 330  254.3809
 331  350.3117
 332  271.7845
 333  331.9086
 334  255.4532
 335  165.3846
 336  192.1195
 337  159.8241
 338  132.6614
 339  165.564
 340  159.6775
 341  196.6693
 342  242.8062
 343  201.6095
 344  193.001
 345  218.1462
 346  109.0136
 347  186.3301
 348  68.49813
 349  160.1228
 350  188.5761
 351  186.2424
 352  130.0307
 353  103.3465
 354  241.8629
 355  236.8541
 356  191.7396
 357  267.6862
 358  243.1099
 359  43.36227
 360  178.2052
 361  177.9658
 362  114.31
 363  219.0819
 364  222.124
 365  205.8557
 366  245.3354
 367  264.2904
 368  147.8969
 369  184.8977
 370  174.7014
 371  18.96118
 372  82.43245
 373  -32.3328
 374  79.74388
 375  175.8401
 376  266.6887
 377  281.2824
 378  194.4933
 379  147.6939
 380  110.0021
 381  55.53922
 382  76.99477
 383  167.0359
 384  165.7499
 385  48.1928
 386  52.31503
 387  131.072
 388  70.95044
 389  231.4289
 390  139.452
 391  186.484
 392  193.2752
 393  102.1603
 394  95.64454
 395  178.1329
 396  235.6184
 397  188.6878
 398  118.9723
 399  198.6004
 400  299.3384
 401  233.0555
 402  278.7089
 403  231.2149
 404  329.9072
 405  313.36
 406  230.3702
 407  219.4415
 408  227.0363
 409  287.2079
 410  240.9072
 411  258.0823
 412  298.722
 413  321.9467
 414  373.3256
 415  595.1176
 416  758.5784
 417  851.1154
 418  878.2926
 419  718.7859
 420  596.1738
 421  322.0614
 422  274.9415
 423  176.1023
 424  209.7838
 425  355.2524
 426  369.5774
 427  128.8654
 428  72.71977
 429  203.4875
 430  305.2956
 431  218.4364
 432  130.9689
 433  238.4883
 434  226.3282
 435  250.6741
 436  371.4066
 437  306.532
 438  264.0849
 439  66.02126
 440  115.5029
 441  263.6541
 442  257.3119
 443  62.23252
 444  118.2455
 445  143.5058
 446  250.1582
 447  302.8341
 448  234.5435
 449  144.1793
 450  194.7679
 451  289.3875
 452  383.1023
 453  377.3904
 454  271.356
 455  70.83208
 456  127.0492
 457  251.6985
 458  268.3126
 459  234.9409
 460  234.0663
 461  263.1571
 462  235.9546
 463  290.5558
 464  313.9461
 465  260.3951
 466  179.3476
 467  117.3263
 468  134.5582
 469  191.2615
 470  207.2061
 471  126.1828
 472  106.6024
 473  61.68581
 474  233.1335
 475  244.2895
 476  240.558
 477  273.4014
 478  316.7142
 479  204.9247
 480  108.2804
 481  185.8065
 482  260.3893
 483  164.5877
 484  214.996
 485  269.2491
 486  224.1301
 487  86.53745
 488  252.8583
 489  306.5289
 490  172.9514
 491  128.4068
 492  113.5234
 493  170.9596
 494  126.107
 495  120.8465
 496  232.0195
 497  218.078
 498  97.25249
 499  4.311608
 500  50.97131
 501  220.2657
 502  247.9394
 503  204.7694
 504  286.2797
 505  179.3177
 506  215.6743
 507  357.2654
 508  331.4654
 509  264.0862
 510  355.5005
 511  317.1521
