# Input file       =  1185405938.11192_cleaned.dat
# Candidate        =  PSR_0332+5434
# Telescope        =  AR
# Epoch_topo       =  57963.975927221298
# Epoch_bary       =  N/A
# T_sample         =  0.002
# Data Folded      =  7208960
# Data Avg         =  0.0332345584180342
# Data StdDev      =  1.00021552339627 
# Profile Bins     =  512
# Profile Avg      =  467.778163738277 
# Profile StdDev   =  118.684749622097 
# Reduced chi-sqr  =  1.057
# Prob(Noise)      <  0.179   (~0.9 sigma)
# P_topo (ms)      =  714.47038414333   +/- 0.000302
# P'_topo (s/s)    =  -0                +/- 1.62e-10
# P''_topo (s/s^2) =  0                 +/- 7.3e-14
# P_bary (ms)      =  N/A
# P'_bary (s/s)    =  N/A
# P''_bary (s/s^2) =  N/A
# P_orb (s)        =  N/A
# asin(i)/c (s)    =  N/A
# eccentricity     =  N/A
# w (rad)          =  N/A
# T_peri           =  N/A
######################################################
   0  994.4397
   1  1023.417
   2  927.8265
   3  696.0427
   4  453.9939
   5  472.2537
   6  492.6724
   7  488.6823
   8  446.4855
   9  475.7278
  10  476.9849
  11  444.5286
  12  514.5073
  13  598.5217
  14  657.2831
  15  616.6511
  16  638.8018
  17  675.5747
  18  479.4451
  19  412.5745
  20  421.9606
  21  539.5715
  22  588.6583
  23  546.5351
  24  428.7335
  25  494.347
  26  528.7665
  27  551.0931
  28  520.6899
  29  397.422
  30  437.2061
  31  380.9742
  32  435.2985
  33  474.3304
  34  440.7224
  35  355.5885
  36  372.4648
  37  475.7732
  38  530.1471
  39  447.6793
  40  556.2877
  41  456.267
  42  482.5155
  43  452.441
  44  319.7746
  45  371.4176
  46  447.9229
  47  465.8171
  48  428.5577
  49  420.9319
  50  359.2412
  51  415.2062
  52  448.2889
  53  336.2113
  54  259.1205
  55  426.817
  56  369.2848
  57  405.0637
  58  452.5573
  59  410.9069
  60  412.5396
  61  367.1583
  62  490.421
  63  432.1881
  64  363.8506
  65  447.4283
  66  492.2242
  67  502.2746
  68  460.7394
  69  387.1224
  70  498.8487
  71  476.574
  72  500.9856
  73  496.8644
  74  408.4453
  75  190.7617
  76  304.4475
  77  404.0871
  78  402.8153
  79  517.2297
  80  489.7794
  81  509.2625
  82  433.3004
  83  374.1718
  84  438.2466
  85  375.4765
  86  458.7891
  87  431.0713
  88  319.6341
  89  402.1956
  90  457.3898
  91  442.5988
  92  444.919
  93  464.7038
  94  351.4823
  95  404.6421
  96  513.7363
  97  549.7655
  98  509.2967
  99  450.9286
 100  456.7611
 101  395.3623
 102  493.2025
 103  610.1724
 104  549.9396
 105  516.6483
 106  476.2471
 107  344.2045
 108  439.8571
 109  559.0316
 110  362.3588
 111  340.6778
 112  469.3966
 113  480.1058
 114  440.7328
 115  393.3001
 116  366.6321
 117  510.3083
 118  332.9298
 119  311.8807
 120  398.9034
 121  441.2079
 122  457.6497
 123  515.6769
 124  450.8716
 125  360.9232
 126  400.9781
 127  371.6188
 128  313.9398
 129  355.5187
 130  410.6974
 131  419.1041
 132  398.2028
 133  375.8304
 134  426.3218
 135  412.7886
 136  478.0151
 137  525.6017
 138  546.3461
 139  452.5753
 140  428.7667
 141  498.3811
 142  579.1672
 143  400.5127
 144  546.7734
 145  508.5138
 146  515.6734
 147  511.3402
 148  485.3466
 149  440.2958
 150  384.1918
 151  477.7276
 152  454.0265
 153  423.6074
 154  443.5031
 155  464.003
 156  426.5267
 157  482.8212
 158  519.6847
 159  432.8572
 160  392.2231
 161  381.3286
 162  447.7369
 163  464.2545
 164  485.4989
 165  460.4824
 166  494.7901
 167  450.1978
 168  361.7187
 169  375.8096
 170  429.3269
 171  361.3014
 172  248.295
 173  315.3638
 174  451.5221
 175  557.08
 176  501.0667
 177  404.2515
 178  397.0305
 179  464.1634
 180  540.2863
 181  552.4314
 182  497.5466
 183  401.011
 184  502.5713
 185  535.9697
 186  469.1745
 187  566.6207
 188  495.9846
 189  495.2827
 190  360.3593
 191  395.939
 192  528.0483
 193  459.0697
 194  370.5045
 195  443.807
 196  317.5919
 197  269.1744
 198  411.83
 199  462.276
 200  363.0596
 201  494.8681
 202  472.3353
 203  484.389
 204  486.5849
 205  456.8879
 206  470.4448
 207  472.4167
 208  442.0162
 209  430.7749
 210  412.8921
 211  502.611
 212  353.4997
 213  291.9712
 214  416.7214
 215  358.6344
 216  331.42
 217  481.6609
 218  545.7136
 219  572.2171
 220  571.077
 221  428.8956
 222  340.121
 223  440.4991
 224  430.8543
 225  494.0653
 226  437.9695
 227  500.0111
 228  569.8926
 229  475.3865
 230  441.6275
 231  453.1319
 232  384.3322
 233  271.3994
 234  276.0722
 235  380.444
 236  440.6228
 237  492.011
 238  521.9103
 239  411.9982
 240  414.965
 241  476.7189
 242  513.1754
 243  387.5255
 244  531.2393
 245  482.5313
 246  540.8453
 247  548.7983
 248  464.4706
 249  485.4858
 250  490.4533
 251  485.428
 252  455.6892
 253  510.2625
 254  496.7408
 255  490.7057
 256  570.2938
 257  631.1838
 258  568.2045
 259  504.8879
 260  561.5038
 261  559.1788
 262  652.5593
 263  703.6508
 264  562.8838
 265  475.3939
 266  565.8375
 267  563.1355
 268  422.4446
 269  482.6691
 270  491.1084
 271  437.221
 272  446.9921
 273  479.1732
 274  455.6247
 275  443.429
 276  574.0449
 277  515.6245
 278  475.6537
 279  561.3404
 280  536.149
 281  476.8407
 282  404.7132
 283  286.4323
 284  431.3843
 285  459.951
 286  459.3961
 287  483.9387
 288  365.7367
 289  337.3363
 290  433.2709
 291  529.7037
 292  501.257
 293  434.8185
 294  562.9171
 295  592.7476
 296  478.24
 297  406.8381
 298  422.5805
 299  573.4616
 300  571.726
 301  494.1084
 302  514.6333
 303  585.7069
 304  535.8596
 305  501.53
 306  594.0494
 307  518.4446
 308  500.6479
 309  508.3487
 310  497.2572
 311  407.0004
 312  453.736
 313  618.4432
 314  494.1972
 315  429.4524
 316  384.5136
 317  481.6348
 318  459.6667
 319  390.112
 320  441.963
 321  555.7943
 322  503.5597
 323  586.019
 324  516.5328
 325  534.0959
 326  452.9226
 327  367.1346
 328  483.7295
 329  463.7784
 330  598.1985
 331  605.0409
 332  588.0607
 333  546.6388
 334  483.3627
 335  528.3429
 336  522.1062
 337  576.4009
 338  607.9998
 339  561.7394
 340  460.0057
 341  452.0582
 342  406.4368
 343  444.0563
 344  543.0085
 345  636.2244
 346  563.289
 347  554.7133
 348  460.3165
 349  467.9382
 350  542.0134
 351  610.8442
 352  446.6515
 353  300.8309
 354  479.5917
 355  490.9008
 356  548.586
 357  359.6211
 358  504.4424
 359  462.217
 360  429.2609
 361  440.0225
 362  464.2296
 363  402.651
 364  428.3563
 365  465.4305
 366  526.6096
 367  463.4291
 368  407.2089
 369  489.9513
 370  429.7224
 371  527.3571
 372  429.86
 373  383.7689
 374  480.5055
 375  503.2659
 376  433.7366
 377  384.5645
 378  445.8536
 379  407.287
 380  433.7283
 381  435.996
 382  539.7665
 383  473.5653
 384  315.2375
 385  416.5214
 386  508.5998
 387  485.5208
 388  444.0354
 389  530.8494
 390  551.4991
 391  590.6573
 392  560.6949
 393  458.7824
 394  574.4478
 395  534.5644
 396  400.901
 397  427.0539
 398  463.9268
 399  476.1651
 400  486.7918
 401  495.6566
 402  538.2977
 403  524.5948
 404  480.5817
 405  394.1218
 406  454.65
 407  530.8678
 408  402.2848
 409  416.4196
 410  377.0889
 411  466.2613
 412  474.6975
 413  604.0072
 414  631.7908
 415  557.599
 416  490.9109
 417  461.018
 418  522.8567
 419  491.157
 420  468.6301
 421  532.9991
 422  424.0702
 423  453.561
 424  339.7451
 425  474.6054
 426  513.235
 427  404.9677
 428  386.1205
 429  416.8366
 430  391.9399
 431  357.9904
 432  433.2332
 433  427.3019
 434  427.8284
 435  488.753
 436  465.2461
 437  499.7062
 438  528.2507
 439  441.5676
 440  507.8376
 441  580.6917
 442  516.4756
 443  456.4587
 444  508.287
 445  523.3897
 446  436.7791
 447  360.3349
 448  313.7791
 449  412.3198
 450  565.7899
 451  523.1307
 452  498.5097
 453  517.4069
 454  619.0781
 455  520.7975
 456  595.9998
 457  597.873
 458  478.2632
 459  402.9654
 460  410.7213
 461  545.175
 462  457.4098
 463  394.673
 464  409.3896
 465  470.0561
 466  397.2898
 467  371.1533
 468  258.3233
 469  334.997
 470  429.6454
 471  498.8867
 472  487.4368
 473  462.0451
 474  437.1469
 475  457.4901
 476  391.3866
 477  405.8752
 478  359.2244
 479  378.3382
 480  512.3429
 481  313.2102
 482  319.2613
 483  439.7759
 484  457.5056
 485  405.0722
 486  447.2628
 487  509.3419
 488  415.1596
 489  286.8758
 490  357.9048
 491  378.1529
 492  462.8435
 493  544.3398
 494  599.8658
 495  597.0521
 496  488.4401
 497  430.2368
 498  410.5329
 499  389.5041
 500  410.0344
 501  417.5421
 502  380.6694
 503  452.2224
 504  522.9283
 505  502.9052
 506  471.844
 507  518.8815
 508  524.0118
 509  563.808
 510  778.6661
 511  876.5413
