# Input file       =  1185506739.105851_cleaned.dat
# Candidate        =  PSR_0332+5434
# Telescope        =  AR
# Epoch_topo       =  57965.142605391797
# Epoch_bary       =  N/A
# T_sample         =  0.002
# Data Folded      =  7340032
# Data Avg         =  0.0295041633629022
# Data StdDev      =  1.00002654194519 
# Profile Bins     =  512
# Profile Avg      =  421.908733181888 
# Profile StdDev   =  119.736214324455 
# Reduced chi-sqr  =  1.765
# Prob(Noise)      <  4.75e-24   (~10.0 sigma)
# P_topo (ms)      =  714.469868351256  +/- 0.000383
# P'_topo (s/s)    =  -0                +/- 2.02e-10
# P''_topo (s/s^2) =  0                 +/- 8.91e-14
# P_bary (ms)      =  N/A
# P'_bary (s/s)    =  N/A
# P''_bary (s/s^2) =  N/A
# P_orb (s)        =  N/A
# asin(i)/c (s)    =  N/A
# eccentricity     =  N/A
# w (rad)          =  N/A
# T_peri           =  N/A
######################################################
   0  413.9398
   1  371.0879
   2  482.116
   3  555.683
   4  752.1456
   5  962.3186
   6  1095.606
   7  1112.059
   8  1038.701
   9  1016.276
  10  806.1511
  11  600.6833
  12  512.2172
  13  442.5121
  14  371.2459
  15  449.4647
  16  517.0696
  17  485.4013
  18  403.325
  19  559.2643
  20  470.4616
  21  449.6199
  22  523.6869
  23  489.7539
  24  446.3584
  25  532.5701
  26  490.6481
  27  437.4913
  28  469.4464
  29  391.5697
  30  387.4698
  31  338.6285
  32  403.7353
  33  477.9322
  34  417.3647
  35  484.2319
  36  463.4046
  37  494.6496
  38  543.0791
  39  533.2271
  40  435.7224
  41  466.2072
  42  525.4772
  43  402.5864
  44  430.3071
  45  367.8201
  46  369.6022
  47  427.7257
  48  499.3172
  49  406.2386
  50  337.3795
  51  459.3757
  52  519.0117
  53  504.7536
  54  427.5786
  55  453.8386
  56  473.9866
  57  436.2426
  58  544.4486
  59  470.9142
  60  367.1634
  61  338.9386
  62  345.6553
  63  410.6005
  64  443.2692
  65  510.8519
  66  472.7227
  67  484.1635
  68  450.3918
  69  442.3974
  70  349.6442
  71  466.9116
  72  487.2077
  73  459.3851
  74  482.6396
  75  535.9596
  76  566.363
  77  651.5779
  78  572.1267
  79  460.4803
  80  381.1513
  81  373.3288
  82  412.5363
  83  468.4458
  84  477.7914
  85  525.8643
  86  659.3348
  87  530.6851
  88  487.901
  89  389.2304
  90  471.9615
  91  590.4921
  92  538.7151
  93  394.1357
  94  230.2217
  95  211.0232
  96  298.0036
  97  326.8766
  98  425.8698
  99  401.7908
 100  429.9595
 101  297.982
 102  286.6215
 103  365.6816
 104  299.3898
 105  267.5831
 106  315.7966
 107  451.5639
 108  368.8716
 109  286.4384
 110  347.4105
 111  396.416
 112  383.9176
 113  398.9749
 114  386.4772
 115  336.9741
 116  317.1284
 117  265.6534
 118  324.4332
 119  321.4565
 120  407.1415
 121  389.7995
 122  376.7047
 123  450.8623
 124  366.8987
 125  242.2387
 126  241.8059
 127  307.7032
 128  362.258
 129  251.7806
 130  288.3467
 131  363.2144
 132  302.3354
 133  293.4825
 134  238.0122
 135  287.7181
 136  349.9228
 137  436.0183
 138  328.5193
 139  278.0176
 140  371.0364
 141  340.5298
 142  303.4662
 143  320.8919
 144  333.7404
 145  376.6537
 146  412.1985
 147  305.8725
 148  240.3148
 149  284.6834
 150  330.6973
 151  362.6133
 152  286.3096
 153  427.1158
 154  501.2996
 155  408.6886
 156  341.6843
 157  486.2992
 158  413.451
 159  342.6418
 160  272.914
 161  306.9218
 162  308.1593
 163  381.2756
 164  411.515
 165  443.5273
 166  441.7369
 167  345.5709
 168  401.477
 169  416.1812
 170  379.4403
 171  308.589
 172  425.7796
 173  498.0928
 174  445.4655
 175  382.5501
 176  343.7176
 177  402.3252
 178  322.86
 179  333.2468
 180  321.0254
 181  356.4514
 182  429.218
 183  410.3798
 184  416.4837
 185  377.8409
 186  451.3239
 187  498.3896
 188  435.7965
 189  445.3934
 190  410.7199
 191  288.5633
 192  364.9973
 193  463.2958
 194  534.5022
 195  547.6629
 196  442.8685
 197  352.1595
 198  379.6084
 199  334.3385
 200  415.3118
 201  288.2887
 202  391.0933
 203  480.1677
 204  485.1443
 205  553.8478
 206  515.9191
 207  442.9848
 208  473.7627
 209  441.8882
 210  393.0755
 211  405.1336
 212  420.4496
 213  443.8753
 214  385.9899
 215  437.8616
 216  522.4584
 217  511.194
 218  463.3283
 219  445.5755
 220  461.5492
 221  399.2841
 222  540.1763
 223  515.4347
 224  468.9587
 225  408.2726
 226  444.4618
 227  462.223
 228  533.7779
 229  464.3578
 230  356.5823
 231  366.6016
 232  398.6032
 233  388.9808
 234  463.1839
 235  607.5651
 236  553.2379
 237  557.0879
 238  482.799
 239  430.757
 240  407.6031
 241  453.7179
 242  533.1841
 243  512.1754
 244  490.7049
 245  435.8605
 246  491.006
 247  506.3713
 248  511.881
 249  695.934
 250  598.2083
 251  487.1331
 252  594.2323
 253  575.4608
 254  556.9286
 255  593.7988
 256  633.9373
 257  513.2563
 258  639.2094
 259  610.3163
 260  547.1821
 261  441.7758
 262  454.9804
 263  509.9262
 264  401.2096
 265  409.0983
 266  484.2876
 267  604.2806
 268  602.4338
 269  496.7372
 270  477.6474
 271  458.7194
 272  523.7571
 273  651.641
 274  587.4187
 275  545.3228
 276  479.873
 277  559.9591
 278  482.8177
 279  552.7433
 280  583.6608
 281  556.783
 282  535.42
 283  537.5649
 284  538.8208
 285  504.7379
 286  545.686
 287  615.0436
 288  562.6148
 289  591.8724
 290  508.1148
 291  590.278
 292  568.2673
 293  524.1071
 294  515.5178
 295  535.6946
 296  524.3535
 297  389.2242
 298  497.6378
 299  607.2076
 300  517.1642
 301  445.3444
 302  458.3343
 303  507.1107
 304  562.2695
 305  539.9164
 306  422.1243
 307  462.282
 308  481.3868
 309  437.379
 310  470.4741
 311  547.9262
 312  508.8143
 313  461.2336
 314  506.0939
 315  537.6182
 316  534.8162
 317  521.3154
 318  458.6796
 319  461.4154
 320  522.4934
 321  495.571
 322  400.6346
 323  370.5421
 324  482.1247
 325  487.5366
 326  473.0722
 327  551.649
 328  472.96
 329  431.6619
 330  332.522
 331  399.2083
 332  475.3983
 333  517.8458
 334  524.9344
 335  519.1702
 336  507.6325
 337  459.0069
 338  441.0832
 339  488.8307
 340  491.7453
 341  482.3624
 342  308.1728
 343  383.4561
 344  545.6432
 345  487.0662
 346  459.9168
 347  451.0155
 348  469.0845
 349  465.0161
 350  393.4951
 351  474.7008
 352  372.3637
 353  420.3217
 354  475.9698
 355  435.7342
 356  378.4821
 357  361.0551
 358  375.5251
 359  315.7057
 360  278.567
 361  265.6313
 362  409.5686
 363  380.8918
 364  382.2183
 365  371.9355
 366  350.5944
 367  323.1379
 368  344.9683
 369  293.5522
 370  309.5912
 371  249.5867
 372  334.5712
 373  369.2816
 374  358.4608
 375  338.6912
 376  412.2533
 377  404.6264
 378  305.2629
 379  242.8839
 380  156.1679
 381  169.4384
 382  250.6393
 383  329.6019
 384  389.0793
 385  373.2859
 386  294.6182
 387  379.9955
 388  371.513
 389  465.5246
 390  410.4715
 391  357.0209
 392  367.8505
 393  250.8436
 394  256.5961
 395  180.154
 396  340.341
 397  334.2914
 398  272.9242
 399  334.0512
 400  362.9475
 401  378.6255
 402  377.8577
 403  401.6783
 404  348.4962
 405  284.2392
 406  252.2423
 407  306.84
 408  341.6672
 409  408.244
 410  358.0491
 411  370.3144
 412  408.8255
 413  349.7632
 414  336.9493
 415  243.6354
 416  258.3473
 417  266.2115
 418  355.3569
 419  311.9435
 420  207.4143
 421  186.5359
 422  337.4239
 423  406.1166
 424  411.9637
 425  330.6137
 426  310.5668
 427  247.8806
 428  347.299
 429  402.8781
 430  390.8827
 431  457.8189
 432  326.9497
 433  261.2579
 434  395.0083
 435  341.6573
 436  321.4776
 437  389.9715
 438  495.8306
 439  380.3084
 440  232.6977
 441  233.0672
 442  288.8455
 443  282.4088
 444  316.9102
 445  285.9174
 446  287.0935
 447  287.3213
 448  198.0895
 449  194.5554
 450  249.2813
 451  325.2601
 452  310.5655
 453  294.2045
 454  285.4018
 455  438.619
 456  403.572
 457  440.7671
 458  418.424
 459  559.1564
 460  447.9386
 461  390.4354
 462  441.3737
 463  348.6067
 464  356.9552
 465  339.898
 466  297.484
 467  218.7807
 468  248.2809
 469  244.9794
 470  335.8576
 471  387.4926
 472  420.1123
 473  438.2765
 474  364.1136
 475  409.2384
 476  359.1118
 477  303.4066
 478  389.2029
 479  390.7924
 480  471.6301
 481  406.6179
 482  346.5588
 483  277.8703
 484  285.3291
 485  325.9814
 486  324.814
 487  334.3395
 488  377.9971
 489  288.5787
 490  307.9426
 491  424.7986
 492  498.4949
 493  419.3188
 494  327.4348
 495  380.5052
 496  357.1385
 497  339.3171
 498  434.7271
 499  409.1141
 500  401.5244
 501  479.9921
 502  489.6261
 503  445.892
 504  375.7064
 505  404.246
 506  422.4543
 507  376.6066
 508  441.2272
 509  425.5772
 510  465.0744
 511  415.5731
