# Input file       =  1185693974.115253_cleaned.dat
# Candidate        =  PSR_0332+5434
# Telescope        =  AR
# Epoch_topo       =  57967.309677259873
# Epoch_bary       =  N/A
# T_sample         =  0.002
# Data Folded      =  7340032
# Data Avg         =  0.00321994336047004
# Data StdDev      =  1.00003602062493 
# Profile Bins     =  512
# Profile Avg      =  46.1350192617957 
# Profile StdDev   =  119.737349235561 
# Reduced chi-sqr  =  1.470
# Prob(Noise)      <  1.97e-11   (~6.6 sigma)
# P_topo (ms)      =  714.469272573334  +/- 0.00018
# P'_topo (s/s)    =  -0                +/- 9.49e-11
# P''_topo (s/s^2) =  0                 +/- 4.19e-14
# P_bary (ms)      =  N/A
# P'_bary (s/s)    =  N/A
# P''_bary (s/s^2) =  N/A
# P_orb (s)        =  N/A
# asin(i)/c (s)    =  N/A
# eccentricity     =  N/A
# w (rad)          =  N/A
# T_peri           =  N/A
######################################################
   0  737.9091
   1  710.9252
   2  542.213
   3  268.1552
   4  170.9751
   5  135.7647
   6  80.25186
   7  213.4792
   8  199.7442
   9  -2.533485
  10  -86.99246
  11  -160.8834
  12  44.77953
  13  99.49457
  14  -32.47569
  15  -8.700891
  16  21.67061
  17  45.38155
  18  -44.11633
  19  -31.96873
  20  59.18336
  21  123.202
  22  69.37275
  23  -78.84733
  24  -162.7036
  25  -30.27746
  26  1.111228
  27  31.00808
  28  127.4628
  29  203.9499
  30  41.07469
  31  -121.5421
  32  -43.71096
  33  -109.6292
  34  -59.33023
  35  -34.7886
  36  16.29527
  37  148.3306
  38  122.8932
  39  -44.69824
  40  29.14498
  41  24.25749
  42  53.06018
  43  145.2685
  44  34.24302
  45  -126.45
  46  -38.28542
  47  43.6777
  48  -32.82961
  49  34.53511
  50  187.3847
  51  171.9829
  52  85.97336
  53  31.02577
  54  5.095788
  55  54.20649
  56  132.6504
  57  132.8637
  58  41.42406
  59  45.27939
  60  31.82585
  61  79.56694
  62  55.99181
  63  108.6467
  64  -67.19385
  65  -73.98637
  66  161.0235
  67  -19.25467
  68  -92.48711
  69  50.62608
  70  105.2321
  71  69.60023
  72  -8.69822
  73  69.73731
  74  45.77794
  75  165.0447
  76  54.21677
  77  -111.6783
  78  -31.24103
  79  101.4455
  80  -28.07862
  81  2.882779
  82  36.8849
  83  32.1171
  84  174.5137
  85  174.8631
  86  106.8743
  87  44.53837
  88  152.1148
  89  69.60706
  90  17.2101
  91  89.3854
  92  106.7332
  93  92.71418
  94  47.00181
  95  88.90884
  96  110.9983
  97  113.7414
  98  -1.838009
  99  -61.0675
 100  -1.958093
 101  -58.48828
 102  -153.3805
 103  -69.46747
 104  -67.56725
 105  6.972235
 106  44.331
 107  -74.5184
 108  -18.89767
 109  33.45414
 110  11.89167
 111  -79.56298
 112  -149.2038
 113  92.94466
 114  70.10614
 115  -2.706888
 116  133.4912
 117  29.40931
 118  126.0838
 119  102.6227
 120  24.13143
 121  32.75975
 122  -29.69897
 123  35.20881
 124  174.9451
 125  125.2152
 126  116.5485
 127  94.95544
 128  43.93649
 129  -89.62486
 130  22.47325
 131  168.9026
 132  97.28133
 133  65.87012
 134  -39.1971
 135  51.40699
 136  48.92087
 137  73.19949
 138  78.90866
 139  -12.63472
 140  39.44748
 141  64.39963
 142  49.31254
 143  -43.08159
 144  -128.7045
 145  86.9678
 146  109.9647
 147  -77.00726
 148  -59.06525
 149  -11.22849
 150  53.21582
 151  59.05558
 152  -75.66129
 153  56.56138
 154  204.1317
 155  241.7394
 156  72.48862
 157  141.2167
 158  235.5025
 159  27.77469
 160  -78.15103
 161  -42.10945
 162  -18.24057
 163  99.62524
 164  68.3462
 165  12.15896
 166  18.30879
 167  -18.22846
 168  162.6763
 169  197.0718
 170  32.26505
 171  -30.78242
 172  -37.24981
 173  -185.6027
 174  -154.3126
 175  -107.1716
 176  -115.8931
 177  -117.5551
 178  -13.11673
 179  104.4497
 180  61.74948
 181  57.13457
 182  61.8861
 183  70.75702
 184  2.100045
 185  4.346048
 186  66.41006
 187  2.030415
 188  77.5343
 189  81.43336
 190  45.7849
 191  82.69782
 192  120.7384
 193  10.66478
 194  -73.86431
 195  54.79472
 196  145.2872
 197  131.2419
 198  -25.10125
 199  -104.3223
 200  -12.08234
 201  6.12058
 202  127.8407
 203  37.0479
 204  23.61128
 205  -22.57191
 206  40.62159
 207  12.28639
 208  74.07058
 209  -31.20829
 210  -19.11673
 211  -30.04363
 212  -56.76781
 213  43.30346
 214  52.74469
 215  -0.7833185
 216  69.62114
 217  146.6649
 218  -31.82142
 219  -44.10746
 220  6.771808
 221  -40.43367
 222  17.85247
 223  102.0122
 224  -36.05233
 225  -28.97014
 226  -3.710547
 227  100.8387
 228  -7.912463
 229  11.40301
 230  3.424802
 231  87.4049
 232  59.19535
 233  136.9674
 234  34.76317
 235  -14.05988
 236  -92.78648
 237  -10.0884
 238  36.73131
 239  -19.09138
 240  -85.62923
 241  82.09108
 242  -22.92377
 243  -114.8648
 244  -54.03921
 245  -30.32868
 246  35.99737
 247  140.7309
 248  16.57188
 249  52.54416
 250  -85.16029
 251  12.09539
 252  144.1033
 253  76.60632
 254  122.7304
 255  209.2758
 256  198.0541
 257  127.2735
 258  -36.832
 259  26.95832
 260  -31.18048
 261  -88.3767
 262  22.34241
 263  213.6855
 264  73.75561
 265  -168.5674
 266  -179.4946
 267  88.49911
 268  227.8649
 269  166.7883
 270  180.9843
 271  224.3668
 272  97.36788
 273  111.6064
 274  102.5774
 275  54.79139
 276  -129.6157
 277  -93.11964
 278  1.901893
 279  -1.861288
 280  130.8815
 281  139.404
 282  179.8357
 283  7.304762
 284  -30.84016
 285  63.13374
 286  96.90553
 287  69.8686
 288  -93.25724
 289  -119.2106
 290  -29.62427
 291  39.30051
 292  142.6633
 293  54.19743
 294  152.015
 295  83.89899
 296  8.74709
 297  -18.18172
 298  104.1018
 299  108.7978
 300  6.858594
 301  127.0362
 302  131.4028
 303  22.73029
 304  0.3255953
 305  -126.7044
 306  -107.9161
 307  57.30555
 308  21.99923
 309  -37.62749
 310  -102.8541
 311  -21.25287
 312  85.93089
 313  -8.851255
 314  83.34789
 315  0.9099515
 316  -32.13638
 317  37.86065
 318  21.81543
 319  26.26359
 320  95.46213
 321  56.30732
 322  8.9991
 323  33.67896
 324  55.84426
 325  69.43127
 326  -4.835649
 327  90.7842
 328  -57.25534
 329  60.06489
 330  193.7109
 331  128.9175
 332  15.80987
 333  34.22995
 334  115.799
 335  -13.09233
 336  3.556979
 337  -0.08733331
 338  -22.58202
 339  42.80194
 340  172.5105
 341  194.7815
 342  -24.1821
 343  -25.66333
 344  -85.79283
 345  -132.6524
 346  9.151881
 347  110.0024
 348  4.109057
 349  15.27249
 350  19.15648
 351  -9.830771
 352  60.13654
 353  36.90162
 354  42.74968
 355  -37.84484
 356  18.81124
 357  85.36532
 358  50.00824
 359  69.58954
 360  9.922134
 361  -17.13639
 362  26.53701
 363  7.421908
 364  12.88415
 365  59.9157
 366  129.9263
 367  -86.59809
 368  -120.2122
 369  -21.2658
 370  67.79619
 371  35.02654
 372  32.01624
 373  120.7175
 374  162.8366
 375  43.53129
 376  173.415
 377  131.4189
 378  122.879
 379  34.23298
 380  18.87645
 381  112.7824
 382  107.3502
 383  -17.11607
 384  -55.42577
 385  137.5822
 386  160.1754
 387  125.0629
 388  101.4482
 389  175.3453
 390  162.7621
 391  -18.15237
 392  -93.70408
 393  72.43019
 394  -76.74449
 395  121.993
 396  121.3845
 397  119.8409
 398  167.9073
 399  155.896
 400  -85.04233
 401  -75.02283
 402  78.32285
 403  49.69201
 404  -46.69456
 405  38.69521
 406  -6.900324
 407  45.20869
 408  72.16259
 409  21.88879
 410  187.3662
 411  140.0294
 412  176.9199
 413  23.73759
 414  37.3576
 415  125.0484
 416  108.2634
 417  47.42775
 418  -16.71055
 419  189.5594
 420  96.62852
 421  74.11793
 422  140.4347
 423  -46.53039
 424  -138.178
 425  -67.5855
 426  -37.20121
 427  75.24795
 428  12.90806
 429  61.55198
 430  213.9202
 431  38.46762
 432  -76.6452
 433  -65.94666
 434  16.26991
 435  -8.786955
 436  68.79491
 437  10.90295
 438  -90.79366
 439  -86.14401
 440  50.07386
 441  32.56485
 442  32.17701
 443  104.4598
 444  118.158
 445  -13.3623
 446  -13.86743
 447  155.6487
 448  66.83163
 449  13.52398
 450  -88.15585
 451  -127.0136
 452  82.24584
 453  12.71518
 454  -43.14753
 455  88.40115
 456  235.8995
 457  73.7961
 458  105.8816
 459  153.897
 460  135.9671
 461  43.57438
 462  -65.17999
 463  -78.32996
 464  1.630641
 465  76.74914
 466  -11.2585
 467  70.468
 468  96.91685
 469  -53.12018
 470  -18.84718
 471  35.82668
 472  41.43903
 473  142.6197
 474  139.1579
 475  77.9433
 476  -70.99993
 477  36.25222
 478  10.84402
 479  -76.82914
 480  47.08972
 481  124.0966
 482  117.9802
 483  70.9752
 484  35.24802
 485  -73.1668
 486  -28.84146
 487  23.69478
 488  -80.03738
 489  33.36015
 490  42.16841
 491  79.61528
 492  -32.15424
 493  116.8895
 494  135.9208
 495  6.187102
 496  -26.01361
 497  96.4235
 498  73.94401
 499  -6.283699
 500  3.812377
 501  91.01752
 502  85.01154
 503  183.2985
 504  221.5203
 505  218.4923
 506  158.2725
 507  365.768
 508  322.8378
 509  433.7534
 510  527.183
 511  637.9164
