# Input file       =  1185319809.105933_cleaned.dat
# Candidate        =  PSR_0332+5434
# Telescope        =  AR
# Epoch_topo       =  57962.979063726074
# Epoch_bary       =  N/A
# T_sample         =  0.002
# Data Folded      =  7208960
# Data Avg         =  0.0299484047895263
# Data StdDev      =  1.00007837669132 
# Profile Bins     =  512
# Profile Avg      =  421.658713991855 
# Profile StdDev   =  118.668475907124 
# Reduced chi-sqr  =  1.106
# Prob(Noise)      <  0.0493   (~1.7 sigma)
# P_topo (ms)      =  714.470852468762  +/- 0.000226
# P'_topo (s/s)    =  -0                +/- 1.21e-10
# P''_topo (s/s^2) =  0                 +/- 5.46e-14
# P_bary (ms)      =  N/A
# P'_bary (s/s)    =  N/A
# P''_bary (s/s^2) =  N/A
# P_orb (s)        =  N/A
# asin(i)/c (s)    =  N/A
# eccentricity     =  N/A
# w (rad)          =  N/A
# T_peri           =  N/A
######################################################
   0  489.4491
   1  493.7371
   2  463.782
   3  374.9954
   4  459.5515
   5  468.4879
   6  478.9557
   7  645.7892
   8  550.0161
   9  448.1757
  10  472.2658
  11  394.9158
  12  342.0005
  13  329.1251
  14  417.2858
  15  402.186
  16  422.1887
  17  560.9778
  18  411.1536
  19  430.4055
  20  412.9261
  21  417.8776
  22  469.6523
  23  494.9083
  24  579.4272
  25  556.4257
  26  488.5919
  27  517.6093
  28  580.8329
  29  451.0935
  30  419.2389
  31  450.389
  32  536.9719
  33  503.1997
  34  442.1057
  35  387.624
  36  413.5463
  37  418.2374
  38  435.8891
  39  481.1724
  40  470.0177
  41  350.7626
  42  357.5372
  43  382.1425
  44  508.3095
  45  522.9317
  46  469.1553
  47  520.0089
  48  542.4784
  49  487.4967
  50  435.3251
  51  365.42
  52  280.7589
  53  385.6553
  54  409.9662
  55  407.8407
  56  448.0638
  57  584.9537
  58  348.2893
  59  430.1795
  60  495.9235
  61  543.6937
  62  443.7976
  63  411.2082
  64  537.6524
  65  505.4528
  66  453.2674
  67  440.4904
  68  522.3572
  69  377.0574
  70  340.8672
  71  423.989
  72  353.1914
  73  399.0793
  74  354.8742
  75  349.5193
  76  366.3036
  77  444.5764
  78  533.7698
  79  506.9193
  80  474.2686
  81  360.1641
  82  346.2938
  83  481.9843
  84  596.308
  85  535.8942
  86  376.5403
  87  444.4887
  88  471.8679
  89  340.3134
  90  315.2781
  91  339.4117
  92  262.0089
  93  327.796
  94  376.4157
  95  389.8041
  96  396.8574
  97  360.7501
  98  424.8594
  99  397.6289
 100  308.7047
 101  381.1331
 102  409.2812
 103  432.0274
 104  312.9343
 105  343.0738
 106  341.1159
 107  247.8018
 108  244.4595
 109  266.6712
 110  267.1997
 111  227.6253
 112  268.1511
 113  323.9247
 114  326.9065
 115  287.0512
 116  342.733
 117  392.1412
 118  298.317
 119  174.805
 120  155.3504
 121  295.3588
 122  347.0063
 123  425.5063
 124  280.6448
 125  303.1084
 126  378.9088
 127  389.995
 128  427.3033
 129  371.142
 130  403.1221
 131  257.6511
 132  247.4581
 133  352.8585
 134  403.317
 135  461.4001
 136  472.5877
 137  444.1812
 138  389.1487
 139  434.3695
 140  719.4102
 141  818.299
 142  960.2908
 143  907.281
 144  862.857
 145  663.4684
 146  565.5269
 147  565.9071
 148  539.9185
 149  510.2697
 150  475.6497
 151  463.7386
 152  358.7081
 153  230.6992
 154  348.1357
 155  373.7425
 156  440.5127
 157  332.8524
 158  412.5422
 159  502.5603
 160  440.4211
 161  416.5366
 162  435.8782
 163  394.1904
 164  394.6709
 165  299.5914
 166  267.4498
 167  155.3719
 168  258.9122
 169  312.3585
 170  299.49
 171  373.2059
 172  389.4994
 173  488.2594
 174  421.3241
 175  403.4821
 176  365.4013
 177  280.1521
 178  428.425
 179  501.2918
 180  315.6234
 181  340.2723
 182  352.2283
 183  349.6888
 184  359.7877
 185  237.6171
 186  372.6093
 187  402.9433
 188  342.1872
 189  435.6929
 190  417.866
 191  466.7065
 192  354.5345
 193  317.6178
 194  402.9647
 195  479.5982
 196  493.6923
 197  461.5399
 198  472.9369
 199  380.7281
 200  362.7454
 201  345.6261
 202  249.5742
 203  322.9177
 204  440.3877
 205  476.7193
 206  354.6649
 207  293.621
 208  317.0518
 209  441.2327
 210  355.6379
 211  447.0161
 212  578.8095
 213  530.8433
 214  548.9509
 215  505.8705
 216  407.5442
 217  433.4244
 218  409.8081
 219  443.1822
 220  502.0448
 221  414.8011
 222  349.0522
 223  335.9907
 224  429.7255
 225  373.2197
 226  365.9911
 227  375.8817
 228  493.9756
 229  430.2426
 230  415.5506
 231  381.2968
 232  354.2989
 233  396.7331
 234  462.2157
 235  491.0242
 236  457.9256
 237  375.193
 238  460.6633
 239  392.5905
 240  390.6856
 241  498.7572
 242  486.1598
 243  442.4362
 244  411.8553
 245  447.4051
 246  389.2315
 247  329.2264
 248  389.4267
 249  539.4468
 250  457.2918
 251  331.156
 252  453.4189
 253  374.1071
 254  414.0843
 255  374.3006
 256  417.7373
 257  509.8725
 258  552.8893
 259  464.6454
 260  428.5487
 261  386.4118
 262  368.4328
 263  447.6331
 264  465.7425
 265  504.5448
 266  479.5417
 267  431.1551
 268  392.8565
 269  336.4589
 270  530.7094
 271  588.7809
 272  573.9708
 273  360.1249
 274  319.6105
 275  457.0876
 276  414.0677
 277  480.7133
 278  468.4545
 279  443.5123
 280  337.9476
 281  320.0584
 282  384.6621
 283  355.954
 284  446.528
 285  501.2843
 286  468.0106
 287  439.541
 288  487.692
 289  515.8669
 290  516.4784
 291  407.1234
 292  421.2112
 293  419.9224
 294  443.203
 295  632.8407
 296  592.4611
 297  495.3291
 298  405.3816
 299  452.3359
 300  404.3767
 301  286.3208
 302  393.1439
 303  464.6566
 304  450.3336
 305  566.1034
 306  477.6923
 307  487.2919
 308  396.5414
 309  427.8104
 310  380.8753
 311  410.4267
 312  388.5943
 313  439.4607
 314  419.7055
 315  283.0157
 316  275.7513
 317  454.2936
 318  454.6239
 319  409.8261
 320  376.5543
 321  400.5652
 322  468.7433
 323  474.4062
 324  457.2436
 325  350.5259
 326  431.5389
 327  432.0122
 328  390.2919
 329  454.6206
 330  411.2669
 331  386.2728
 332  457.8358
 333  523.6819
 334  428.0747
 335  521.2747
 336  442.5309
 337  392.1931
 338  433.4518
 339  420.4486
 340  454.2187
 341  402.5319
 342  444.7708
 343  477.2041
 344  488.9887
 345  461.5097
 346  332.8075
 347  427.8822
 348  427.2792
 349  501.712
 350  397.5016
 351  488.7332
 352  506.8146
 353  407.1399
 354  420.5401
 355  506.2825
 356  465.9861
 357  538.5732
 358  613.9069
 359  568.5804
 360  596.5122
 361  509.9515
 362  421.8245
 363  302.9321
 364  396.5712
 365  517.5048
 366  493.2859
 367  433.8838
 368  434.4436
 369  426.2682
 370  514.4717
 371  405.9891
 372  421.6964
 373  412.4338
 374  437.6492
 375  352.745
 376  383.6642
 377  431.4914
 378  368.0232
 379  311.1211
 380  223.0038
 381  335.2483
 382  348.2648
 383  374.3183
 384  415.2775
 385  372.8572
 386  420.7159
 387  437.5017
 388  456.6979
 389  335.2195
 390  342.7076
 391  304.9893
 392  324.7625
 393  424.6481
 394  307.015
 395  319.1256
 396  435.3958
 397  423.816
 398  440.0039
 399  489.6453
 400  365.3968
 401  347.504
 402  382.1919
 403  357.2909
 404  311.4831
 405  306.7369
 406  295.1523
 407  346.0791
 408  343.7338
 409  250.3419
 410  231.6609
 411  248.7659
 412  307.5844
 413  363.9163
 414  442.6944
 415  385.4829
 416  389.3471
 417  353.9921
 418  310.3587
 419  270.4217
 420  339.5499
 421  413.2315
 422  506.9593
 423  546.7483
 424  433.372
 425  439.8029
 426  335.7643
 427  423.5494
 428  358.5166
 429  398.6783
 430  445.6132
 431  511.1268
 432  401.3079
 433  399.8372
 434  477.4081
 435  411.3759
 436  374.5152
 437  426.1045
 438  304.9996
 439  419.6766
 440  507.6146
 441  450.8097
 442  403.1549
 443  477.1163
 444  538.0995
 445  411.4316
 446  460.9822
 447  382.9358
 448  368.5315
 449  334.855
 450  377.1528
 451  463.5041
 452  607.7593
 453  594.6816
 454  502.7881
 455  398.7576
 456  348.1311
 457  432.4794
 458  402.3373
 459  467.5215
 460  498.7686
 461  483.8173
 462  470.9741
 463  487.7351
 464  508.415
 465  421.3908
 466  447.5226
 467  464.0901
 468  422.4595
 469  427.8382
 470  441.9249
 471  357.9478
 472  360.6798
 473  435.897
 474  414.7087
 475  332.0531
 476  433.9319
 477  586.575
 478  569.2582
 479  399.7946
 480  352.9673
 481  326.7127
 482  481.2418
 483  463.6376
 484  390.985
 485  478.2119
 486  523.3138
 487  470.3025
 488  396.7605
 489  426.6588
 490  455.1058
 491  401.9067
 492  435.4113
 493  437.9259
 494  521.7825
 495  520.1826
 496  369.5548
 497  423.0923
 498  388.5058
 499  374.8423
 500  444.0673
 501  503.4146
 502  483.4708
 503  560.3871
 504  511.4369
 505  404.0083
 506  422.9918
 507  433.9626
 508  404.0525
 509  308.7201
 510  354.9621
 511  447.6292
