# Input file       =  1185004668.102813_cleaned.dat
# Candidate        =  PSR_0332+5434
# Telescope        =  AR
# Epoch_topo       =  57959.331598412187
# Epoch_bary       =  N/A
# T_sample         =  0.002
# Data Folded      =  7340032
# Data Avg         =  0.0355501855602561
# Data StdDev      =  1.00012313530676 
# Profile Bins     =  512
# Profile Avg      =  509.670761733043 
# Profile StdDev   =  119.74777974093  
# Reduced chi-sqr  =  1.164
# Prob(Noise)      <  0.00601   (~2.5 sigma)
# P_topo (ms)      =  714.473035914402  +/- 0.00026
# P'_topo (s/s)    =  -0                +/- 1.37e-10
# P''_topo (s/s^2) =  0                 +/- 6.05e-14
# P_bary (ms)      =  N/A
# P'_bary (s/s)    =  N/A
# P''_bary (s/s^2) =  N/A
# P_orb (s)        =  N/A
# asin(i)/c (s)    =  N/A
# eccentricity     =  N/A
# w (rad)          =  N/A
# T_peri           =  N/A
######################################################
   0  414.0511
   1  561.8861
   2  565.8193
   3  573.905
   4  557.6647
   5  435.5374
   6  405.7881
   7  356.0606
   8  242.4168
   9  361.9735
  10  586.6896
  11  557.3156
  12  489.701
  13  549.2776
  14  484.9062
  15  448.5483
  16  450.341
  17  515.8123
  18  669.6888
  19  631.4053
  20  544.5717
  21  661.0763
  22  597.2937
  23  432.5649
  24  497.2879
  25  569.2469
  26  635.4893
  27  533.9158
  28  528.2114
  29  508.9586
  30  426.1857
  31  455.9725
  32  464.9677
  33  577.0715
  34  630.9376
  35  537.8072
  36  589.1021
  37  574.6304
  38  619.2062
  39  610.8192
  40  563.1194
  41  545.974
  42  547.564
  43  537.279
  44  572.3882
  45  581.1408
  46  469.6028
  47  451.1784
  48  608.9106
  49  682.9445
  50  583.5558
  51  568.0101
  52  596.3444
  53  518.6257
  54  496.1485
  55  578.0689
  56  648.2639
  57  494.8794
  58  515.0782
  59  555.1168
  60  569.3814
  61  490.3046
  62  481.174
  63  489.5337
  64  620.3016
  65  595.4523
  66  524.5616
  67  424.6933
  68  507.072
  69  666.0934
  70  626.4944
  71  469.7056
  72  531.0604
  73  568.7861
  74  462.5135
  75  536.8651
  76  609.04
  77  640.0931
  78  577.3809
  79  554.4289
  80  561.1315
  81  574.3195
  82  599.8448
  83  479.9779
  84  525.92
  85  554.9324
  86  531.1251
  87  587.0127
  88  531.9092
  89  497.8018
  90  444.7849
  91  497.8358
  92  505.3681
  93  519.6585
  94  619.2027
  95  522.8367
  96  512.119
  97  594.1497
  98  522.6036
  99  466.539
 100  468.3344
 101  381.1891
 102  318.7401
 103  479.9812
 104  595.1414
 105  597.892
 106  481.7687
 107  509.9478
 108  561.4948
 109  577.3653
 110  574.2555
 111  530.0536
 112  521.8336
 113  492.8942
 114  591.6695
 115  646.8028
 116  654.2337
 117  556.7314
 118  586.3732
 119  543.5162
 120  478.2758
 121  398.0314
 122  499.4319
 123  540.8246
 124  487.671
 125  541.0274
 126  512.8589
 127  392.5429
 128  391.1567
 129  511.3623
 130  533.5521
 131  500.6079
 132  526.4601
 133  529.6854
 134  506.4116
 135  589.9589
 136  636.3966
 137  551.5797
 138  475.1763
 139  562.0762
 140  636.6823
 141  587.2823
 142  520.5205
 143  504.7121
 144  601.6932
 145  608.8513
 146  515.8571
 147  477.6962
 148  571.0162
 149  595.589
 150  511.0559
 151  615.4932
 152  575.1685
 153  534.1461
 154  638.8181
 155  571.7787
 156  489.8553
 157  506.5826
 158  591.6367
 159  597.9847
 160  455.8226
 161  459.1913
 162  585.5942
 163  437.8123
 164  336.9254
 165  382.1749
 166  505.6926
 167  510.3524
 168  440.4236
 169  522.9584
 170  495.0245
 171  429.1587
 172  449.8973
 173  355.6207
 174  321.8615
 175  347.4903
 176  526.7907
 177  497.8692
 178  518.494
 179  596.8786
 180  483.3621
 181  426.8848
 182  422.1576
 183  526.7576
 184  554.9736
 185  562.4355
 186  461.0566
 187  514.887
 188  438.4086
 189  334.6572
 190  363.8562
 191  402.3521
 192  346.9545
 193  447.0824
 194  491.1023
 195  353.757
 196  347.7038
 197  483.5354
 198  437.6199
 199  481.1185
 200  581.8882
 201  584.1681
 202  535.0892
 203  595.4984
 204  534.5719
 205  481.9511
 206  438.1656
 207  469.904
 208  440.4955
 209  260.7536
 210  367.7122
 211  495.1317
 212  528.03
 213  452.5569
 214  458.454
 215  575.8104
 216  489.2976
 217  516.5797
 218  564.1854
 219  675.9149
 220  623.0782
 221  476.2781
 222  404.3858
 223  399.9616
 224  329.2561
 225  404.8836
 226  512.2025
 227  461.4278
 228  324.2881
 229  376.1863
 230  417.7338
 231  475.1894
 232  571.0161
 233  464.1819
 234  378.2937
 235  498.1793
 236  352.9256
 237  347.5365
 238  422.2315
 239  426.1768
 240  432.3335
 241  544.8071
 242  440.0017
 243  345.7216
 244  390.4526
 245  410.9917
 246  351.5308
 247  323.4577
 248  403.1508
 249  418.0255
 250  397.057
 251  501.2886
 252  453.67
 253  448.682
 254  475.6156
 255  503.3465
 256  568.1789
 257  522.9277
 258  493.2669
 259  505.5241
 260  482.1391
 261  581.1196
 262  568.9006
 263  438.8469
 264  464.9421
 265  469.6367
 266  546.5209
 267  632.2072
 268  686.7244
 269  673.7795
 270  562.1934
 271  394.676
 272  464.5401
 273  480.9278
 274  455.7892
 275  573.3337
 276  560.7241
 277  441.4228
 278  416.4214
 279  438.7357
 280  518.2239
 281  505.7889
 282  500.7914
 283  604.9147
 284  616.848
 285  678.8232
 286  648.6274
 287  699.0295
 288  569.7106
 289  533.9033
 290  559.7625
 291  548.5735
 292  590.6011
 293  504.0168
 294  573.2076
 295  794.7935
 296  725.0564
 297  725.2021
 298  667.4439
 299  678.0699
 300  757.4929
 301  962.5017
 302  876.7529
 303  842.2688
 304  902.6008
 305  865.9926
 306  688.04
 307  497.483
 308  330.382
 309  436.7132
 310  543.6155
 311  502.6293
 312  499.3491
 313  436.5768
 314  523.2583
 315  534.5153
 316  433.9771
 317  418.3804
 318  523.1019
 319  572.6752
 320  580.6606
 321  385.3242
 322  420.74
 323  455.2923
 324  370.8914
 325  336.5212
 326  467.3083
 327  486.1557
 328  561.3826
 329  524.4967
 330  445.7544
 331  352.6966
 332  356.2004
 333  413.6222
 334  382.2148
 335  488.638
 336  521.3206
 337  439.3036
 338  502.0965
 339  474.2809
 340  487.3158
 341  546.7917
 342  478.3395
 343  368.4813
 344  330.6055
 345  451.6955
 346  455.027
 347  357.7688
 348  422.4117
 349  389.7124
 350  433.1525
 351  565.5651
 352  520.226
 353  424.1067
 354  426.8451
 355  446.4562
 356  496.4844
 357  536.2861
 358  578.1231
 359  527.3541
 360  370.1268
 361  320.1076
 362  334.3622
 363  385.573
 364  477.8955
 365  525.592
 366  602.55
 367  595.3096
 368  473.9061
 369  515.093
 370  513.7764
 371  571.4958
 372  550.999
 373  617.8778
 374  587.0055
 375  491.1177
 376  494.3421
 377  518.7299
 378  516.3347
 379  545.3896
 380  564.5661
 381  526.5251
 382  416.0258
 383  409.0998
 384  456.2565
 385  558.8354
 386  437.2198
 387  398.9921
 388  336.7651
 389  341.6639
 390  404.2606
 391  351.7304
 392  374.9784
 393  343.9973
 394  302.9122
 395  442.4206
 396  378.7882
 397  288.1414
 398  485.2295
 399  486.6119
 400  459.4758
 401  561.4679
 402  478.3127
 403  476.2278
 404  513.5444
 405  560.2636
 406  659.4805
 407  511.3417
 408  516.2303
 409  504.3109
 410  457.177
 411  570.561
 412  575.2527
 413  648.4639
 414  736.3192
 415  640.5059
 416  614.7356
 417  558.2026
 418  535.7398
 419  540.9143
 420  540.3277
 421  522.5678
 422  518.2595
 423  489.4062
 424  507.3145
 425  506.778
 426  488.8206
 427  570.163
 428  524.751
 429  514.0106
 430  485.9492
 431  638.3333
 432  603.5737
 433  548.2878
 434  511.6234
 435  521.4143
 436  606.8
 437  563.3291
 438  659.0984
 439  600.0316
 440  517.5583
 441  559.8877
 442  480.2616
 443  476.1677
 444  472.27
 445  438.5142
 446  545.6088
 447  543.1963
 448  522.1356
 449  398.2529
 450  483.9835
 451  510.5628
 452  560.1103
 453  448.0241
 454  456.7068
 455  545.0547
 456  468.8055
 457  504.7808
 458  569.631
 459  479.8122
 460  482.1708
 461  294.0322
 462  357.8708
 463  459.6031
 464  447.8036
 465  510.3868
 466  539.4699
 467  563.057
 468  553.3581
 469  546.4254
 470  554.4301
 471  386.9295
 472  454.5528
 473  563.0343
 474  582.3381
 475  543.9802
 476  525.8427
 477  564.6885
 478  418.4275
 479  399.005
 480  498.6008
 481  524.6766
 482  555.0109
 483  576.0374
 484  589.3366
 485  499.1438
 486  428.9764
 487  415.307
 488  454.5388
 489  504.4372
 490  622.132
 491  586.3803
 492  648.3073
 493  601.6735
 494  539.2475
 495  564.6337
 496  619.3924
 497  536.1132
 498  515.5001
 499  536.8428
 500  552.3158
 501  577.858
 502  537.9208
 503  486.6329
 504  489.5489
 505  578.8923
 506  484.0595
 507  353.6374
 508  471.6786
 509  460.8564
 510  402.7626
 511  377.0195
