# Input file       =  1185492073.116015_cleaned.dat
# Candidate        =  PSR_0332+5434
# Telescope        =  AR
# Epoch_topo       =  57964.972860139060
# Epoch_bary       =  N/A
# T_sample         =  0.002
# Data Folded      =  7208960
# Data Avg         =  0.0269480835481091
# Data StdDev      =  1.00019745963998 
# Profile Bins     =  512
# Profile Avg      =  379.460386682664 
# Profile StdDev   =  118.682606191664 
# Reduced chi-sqr  =  1.187
# Prob(Noise)      <  0.0022   (~2.8 sigma)
# P_topo (ms)      =  714.469932857941  +/- 0.000128
# P'_topo (s/s)    =  -0                +/- 6.9e-11
# P''_topo (s/s^2) =  0                 +/- 3.1e-14
# P_bary (ms)      =  N/A
# P'_bary (s/s)    =  N/A
# P''_bary (s/s^2) =  N/A
# P_orb (s)        =  N/A
# asin(i)/c (s)    =  N/A
# eccentricity     =  N/A
# w (rad)          =  N/A
# T_peri           =  N/A
######################################################
   0  264.5674
   1  385.3118
   2  353.5062
   3  210.0004
   4  311.5072
   5  416.0731
   6  433.1151
   7  329.333
   8  250.1115
   9  326.3678
  10  294.9815
  11  326.7804
  12  456.9111
  13  329.7919
  14  235.2635
  15  262.1679
  16  265.1643
  17  246.4189
  18  209.1389
  19  256.7072
  20  346.5016
  21  264.4206
  22  294.9343
  23  427.7966
  24  344.5196
  25  321.8883
  26  397.1328
  27  403.921
  28  365.0096
  29  336.0264
  30  329.0114
  31  318.4355
  32  492.5809
  33  549.2626
  34  500.2176
  35  479.4259
  36  436.8155
  37  407.2364
  38  449.8405
  39  347.2971
  40  274.9068
  41  349.6036
  42  396.5803
  43  453.1886
  44  331.0471
  45  473.807
  46  397.909
  47  284.6144
  48  430.8428
  49  502.8252
  50  408.8535
  51  465.6005
  52  659.9972
  53  827.7834
  54  868.1236
  55  1033.209
  56  1048.12
  57  772.9234
  58  678.5049
  59  473.4885
  60  432.5026
  61  388.1955
  62  428.2776
  63  465.1132
  64  368.7591
  65  356.1313
  66  412.804
  67  492.1198
  68  389.5597
  69  313.8884
  70  386.123
  71  447.2003
  72  446.8575
  73  446.9362
  74  416.0455
  75  476.8425
  76  450.0096
  77  410.0853
  78  273.0743
  79  303.3182
  80  394.718
  81  271.6649
  82  255.9788
  83  241.4825
  84  420.9859
  85  322.4409
  86  264.2109
  87  355.8409
  88  303.5732
  89  244.4192
  90  355.9119
  91  481.6152
  92  364.5685
  93  231.989
  94  226.9351
  95  289.6564
  96  338.6411
  97  370.3169
  98  426.7311
  99  449.785
 100  418.6062
 101  372.8818
 102  311.5702
 103  247.6439
 104  223.7772
 105  265.8195
 106  462.8332
 107  320.342
 108  282.6858
 109  380.2273
 110  293.267
 111  394.0684
 112  344.033
 113  308.2341
 114  288.3312
 115  309.4648
 116  387.5056
 117  404.5465
 118  463.0446
 119  402.8322
 120  420.0159
 121  485.6212
 122  426.5201
 123  458.3684
 124  362.2166
 125  360.8282
 126  275.0434
 127  317.729
 128  425.2602
 129  462.5641
 130  535.5977
 131  506.7303
 132  382.9713
 133  388.6438
 134  389.1075
 135  468.5556
 136  342.6841
 137  168.0104
 138  206.2729
 139  362.9825
 140  421.8179
 141  374.0456
 142  351.6793
 143  364.9256
 144  424.013
 145  396.1643
 146  377.0487
 147  310.7153
 148  362.886
 149  369.5058
 150  348.3958
 151  308.0513
 152  232.2078
 153  270.5629
 154  317.565
 155  275.623
 156  369.1378
 157  316.9311
 158  487.5287
 159  419.9498
 160  308.5792
 161  267.9857
 162  477.166
 163  459.451
 164  369.5521
 165  401.5483
 166  468.5182
 167  411.2825
 168  354.6076
 169  454.2569
 170  571.8843
 171  536.9484
 172  363.8101
 173  422.0899
 174  422.525
 175  413.4067
 176  301.7252
 177  420.2609
 178  485.5268
 179  495.4992
 180  515.4811
 181  565.0768
 182  559.236
 183  592.1356
 184  480.1878
 185  262.3086
 186  257.6141
 187  312.4051
 188  335.1401
 189  273.5921
 190  345.581
 191  408.5147
 192  281.1325
 193  428.2987
 194  481.9817
 195  364.6134
 196  312.1462
 197  403.2195
 198  278.4387
 199  368.4595
 200  497.5712
 201  418.0457
 202  476.7647
 203  396.0255
 204  354.3291
 205  432.7355
 206  447.2161
 207  442.666
 208  393.6971
 209  351.43
 210  334.4203
 211  363.5025
 212  449.5884
 213  414.1097
 214  290.3851
 215  421.8572
 216  487.3694
 217  441.1776
 218  368.5196
 219  383.3971
 220  387.1226
 221  332.1735
 222  326.1985
 223  336.1894
 224  413.5677
 225  508.4404
 226  395.3728
 227  408.9654
 228  351.5189
 229  437.7636
 230  461.3095
 231  349.4839
 232  409.2132
 233  391.7348
 234  411.4126
 235  379.8001
 236  385.5819
 237  340.8637
 238  327.523
 239  368.3722
 240  461.6378
 241  487.353
 242  438.0429
 243  433.0574
 244  353.6295
 245  436.5435
 246  406.2813
 247  286.0147
 248  383.2515
 249  485.3332
 250  476.8642
 251  387.8821
 252  348.312
 253  392.0832
 254  373.1303
 255  458.5123
 256  228.0734
 257  376.9287
 258  558.704
 259  513.7982
 260  355.5739
 261  208.5208
 262  249.3153
 263  263.9956
 264  308.6418
 265  361.9873
 266  366.7482
 267  486.5767
 268  407.9271
 269  366.6619
 270  440.0957
 271  352.9147
 272  254.5553
 273  311.821
 274  372.1108
 275  323.7368
 276  319.0456
 277  430.8684
 278  483.2253
 279  381.5597
 280  516.8232
 281  431.8151
 282  270.4761
 283  249.5145
 284  364.2383
 285  413.4024
 286  362.7833
 287  392.5465
 288  437.0973
 289  323.3698
 290  278.151
 291  325.6765
 292  326.726
 293  346.7687
 294  337.6135
 295  243.0622
 296  313.6973
 297  367.8929
 298  406.8854
 299  390.1676
 300  318.7014
 301  258.0593
 302  307.9117
 303  242.0872
 304  439.5746
 305  461.5317
 306  437.3941
 307  406.0645
 308  288.5182
 309  344.2017
 310  436.1562
 311  352.1763
 312  344.1715
 313  411.3291
 314  378.5464
 315  363.8326
 316  447.7568
 317  393.8613
 318  333.1208
 319  255.9153
 320  358.1154
 321  377.9351
 322  332.8353
 323  334.0909
 324  375.6406
 325  366.9828
 326  356.8026
 327  385.2611
 328  393.1556
 329  417.3909
 330  407.9187
 331  456.3776
 332  265.8572
 333  369.3783
 334  435.2993
 335  383.8892
 336  414.5865
 337  477.4579
 338  412.4068
 339  437.9736
 340  461.2668
 341  593.0167
 342  613.0658
 343  345.7453
 344  318.6287
 345  454.5714
 346  284.368
 347  244.3415
 348  400.3132
 349  432.6494
 350  458.5762
 351  310.7149
 352  366.6749
 353  371.9669
 354  384.6148
 355  402.437
 356  461.1812
 357  335.2207
 358  315.5627
 359  265.288
 360  318.1649
 361  418.1028
 362  312.6123
 363  302.3102
 364  372.6158
 365  202.1291
 366  196.1272
 367  333.5007
 368  386.2475
 369  274.0415
 370  223.1408
 371  313.5787
 372  360.3497
 373  372.3509
 374  473.2148
 375  418.7197
 376  317.4802
 377  328.2422
 378  388.182
 379  371.079
 380  369.8683
 381  406.2144
 382  357.734
 383  262.8523
 384  326.9464
 385  381.6776
 386  277.0388
 387  313.0057
 388  338.8122
 389  317.852
 390  381.4863
 391  385.9892
 392  319.1665
 393  263.4163
 394  365.9429
 395  450.1171
 396  348.463
 397  274.9658
 398  298.5918
 399  372.0119
 400  412.0752
 401  367.1963
 402  490.1091
 403  440.9576
 404  395.6222
 405  352.8484
 406  417.5004
 407  431.0269
 408  358.4766
 409  390.5142
 410  361.2348
 411  270.745
 412  291.9239
 413  314.6837
 414  385.9061
 415  439.419
 416  354.1597
 417  334.6155
 418  375.7101
 419  333.3171
 420  364.3613
 421  373.5749
 422  350.9706
 423  398.3761
 424  327.532
 425  461.2827
 426  440.6559
 427  330.7438
 428  298.5853
 429  227.7342
 430  381.1077
 431  500.7408
 432  436.8407
 433  459.4975
 434  350.3146
 435  431.8362
 436  283.2404
 437  206.8893
 438  238.4072
 439  342.9657
 440  402.2349
 441  371.9636
 442  393.2649
 443  327.2956
 444  432.702
 445  482.4987
 446  429.5568
 447  329.5276
 448  340.326
 449  401.348
 450  338.2817
 451  415.0016
 452  582.1179
 453  481.869
 454  314.4658
 455  242.7249
 456  286.1879
 457  370.0644
 458  298.54
 459  276.4732
 460  332.8618
 461  331.343
 462  387.446
 463  401.6905
 464  359.4608
 465  392.6208
 466  475.5551
 467  393.9099
 468  381.8518
 469  382.1514
 470  290.1455
 471  363.3865
 472  408.8345
 473  486.9515
 474  342.7153
 475  352.9252
 476  399.1315
 477  300.2844
 478  414.1878
 479  497.1993
 480  433.4935
 481  433.6126
 482  357.7956
 483  455.2246
 484  419.6231
 485  398.0068
 486  460.6891
 487  391.6653
 488  458.4945
 489  467.4458
 490  393.9433
 491  372.9741
 492  316.0204
 493  341.8595
 494  489.0739
 495  384.1261
 496  381.1568
 497  350.4395
 498  213.6941
 499  360.9934
 500  317.5704
 501  256.5283
 502  315.5968
 503  413.9378
 504  369.5608
 505  353.3287
 506  315.3746
 507  300.4807
 508  321.4779
 509  351.0429
 510  426.438
 511  333.891
