# Input file       =  1185592917.121895_cleaned.dat
# Candidate        =  PSR_0332+5434
# Telescope        =  AR
# Epoch_topo       =  57966.140036133045
# Epoch_bary       =  N/A
# T_sample         =  0.002
# Data Folded      =  7340032
# Data Avg         =  0.0337302944771145
# Data StdDev      =  1.00024455068687 
# Profile Bins     =  512
# Profile Avg      =  483.529135607653 
# Profile StdDev   =  119.762317173053 
# Reduced chi-sqr  =  1.361
# Prob(Noise)      <  9.36e-08   (~5.2 sigma)
# P_topo (ms)      =  714.469431311446  +/- 0.000228
# P'_topo (s/s)    =  -0                +/- 1.2e-10
# P''_topo (s/s^2) =  0                 +/- 5.31e-14
# P_bary (ms)      =  N/A
# P'_bary (s/s)    =  N/A
# P''_bary (s/s^2) =  N/A
# P_orb (s)        =  N/A
# asin(i)/c (s)    =  N/A
# eccentricity     =  N/A
# w (rad)          =  N/A
# T_peri           =  N/A
######################################################
   0  1047.015
   1  1053.502
   2  855.7713
   3  692.4604
   4  550.6462
   5  531.8934
   6  484.7349
   7  464.5454
   8  354.6122
   9  395.0708
  10  589.4599
  11  526.5182
  12  536.243
  13  585.1837
  14  522.1796
  15  516.2089
  16  490.8708
  17  436.1299
  18  445.131
  19  431.2841
  20  580.2532
  21  506.7197
  22  446.3288
  23  511.3995
  24  417.7838
  25  448.4273
  26  579.1689
  27  540.6194
  28  553.282
  29  527.956
  30  485.3364
  31  506.763
  32  473.969
  33  487.4144
  34  485.7303
  35  431.6169
  36  452.0754
  37  432.8879
  38  431.2271
  39  509.1202
  40  475.2365
  41  477.535
  42  468.6449
  43  449.7009
  44  433.1221
  45  566.9433
  46  531.8298
  47  493.9645
  48  515.7081
  49  523.73
  50  497.3666
  51  438.5613
  52  412.5318
  53  484.4391
  54  486.5432
  55  422.9201
  56  385.5981
  57  387.0838
  58  368.6919
  59  373.4994
  60  403.5456
  61  506.7327
  62  470.1187
  63  388.4938
  64  490.7465
  65  428.4972
  66  373.5279
  67  384.3288
  68  464.3747
  69  357.0074
  70  428.7171
  71  476.9731
  72  271.9179
  73  322.1214
  74  369.9648
  75  339.1334
  76  401.087
  77  400.8919
  78  360.4963
  79  436.4083
  80  318.7361
  81  348.7771
  82  397.0622
  83  444.9336
  84  412.8612
  85  448.1115
  86  457.6452
  87  417.2585
  88  473.3383
  89  434.0669
  90  396.1697
  91  485.1786
  92  476.7931
  93  496.494
  94  406.656
  95  359.0732
  96  405.8434
  97  427.5091
  98  461.7223
  99  425.777
 100  387.2978
 101  431.7196
 102  398.1663
 103  470.9503
 104  463.7289
 105  468.8607
 106  383.0457
 107  394.2381
 108  482.3559
 109  470.4411
 110  329.7918
 111  439.9266
 112  414.8544
 113  381.5328
 114  490.7658
 115  552.1873
 116  408.8354
 117  361.2637
 118  373.7371
 119  376.8483
 120  384.0938
 121  423.3954
 122  503.8922
 123  318.6016
 124  259.1117
 125  294.8913
 126  238.556
 127  272.6091
 128  415.4991
 129  505.5089
 130  463.2702
 131  502.4951
 132  440.472
 133  427.9954
 134  450.1713
 135  391.2903
 136  427.9634
 137  429.9428
 138  398.6022
 139  437.2903
 140  399.287
 141  408.3179
 142  482.509
 143  562.4601
 144  553.5928
 145  485.5725
 146  452.3007
 147  465.3839
 148  487.6618
 149  536.715
 150  588.896
 151  477.5401
 152  455.5839
 153  393.4733
 154  407.9336
 155  481.1368
 156  552.0489
 157  524.9404
 158  493.2974
 159  562.1993
 160  517.3417
 161  452.443
 162  407.2984
 163  400.1171
 164  542.2855
 165  522.827
 166  446.4989
 167  506.5534
 168  404.2195
 169  399.3243
 170  354.2455
 171  391.9041
 172  456.3865
 173  541.0038
 174  528.33
 175  585.2947
 176  422.3047
 177  363.4825
 178  477.5003
 179  418.462
 180  341.8795
 181  434.6512
 182  431.9402
 183  482.1347
 184  490.9502
 185  426.7359
 186  478.0334
 187  270.393
 188  278.2999
 189  373.3157
 190  437.7535
 191  423.5066
 192  485.2846
 193  521.6413
 194  618.7792
 195  548.4993
 196  543.6945
 197  598.9637
 198  431.5296
 199  353.0031
 200  304.296
 201  408.0698
 202  452.2135
 203  413.6982
 204  367.4332
 205  418.1236
 206  403.2379
 207  407.8521
 208  399.0654
 209  542.6651
 210  447.3313
 211  414.522
 212  480.431
 213  502.2283
 214  490.6201
 215  495.8186
 216  546.43
 217  547.7138
 218  538.6617
 219  501.2598
 220  457.351
 221  446.4717
 222  541.5006
 223  479.9984
 224  455.1729
 225  491.6607
 226  388.6931
 227  463.2079
 228  451.6881
 229  484.9697
 230  441.0568
 231  494.1087
 232  428.4315
 233  411.6854
 234  533.6766
 235  439.576
 236  423.0354
 237  467.711
 238  505.0601
 239  579.803
 240  526.5127
 241  512.2654
 242  565.3306
 243  555.8099
 244  549.506
 245  589.3098
 246  647.4495
 247  586.5552
 248  644.3694
 249  726.608
 250  617.5939
 251  518.0293
 252  483.0397
 253  579.113
 254  586.351
 255  554.5135
 256  504.6855
 257  542.6537
 258  620.3492
 259  557.1874
 260  610.1643
 261  553.1019
 262  515.3981
 263  653.5024
 264  554.2511
 265  540.8946
 266  523.5385
 267  612.7021
 268  722.3345
 269  703.7291
 270  608.9287
 271  591.0999
 272  676.8726
 273  683.728
 274  588.5392
 275  567.4776
 276  686.7369
 277  673.7637
 278  521.4891
 279  530.0206
 280  457.9408
 281  524.9603
 282  585.4148
 283  657.3547
 284  585.9291
 285  495.0408
 286  583.7626
 287  674.7958
 288  602.2833
 289  621.4523
 290  524.0424
 291  562.9448
 292  587.1959
 293  629.8565
 294  546.6297
 295  488.4349
 296  615.0389
 297  603.5545
 298  573.7878
 299  664.6458
 300  551.4178
 301  484.8439
 302  454.2868
 303  466.3502
 304  588.241
 305  575.7839
 306  466.6559
 307  511.7365
 308  537.3502
 309  520.8893
 310  501.9841
 311  402.0733
 312  571.4033
 313  511.2383
 314  462.865
 315  490.9595
 316  408.9168
 317  411.9333
 318  361.8694
 319  428.2108
 320  410.8744
 321  567.1891
 322  511.5443
 323  438.8747
 324  397.4763
 325  396.4355
 326  515.2848
 327  496.9642
 328  508.0281
 329  523.442
 330  527.7838
 331  404.5306
 332  267.4592
 333  341.997
 334  490.8379
 335  532.7236
 336  506.4785
 337  526.2759
 338  484.7415
 339  485.2667
 340  534.1428
 341  571.149
 342  465.5124
 343  427.9505
 344  449.6558
 345  515.6043
 346  494.1586
 347  411.8872
 348  373.7095
 349  407.6537
 350  481.7227
 351  449.6856
 352  464.0785
 353  405.8052
 354  366.6751
 355  534.8596
 356  454.8848
 357  326.7362
 358  414.1811
 359  444.4929
 360  421.3011
 361  532.9964
 362  348.6341
 363  355.0517
 364  393.319
 365  443.1743
 366  460.9196
 367  415.9473
 368  453.7146
 369  431.7315
 370  325.1803
 371  394.2176
 372  497.4267
 373  488.9142
 374  447.239
 375  404.9474
 376  463.5836
 377  370.3599
 378  351.4191
 379  503.596
 380  562.3387
 381  498.597
 382  524.1116
 383  528.8492
 384  379.2375
 385  465.3779
 386  424.0786
 387  433.3282
 388  482.8331
 389  442.6566
 390  370.8422
 391  371.3867
 392  483.5594
 393  483.8446
 394  378.4689
 395  410.4806
 396  477.5047
 397  320.336
 398  357.9432
 399  341.2151
 400  354.8846
 401  475.2573
 402  484.0417
 403  518.2983
 404  421.6893
 405  395.4927
 406  422.1026
 407  411.967
 408  404.0099
 409  367.152
 410  509.5033
 411  529.9836
 412  368.2327
 413  301.1158
 414  355.3135
 415  423.8394
 416  448.4044
 417  458.5974
 418  505.1765
 419  513.2009
 420  450.8717
 421  366.5071
 422  321.9623
 423  476.2603
 424  503.4335
 425  394.2627
 426  415.67
 427  443.5
 428  349.0954
 429  398.0558
 430  514.7326
 431  457.4397
 432  347.1518
 433  498.6263
 434  463.2281
 435  443.6169
 436  421.2892
 437  363.8187
 438  418.5295
 439  492.5503
 440  545.7051
 441  534.5944
 442  393.4363
 443  437.5603
 444  457.261
 445  565.2773
 446  559.1081
 447  535.4232
 448  515.892
 449  510.7203
 450  528.6452
 451  473.4496
 452  587.4786
 453  519.5931
 454  491.0219
 455  537.4409
 456  520.2828
 457  560.4394
 458  527.0356
 459  483.998
 460  371.0127
 461  532.4811
 462  619.933
 463  609.4521
 464  654.6841
 465  582.9753
 466  538.4504
 467  634.0651
 468  446.0157
 469  483.6402
 470  598.8445
 471  581.4949
 472  581.1834
 473  596.8275
 474  602.7464
 475  482.1822
 476  512.55
 477  538.5172
 478  521.5672
 479  485.1731
 480  538.1309
 481  584.1891
 482  511.6749
 483  498.7496
 484  544.6229
 485  473.672
 486  476.1668
 487  566.3764
 488  615.7841
 489  565.5781
 490  369.0726
 491  463.4901
 492  659.9056
 493  582.4598
 494  439.9491
 495  446.4838
 496  443.7862
 497  412.0614
 498  554.1266
 499  613.3782
 500  501.2672
 501  443.1471
 502  519.9763
 503  544.412
 504  586.847
 505  628.9378
 506  624.8196
 507  750.815
 508  816.7783
 509  910.2235
 510  1017.667
 511  1053.673
