# Input file       =  1185420549.118118_cleaned.dat
# Candidate        =  PSR_0332+5434
# Telescope        =  AR
# Epoch_topo       =  57964.145036089329
# Epoch_bary       =  N/A
# T_sample         =  0.002
# Data Folded      =  7340032
# Data Avg         =  0.0392512534986335
# Data StdDev      =  1.00006425701933 
# Profile Bins     =  512
# Profile Avg      =  562.480170661229 
# Profile StdDev   =  119.740730064799 
# Reduced chi-sqr  =  1.287
# Prob(Noise)      <  1.2e-05   (~4.2 sigma)
# P_topo (ms)      =  714.47031776461   +/- 0.000397
# P'_topo (s/s)    =  -0                +/- 2.1e-10
# P''_topo (s/s^2) =  0                 +/- 9.25e-14
# P_bary (ms)      =  N/A
# P'_bary (s/s)    =  N/A
# P''_bary (s/s^2) =  N/A
# P_orb (s)        =  N/A
# asin(i)/c (s)    =  N/A
# eccentricity     =  N/A
# w (rad)          =  N/A
# T_peri           =  N/A
######################################################
   0  1109.233
   1  1102.241
   2  1001.318
   3  733.1276
   4  596.9062
   5  570.8306
   6  516.0127
   7  628.9307
   8  574.4689
   9  578.5658
  10  572.5613
  11  513.477
  12  453.2149
  13  626.08
  14  701.8397
  15  609.1009
  16  601.4662
  17  552.86
  18  573.1508
  19  646.1418
  20  666.3542
  21  690.264
  22  646.0619
  23  593.2443
  24  590.6504
  25  590.5889
  26  532.2202
  27  519.1849
  28  528.764
  29  446.6109
  30  477.0395
  31  520.7617
  32  511.7324
  33  502.604
  34  584.6154
  35  535.7135
  36  526.8543
  37  576.7845
  38  547.687
  39  559.9793
  40  510.6707
  41  621.6152
  42  688.9517
  43  673.2051
  44  612.7931
  45  545.6567
  46  604.3522
  47  652.2646
  48  680.4335
  49  724.4172
  50  632.3492
  51  683.9459
  52  733.0069
  53  685.2802
  54  571.9647
  55  597.5682
  56  578.501
  57  603.4288
  58  657.3978
  59  657.5259
  60  550.4226
  61  627.3662
  62  564.1337
  63  567.3184
  64  515.0373
  65  534.8901
  66  607.4424
  67  554.3431
  68  554.7259
  69  515.4795
  70  456.5629
  71  450.4465
  72  483.6844
  73  526.8262
  74  510.6501
  75  536.3082
  76  576.7221
  77  554.5563
  78  585.5008
  79  666.3577
  80  550.9839
  81  398.0521
  82  463.8193
  83  497.7879
  84  535.2467
  85  594.8022
  86  607.0643
  87  608.7733
  88  626.2855
  89  708.8174
  90  613.6537
  91  555.624
  92  641.1537
  93  639.969
  94  586.4194
  95  584.2333
  96  642.6474
  97  672.5195
  98  698.181
  99  587.9049
 100  597.2644
 101  602.8032
 102  554.3765
 103  638.1516
 104  593.6005
 105  689.1854
 106  698.8207
 107  650.4207
 108  644.1882
 109  685.0425
 110  647.5654
 111  648.3679
 112  670.8569
 113  755.024
 114  665.332
 115  595.412
 116  632.0359
 117  679.0804
 118  614.3969
 119  622.3411
 120  562.301
 121  569.5762
 122  571.1525
 123  581.3417
 124  626.5948
 125  686.1143
 126  630.3724
 127  605.8547
 128  619.077
 129  623.6063
 130  656.9159
 131  578.9725
 132  606.2469
 133  650.8467
 134  656.5243
 135  656.5461
 136  709.085
 137  706.353
 138  692.1478
 139  716.7568
 140  594.8527
 141  609.7049
 142  522.8786
 143  532.8691
 144  574.6851
 145  551.9976
 146  671.8017
 147  719.5298
 148  621.3597
 149  493.4018
 150  551.9448
 151  616.2435
 152  634.2269
 153  612.7136
 154  627.0001
 155  609.5521
 156  565.8361
 157  564.9303
 158  548.601
 159  578.5707
 160  577.1915
 161  535.3084
 162  543.5344
 163  448.9933
 164  407.8098
 165  499.7072
 166  647.808
 167  661.4092
 168  610.1886
 169  681.5892
 170  632.0279
 171  622.4155
 172  610.1486
 173  539.3058
 174  501.9136
 175  578.53
 176  647.6741
 177  680.4129
 178  699.2966
 179  597.5714
 180  606.2925
 181  552.5362
 182  507.976
 183  527.8579
 184  715.6479
 185  708.2925
 186  667.6417
 187  730.2982
 188  618.2589
 189  522.4111
 190  591.2167
 191  740.8735
 192  692.2782
 193  716.3145
 194  717.1207
 195  666.3016
 196  611.2212
 197  464.5428
 198  468.4217
 199  605.4858
 200  710.0894
 201  626.4753
 202  556.1096
 203  603.7866
 204  617.4667
 205  520.5018
 206  606.1745
 207  618.9056
 208  602.0557
 209  567.1943
 210  657.6848
 211  723.4403
 212  714.776
 213  584.3773
 214  647.7794
 215  733.34
 216  737.0523
 217  697.4771
 218  734.9538
 219  655.8767
 220  746.5374
 221  802.7592
 222  762.4988
 223  624.9733
 224  639.5253
 225  655.3046
 226  665.2435
 227  623.5895
 228  580.1757
 229  652.5233
 230  665.8428
 231  658.626
 232  614.3733
 233  568.8546
 234  401.9935
 235  405.6606
 236  567.7084
 237  705.1553
 238  710.2612
 239  555.8096
 240  475.2386
 241  464.5989
 242  622.9227
 243  638.9052
 244  573.839
 245  598.7492
 246  576.1917
 247  620.0845
 248  613.9573
 249  520.5472
 250  616.6076
 251  628.4278
 252  634.816
 253  527.4018
 254  571.9083
 255  613.5083
 256  500.9828
 257  551.2448
 258  583.2894
 259  652.3899
 260  641.2813
 261  541.6901
 262  474.421
 263  458.0585
 264  435.6395
 265  518.1551
 266  579.1766
 267  572.3917
 268  548.9581
 269  628.7896
 270  586.7534
 271  485.9812
 272  448.7641
 273  485.9126
 274  493.8185
 275  442.2974
 276  505.4105
 277  492.0791
 278  493.1268
 279  469.5128
 280  503.672
 281  467.9693
 282  488.5294
 283  474.0833
 284  447.4557
 285  424.1504
 286  440.7546
 287  568.2123
 288  571.936
 289  558.2228
 290  622.098
 291  475.9779
 292  490.0246
 293  482.2328
 294  479.5858
 295  484.2048
 296  490.8512
 297  524.1476
 298  555.606
 299  488.4138
 300  336.6996
 301  407.8645
 302  494.085
 303  586.5972
 304  546.3865
 305  474.1357
 306  491.3155
 307  542.463
 308  526.3236
 309  491.6313
 310  611.659
 311  593.1365
 312  593.4859
 313  487.4148
 314  529.1236
 315  434.2884
 316  461.4931
 317  479.9315
 318  439.4203
 319  528.5538
 320  530.6426
 321  550.6957
 322  607.6919
 323  509.3983
 324  508.7779
 325  500.5903
 326  495.5722
 327  607.3053
 328  661.0934
 329  470.4688
 330  409.3449
 331  518.6349
 332  597.0709
 333  568.4424
 334  636.2755
 335  575.0158
 336  509.2437
 337  572.683
 338  541.4337
 339  595.7004
 340  539.1295
 341  527.9121
 342  575.5978
 343  436.1729
 344  511.0783
 345  346.7634
 346  363.3593
 347  417.8775
 348  410.2633
 349  442.1242
 350  358.4889
 351  468.6363
 352  602.9287
 353  538.217
 354  496.299
 355  403.1413
 356  416.0289
 357  429.4924
 358  475.2783
 359  503.6604
 360  515.6635
 361  444.7455
 362  396.9163
 363  520.1552
 364  619.4597
 365  557.4283
 366  572.9069
 367  430.2139
 368  394.5837
 369  474.0539
 370  455.1979
 371  366.3706
 372  396.9634
 373  451.6789
 374  509.6846
 375  486.4228
 376  478.3809
 377  503.3398
 378  403.9443
 379  352.0592
 380  444.0893
 381  549.3741
 382  542.3685
 383  498.1878
 384  485.0505
 385  500.7994
 386  486.9262
 387  612.4982
 388  581.2346
 389  581.3123
 390  496.5572
 391  589.1938
 392  631.186
 393  634.4489
 394  561.6495
 395  573.2316
 396  523.1422
 397  423.8604
 398  462.4574
 399  583.397
 400  609.1296
 401  534.7368
 402  520.6299
 403  491.3213
 404  494.1133
 405  459.8654
 406  573.9741
 407  591.2484
 408  641.194
 409  588.6485
 410  562.4266
 411  538.041
 412  558.4827
 413  641.5547
 414  573.7639
 415  518.6793
 416  452.8959
 417  608.0681
 418  569.3962
 419  512.5984
 420  511.1441
 421  543.5491
 422  452.3648
 423  464.522
 424  513.2093
 425  527.457
 426  545.0189
 427  469.6813
 428  384.0692
 429  491.113
 430  460.1446
 431  469.9357
 432  467.7372
 433  577.7983
 434  565.2855
 435  602.7699
 436  546.7919
 437  501.396
 438  480.2058
 439  523.209
 440  496.472
 441  564.1566
 442  539.5436
 443  536.4008
 444  408.5374
 445  420.5759
 446  409.3675
 447  322.9727
 448  356.8538
 449  472.2781
 450  456.4835
 451  516.1002
 452  490.847
 453  500.3862
 454  486.8383
 455  466.2604
 456  456.9081
 457  508.077
 458  568.7459
 459  454.1177
 460  468.6735
 461  457.314
 462  474.2736
 463  595.8911
 464  616.6472
 465  622.9708
 466  549.5311
 467  520.269
 468  487.6761
 469  465.2894
 470  392.5369
 471  364.9274
 472  394.8839
 473  497.9845
 474  521.258
 475  465.5383
 476  578.7346
 477  508.8976
 478  441.6094
 479  486.9908
 480  476.5258
 481  488.7697
 482  508.022
 483  524.2874
 484  466.4083
 485  535.6437
 486  621.8999
 487  569.9235
 488  580.5197
 489  513.2781
 490  548.5679
 491  696.1094
 492  531.5057
 493  483.8595
 494  536.6899
 495  413.1023
 496  545.644
 497  551.4884
 498  405.4937
 499  426.2033
 500  495.9339
 501  535.9645
 502  416.6887
 503  433.6834
 504  579.4775
 505  570.7734
 506  640.0354
 507  732.3168
 508  701.7532
 509  735.0466
 510  916.363
 511  1076.854
