# Input file       =  1185750573.115542_cleaned.dat
# Candidate        =  PSR_0332+5434
# Telescope        =  AR
# Epoch_topo       =  57967.964758281734
# Epoch_bary       =  N/A
# T_sample         =  0.002
# Data Folded      =  7208960
# Data Avg         =  0.0300907341025996
# Data StdDev      =  1.00044186680315 
# Profile Bins     =  512
# Profile Avg      =  423.692002246523 
# Profile StdDev   =  118.711607344203 
# Reduced chi-sqr  =  1.259
# Prob(Noise)      <  6.06e-05   (~3.8 sigma)
# P_topo (ms)      =  714.468660208628  +/- 0.000219
# P'_topo (s/s)    =  -0                +/- 1.17e-10
# P''_topo (s/s^2) =  0                 +/- 5.28e-14
# P_bary (ms)      =  N/A
# P'_bary (s/s)    =  N/A
# P''_bary (s/s^2) =  N/A
# P_orb (s)        =  N/A
# asin(i)/c (s)    =  N/A
# eccentricity     =  N/A
# w (rad)          =  N/A
# T_peri           =  N/A
######################################################
   0  1010.244
   1  792.0243
   2  674.951
   3  593.8315
   4  470.8493
   5  373.4135
   6  424.9496
   7  456.1256
   8  398.2869
   9  465.5462
  10  474.9612
  11  344.6833
  12  340.8793
  13  387.6174
  14  423.7603
  15  272.541
  16  521.1458
  17  341.8871
  18  252.4258
  19  385.4201
  20  434.3596
  21  419.7547
  22  451.5168
  23  557.5286
  24  527.5662
  25  461.9815
  26  351.796
  27  285.2697
  28  347.9924
  29  438.3847
  30  465.9518
  31  456.1492
  32  425.9474
  33  477.3831
  34  540.6375
  35  394.7314
  36  494.6622
  37  404.8498
  38  345.6124
  39  436.607
  40  509.9686
  41  429.5111
  42  404.436
  43  430.2252
  44  386.8799
  45  367.8997
  46  340.3305
  47  314.5794
  48  350.2547
  49  421.9639
  50  475.5812
  51  428.9918
  52  331.7638
  53  374.6417
  54  421.921
  55  308.2796
  56  243.5118
  57  331.469
  58  495.1047
  59  488.3889
  60  502.9611
  61  485.2905
  62  418.7604
  63  382.6965
  64  422.8762
  65  405.0137
  66  368.1848
  67  481.1914
  68  392.581
  69  260.4428
  70  292.6549
  71  303.5577
  72  481.1786
  73  602.9904
  74  548.3939
  75  353.1438
  76  464.2732
  77  428.3776
  78  322.1267
  79  308.7614
  80  475.711
  81  429.4581
  82  381.3324
  83  470.4673
  84  293.375
  85  255.6409
  86  314.5168
  87  429.2241
  88  488.2358
  89  513.4157
  90  433.3838
  91  304.5168
  92  335.2624
  93  298.7056
  94  334.6884
  95  362.0656
  96  416.3633
  97  325.8916
  98  261.795
  99  357.4387
 100  331.1875
 101  291.351
 102  314.0099
 103  295.2695
 104  305.9333
 105  448.9684
 106  418.6925
 107  283.5919
 108  279.4373
 109  407.124
 110  513.2418
 111  559.8012
 112  602.4936
 113  350.6567
 114  378.557
 115  479.2655
 116  478.1794
 117  470.1172
 118  490.2986
 119  445.2947
 120  395.541
 121  352.4243
 122  340.7041
 123  479.4513
 124  442.8845
 125  494.8362
 126  426.3137
 127  429.3068
 128  462.1526
 129  521.1071
 130  550.544
 131  440.7988
 132  502.4481
 133  466.9278
 134  373.4515
 135  395.6668
 136  433.3534
 137  420.0561
 138  397.6907
 139  515.1604
 140  495.6044
 141  464.3488
 142  551.7615
 143  449.0503
 144  416.4097
 145  397.6916
 146  374.7642
 147  474.3408
 148  405.4177
 149  398.4924
 150  373.2012
 151  340.2218
 152  466.2597
 153  452.5899
 154  416.3978
 155  501.2629
 156  413.2502
 157  331.2141
 158  405.1698
 159  358.3748
 160  398.7273
 161  448.1459
 162  600.9445
 163  428.1508
 164  465.5379
 165  338.4837
 166  435.5821
 167  406.1655
 168  376.7704
 169  491.9952
 170  473.4288
 171  358.6978
 172  330.3051
 173  475.2378
 174  549.7219
 175  347.9561
 176  330.724
 177  395.8671
 178  319.6905
 179  420.9731
 180  472.7409
 181  507.0824
 182  516.3596
 183  499.0185
 184  503.665
 185  363.9604
 186  369.8917
 187  398.8613
 188  486.7375
 189  453.9109
 190  383.0802
 191  333.4203
 192  401.7548
 193  406.4799
 194  359.1346
 195  511.6523
 196  534.8979
 197  541.2352
 198  489.783
 199  460.1696
 200  519.6622
 201  523.3254
 202  561.4985
 203  504.7973
 204  491.471
 205  423.4131
 206  342.6161
 207  268.9855
 208  180.6295
 209  320.4605
 210  523.0037
 211  442.6166
 212  421.6836
 213  436.0515
 214  481.3991
 215  420.8098
 216  377.7212
 217  425.4885
 218  305.1208
 219  378.862
 220  443.2216
 221  497.289
 222  470.8257
 223  459.1939
 224  478.1791
 225  527.3799
 226  380.8243
 227  335.1876
 228  480.0929
 229  469.4417
 230  392.5127
 231  387.5548
 232  281.2449
 233  334.1789
 234  371.6575
 235  423.1923
 236  448.9444
 237  407.7548
 238  399.1269
 239  264.6151
 240  367.6469
 241  598.9888
 242  459.4744
 243  421.7423
 244  530.1392
 245  436.6619
 246  428.7364
 247  472.4637
 248  451.8868
 249  426.1257
 250  625.8293
 251  482.5154
 252  363.8887
 253  432.9992
 254  402.7324
 255  391.9161
 256  396.7743
 257  397.7397
 258  404.4997
 259  443.5663
 260  409.8273
 261  342.8396
 262  369.409
 263  457.8451
 264  348.019
 265  409.7716
 266  517.2542
 267  453.0189
 268  455.6209
 269  371.2664
 270  283.4359
 271  293.4549
 272  444.9293
 273  503.5306
 274  394.6624
 275  409.7137
 276  345.4122
 277  302.1267
 278  414.1667
 279  351.9363
 280  307.3658
 281  366.6741
 282  521.411
 283  471.9195
 284  373.9655
 285  268.1685
 286  200.8592
 287  375.255
 288  427.9327
 289  556.783
 290  536.6699
 291  460.4251
 292  406.2723
 293  412.3226
 294  377.2411
 295  332.1237
 296  463.1143
 297  388.1722
 298  351.8413
 299  272.2436
 300  277.086
 301  349.3836
 302  397.9991
 303  381.011
 304  477.2341
 305  497.9596
 306  320.4663
 307  350.0637
 308  428.1781
 309  370.5591
 310  298.6186
 311  358.5793
 312  333.9376
 313  263.6287
 314  397.1481
 315  468.2339
 316  328.0586
 317  324.3006
 318  449.2623
 319  419.1093
 320  396.1775
 321  481.0845
 322  423.0812
 323  341.6668
 324  492.2348
 325  409.1851
 326  538.7369
 327  347.2224
 328  428.686
 329  434.8842
 330  419.8887
 331  503.6588
 332  446.9991
 333  449.0952
 334  486.8735
 335  365.2042
 336  402.7013
 337  403.7296
 338  374.4316
 339  408.8995
 340  439.8379
 341  456.7629
 342  497.3302
 343  412.8164
 344  452.4571
 345  492.797
 346  472.4246
 347  422.6311
 348  477.8326
 349  501.215
 350  496.7356
 351  395.1198
 352  402.0398
 353  254.6625
 354  320.5225
 355  412.2573
 356  447.5858
 357  511.5553
 358  426.4334
 359  389.6503
 360  366.6051
 361  350.4634
 362  361.7896
 363  429.453
 364  250.3505
 365  455.2295
 366  468.7321
 367  323.0988
 368  437.2096
 369  454.7543
 370  395.4635
 371  467.1255
 372  387.1524
 373  301.1683
 374  367.7245
 375  370.9131
 376  386.791
 377  488.4597
 378  312.1917
 379  411.7465
 380  434.7293
 381  464.7325
 382  389.8015
 383  456.6157
 384  442.4648
 385  446.2537
 386  669.9954
 387  698.6256
 388  561.843
 389  495.8338
 390  515.4472
 391  381.9624
 392  455.9145
 393  543.5012
 394  487.2395
 395  491.6248
 396  423.012
 397  364.5161
 398  352.2682
 399  315.0455
 400  231.8692
 401  371.9418
 402  413.9573
 403  502.3686
 404  467.1155
 405  464.7251
 406  402.6962
 407  448.1739
 408  477.976
 409  416.2707
 410  419.1473
 411  310.123
 412  415.5797
 413  417.7734
 414  391.8894
 415  412.4479
 416  444.4011
 417  327.5118
 418  390.1317
 419  353.3483
 420  329.9714
 421  348.1314
 422  494.1033
 423  437.3092
 424  257.0703
 425  406.0836
 426  449.839
 427  489.7798
 428  501.5356
 429  355.3587
 430  352.8568
 431  377.8956
 432  333.8903
 433  357.671
 434  429.3637
 435  316.7772
 436  291.1343
 437  408.6421
 438  307.6924
 439  302.9758
 440  487.2853
 441  467.9695
 442  412.4548
 443  459.2807
 444  511.5691
 445  582.3184
 446  487.7924
 447  594.131
 448  604.9221
 449  512.6606
 450  421.9074
 451  291.8987
 452  291.3084
 453  251.1564
 454  310.2748
 455  459.3817
 456  523.448
 457  398.1831
 458  448.948
 459  556.1203
 460  409.7133
 461  497.8605
 462  464.4006
 463  382.3111
 464  405.6299
 465  478.2499
 466  460.7151
 467  487.8167
 468  293.5071
 469  394.183
 470  481.2087
 471  477.6641
 472  553.3195
 473  553.8499
 474  517.6953
 475  424.894
 476  426.5468
 477  349.2898
 478  285.3174
 479  336.8268
 480  314.6273
 481  244.8672
 482  426.668
 483  478.9733
 484  387.6194
 485  388.2261
 486  417.7406
 487  321.9796
 488  333.551
 489  318.8927
 490  536.4763
 491  411.7584
 492  523.7914
 493  613.2258
 494  456.4955
 495  279.1365
 496  325.6308
 497  346.5042
 498  330.4425
 499  505.6731
 500  462.9751
 501  463.3474
 502  519.1584
 503  543.6422
 504  558.5327
 505  561.7126
 506  581.3503
 507  583.4208
 508  640.8701
 509  936.67
 510  1001.14
 511  996.6025
