# Input file       =  1185578274.108979_cleaned.dat
# Candidate        =  PSR_0332+5434
# Telescope        =  AR
# Epoch_topo       =  57965.970556816887
# Epoch_bary       =  N/A
# T_sample         =  0.002
# Data Folded      =  7208960
# Data Avg         =  0.0218793247097544
# Data StdDev      =  1.0000177516643  
# Profile Bins     =  512
# Profile Avg      =  308.104597685307 
# Profile StdDev   =  118.661282191386 
# Reduced chi-sqr  =  1.157
# Prob(Noise)      <  0.00812   (~2.4 sigma)
# P_topo (ms)      =  714.469493640731  +/- 0.000171
# P'_topo (s/s)    =  -0                +/- 9.16e-11
# P''_topo (s/s^2) =  0                 +/- 4.12e-14
# P_bary (ms)      =  N/A
# P'_bary (s/s)    =  N/A
# P''_bary (s/s^2) =  N/A
# P_orb (s)        =  N/A
# asin(i)/c (s)    =  N/A
# eccentricity     =  N/A
# w (rad)          =  N/A
# T_peri           =  N/A
######################################################
   0  291.834
   1  329.0359
   2  330.6333
   3  256.7306
   4  212.1539
   5  219.4165
   6  436.0866
   7  410.4828
   8  218.3543
   9  191.027
  10  378.1787
  11  440.534
  12  279.9916
  13  279.7452
  14  381.0933
  15  362.0104
  16  264.5028
  17  254.3704
  18  304.8162
  19  263.7549
  20  339.0607
  21  331.5938
  22  323.3938
  23  407.9368
  24  317.0574
  25  337.2816
  26  268.7506
  27  337.8446
  28  276.1171
  29  294.9795
  30  286.6587
  31  249.3815
  32  290.6535
  33  261.9967
  34  453.4507
  35  353.1974
  36  321.1259
  37  362.2059
  38  314.7051
  39  272.8949
  40  222.1125
  41  149.1611
  42  299.7981
  43  352.6077
  44  280.5478
  45  352.711
  46  287.2984
  47  218.192
  48  280.6305
  49  334.0523
  50  289.1837
  51  189.6764
  52  169.947
  53  98.43182
  54  236.4095
  55  369.816
  56  359.3482
  57  218.2446
  58  241.7099
  59  231.1292
  60  287.4778
  61  305.5737
  62  248.4335
  63  262.3271
  64  362.2051
  65  308.6749
  66  279.7744
  67  278.6527
  68  282.9723
  69  262.7463
  70  210.905
  71  323.5387
  72  343.135
  73  398.9001
  74  230.6434
  75  275.0091
  76  266.6202
  77  291.7544
  78  261.5869
  79  192.127
  80  320.2366
  81  388.7192
  82  339.4003
  83  201.4393
  84  212.9527
  85  187.0895
  86  276.1247
  87  345.1683
  88  359.4628
  89  313.1022
  90  423.9191
  91  395.3229
  92  322.1466
  93  294.439
  94  232.5475
  95  315.0273
  96  207.7336
  97  146.1727
  98  366.827
  99  324.2458
 100  283.8789
 101  241.4698
 102  263.6026
 103  257.8279
 104  257.6342
 105  352.2058
 106  436.2947
 107  504.3129
 108  384.6552
 109  199.8045
 110  241.1543
 111  228.9924
 112  253.4986
 113  344.4642
 114  428.8186
 115  282.4167
 116  405.3952
 117  327.4468
 118  173.3965
 119  171.1645
 120  371.4361
 121  349.1029
 122  307.4781
 123  300.6522
 124  296.8695
 125  324.5132
 126  333.5266
 127  383.9956
 128  380.8669
 129  384.3459
 130  348.7846
 131  325.8363
 132  283.1126
 133  183.7176
 134  17.86351
 135  89.35896
 136  185.929
 137  417.5428
 138  463.5998
 139  374.5915
 140  293.2265
 141  354.8537
 142  340.431
 143  270.4547
 144  247.1811
 145  363.1318
 146  354.2974
 147  273.7706
 148  300.8036
 149  158.2666
 150  316.0928
 151  339.374
 152  259.5701
 153  206.9122
 154  303.6309
 155  356.7518
 156  431.0782
 157  321.2907
 158  261.4119
 159  222.1446
 160  217.7124
 161  286.3129
 162  270.2746
 163  309.92
 164  361.4465
 165  319.4193
 166  292.1436
 167  293.1253
 168  288.3763
 169  230.3583
 170  296.0714
 171  358.313
 172  363.3868
 173  338.4963
 174  326.899
 175  300.1398
 176  168.5016
 177  189.955
 178  296.4892
 179  356.4243
 180  319.339
 181  383.0383
 182  333.5318
 183  206.6104
 184  310.758
 185  411.4609
 186  305.0582
 187  277.9375
 188  319.7431
 189  289.2156
 190  271.1748
 191  283.0702
 192  318.6891
 193  272.5266
 194  280.7036
 195  246.5861
 196  304.1718
 197  384.1334
 198  404.1097
 199  353.9767
 200  327.7956
 201  250.6652
 202  221.5102
 203  209.2961
 204  227.2314
 205  290.1031
 206  293.5048
 207  332.0687
 208  300.8947
 209  265.2964
 210  309.2745
 211  390.7041
 212  367.5851
 213  432.4038
 214  345.9606
 215  308.683
 216  155.5146
 217  215.8889
 218  279.5632
 219  298.7126
 220  355.8347
 221  255.746
 222  235.7376
 223  403.7299
 224  448.8598
 225  367.7107
 226  276.9538
 227  163.4739
 228  298.6669
 229  262.4877
 230  271.3202
 231  320.2558
 232  325.4899
 233  275.2499
 234  337.2144
 235  406.2175
 236  209.312
 237  219.1266
 238  336.8672
 239  333.3762
 240  348.8227
 241  421.0669
 242  401.8328
 243  226.4846
 244  306.1388
 245  337.7309
 246  312.4789
 247  215.4297
 248  293.1393
 249  355.1655
 250  366.0974
 251  259.1029
 252  259.7091
 253  125.9103
 254  219.5158
 255  268.9119
 256  274.0728
 257  266.7568
 258  352.8004
 259  432.9656
 260  347.6917
 261  283.2058
 262  212.4509
 263  261.5911
 264  373.5977
 265  317.1634
 266  339.0095
 267  330.6901
 268  337.3265
 269  391.8584
 270  368.9796
 271  332.8831
 272  383.7021
 273  305.0982
 274  179.1648
 275  117.6095
 276  234.005
 277  425.0402
 278  435.5555
 279  202.2849
 280  209.8314
 281  287.3255
 282  399.4283
 283  193.9217
 284  186.1336
 285  310.2998
 286  389.0972
 287  381.7454
 288  421.6585
 289  383.6042
 290  295.7517
 291  206.7194
 292  363.4334
 293  290.5143
 294  366.0136
 295  301.6032
 296  206.6376
 297  235.0007
 298  195.5869
 299  146.4318
 300  250.9498
 301  278.0388
 302  298.4066
 303  320.512
 304  347.3945
 305  394.4385
 306  342.0211
 307  224.3811
 308  320.649
 309  331.9981
 310  215.6409
 311  254.4205
 312  245.7122
 313  262.3423
 314  261.8007
 315  277.3278
 316  411.2455
 317  358.6236
 318  327.5355
 319  324.9158
 320  300.3301
 321  474.1361
 322  438.6323
 323  379.6437
 324  364.0265
 325  445.5815
 326  330.9299
 327  384.3802
 328  494.5655
 329  483.0334
 330  454.2279
 331  390.2939
 332  272.2755
 333  272.0275
 334  385.2849
 335  430.5534
 336  329.1295
 337  302.9432
 338  378.1272
 339  425.4386
 340  349.6422
 341  351.2421
 342  302.4164
 343  309.2901
 344  363.6016
 345  431.9434
 346  386.5664
 347  371.5911
 348  254.6929
 349  304.2263
 350  372.5493
 351  354.2237
 352  388.724
 353  392.2777
 354  415.4136
 355  410.9738
 356  258.9193
 357  333.9462
 358  291.938
 359  278.9789
 360  306.8086
 361  375.6343
 362  346.5481
 363  387.1186
 364  343.293
 365  290.3087
 366  373.2964
 367  412.2078
 368  402.579
 369  379.827
 370  331.1526
 371  248.7907
 372  293.3199
 373  151.5126
 374  191.8316
 375  216.9279
 376  257.6003
 377  348.0163
 378  231.005
 379  83.51842
 380  231.583
 381  401.7161
 382  365.9866
 383  199.745
 384  190.6361
 385  274.344
 386  395.5216
 387  296.2226
 388  290.0096
 389  298.8301
 390  331.9304
 391  310.9851
 392  280.2584
 393  286.0943
 394  351.0743
 395  330.8203
 396  306.6472
 397  276.9247
 398  278.5775
 399  257.754
 400  300.8865
 401  322.7733
 402  383.8969
 403  388.011
 404  323.4666
 405  293.0259
 406  322.1368
 407  325.9655
 408  328.9974
 409  268.7845
 410  366.1173
 411  303.695
 412  397.9966
 413  442.5886
 414  423.9915
 415  299.6902
 416  304.5131
 417  326.3124
 418  335.2805
 419  305.1755
 420  366.1877
 421  303.8033
 422  181.5503
 423  327.8581
 424  299.7009
 425  243.4192
 426  318.6261
 427  343.5935
 428  377.0008
 429  270.8377
 430  374.5117
 431  486.3412
 432  555.8563
 433  755.9507
 434  889.6937
 435  994.6038
 436  891.2733
 437  642.0654
 438  414.9719
 439  411.9196
 440  413.6943
 441  392.2996
 442  343.3229
 443  256.028
 444  191.4915
 445  170.7751
 446  216.054
 447  126.5401
 448  310.3476
 449  375.2594
 450  326.8538
 451  260.3458
 452  430.5266
 453  391.6606
 454  316.3182
 455  231.4532
 456  164.2687
 457  125.0347
 458  256.007
 459  295.6229
 460  200.8684
 461  261.0202
 462  165.604
 463  276.3177
 464  358.4106
 465  245.0029
 466  325.1106
 467  222.1756
 468  269.8333
 469  142.0177
 470  200.1082
 471  388.7882
 472  321.402
 473  270.9915
 474  340.1426
 475  276.243
 476  386.6318
 477  314.9852
 478  407.353
 479  258.2354
 480  263.3781
 481  220.1817
 482  213.9216
 483  232.8975
 484  275.5875
 485  261.4872
 486  234.1578
 487  149.6982
 488  179.722
 489  207.9367
 490  215.96
 491  265.1106
 492  294.0411
 493  342.6205
 494  350.0221
 495  279.1706
 496  281.5018
 497  333.0941
 498  167.5064
 499  95.46397
 500  227.2728
 501  278.16
 502  376.3895
 503  294.7674
 504  269.4994
 505  274.5001
 506  323.459
 507  279.7151
 508  216.0784
 509  178.9561
 510  260.7098
 511  307.2608
