# Input file       =  1185780131.118868_cleaned.dat
# Candidate        =  PSR_0332+5434
# Telescope        =  AR
# Epoch_topo       =  57968.306864801714
# Epoch_bary       =  N/A
# T_sample         =  0.002
# Data Folded      =  7340032
# Data Avg         =  0.00449081532313126
# Data StdDev      =  1.00003460559268 
# Profile Bins     =  512
# Profile Avg      =  64.3711414814863 
# Profile StdDev   =  119.737179809454 
# Reduced chi-sqr  =  1.475
# Prob(Noise)      <  1.37e-11   (~6.7 sigma)
# P_topo (ms)      =  714.468868071595  +/- 0.000263
# P'_topo (s/s)    =  -0                +/- 1.39e-10
# P''_topo (s/s^2) =  0                 +/- 6.12e-14
# P_bary (ms)      =  N/A
# P'_bary (s/s)    =  N/A
# P''_bary (s/s^2) =  N/A
# P_orb (s)        =  N/A
# asin(i)/c (s)    =  N/A
# eccentricity     =  N/A
# w (rad)          =  N/A
# T_peri           =  N/A
######################################################
   0  804.4499
   1  571.8121
   2  410.1613
   3  422.6446
   4  243.8297
   5  0.132262
   6  65.1357
   7  13.11275
   8  -124.3032
   9  -87.35637
  10  -44.47105
  11  26.9638
  12  164.6764
  13  125.8298
  14  -41.34162
  15  -41.03799
  16  87.52301
  17  -6.042994
  18  9.66034
  19  -47.16496
  20  88.97647
  21  170.0056
  22  73.75429
  23  80.53276
  24  84.63836
  25  51.05139
  26  114.1236
  27  161.272
  28  -3.680603
  29  100.0985
  30  122.1598
  31  131.1935
  32  183.9174
  33  153.5783
  34  54.85691
  35  30.35632
  36  -126.1432
  37  29.74475
  38  102.8255
  39  -5.814231
  40  76.02312
  41  75.24536
  42  5.50226
  43  -78.0558
  44  34.63245
  45  7.703294
  46  23.63558
  47  164.862
  48  71.34258
  49  0.73906
  50  49.00666
  51  147.3828
  52  -15.99238
  53  -44.63488
  54  50.29547
  55  79.32347
  56  100.0459
  57  33.29223
  58  88.86325
  59  112.9958
  60  122.5213
  61  -49.94308
  62  -103.7174
  63  20.49755
  64  -57.45869
  65  19.71285
  66  15.1943
  67  68.70629
  68  -0.9029369
  69  23.52341
  70  56.32371
  71  3.807359
  72  61.64749
  73  24.07538
  74  136.0976
  75  -62.63654
  76  -68.85176
  77  0.7870296
  78  147.9966
  79  70.15879
  80  38.81757
  81  64.60338
  82  83.91232
  83  -88.26646
  84  -73.26044
  85  94.83502
  86  70.36483
  87  12.63421
  88  -27.45549
  89  49.96591
  90  163.0222
  91  91.01897
  92  214.2318
  93  261.7633
  94  167.3859
  95  158.8175
  96  98.6797
  97  40.77473
  98  2.807553
  99  -54.27983
 100  94.45349
 101  118.5975
 102  80.08292
 103  41.72878
 104  163.2845
 105  100.0304
 106  -18.1589
 107  55.03975
 108  121.572
 109  102.2084
 110  60.4896
 111  50.1437
 112  49.55253
 113  79.81248
 114  159.8542
 115  240.6486
 116  226.1265
 117  79.30987
 118  -27.96296
 119  -24.47856
 120  99.71176
 121  151.2975
 122  6.581018
 123  26.28352
 124  140.8635
 125  98.52861
 126  161.5321
 127  138.8123
 128  47.99838
 129  51.34177
 130  -2.386151
 131  18.19481
 132  127.7691
 133  125.1137
 134  168.4099
 135  149.3617
 136  -2.817873
 137  -3.052635
 138  18.39741
 139  188.7122
 140  109.5399
 141  41.08337
 142  88.10783
 143  42.21748
 144  108.6047
 145  23.53142
 146  -27.37243
 147  -231.7144
 148  -167.3979
 149  54.3826
 150  52.37881
 151  116.9574
 152  44.91884
 153  114.2694
 154  189.8808
 155  -11.92676
 156  66.52151
 157  245.3959
 158  175.4602
 159  56.52212
 160  47.31247
 161  106.0044
 162  -31.79347
 163  34.12112
 164  130.756
 165  55.74192
 166  45.42792
 167  42.46121
 168  84.39575
 169  73.45612
 170  15.4202
 171  -4.704128
 172  94.93335
 173  223.084
 174  272.9139
 175  283.8052
 176  148.0294
 177  72.31474
 178  105.0333
 179  192.0072
 180  169.767
 181  157.4084
 182  236.045
 183  118.8483
 184  91.6049
 185  29.83107
 186  -29.12243
 187  80.81217
 188  62.16507
 189  -14.37399
 190  52.12469
 191  40.09126
 192  42.29706
 193  236.0046
 194  152.8839
 195  103.6031
 196  158.0382
 197  100.9635
 198  117.6269
 199  74.4383
 200  9.926912
 201  -35.64405
 202  -80.27715
 203  226.6648
 204  219.4005
 205  175.2842
 206  150.3626
 207  132.689
 208  75.98723
 209  147.8301
 210  141.3568
 211  166.9015
 212  125.5149
 213  -80.51732
 214  -36.57947
 215  142.2288
 216  156.1888
 217  115.227
 218  -2.774859
 219  -88.24384
 220  -61.65098
 221  27.32064
 222  48.91911
 223  -16.77411
 224  32.33104
 225  155.2044
 226  -76.08083
 227  28.13962
 228  36.66251
 229  98.60892
 230  131.4592
 231  138.7642
 232  101.9614
 233  12.8278
 234  154.6841
 235  -17.94528
 236  38.93071
 237  87.48483
 238  126.468
 239  135.0674
 240  10.74936
 241  82.58836
 242  7.53236
 243  131.9446
 244  77.3992
 245  50.09607
 246  95.88368
 247  38.86371
 248  88.82183
 249  -17.12877
 250  -43.46839
 251  -12.59142
 252  -7.661281
 253  -30.44794
 254  104.1812
 255  -62.74364
 256  42.62427
 257  -10.50986
 258  87.17095
 259  -62.30336
 260  205.686
 261  247.2222
 262  174.5979
 263  239.3695
 264  114.0518
 265  128.9369
 266  33.3913
 267  23.33499
 268  69.95612
 269  64.75503
 270  161.3248
 271  129.2831
 272  133.8324
 273  299.8801
 274  108.2584
 275  84.55759
 276  131.9607
 277  11.21276
 278  57.72378
 279  131.78
 280  57.94317
 281  6.820318
 282  56.81982
 283  53.02162
 284  -4.161191
 285  86.86987
 286  72.03064
 287  -100.0976
 288  -143.9458
 289  -60.24387
 290  -2.965868
 291  -26.35814
 292  82.1535
 293  126.7927
 294  211.021
 295  139.715
 296  111.2722
 297  -24.71473
 298  -35.30035
 299  132.8636
 300  39.27457
 301  -2.416703
 302  72.05807
 303  34.23221
 304  -0.513062
 305  60.68367
 306  138.3318
 307  85.90956
 308  -37.465
 309  94.29935
 310  249.7238
 311  39.66015
 312  -25.35849
 313  -40.00065
 314  -84.73586
 315  11.28929
 316  -16.45182
 317  -32.6838
 318  60.72319
 319  128.0141
 320  19.81001
 321  42.4883
 322  47.75046
 323  62.47495
 324  120.6296
 325  -126.4175
 326  -159.503
 327  -99.86066
 328  30.71174
 329  71.93636
 330  -6.34963
 331  87.58492
 332  21.34202
 333  -87.80354
 334  -12.82513
 335  -43.53318
 336  -89.58593
 337  53.21003
 338  -10.81155
 339  14.361
 340  -17.62233
 341  122.0022
 342  127.2311
 343  118.987
 344  120.9843
 345  -56.50875
 346  -51.32351
 347  -31.25796
 348  63.47993
 349  185.6526
 350  225.4527
 351  144.3603
 352  -16.95912
 353  -95.35965
 354  -20.85743
 355  -9.845462
 356  -129.1819
 357  -49.02025
 358  89.05407
 359  77.33087
 360  38.7228
 361  -30.84835
 362  90.70589
 363  2.371838
 364  75.23357
 365  122.5202
 366  103.5568
 367  -110.8088
 368  48.74026
 369  26.53885
 370  -50.23993
 371  205.4435
 372  202.6622
 373  125.7943
 374  -43.62832
 375  -48.05723
 376  47.63772
 377  -34.61384
 378  12.22769
 379  -48.94124
 380  2.206195
 381  47.04432
 382  28.87959
 383  -48.3182
 384  -20.74018
 385  89.21704
 386  -12.18046
 387  10.88877
 388  46.05363
 389  208.9816
 390  149.0456
 391  19.82876
 392  -16.97383
 393  59.0492
 394  163.6451
 395  107.4504
 396  115.4165
 397  -7.719392
 398  -62.87325
 399  112.8942
 400  -1.050382
 401  -57.53833
 402  -3.696217
 403  44.38375
 404  92.03806
 405  -19.71544
 406  -124.3738
 407  90.83325
 408  -13.17574
 409  -60.24819
 410  -110.8201
 411  -13.10202
 412  70.27179
 413  90.34878
 414  72.4296
 415  51.38956
 416  143.8668
 417  91.90137
 418  -48.14388
 419  91.08713
 420  106.1848
 421  105.5076
 422  63.42207
 423  140.6595
 424  101.1135
 425  58.25052
 426  172.2593
 427  -37.6006
 428  55.39789
 429  53.72006
 430  -163.1059
 431  30.92291
 432  102.4114
 433  -3.977544
 434  85.87918
 435  128.8916
 436  218.6799
 437  59.99953
 438  130.6894
 439  180.029
 440  96.19343
 441  197.9248
 442  29.30466
 443  -42.09083
 444  33.22974
 445  69.78037
 446  119.0413
 447  7.912718
 448  168.0784
 449  147.4008
 450  -62.77716
 451  3.946756
 452  -154.9322
 453  -153.796
 454  -22.05682
 455  61.54332
 456  16.93275
 457  101.29
 458  32.0344
 459  -30.34056
 460  50.95358
 461  126.5522
 462  179.8939
 463  -13.62947
 464  20.43124
 465  6.075922
 466  -46.04599
 467  22.14848
 468  -13.10571
 469  172.104
 470  172.4953
 471  194.0765
 472  58.67759
 473  96.52328
 474  115.5276
 475  36.01016
 476  -72.18642
 477  -79.82109
 478  -71.32375
 479  67.7663
 480  -31.90751
 481  110.0058
 482  73.17397
 483  27.45972
 484  69.00972
 485  6.433872
 486  -70.05961
 487  -196.1648
 488  -93.98147
 489  85.11641
 490  8.955506
 491  -21.74877
 492  154.928
 493  64.92915
 494  -75.79624
 495  61.66841
 496  223.2285
 497  118.1352
 498  130.9803
 499  158.112
 500  -3.033469
 501  47.63988
 502  229.3513
 503  32.61238
 504  163.5921
 505  236.0645
 506  325.7854
 507  262.7406
 508  242.7037
 509  413.8964
 510  477.5042
 511  711.8614
