# Input file       =  1185162103.119705_cleaned.dat
# Candidate        =  PSR_0332+5434
# Telescope        =  AR
# Epoch_topo       =  57961.153762959548
# Epoch_bary       =  N/A
# T_sample         =  0.002
# Data Folded      =  7340032
# Data Avg         =  0.0353324736619398
# Data StdDev      =  1.00004071978747 
# Profile Bins     =  512
# Profile Avg      =  505.719004978111 
# Profile StdDev   =  119.737911880561 
# Reduced chi-sqr  =  1.372
# Prob(Noise)      <  4.31e-08   (~5.4 sigma)
# P_topo (ms)      =  714.471758226146  +/- 0.000281
# P'_topo (s/s)    =  -0                +/- 1.48e-10
# P''_topo (s/s^2) =  0                 +/- 6.54e-14
# P_bary (ms)      =  N/A
# P'_bary (s/s)    =  N/A
# P''_bary (s/s^2) =  N/A
# P_orb (s)        =  N/A
# asin(i)/c (s)    =  N/A
# eccentricity     =  N/A
# w (rad)          =  N/A
# T_peri           =  N/A
######################################################
   0  1027.643
   1  1114.491
   2  1116.037
   3  849.851
   4  626.0774
   5  478.256
   6  430.3941
   7  393.4113
   8  389.6102
   9  387.8519
  10  340.6095
  11  569.0635
  12  686.3822
  13  617.3279
  14  470.1357
  15  451.5734
  16  533.5605
  17  550.6264
  18  576.9597
  19  460.3148
  20  391.7883
  21  511.8355
  22  420.5297
  23  508.8217
  24  568.5317
  25  469.8155
  26  507.5356
  27  412.5844
  28  397.2119
  29  425.9071
  30  505.9066
  31  457.2906
  32  510.2863
  33  377.6545
  34  482.4517
  35  529.299
  36  407.2622
  37  378.2792
  38  450.0942
  39  484.1113
  40  488.3978
  41  433.0483
  42  435.6993
  43  490.5757
  44  652.665
  45  707.98
  46  539.1567
  47  472.9041
  48  562.9336
  49  651.0189
  50  603.2613
  51  665.5773
  52  651.6707
  53  594.3021
  54  558.3748
  55  502.1395
  56  595.5922
  57  565.2679
  58  373.3646
  59  369.6425
  60  410.1844
  61  464.3159
  62  606.2372
  63  646.3127
  64  662.5162
  65  550.2687
  66  537.5792
  67  589.8742
  68  502.3379
  69  414.5816
  70  409.4893
  71  498.9257
  72  534.1163
  73  568.8745
  74  679.9723
  75  584.9835
  76  466.7833
  77  532.7075
  78  602.4615
  79  599.4264
  80  597.3586
  81  527.1343
  82  541.6863
  83  596.4383
  84  627.1284
  85  693.2007
  86  577.2601
  87  600.5539
  88  517.1971
  89  432.5701
  90  448.0795
  91  506.0274
  92  607.8607
  93  569.289
  94  531.9229
  95  547.3131
  96  500.3098
  97  500.1753
  98  459.2685
  99  482.1932
 100  488.3866
 101  529.4586
 102  637.6471
 103  702.54
 104  670.2598
 105  562.1477
 106  553.1692
 107  591.4318
 108  534.9181
 109  576.4067
 110  554.7748
 111  532.3235
 112  569.326
 113  585.9265
 114  627.587
 115  603.3743
 116  510.3543
 117  501.7064
 118  461.4533
 119  524.6821
 120  576.5598
 121  632.4929
 122  558.6537
 123  426.0578
 124  416.9121
 125  527.3325
 126  511.3759
 127  469.6245
 128  509.3105
 129  618.5287
 130  670.6042
 131  525.5699
 132  526.5967
 133  547.3064
 134  651.7645
 135  596.414
 136  618.17
 137  645.3524
 138  735.8042
 139  744.6841
 140  673.4384
 141  585.0621
 142  638.3412
 143  579.3658
 144  640.5688
 145  598.2443
 146  644.7703
 147  588.3047
 148  476.3107
 149  551.6141
 150  540.6902
 151  543.3877
 152  558.1642
 153  538.4145
 154  605.5634
 155  548.1422
 156  485.0306
 157  553.0952
 158  494.4028
 159  585.4018
 160  515.1821
 161  534.2177
 162  489.4238
 163  412.711
 164  550.6868
 165  627.9017
 166  550.9916
 167  561.1339
 168  715.9191
 169  631.7343
 170  572.8999
 171  499.8798
 172  534.4482
 173  639.0113
 174  711.3679
 175  665.5392
 176  602.1935
 177  546.0157
 178  561.2364
 179  518.8881
 180  504.0795
 181  502.7667
 182  578.751
 183  573.3577
 184  578.3184
 185  497.9442
 186  513.1057
 187  383.743
 188  514.657
 189  491.4203
 190  499.0236
 191  616.9561
 192  572.6893
 193  583.473
 194  492.7218
 195  420.6333
 196  502.8288
 197  551.2144
 198  470.8862
 199  461.9229
 200  562.4559
 201  563.8944
 202  620.4363
 203  575.7691
 204  555.3254
 205  657.6671
 206  600.5
 207  524.9578
 208  488.108
 209  626.3807
 210  726.9589
 211  620.6125
 212  541.1229
 213  538.5979
 214  455.5633
 215  533.1428
 216  620.4427
 217  532.3425
 218  592.203
 219  485.6544
 220  528.0385
 221  562.9677
 222  477.617
 223  467.7249
 224  584.9924
 225  604.8888
 226  566.3793
 227  662.8043
 228  656.1017
 229  568.7155
 230  507.221
 231  487.3965
 232  376.4998
 233  377.4223
 234  476.1662
 235  533.9642
 236  559.8624
 237  676.7057
 238  533.3139
 239  544.8389
 240  435.0778
 241  411.0997
 242  514.3698
 243  559.2029
 244  535.312
 245  508.3938
 246  572.4694
 247  485.6933
 248  480.1754
 249  502.8429
 250  484.1158
 251  493.2392
 252  475.806
 253  522.4543
 254  509.2526
 255  459.405
 256  438.4433
 257  359.1674
 258  452.6102
 259  544.3723
 260  492.8628
 261  487.2282
 262  486.9138
 263  484.4684
 264  436.4019
 265  515.9573
 266  485.5917
 267  421.9684
 268  484.4688
 269  440.02
 270  467.1388
 271  495.336
 272  477.2263
 273  524.6762
 274  501.4196
 275  547.4131
 276  529.5698
 277  537.619
 278  560.2542
 279  490.4198
 280  513.4358
 281  500.0696
 282  394.6242
 283  383.0945
 284  489.0586
 285  572.02
 286  641.4516
 287  470.3801
 288  493.4803
 289  546.2651
 290  468.0524
 291  347.1356
 292  378.5771
 293  538.22
 294  504.8464
 295  471.8002
 296  420.6155
 297  354.4072
 298  439.5914
 299  499.5311
 300  527.0233
 301  475.2689
 302  529.566
 303  508.2311
 304  488.8499
 305  386.706
 306  449.1562
 307  455.3961
 308  325.6709
 309  508.0503
 310  473.2661
 311  437.8485
 312  399.98
 313  453.8338
 314  431.1846
 315  378.1316
 316  342.9853
 317  393.2968
 318  433.6937
 319  446.4489
 320  445.2975
 321  486.0676
 322  536.9518
 323  519.355
 324  394.4981
 325  385.7736
 326  385.8372
 327  431.2715
 328  370.7023
 329  358.5889
 330  382.2773
 331  376.3742
 332  339.2866
 333  479.036
 334  414.6108
 335  526.6317
 336  535.8154
 337  371.982
 338  364.0621
 339  449.212
 340  517.4206
 341  470.5456
 342  464.7797
 343  451.9896
 344  406.0341
 345  434.6054
 346  416.2584
 347  391.4707
 348  515.4706
 349  473.3005
 350  396.9113
 351  468.742
 352  436.7396
 353  384.9143
 354  412.8236
 355  495.5946
 356  431.943
 357  332.9572
 358  312.9863
 359  408.416
 360  499.0844
 361  444.8233
 362  472.7863
 363  465.4128
 364  435.5152
 365  433.9029
 366  457.8752
 367  484.3889
 368  437.5874
 369  498.2246
 370  420.3224
 371  341.1136
 372  313.3021
 373  372.8998
 374  429.3239
 375  533.7143
 376  515.5522
 377  413.1776
 378  400.6544
 379  481.2468
 380  501.3313
 381  363.4915
 382  428.9204
 383  456.9186
 384  460.6817
 385  518.2512
 386  481.5731
 387  506.8667
 388  419.6298
 389  349.512
 390  408.7459
 391  433.7825
 392  403.3379
 393  497.7248
 394  467.506
 395  390.8275
 396  387.7542
 397  327.3955
 398  310.6163
 399  448.7241
 400  451.039
 401  393.3448
 402  482.8337
 403  439.1276
 404  384.0671
 405  286.379
 406  433.3202
 407  480.8983
 408  347.9164
 409  362.079
 410  405.761
 411  391.2565
 412  415.2227
 413  559.4016
 414  401.7187
 415  428.1225
 416  368.6143
 417  308.9503
 418  416.5851
 419  437.0854
 420  592.7606
 421  531.1615
 422  551.6002
 423  579.0336
 424  499.8631
 425  469.146
 426  514.3792
 427  489.88
 428  436.6797
 429  349.6732
 430  361.1993
 431  367.6596
 432  414.8983
 433  443.9147
 434  483.7588
 435  389.1986
 436  361.3019
 437  415.0445
 438  476.46
 439  518.1238
 440  423.3807
 441  325.9317
 442  388.5771
 443  469.2738
 444  454.2133
 445  506.6189
 446  339.7231
 447  411.1681
 448  380.3521
 449  381.3784
 450  365.5529
 451  419.2915
 452  532.7684
 453  520.1761
 454  598.4462
 455  566.0396
 456  424.9285
 457  511.6094
 458  521.3751
 459  460.4192
 460  509.9678
 461  560.0362
 462  677.6068
 463  526.0818
 464  412.9171
 465  470.4071
 466  512.4191
 467  540.7745
 468  455.9341
 469  468.2635
 470  536.0055
 471  446.3642
 472  351.4577
 473  387.5744
 474  482.3159
 475  375.7558
 476  539.1479
 477  486.7364
 478  501.1501
 479  463.6724
 480  401.3586
 481  440.2827
 482  549.8248
 483  588.1016
 484  567.0827
 485  555.6961
 486  578.6744
 487  563.4619
 488  638.3776
 489  640.0751
 490  552.748
 491  468.8159
 492  474.9901
 493  483.9456
 494  561.6776
 495  623.053
 496  521.9291
 497  434.5723
 498  500.1222
 499  472.6933
 500  521.0356
 501  533.4529
 502  580.3844
 503  535.9381
 504  523.5648
 505  528.6697
 506  489.4234
 507  498.6696
 508  700.4839
 509  887.2764
 510  867.1903
 511  936.7573
