# Input file       =  1185866322.111711_cleaned.dat
# Candidate        =  PSR_0332+5434
# Telescope        =  AR
# Epoch_topo       =  57969.304445737398
# Epoch_bary       =  N/A
# T_sample         =  0.002
# Data Folded      =  7340032
# Data Avg         =  0.00572619937234888
# Data StdDev      =  1.00001629796258 
# Profile Bins     =  512
# Profile Avg      =  82.0403202855757 
# Profile StdDev   =  119.734987781313 
# Reduced chi-sqr  =  1.654
# Prob(Noise)      <  6.68e-19   (~8.8 sigma)
# P_topo (ms)      =  714.468478896517  +/- 0.000147
# P'_topo (s/s)    =  -0                +/- 7.74e-11
# P''_topo (s/s^2) =  0                 +/- 3.42e-14
# P_bary (ms)      =  N/A
# P'_bary (s/s)    =  N/A
# P''_bary (s/s^2) =  N/A
# P_orb (s)        =  N/A
# asin(i)/c (s)    =  N/A
# eccentricity     =  N/A
# w (rad)          =  N/A
# T_peri           =  N/A
######################################################
   0  688.5455
   1  599.52
   2  653.8062
   3  455.5215
   4  260.2485
   5  253.9238
   6  82.64816
   7  14.69229
   8  136.5912
   9  333.5183
  10  259.8805
  11  169.1227
  12  91.44144
  13  65.52826
  14  66.5838
  15  10.44149
  16  138.5511
  17  40.35556
  18  -104.1541
  19  13.83006
  20  174.8801
  21  66.17948
  22  71.23894
  23  -26.27785
  24  -30.89572
  25  144.7654
  26  104.1047
  27  152.9063
  28  128.269
  29  12.34885
  30  -9.7806
  31  -57.63245
  32  -99.48718
  33  -48.26596
  34  167.7079
  35  232.533
  36  69.59156
  37  79.475
  38  17.64885
  39  -31.94052
  40  -25.17724
  41  56.45181
  42  90.62798
  43  170.8815
  44  145.2837
  45  301.7276
  46  234.9443
  47  185.7241
  48  124.8056
  49  143.6931
  50  125.4548
  51  11.67935
  52  57.15847
  53  71.14411
  54  178.1722
  55  149.5127
  56  -60.17214
  57  -57.96629
  58  114.2011
  59  108.4116
  60  108.9487
  61  172.466
  62  203.7793
  63  112.8334
  64  50.21202
  65  7.521876
  66  -29.11892
  67  169.1446
  68  50.24573
  69  175.1491
  70  214.8086
  71  254.4685
  72  163.6113
  73  135.6571
  74  172.9142
  75  99.87892
  76  45.0199
  77  54.05407
  78  3.787779
  79  49.00958
  80  43.33962
  81  -41.87884
  82  -98.76799
  83  -123.6425
  84  -37.7693
  85  152.8478
  86  178.999
  87  227.5305
  88  127.6445
  89  -28.08621
  90  21.13659
  91  60.29305
  92  114.556
  93  129.2233
  94  121.4755
  95  -1.814536
  96  -17.14196
  97  90.82216
  98  180.4377
  99  131.4932
 100  117.0051
 101  -39.82816
 102  -10.79243
 103  101.7549
 104  162.6937
 105  173.31
 106  114.838
 107  93.08369
 108  113.2564
 109  235.4009
 110  76.15727
 111  43.54738
 112  104.4288
 113  -49.09077
 114  51.50885
 115  21.9706
 116  36.9052
 117  167.4007
 118  194.9455
 119  109.3954
 120  288.1776
 121  458.2672
 122  254.877
 123  65.27533
 124  -11.03698
 125  103.1882
 126  36.26641
 127  127.2582
 128  180.6015
 129  169.2397
 130  134.2471
 131  169.9593
 132  50.87595
 133  45.8379
 134  140.8811
 135  207.8664
 136  110.9512
 137  117.2586
 138  45.75419
 139  60.30111
 140  30.0674
 141  76.49774
 142  132.2551
 143  80.38538
 144  13.52112
 145  -21.94312
 146  -5.935692
 147  65.7831
 148  4.508843
 149  -32.73555
 150  10.35766
 151  125.9376
 152  132.6254
 153  122.6089
 154  140.5325
 155  149.8546
 156  91.85023
 157  100.0476
 158  190.7979
 159  81.65589
 160  38.04485
 161  97.22939
 162  210.8644
 163  180.1705
 164  104.7052
 165  92.32027
 166  42.29241
 167  -9.110308
 168  -69.12627
 169  -35.54668
 170  -41.3892
 171  -36.79897
 172  144.4434
 173  -10.09409
 174  4.077087
 175  31.89646
 176  116.9796
 177  147.5943
 178  51.59107
 179  102.4095
 180  -15.53076
 181  -6.736379
 182  -27.63581
 183  106.471
 184  12.07769
 185  -14.85828
 186  -33.9234
 187  26.14938
 188  -4.374262
 189  -91.97092
 190  17.64739
 191  123.9516
 192  59.34394
 193  113.4081
 194  45.24034
 195  55.31319
 196  2.389147
 197  -47.15754
 198  -33.61598
 199  68.56979
 200  151.4524
 201  114.2284
 202  13.77022
 203  -17.53211
 204  40.70999
 205  -37.29852
 206  36.42859
 207  128.3518
 208  170.0352
 209  125.8447
 210  136.8561
 211  -1.937139
 212  -3.544131
 213  97.14159
 214  -16.63531
 215  -15.77043
 216  12.33478
 217  129.1734
 218  42.37428
 219  39.84529
 220  31.69133
 221  -25.71167
 222  40.13023
 223  176.0017
 224  -55.61115
 225  -85.60239
 226  67.83732
 227  131.0291
 228  122.1694
 229  91.15218
 230  23.48781
 231  2.094601
 232  62.14988
 233  81.4075
 234  127.7022
 235  243.2631
 236  244.0791
 237  240.6592
 238  217.1983
 239  122.0643
 240  76.37296
 241  59.09516
 242  -59.54065
 243  53.0529
 244  122.5873
 245  134.9036
 246  -1.733878
 247  66.02191
 248  83.36077
 249  5.671933
 250  -81.73466
 251  -25.29861
 252  -132.6544
 253  -210.6407
 254  -13.89602
 255  53.11602
 256  43.24677
 257  73.19107
 258  69.53546
 259  -70.09232
 260  -100.0259
 261  70.9084
 262  128.3038
 263  10.12212
 264  34.8156
 265  65.82238
 266  99.08862
 267  103.72
 268  52.58393
 269  -23.45933
 270  -4.525732
 271  92.82448
 272  -49.26618
 273  132.0918
 274  100.1431
 275  119.2349
 276  27.51811
 277  -64.39126
 278  -71.8846
 279  75.50375
 280  111.0725
 281  -6.919466
 282  157.2722
 283  62.091
 284  107.8955
 285  32.48734
 286  -15.71404
 287  86.63834
 288  41.21711
 289  -51.9272
 290  2.772096
 291  185.5664
 292  224.6379
 293  72.69906
 294  54.44398
 295  74.88052
 296  -8.510292
 297  -70.43285
 298  -121.4194
 299  -22.23125
 300  159.771
 301  335.6443
 302  339.8655
 303  228.8371
 304  -73.31424
 305  -33.36216
 306  -27.95618
 307  62.88361
 308  76.02871
 309  -59.07969
 310  -193.1102
 311  -22.15791
 312  136.0732
 313  117.3187
 314  42.5168
 315  60.56361
 316  131.4915
 317  74.61678
 318  101.1211
 319  155.1083
 320  165.8758
 321  33.95802
 322  36.86095
 323  33.90559
 324  44.47367
 325  44.85086
 326  34.02959
 327  -34.90308
 328  -71.53194
 329  48.55976
 330  17.08918
 331  88.09973
 332  80.79643
 333  -25.777
 334  -43.20056
 335  -68.13257
 336  -99.69428
 337  -10.19072
 338  201.4405
 339  210.102
 340  98.59962
 341  90.18803
 342  -39.04464
 343  -10.27561
 344  76.44501
 345  49.98666
 346  19.44966
 347  3.636961
 348  4.365713
 349  20.54573
 350  -79.20898
 351  -63.64438
 352  84.74039
 353  158.9186
 354  155.3211
 355  172.3541
 356  230.3066
 357  238.1198
 358  66.1638
 359  22.90517
 360  84.28535
 361  20.00887
 362  62.80695
 363  12.17971
 364  -19.09517
 365  22.6282
 366  14.66731
 367  -10.35647
 368  44.2165
 369  141.4348
 370  262.0439
 371  48.82163
 372  13.86467
 373  162.3629
 374  -40.74525
 375  -82.00317
 376  52.7109
 377  123.9382
 378  66.32098
 379  -28.61137
 380  120.1522
 381  178.5929
 382  191.402
 383  119.5204
 384  -15.88546
 385  -5.181281
 386  -148.1923
 387  19.38269
 388  76.66296
 389  176.4186
 390  209.8087
 391  175.9809
 392  111.2376
 393  90.30874
 394  117.6733
 395  116.304
 396  118.8555
 397  162.4753
 398  178.4953
 399  119.5806
 400  147.82
 401  57.41963
 402  28.91968
 403  -12.62386
 404  -150.8388
 405  -157.5248
 406  30.0166
 407  86.45493
 408  113.7573
 409  -0.6187002
 410  52.35017
 411  149.0257
 412  132.3372
 413  118.8561
 414  111.4047
 415  44.33738
 416  77.09914
 417  228.497
 418  221.1015
 419  117.246
 420  266.3372
 421  72.39691
 422  118.3039
 423  130.4111
 424  208.2182
 425  215.6427
 426  86.22188
 427  178.9629
 428  27.66838
 429  121.1713
 430  83.84151
 431  63.61071
 432  96.35415
 433  114.2331
 434  158.7496
 435  161.9617
 436  39.27686
 437  -56.86303
 438  62.18994
 439  109.207
 440  140.1987
 441  51.03151
 442  67.08684
 443  24.72437
 444  141.4853
 445  200.7913
 446  145.5949
 447  97.37827
 448  60.7751
 449  53.80184
 450  21.01544
 451  68.55145
 452  173.321
 453  139.7829
 454  152.465
 455  175.7412
 456  125.4269
 457  170.599
 458  240.041
 459  38.14738
 460  85.92274
 461  168.4198
 462  -86.94317
 463  -230.8135
 464  -35.67104
 465  63.92522
 466  102.2584
 467  256.8264
 468  209.3687
 469  173.0427
 470  122.4249
 471  59.37163
 472  151.9083
 473  -6.367181
 474  1.324014
 475  16.70549
 476  -21.73839
 477  -191.0042
 478  -153.945
 479  9.576312
 480  243.3959
 481  240.9342
 482  218.051
 483  228.2504
 484  231.4801
 485  64.71939
 486  -64.04356
 487  75.5545
 488  201.6686
 489  54.3124
 490  28.31704
 491  108.6557
 492  183.6954
 493  29.59242
 494  -10.82975
 495  62.30605
 496  182.7691
 497  38.53237
 498  89.34199
 499  29.18024
 500  87.91528
 501  208.4193
 502  141.8517
 503  126.0946
 504  82.74416
 505  100.1941
 506  101.2993
 507  96.89552
 508  249.15
 509  455.6364
 510  639.765
 511  716.1257
