# Input file       =  1185506739.105851_cleaned.dat
# Candidate        =  PSR_0332+5434
# Telescope        =  AR
# Epoch_topo       =  57965.142605391797
# Epoch_bary       =  N/A
# T_sample         =  0.002
# Data Folded      =  7340032
# Data Avg         =  0.0295041633629022
# Data StdDev      =  1.00002654194519 
# Profile Bins     =  512
# Profile Avg      =  421.908725284172 
# Profile StdDev   =  119.736214324455 
# Reduced chi-sqr  =  1.770
# Prob(Noise)      <  2.75e-24   (~10.1 sigma)
# P_topo (ms)      =  714.469867262403  +/- 0.000364
# P'_topo (s/s)    =  -0                +/- 1.92e-10
# P''_topo (s/s^2) =  0                 +/- 8.48e-14
# P_bary (ms)      =  N/A
# P'_bary (s/s)    =  N/A
# P''_bary (s/s^2) =  N/A
# P_orb (s)        =  N/A
# asin(i)/c (s)    =  N/A
# eccentricity     =  N/A
# w (rad)          =  N/A
# T_peri           =  N/A
######################################################
   0  1107.132
   1  1026.236
   2  1005.137
   3  739.0184
   4  581.8003
   5  490.534
   6  425.5769
   7  378.3836
   8  466.8879
   9  528.1666
  10  457.4698
  11  431.116
  12  569.1273
  13  432.7089
  14  465.6082
  15  525.3505
  16  473.2509
  17  453.8387
  18  544.0668
  19  466.6125
  20  457.4321
  21  448.6324
  22  394.2457
  23  377.8281
  24  332.2044
  25  429.9735
  26  474.6734
  27  410.9841
  28  502.6213
  29  452.1213
  30  509.8954
  31  541.6431
  32  531.4432
  33  407.6305
  34  510.5271
  35  491.6677
  36  401.9526
  37  420.5099
  38  365.6996
  39  375.3396
  40  459.1425
  41  486.674
  42  370.8091
  43  349.4277
  44  490.7549
  45  522.5918
  46  493.1591
  47  409.7581
  48  476.9357
  49  456.5927
  50  454.478
  51  549.0138
  52  438.8931
  53  354.6751
  54  338.7768
  55  362.0342
  56  419.0583
  57  451.0556
  58  511.0418
  59  463.0821
  60  491.4541
  61  436.9651
  62  439.4795
  63  347.4501
  64  502.2133
  65  473.5911
  66  462.9935
  67  487.482
  68  551.9965
  69  576.3057
  70  663.2141
  71  536.0045
  72  437.8158
  73  370.7792
  74  381.5694
  75  419.3752
  76  480.6815
  77  478.6757
  78  560.7321
  79  642.7618
  80  510.3597
  81  458.2685
  82  398.8951
  83  501.2547
  84  612.9105
  85  503.2483
  86  361.3166
  87  200.7116
  88  231.8878
  89  300.9691
  90  345.4741
  91  431.9612
  92  408.2205
  93  411.1217
  94  280.3423
  95  308.8424
  96  360.7834
  97  270.6639
  98  282.587
  99  341.6479
 100  467.9289
 101  331.6732
 102  279.4495
 103  383.0309
 104  383.7967
 105  389.7484
 106  395.972
 107  381.3421
 108  323.093
 109  312.9707
 110  260.6732
 111  339.0616
 112  330.8219
 113  422.0039
 114  370.1958
 115  396.4861
 116  445.7632
 117  335.707
 118  230.1013
 119  252.8346
 120  329.123
 121  341.8178
 122  245.0432
 123  317.9069
 124  352.7852
 125  286.5415
 126  282.2202
 127  250.7939
 128  300.6086
 129  379.2368
 130  421.1508
 131  300.7711
 132  292.5475
 133  371.4367
 134  326.3417
 135  311.5497
 136  332.7113
 137  336.9624
 138  395.2544
 139  392.2813
 140  268.8169
 141  264.6196
 142  273.3542
 143  368.6439
 144  325.7071
 145  309.2987
 146  453.3134
 147  492.6013
 148  383.6355
 149  364.8786
 150  497.9723
 151  390.5166
 152  327.7206
 153  269.9236
 154  311.9733
 155  305.7213
 156  401.5014
 157  408.459
 158  459.3484
 159  421.3514
 160  342.0538
 161  418.1338
 162  405.4989
 163  360.7143
 164  316.2187
 165  460.4501
 166  493.2499
 167  437.4614
 168  349.2252
 169  372.0916
 170  381.77
 171  325.7151
 172  331.1385
 173  321.6756
 174  377.7612
 175  425.2557
 176  412.7054
 177  400.5617
 178  391.8564
 179  473.6106
 180  493.6306
 181  427.6758
 182  460.1699
 183  359.8297
 184  296.3576
 185  379.467
 186  489.0222
 187  547.3571
 188  536.5432
 189  408.7215
 190  369.1519
 191  346.0758
 192  360.1711
 193  403.0197
 194  276.4854
 195  432.2318
 196  478.0697
 197  501.0891
 198  551.847
 199  491.4406
 200  439.1811
 201  484.0647
 202  431.0088
 203  385.7051
 204  417.9946
 205  425.2482
 206  433.8889
 207  388.9955
 208  452.0786
 209  528.7232
 210  503.4384
 211  452.2894
 212  461.6674
 213  443.0959
 214  410.7037
 215  557.5994
 216  505.2601
 217  454.8893
 218  412.0758
 219  447.7128
 220  475.198
 221  534.6901
 222  429.6032
 223  346.8931
 224  383.5058
 225  392.4825
 226  396.2627
 227  498.4168
 228  609.0405
 229  546.2641
 230  549.1528
 231  465.1053
 232  426.4124
 233  415.8346
 234  474.7092
 235  535.8843
 236  501.8108
 237  477.4786
 238  438.2789
 239  504.6199
 240  506.8623
 241  539.3491
 242  711.2712
 243  540.5372
 244  513.6958
 245  608.24
 246  555.285
 247  562.6885
 248  614.8661
 249  606.1254
 250  524.9936
 251  656.4868
 252  596.213
 253  516.7247
 254  425.5457
 255  473.7277
 256  502.4654
 257  381.4785
 258  429.0814
 259  504.3624
 260  630.4506
 261  569.5406
 262  486.31
 263  475.3855
 264  467.9481
 265  554.8979
 266  643.9394
 267  581.8932
 268  521.8034
 269  496.0383
 270  554.5976
 271  487.1192
 272  569.6492
 273  576.6705
 274  540.6658
 275  530.0554
 276  545.8928
 277  532.1854
 278  506.6524
 279  572.8525
 280  596.1599
 281  568.8914
 282  571.6979
 283  519.0516
 284  615.8538
 285  546.4039
 286  523.2204
 287  509.1028
 288  548.0584
 289  485.1313
 290  391.2616
 291  532.8546
 292  601.1592
 293  504.7723
 294  442.0707
 295  469.8321
 296  509.5511
 297  572.7067
 298  516.688
 299  410.8716
 300  487.53
 301  463.169
 302  442.2128
 303  483.6814
 304  551.1631
 305  491.1656
 306  460.9747
 307  524.1996
 308  540.5984
 309  528.3874
 310  516.4539
 311  441.3678
 312  483.5243
 313  516.7703
 314  487.806
 315  384.6441
 316  378.0958
 317  507.7259
 318  447.9367
 319  519.4441
 320  520.418
 321  487.2899
 322  391.6193
 323  337.5238
 324  421.6945
 325  485.0483
 326  527.855
 327  522.5005
 328  514.917
 329  508.9563
 330  438.756
 331  455.5883
 332  486.1717
 333  490.058
 334  459.6461
 335  288.4075
 336  439.3454
 337  548.6577
 338  479.769
 339  462.5302
 340  436.1971
 341  491.9037
 342  426.8706
 343  422.518
 344  445.7927
 345  373.3348
 346  440.7332
 347  474.2572
 348  416.5118
 349  366.8933
 350  368.6499
 351  369.4192
 352  303.2083
 353  275.8119
 354  285.0251
 355  425.6954
 356  367.8676
 357  380.7567
 358  376.9087
 359  342.3527
 360  328.3027
 361  340.574
 362  282.7997
 363  296.7881
 364  255.918
 365  363.3226
 366  372.0726
 367  346.3474
 368  342.4236
 369  422.5009
 370  377.3768
 371  298.7065
 372  227.7794
 373  144.5518
 374  184.6796
 375  262.9524
 376  363.9128
 377  380.8124
 378  359.0116
 379  291.0296
 380  390.5655
 381  384.2039
 382  473.8716
 383  388.0591
 384  367.934
 385  347.3571
 386  242.8097
 387  240.2417
 388  187.063
 389  375.4602
 390  307.3895
 391  281.7061
 392  344.8055
 393  361.5967
 394  383.0108
 395  388.862
 396  405.8886
 397  330.2619
 398  258.6115
 399  267.0894
 400  301.6458
 401  359.7178
 402  419.7552
 403  342.8701
 404  388.9961
 405  390.995
 406  355.5671
 407  310.2436
 408  245.1377
 409  243.0542
 410  298.5668
 411  360.5206
 412  290.2695
 413  185.7238
 414  209.3124
 415  365.0537
 416  409.0453
 417  398.9468
 418  319.6621
 419  296.9107
 420  263.4817
 421  368.347
 422  396.5428
 423  402.8914
 424  456.0569
 425  285.3008
 426  298.7469
 427  382.2434
 428  339.7296
 429  319.4776
 430  424.1416
 431  491.3842
 432  336.8781
 433  217.0227
 434  253.6631
 435  282.2908
 436  296.9404
 437  303.8695
 438  287.931
 439  292.618
 440  279.9639
 441  184.6019
 442  203.4209
 443  259.1151
 444  328.4885
 445  299.5968
 446  288.6299
 447  320.8599
 448  435.4137
 449  413.1585
 450  429.346
 451  447.9774
 452  560.5108
 453  419.3937
 454  402.9493
 455  433.8977
 456  335.6798
 457  371.4969
 458  311.9689
 459  286.5544
 460  206.4002
 461  259.2919
 462  254.0712
 463  360.4958
 464  397.0914
 465  423.0727
 466  424.0621
 467  362.5132
 468  413.3208
 469  339.4295
 470  324.0331
 471  391.8569
 472  411.1844
 473  453.0789
 474  401.9471
 475  316.3434
 476  270.8398
 477  295.7351
 478  343.6509
 479  324.6722
 480  341.0278
 481  364.418
 482  279.9218
 483  335.1852
 484  450.708
 485  491.187
 486  392.0888
 487  330.7472
 488  395.7689
 489  324.0462
 490  368.6229
 491  434.6034
 492  406.5438
 493  405.0943
 494  495.9937
 495  463.8825
 496  457.0283
 497  358.7056
 498  426.39
 499  396.4374
 500  394.0683
 501  438.5644
 502  436.6707
 503  454.2658
 504  405.751
 505  409.9598
 506  381.1189
 507  516.7228
 508  577.6912
 509  812.5432
 510  994.7362
 511  1098.387
