# Input file       =  1185004668.102813_cleaned.dat
# Candidate        =  PSR_0332+5434
# Telescope        =  AR
# Epoch_topo       =  57959.331598412187
# Epoch_bary       =  N/A
# T_sample         =  0.002
# Data Folded      =  7340032
# Data Avg         =  0.0355501855602561
# Data StdDev      =  1.00012313530676 
# Profile Bins     =  512
# Profile Avg      =  509.670761775364 
# Profile StdDev   =  119.74777974093  
# Reduced chi-sqr  =  1.176
# Prob(Noise)      <  0.00368   (~2.7 sigma)
# P_topo (ms)      =  714.473034926093  +/- 0.00026
# P'_topo (s/s)    =  -0                +/- 1.37e-10
# P''_topo (s/s^2) =  0                 +/- 6.05e-14
# P_bary (ms)      =  N/A
# P'_bary (s/s)    =  N/A
# P''_bary (s/s^2) =  N/A
# P_orb (s)        =  N/A
# asin(i)/c (s)    =  N/A
# eccentricity     =  N/A
# w (rad)          =  N/A
# T_peri           =  N/A
######################################################
   0  825.4279
   1  882.3903
   2  898.001
   3  826.9948
   4  618.9417
   5  421.0446
   6  340.1918
   7  487.7251
   8  534.2429
   9  504.6937
  10  464.0146
  11  461.3147
  12  533.4899
  13  522.2941
  14  395.4754
  15  468.5936
  16  522.5654
  17  612.6339
  18  505.3635
  19  379.4876
  20  450.978
  21  439.3336
  22  335.31
  23  371.0421
  24  483.8953
  25  505.2993
  26  566.5314
  27  506.8058
  28  405.9637
  29  340.4227
  30  372.4219
  31  411.4369
  32  401.8104
  33  516.5342
  34  498.4171
  35  437.6156
  36  526.7332
  37  449.9052
  38  521.6697
  39  536.9663
  40  441.7136
  41  328.9645
  42  376.4287
  43  469.4679
  44  423.9931
  45  358.7291
  46  439.3214
  47  361.1377
  48  495.1245
  49  560.3112
  50  482.534
  51  413.9674
  52  446.2884
  53  456.2055
  54  512.0319
  55  555.2369
  56  566.6937
  57  490.895
  58  325.2507
  59  337.28
  60  335.5587
  61  417.0282
  62  500.1106
  63  534.9994
  64  636.5206
  65  539.4351
  66  483.1545
  67  508.5707
  68  537.4008
  69  562.4809
  70  576.0782
  71  628.5164
  72  545.3257
  73  485.2979
  74  501.6123
  75  516.0358
  76  535.9899
  77  539.9488
  78  570.7712
  79  479.4963
  80  409.8723
  81  415.5746
  82  497.0934
  83  539.1776
  84  406.0504
  85  385.0397
  86  325.626
  87  359.2339
  88  405.5755
  89  350.2569
  90  377.9565
  91  317.1706
  92  332.9706
  93  470.5183
  94  308.656
  95  346.0292
  96  509.3122
  97  462.4659
  98  487.8944
  99  565.6776
 100  434.5972
 101  523.7894
 102  490.6855
 103  628.45
 104  609.4415
 105  505.9252
 106  505.6628
 107  485.747
 108  475.1908
 109  604.2667
 110  572.1832
 111  699.3235
 112  713.3948
 113  616.5303
 114  615.1552
 115  540.8599
 116  539.9343
 117  540.8367
 118  532.4044
 119  522.3589
 120  501.6325
 121  502.4283
 122  510.8553
 123  494.352
 124  517.2565
 125  554.5313
 126  526.8641
 127  492.3613
 128  523.7179
 129  671.1658
 130  554.6563
 131  556.8569
 132  483.6512
 133  568.7299
 134  599.8584
 135  570.5836
 136  666.3893
 137  547.9495
 138  531.9695
 139  556.5267
 140  450.9198
 141  500.4696
 142  435.27
 143  473.7461
 144  569.236
 145  526.6686
 146  499.7031
 147  386.4272
 148  524.2683
 149  509.1001
 150  554.1916
 151  414.1247
 152  493.0901
 153  533.7955
 154  448.3843
 155  565.9804
 156  527.1949
 157  489.555
 158  428.7746
 159  277.4181
 160  407.9519
 161  464.907
 162  449.3669
 163  531.8228
 164  538.9289
 165  579.7784
 166  535.0331
 167  567.2349
 168  501.2133
 169  369.5205
 170  501.9557
 171  589.1909
 172  567.8381
 173  533.8862
 174  536.4552
 175  534.7982
 176  377.0336
 177  430.5417
 178  528.9648
 179  523.4285
 180  584.2475
 181  561.4495
 182  586.237
 183  451.1988
 184  424.4058
 185  422.2045
 186  468.7202
 187  541.6395
 188  638.61
 189  573.1271
 190  669.8716
 191  559.0788
 192  549.803
 193  583.5508
 194  611.8586
 195  494.5869
 196  537.2552
 197  533.087
 198  581.038
 199  548.3458
 200  538.163
 201  466.5976
 202  531.0181
 203  575.2339
 204  410.8362
 205  379.9291
 206  488.8767
 207  432.481
 208  381.6526
 209  392.8395
 210  456.2075
 211  586.0533
 212  562.0933
 213  574.1221
 214  531.2177
 215  403.4979
 216  410.3632
 217  299.8513
 218  261.9576
 219  438.2991
 220  609.3172
 221  511.7921
 222  509.6556
 223  550.2843
 224  456.4253
 225  448.7127
 226  450.11
 227  577.5602
 228  683.7134
 229  601.7969
 230  552.024
 231  688.5547
 232  506.8618
 233  441.1264
 234  525.5634
 235  593.1567
 236  622.1163
 237  503.4084
 238  559.3517
 239  466.8247
 240  428.5114
 241  446.9258
 242  505.0176
 243  604.197
 244  623.0877
 245  527.3442
 246  609.5931
 247  561.8577
 248  650.0687
 249  575.1331
 250  559.6893
 251  534.0967
 252  554.7747
 253  539.6471
 254  582.7022
 255  564.8434
 256  432.1239
 257  503.761
 258  644.7249
 259  668.2975
 260  556.5043
 261  584.1315
 262  575.8959
 263  498.9991
 264  510.7579
 265  625.515
 266  606.9324
 267  480.6342
 268  527.4744
 269  573.1656
 270  528.2645
 271  492.6584
 272  478.3184
 273  543.4701
 274  613.5306
 275  571.2518
 276  487.1066
 277  423.8616
 278  595.153
 279  664.7996
 280  573.3234
 281  445.2858
 282  583.1645
 283  525.0616
 284  468.8137
 285  576.2461
 286  619.8826
 287  623.9806
 288  554.9783
 289  562.3647
 290  550.5305
 291  601.0134
 292  562.2961
 293  482.6033
 294  549.318
 295  545.3571
 296  550.7148
 297  581.8073
 298  498.4202
 299  491.8894
 300  437.5443
 301  525.7145
 302  487.8248
 303  565.2589
 304  607.4013
 305  483.4146
 306  550.8467
 307  595.1597
 308  491.6946
 309  466.2008
 310  445.65
 311  341.9076
 312  362.8377
 313  527.5265
 314  615.1896
 315  556.2587
 316  479.9624
 317  527.5989
 318  561.7173
 319  580.5765
 320  561.2939
 321  531.5289
 322  488.766
 323  525.9427
 324  608.8677
 325  679.9206
 326  609.4393
 327  578.728
 328  549.6647
 329  551.2263
 330  407.7372
 331  454.2651
 332  510.0612
 333  544.9738
 334  482.0762
 335  556.4998
 336  470.3251
 337  362.704
 338  439.575
 339  523.8456
 340  523.5291
 341  497.3872
 342  533.651
 343  529.9051
 344  523.0801
 345  616.1238
 346  623.5997
 347  512.9418
 348  488.129
 349  601.7552
 350  628.3669
 351  567.8958
 352  492.5448
 353  539.5096
 354  615.3835
 355  586.2955
 356  489.2549
 357  497.3468
 358  594.9235
 359  559.1294
 360  528.8651
 361  652.4264
 362  510.7813
 363  598.3858
 364  604.2517
 365  564.274
 366  459.588
 367  555.429
 368  600.8233
 369  575.3959
 370  409.8464
 371  517.2451
 372  555.5383
 373  386.4968
 374  334.3372
 375  438.7136
 376  506.3523
 377  498.4431
 378  446.2118
 379  546.9158
 380  452.2159
 381  436.4012
 382  435.8616
 383  331.7211
 384  321.837
 385  389.8368
 386  552.2676
 387  481.7369
 388  555.2276
 389  569.153
 390  447.2744
 391  423.5768
 392  468.49
 393  540.9193
 394  564.5609
 395  514.5828
 396  469.2632
 397  506.5391
 398  395.4853
 399  327.43
 400  390.813
 401  382.3268
 402  368.0591
 403  481.0907
 404  470.08
 405  310.8144
 406  411.2605
 407  459.2916
 408  445.1698
 409  526.6984
 410  582.6476
 411  580.0443
 412  537.4183
 413  603.1902
 414  500.0149
 415  468.9859
 416  436.1534
 417  493.8031
 418  359.1903
 419  267.0894
 420  421.3651
 421  513.4405
 422  514.9988
 423  432.6432
 424  502.3837
 425  571.6707
 426  476.6657
 427  539.7393
 428  596.0397
 429  676.6204
 430  571.5818
 431  441.8762
 432  410.8706
 433  373.3715
 434  332.0824
 435  448.5864
 436  515.9229
 437  406.4119
 438  330.9489
 439  388.4196
 440  443.7083
 441  498.7858
 442  584.9165
 443  379.5712
 444  433.5143
 445  468.0472
 446  320.6378
 447  379.9622
 448  429.0972
 449  414.7259
 450  478.288
 451  535.1037
 452  388.969
 453  339.1214
 454  410.9137
 455  393.0317
 456  344.4427
 457  330.7465
 458  436.5121
 459  392.783
 460  432.9147
 461  503.0631
 462  432.7222
 463  477.5519
 464  464.2374
 465  542.103
 466  549.5538
 467  503.9981
 468  498.4887
 469  491.7599
 470  505.0557
 471  614.5208
 472  513.0655
 473  440.149
 474  470.4028
 475  490.4511
 476  574.1684
 477  661.0269
 478  673.4795
 479  660.5823
 480  489.4702
 481  399.2829
 482  504.4634
 483  444.0406
 484  497.8102
 485  581.663
 486  524.1364
 487  431.6381
 488  402.1146
 489  477.2332
 490  514.75
 491  498.4806
 492  529.1848
 493  622.7099
 494  630.1673
 495  688.5729
 496  649.2236
 497  677.6411
 498  534.9155
 499  544.7524
 500  558.829
 501  562.0031
 502  580.0328
 503  484.2317
 504  673.7654
 505  785.4016
 506  711.3823
 507  713.0232
 508  667.3548
 509  693.6096
 510  828.9284
 511  964.3668
