# Input file       =  1186353793.111462_cleaned.dat
# Candidate        =  PSR_0332+5434
# Telescope        =  AR
# Epoch_topo       =  57974.946471197480
# Epoch_bary       =  N/A
# T_sample         =  0.002
# Data Folded      =  7208960
# Data Avg         =  0.0132648373532907
# Data StdDev      =  1.00009295588563 
# Profile Bins     =  512
# Profile Avg      =  186.823295750255 
# Profile StdDev   =  118.670205862304 
# Reduced chi-sqr  =  1.706
# Prob(Noise)      <  2.96e-21   (~9.4 sigma)
# P_topo (ms)      =  714.466197554608  +/- 0.00019
# P'_topo (s/s)    =  -0                +/- 1.02e-10
# P''_topo (s/s^2) =  0                 +/- 4.6e-14
# P_bary (ms)      =  N/A
# P'_bary (s/s)    =  N/A
# P''_bary (s/s^2) =  N/A
# P_orb (s)        =  N/A
# asin(i)/c (s)    =  N/A
# eccentricity     =  N/A
# w (rad)          =  N/A
# T_peri           =  N/A
######################################################
   0  909.989
   1  890.9197
   2  571.2332
   3  420.8374
   4  311.641
   5  236.5005
   6  225.3636
   7  109.587
   8  225.6121
   9  271.7016
  10  171.8049
  11  69.11737
  12  239.1783
  13  364.0321
  14  223.7306
  15  174.7576
  16  277.8718
  17  264.2111
  18  246.6099
  19  160.0036
  20  149.5577
  21  77.82608
  22  155.4404
  23  147.495
  24  244.5242
  25  247.9058
  26  164.3129
  27  56.69654
  28  212.7541
  29  316.3673
  30  74.19688
  31  75.689
  32  244.8756
  33  260.801
  34  187.9468
  35  179.2336
  36  148.2651
  37  180.4257
  38  139.2911
  39  25.11158
  40  240.002
  41  183.3298
  42  -18.48567
  43  -31.97961
  44  163.7298
  45  260.137
  46  234.1334
  47  174.7502
  48  96.92199
  49  59.91075
  50  188.85
  51  270.1416
  52  337.7038
  53  144.6033
  54  113.1401
  55  134.1427
  56  98.84658
  57  223.6502
  58  277.3784
  59  282.0842
  60  78.28817
  61  103.6708
  62  128.0109
  63  268.2533
  64  206.9942
  65  39.13799
  66  69.75977
  67  342.9264
  68  252.522
  69  -45.34344
  70  -77.68954
  71  52.04443
  72  74.59974
  73  75.85112
  74  168.9535
  75  238.2112
  76  139.2369
  77  153.0967
  78  217.3205
  79  190.1911
  80  131.3835
  81  202.0454
  82  170.6145
  83  16.79167
  84  29.01174
  85  175.1944
  86  237.7396
  87  298.6218
  88  234.6007
  89  74.5896
  90  66.40864
  91  -6.43389
  92  70.19984
  93  163.2347
  94  110.6098
  95  42.87933
  96  111.6896
  97  68.89175
  98  55.22546
  99  175.5753
 100  280.8282
 101  206.1243
 102  198.0771
 103  106.582
 104  153.4296
 105  15.49248
 106  43.28066
 107  141.6355
 108  127.3116
 109  58.00425
 110  131.9961
 111  211.9601
 112  301.8458
 113  229.1205
 114  195.9308
 115  215.6422
 116  148.1507
 117  158.2714
 118  240.3024
 119  205.9459
 120  203.1994
 121  223.4047
 122  362.6339
 123  278.0351
 124  175.247
 125  25.73435
 126  175.9092
 127  221.0679
 128  297.6881
 129  296.3811
 130  138.4729
 131  123.0001
 132  257.9713
 133  180.5435
 134  51.94767
 135  203.1656
 136  292.8075
 137  367.855
 138  388.9619
 139  364.9011
 140  298.4455
 141  199.1286
 142  133.783
 143  110.252
 144  124.3157
 145  294.0833
 146  159.1051
 147  62.24776
 148  224.3258
 149  208.0899
 150  229.92
 151  153.6414
 152  180.8352
 153  154.2135
 154  173.8358
 155  283.2607
 156  237.2504
 157  357.2915
 158  400.264
 159  338.8219
 160  216.6057
 161  323.8945
 162  324.5535
 163  331.178
 164  264.6179
 165  217.6958
 166  81.89986
 167  87.83159
 168  38.20366
 169  64.16356
 170  97.92461
 171  174.8842
 172  253.5945
 173  116.8968
 174  118.565
 175  127.2017
 176  72.38169
 177  289.035
 178  239.895
 179  50.63512
 180  177.6796
 181  138.2733
 182  143.2068
 183  176.5661
 184  228.3395
 185  159.9439
 186  226.5538
 187  202.9319
 188  262.4987
 189  219.0136
 190  79.47755
 191  114.4566
 192  119.5234
 193  183.2325
 194  168.5703
 195  104.3624
 196  118.5445
 197  91.97168
 198  32.89748
 199  97.64246
 200  132.9208
 201  72.1311
 202  100.6889
 203  136.1699
 204  101.4289
 205  131.4208
 206  264.0732
 207  308.9612
 208  113.4419
 209  60.74159
 210  130.712
 211  46.24967
 212  193.526
 213  249.4627
 214  169.1179
 215  140.6426
 216  71.27447
 217  122.0308
 218  190.7433
 219  351.0457
 220  238.631
 221  131.0966
 222  260.1082
 223  268.8925
 224  243.7368
 225  215.5327
 226  197.0401
 227  93.62218
 228  79.8537
 229  241.5625
 230  222.8408
 231  114.4336
 232  90.08605
 233  101.0916
 234  133.878
 235  80.15897
 236  193.3956
 237  269.1955
 238  204.5421
 239  180.8176
 240  4.155272
 241  50.56909
 242  226.3409
 243  150.8119
 244  176.5238
 245  246.4548
 246  299.6204
 247  241.1849
 248  228.488
 249  248.4765
 250  156.5045
 251  166.5113
 252  185.0326
 253  205.3284
 254  187.3593
 255  170.0279
 256  191.3183
 257  94.83324
 258  51.5577
 259  148.302
 260  24.89124
 261  176.8759
 262  129.4219
 263  99.91756
 264  66.94877
 265  95.94097
 266  267.5302
 267  195.2651
 268  236.4508
 269  142.906
 270  185.4462
 271  205.822
 272  203.4133
 273  69.39292
 274  90.73177
 275  85.48412
 276  69.5127
 277  83.72036
 278  264.0159
 279  145.0023
 280  75.54974
 281  136.884
 282  150.5798
 283  117.0309
 284  304.827
 285  337.8609
 286  139.6813
 287  126.3139
 288  215.5954
 289  150.3365
 290  96.11629
 291  62.3202
 292  134.0174
 293  151.5282
 294  303.8247
 295  250.1889
 296  189.2992
 297  232.3374
 298  204.4061
 299  236.7536
 300  159.2606
 301  71.76646
 302  114.5696
 303  176.543
 304  359.1458
 305  287.886
 306  157.6377
 307  179.3233
 308  187.6664
 309  53.41359
 310  23.92651
 311  -30.64229
 312  -7.437513
 313  84.17345
 314  36.78973
 315  8.741757
 316  22.31011
 317  31.8995
 318  42.12174
 319  132.3396
 320  194.5036
 321  91.56226
 322  196.8053
 323  218.7081
 324  143.1966
 325  130.4262
 326  52.97248
 327  55.98372
 328  253.5069
 329  246.59
 330  74.69622
 331  129.7855
 332  166.3302
 333  79.77428
 334  54.55519
 335  124.5627
 336  177.6259
 337  231.9644
 338  171.1036
 339  78.56989
 340  37.26675
 341  57.89478
 342  209.9834
 343  201.5886
 344  240.35
 345  263.8905
 346  113.1309
 347  80.0865
 348  135.897
 349  63.92327
 350  71.43182
 351  53.1828
 352  210.5571
 353  299.9442
 354  274.4515
 355  157.23
 356  162.0585
 357  234.8833
 358  178.9883
 359  135.4068
 360  87.25747
 361  119.931
 362  215.7661
 363  188.1576
 364  228.8981
 365  280.6142
 366  205.4713
 367  103.6892
 368  119.0389
 369  186.8787
 370  216.8846
 371  166.8166
 372  83.45853
 373  215.2853
 374  144.7693
 375  66.1484
 376  115.9289
 377  101.0014
 378  207.6931
 379  186.4
 380  153.3278
 381  215.4797
 382  162.7864
 383  154.7414
 384  144.0587
 385  182.4984
 386  132.9164
 387  133.0243
 388  116.1421
 389  209.6021
 390  255.0901
 391  153.204
 392  159.0355
 393  267.4119
 394  202.8794
 395  108.8903
 396  144.1085
 397  212.2233
 398  221.7624
 399  111.8692
 400  84.7864
 401  -8.314076
 402  150.341
 403  316.0479
 404  287.3181
 405  244.0409
 406  134.4104
 407  151.7046
 408  289.2301
 409  201.1936
 410  263.8117
 411  221.8826
 412  264.7888
 413  320.8592
 414  168.2411
 415  88.35609
 416  250.2963
 417  256.4694
 418  150.2352
 419  174.7029
 420  362.7786
 421  290.2902
 422  432.7939
 423  470.0814
 424  403.4485
 425  294.258
 426  234.7214
 427  221.3871
 428  187.7963
 429  152.7786
 430  188.2287
 431  232.1252
 432  163.6949
 433  118.3353
 434  24.75837
 435  136.8169
 436  152.6804
 437  118.4569
 438  88.02642
 439  108.5003
 440  238.4845
 441  257.4578
 442  274.5054
 443  380.1475
 444  295.6241
 445  210.4005
 446  245.5532
 447  136.7179
 448  108.7002
 449  207.2079
 450  237.3033
 451  264.7057
 452  116.0401
 453  315.7555
 454  395.3143
 455  251.1393
 456  106.6145
 457  65.54593
 458  94.71217
 459  101.0506
 460  289.3606
 461  348.9497
 462  302.6736
 463  325.5531
 464  417.8948
 465  370.7735
 466  290.2212
 467  273.4459
 468  286.4035
 469  171.3879
 470  155.0356
 471  233.0932
 472  252.5008
 473  222.4219
 474  153.1109
 475  193.1723
 476  173.4091
 477  245.9579
 478  297.9578
 479  198.1635
 480  284.4807
 481  220.6455
 482  58.04409
 483  210.4094
 484  333.7358
 485  294.3106
 486  314.5516
 487  306.4129
 488  174.3419
 489  171.5405
 490  168.6516
 491  167.5466
 492  226.6653
 493  245.1207
 494  287.3461
 495  281.192
 496  253.9043
 497  223.8692
 498  211.1556
 499  141.949
 500  110.9657
 501  148.9261
 502  293.1142
 503  166.2192
 504  218.0364
 505  441.5959
 506  372.7
 507  268.2461
 508  436.5913
 509  574.6846
 510  780.9604
 511  959.3694
