# Input file       =  1186971524.099253_cleaned.dat
# Candidate        =  PSR_0332+5434
# Telescope        =  AR
# Epoch_topo       =  57982.096135408021
# Epoch_bary       =  N/A
# T_sample         =  0.002
# Data Folded      =  7340032
# Data Avg         =  0.00330641743995772
# Data StdDev      =  1.00007109534035 
# Profile Bins     =  512
# Profile Avg      =  47.5873940415861 
# Profile StdDev   =  119.741548837738 
# Reduced chi-sqr  =  1.051
# Prob(Noise)      <  0.204   (~0.8 sigma)
# P_topo (ms)      =  714.464425528087  +/- 0.00016
# P'_topo (s/s)    =  -0                +/- 8.43e-11
# P''_topo (s/s^2) =  0                 +/- 3.72e-14
# P_bary (ms)      =  N/A
# P'_bary (s/s)    =  N/A
# P''_bary (s/s^2) =  N/A
# P_orb (s)        =  N/A
# asin(i)/c (s)    =  N/A
# eccentricity     =  N/A
# w (rad)          =  N/A
# T_peri           =  N/A
######################################################
   0  587.6321
   1  464.8323
   2  231.3006
   3  117.4647
   4  17.27867
   5  -16.68057
   6  35.19075
   7  26.44017
   8  40.81246
   9  64.99058
  10  118.4691
  11  76.4301
  12  102.4147
  13  105.1722
  14  93.71326
  15  17.50832
  16  1.799571
  17  -55.98488
  18  -83.39762
  19  -44.94219
  20  16.41365
  21  80.44342
  22  142.0891
  23  22.96001
  24  -142.4577
  25  -26.77098
  26  -21.00378
  27  -18.13643
  28  -7.851497
  29  -32.32594
  30  29.43009
  31  -20.51352
  32  -13.14528
  33  -26.75593
  34  162.5528
  35  131.509
  36  -35.34886
  37  62.34354
  38  -19.71077
  39  -8.310724
  40  29.20471
  41  69.86201
  42  103.9212
  43  128.1158
  44  155.9317
  45  11.82706
  46  -49.72382
  47  -119.0758
  48  -55.00603
  49  121.0568
  50  24.1621
  51  7.42121
  52  -27.18369
  53  46.61081
  54  158.4516
  55  67.89528
  56  -101.017
  57  -37.75095
  58  -207.0812
  59  -91.75397
  60  -7.365831
  61  -40.23592
  62  -31.87501
  63  -56.92289
  64  128.1664
  65  176.0916
  66  -15.47379
  67  -104.7769
  68  -4.309836
  69  -12.11058
  70  101.8746
  71  77.17546
  72  165.5311
  73  56.90406
  74  -72.66286
  75  104.8466
  76  40.23261
  77  -64.85689
  78  -62.8741
  79  -65.40065
  80  13.50663
  81  -175.908
  82  -37.17893
  83  -4.670481
  84  -111.5273
  85  -56.14691
  86  94.08896
  87  127.7653
  88  71.76501
  89  75.90301
  90  28.15831
  91  -34.76952
  92  -3.359678
  93  -1.275064
  94  23.37322
  95  59.67392
  96  26.89044
  97  -42.43922
  98  112.8824
  99  111.4254
 100  46.10806
 101  -3.399945
 102  30.57717
 103  97.58656
 104  50.34897
 105  10.40475
 106  -8.314168
 107  117.8063
 108  79.55888
 109  95.64176
 110  80.42136
 111  113.541
 112  21.49664
 113  -10.51573
 114  48.04918
 115  43.36593
 116  52.34675
 117  91.97431
 118  86.91928
 119  1.023271
 120  -60.93024
 121  17.3702
 122  -125.899
 123  -79.28797
 124  -93.05251
 125  8.625521
 126  81.26906
 127  71.2757
 128  180.9578
 129  133.246
 130  -1.451927
 131  -6.54842
 132  -96.2619
 133  -82.22536
 134  -38.09883
 135  -1.677535
 136  75.70173
 137  67.38445
 138  30.98667
 139  27.87207
 140  134.0404
 141  50.2141
 142  -26.92831
 143  -47.2637
 144  110.3634
 145  9.877862
 146  -91.28242
 147  40.4465
 148  99.94083
 149  89.54216
 150  165.2181
 151  128.8969
 152  -36.99345
 153  -15.21855
 154  35.24681
 155  106.8865
 156  -93.65168
 157  -22.24299
 158  86.08003
 159  150.6324
 160  115.5216
 161  150.2336
 162  10.75904
 163  14.17856
 164  103.0287
 165  179.8921
 166  151.8816
 167  168.6514
 168  71.61365
 169  12.82698
 170  -4.110508
 171  26.45941
 172  -90.89268
 173  -94.64443
 174  104.7688
 175  65.00581
 176  183.2671
 177  141.216
 178  43.96019
 179  22.14649
 180  30.72747
 181  56.28731
 182  59.96854
 183  -37.97427
 184  -7.893101
 185  -7.080026
 186  -5.753108
 187  13.45696
 188  -7.399872
 189  28.05918
 190  23.74102
 191  60.61008
 192  36.38276
 193  57.39273
 194  157.5546
 195  119.3028
 196  94.21249
 197  2.575144
 198  76.42023
 199  0.4621508
 200  75.92734
 201  72.04443
 202  58.01134
 203  21.25922
 204  -54.83572
 205  166.4879
 206  129.0842
 207  62.54748
 208  192.6712
 209  97.58612
 210  74.47003
 211  37.31841
 212  -22.70142
 213  49.95559
 214  47.89988
 215  94.5272
 216  131.6324
 217  -13.03051
 218  114.5321
 219  76.14663
 220  66.03741
 221  21.77092
 222  122.5502
 223  153.1058
 224  95.42488
 225  75.81886
 226  48.70833
 227  62.758
 228  81.71255
 229  59.65596
 230  112.7251
 231  1.73588
 232  -28.50309
 233  68.58823
 234  143.0866
 235  -36.28255
 236  -72.0568
 237  -6.633192
 238  111.5142
 239  83.22903
 240  125.6873
 241  125.1554
 242  47.26009
 243  67.12887
 244  187.446
 245  100.0012
 246  8.620688
 247  -128.3762
 248  -83.08588
 249  29.37398
 250  -30.32453
 251  -85.83382
 252  -134.2719
 253  -40.34917
 254  9.981724
 255  109.5943
 256  3.599848
 257  5.214771
 258  46.4455
 259  -23.45721
 260  34.97243
 261  135.105
 262  103.0994
 263  137.4903
 264  159.3399
 265  -3.126779
 266  -71.18442
 267  119.6179
 268  75.45226
 269  118.5029
 270  75.28361
 271  77.39918
 272  65.58169
 273  26.92635
 274  78.4549
 275  145.8423
 276  260.7732
 277  207.2621
 278  51.4775
 279  43.7722
 280  140.5011
 281  98.56623
 282  74.35925
 283  -1.682459
 284  3.837164
 285  -43.91882
 286  10.88224
 287  48.28027
 288  67.93047
 289  5.261353
 290  114.9771
 291  121.7837
 292  23.68545
 293  2.698545
 294  -6.52534
 295  39.80112
 296  92.45776
 297  144.7455
 298  79.96596
 299  -12.55853
 300  76.02798
 301  49.79744
 302  -40.12796
 303  95.10571
 304  -29.30888
 305  -11.49791
 306  9.402833
 307  -64.41807
 308  66.02898
 309  61.15902
 310  39.96372
 311  146.2913
 312  156.7038
 313  87.92642
 314  9.310611
 315  22.30176
 316  60.15016
 317  -53.56187
 318  -86.40296
 319  -41.30171
 320  -113.0361
 321  -47.70542
 322  -14.72877
 323  -27.60046
 324  146.2729
 325  308.1898
 326  351.4073
 327  106.0247
 328  6.888085
 329  -102.9268
 330  -110.0266
 331  62.33412
 332  -20.03777
 333  -97.30067
 334  36.66715
 335  -17.90255
 336  -3.053299
 337  62.91263
 338  -49.54623
 339  19.07945
 340  120.5591
 341  133.928
 342  40.04754
 343  -4.899578
 344  15.54997
 345  57.83764
 346  43.06059
 347  67.09923
 348  29.01456
 349  160.6849
 350  218.7925
 351  117.8347
 352  27.06716
 353  -15.76551
 354  75.99142
 355  180.849
 356  54.75283
 357  52.83513
 358  78.75371
 359  132.2831
 360  12.69116
 361  66.25135
 362  198.9644
 363  69.20139
 364  -1.751858
 365  112.5494
 366  160.0372
 367  120.6373
 368  -13.15003
 369  33.9436
 370  95.95824
 371  150.3158
 372  25.8401
 373  -55.68081
 374  -5.963539
 375  11.56067
 376  72.22548
 377  34.83553
 378  79.95978
 379  86.45047
 380  29.77995
 381  -31.94626
 382  59.53558
 383  -68.58939
 384  -45.5117
 385  -18.04478
 386  22.7142
 387  81.91634
 388  -11.88237
 389  -44.62931
 390  140.6735
 391  136.9958
 392  36.07358
 393  28.82125
 394  54.02473
 395  -45.11498
 396  68.59238
 397  152.9016
 398  113.5656
 399  -55.18159
 400  1.778446
 401  78.73329
 402  -33.12281
 403  43.36285
 404  49.10862
 405  119.3517
 406  110.1609
 407  13.12935
 408  -15.97122
 409  83.50957
 410  87.64716
 411  86.16457
 412  145.6814
 413  56.36794
 414  -73.1329
 415  -98.99706
 416  48.54406
 417  -13.40961
 418  -98.29184
 419  92.41695
 420  153.5052
 421  51.44101
 422  -18.68036
 423  78.92203
 424  -45.52206
 425  -60.55654
 426  2.912731
 427  -78.83552
 428  -46.47013
 429  -12.2124
 430  -6.549573
 431  187.217
 432  194.247
 433  80.84409
 434  60.86784
 435  103.9205
 436  -13.6623
 437  -57.27033
 438  -25.45897
 439  126.8633
 440  -87.25295
 441  -30.15684
 442  44.60849
 443  62.29979
 444  108.0304
 445  141.0988
 446  69.95719
 447  15.40876
 448  23.6311
 449  -89.51632
 450  -45.54529
 451  8.173439
 452  112.8306
 453  -62.74871
 454  -3.737972
 455  -15.85356
 456  3.111907
 457  125.2336
 458  261.6816
 459  100.3687
 460  62.30222
 461  -11.96083
 462  12.60662
 463  100.4861
 464  98.25316
 465  103.5696
 466  115.8022
 467  83.99731
 468  -119.8117
 469  65.41096
 470  100.6969
 471  5.851602
 472  102.6497
 473  156.5842
 474  -32.06644
 475  -12.27322
 476  -2.365482
 477  60.32671
 478  52.94453
 479  -53.30737
 480  -70.38542
 481  28.61007
 482  51.30721
 483  78.76944
 484  140.2464
 485  132.3454
 486  17.09538
 487  2.526773
 488  176.4384
 489  84.42763
 490  69.9543
 491  184.7857
 492  166.1109
 493  37.53382
 494  46.19247
 495  88.30858
 496  50.76756
 497  70.37037
 498  65.84376
 499  1.961666
 500  14.07558
 501  -13.14169
 502  69.44942
 503  153.2995
 504  276.32
 505  250.6042
 506  242.2924
 507  93.29444
 508  164.9589
 509  329.229
 510  454.9501
 511  500.9873
