# Input file       =  1186038713.111496_cleaned.dat
# Candidate        =  PSR_0332+5434
# Telescope        =  AR
# Epoch_topo       =  57971.299711938613
# Epoch_bary       =  N/A
# T_sample         =  0.002
# Data Folded      =  7340032
# Data Avg         =  0.00628752600236561
# Data StdDev      =  1.00003141551158 
# Profile Bins     =  512
# Profile Avg      =  90.0927605912004 
# Profile StdDev   =  119.736797851357 
# Reduced chi-sqr  =  1.248
# Prob(Noise)      <  0.000111   (~3.7 sigma)
# P_topo (ms)      =  714.467743952767  +/- 0.00012
# P'_topo (s/s)    =  -0                +/- 6.31e-11
# P''_topo (s/s^2) =  0                 +/- 2.78e-14
# P_bary (ms)      =  N/A
# P'_bary (s/s)    =  N/A
# P''_bary (s/s^2) =  N/A
# P_orb (s)        =  N/A
# asin(i)/c (s)    =  N/A
# eccentricity     =  N/A
# w (rad)          =  N/A
# T_peri           =  N/A
######################################################
   0  768.4442
   1  662.8356
   2  377.8004
   3  271.2986
   4  292.1888
   5  117.8119
   6  68.52463
   7  109.0521
   8  185.7866
   9  224.9928
  10  95.73392
  11  -48.15812
  12  58.32041
  13  211.855
  14  109.988
  15  157.1265
  16  179.7216
  17  162.6108
  18  119.2484
  19  194.9754
  20  97.89188
  21  61.25871
  22  64.0816
  23  88.72186
  24  120.0571
  25  136.5624
  26  -47.83221
  27  48.3568
  28  74.8955
  29  58.36254
  30  -85.60537
  31  42.48967
  32  71.01213
  33  101.5714
  34  21.84463
  35  -40.49695
  36  27.84081
  37  3.583896
  38  -88.99244
  39  134.7169
  40  162.9058
  41  144.5508
  42  -61.84132
  43  -44.88069
  44  46.93822
  45  55.42767
  46  182.7246
  47  99.36999
  48  -29.03936
  49  -108.9669
  50  -90.14453
  51  -66.48965
  52  44.23205
  53  16.65256
  54  -2.742731
  55  126.2106
  56  49.79687
  57  -95.36149
  58  -92.33761
  59  -21.01568
  60  55.83667
  61  -28.58629
  62  -93.00604
  63  65.26177
  64  -13.64903
  65  -80.38821
  66  -104.1798
  67  -126.3689
  68  27.439
  69  146.4702
  70  61.88969
  71  33.17942
  72  116.6112
  73  144.4018
  74  84.69037
  75  27.9161
  76  -7.388302
  77  64.1151
  78  8.161571
  79  -19.46587
  80  152.5957
  81  215.8623
  82  104.217
  83  122.753
  84  152.3926
  85  176.6843
  86  59.46397
  87  108.8572
  88  170
  89  99.24105
  90  42.2239
  91  38.98342
  92  76.78651
  93  57.92377
  94  58.39575
  95  40.76781
  96  145.8076
  97  115.494
  98  41.14851
  99  16.83615
 100  -98.59176
 101  41.07618
 102  7.67608
 103  10.43336
 104  43.9541
 105  129.2169
 106  165.2615
 107  198.866
 108  107.5102
 109  134.9318
 110  67.7016
 111  163.6765
 112  8.669352
 113  -73.58988
 114  35.81844
 115  157.6734
 116  100.3706
 117  84.99048
 118  69.33681
 119  133.2202
 120  135.9798
 121  26.6581
 122  -7.820892
 123  21.07027
 124  71.36439
 125  17.56416
 126  148.1286
 127  125.239
 128  -21.66238
 129  44.84275
 130  79.59683
 131  44.45812
 132  52.09867
 133  61.84486
 134  142.2674
 135  255.5222
 136  121.9375
 137  134.3644
 138  166.6351
 139  44.95322
 140  151.8376
 141  110.2763
 142  -75.96061
 143  79.68504
 144  114.3566
 145  159.4637
 146  169.6302
 147  68.47938
 148  118.4436
 149  46.27773
 150  79.90852
 151  111.9823
 152  3.883035
 153  -0.4558913
 154  44.13377
 155  31.87961
 156  -8.894457
 157  -19.01988
 158  -10.50678
 159  130.8859
 160  135.2674
 161  173.3873
 162  105.4643
 163  30.73086
 164  153.5125
 165  43.57707
 166  80.2638
 167  5.975206
 168  223.1063
 169  176.8384
 170  -38.99795
 171  -132.8918
 172  -29.05587
 173  149.1865
 174  91.67556
 175  34.29421
 176  -6.158834
 177  13.13796
 178  34.00449
 179  -7.051434
 180  39.69183
 181  37.02594
 182  98.74105
 183  54.68573
 184  61.36674
 185  41.84844
 186  77.62159
 187  -33.44148
 188  30.04902
 189  66.52392
 190  173.3497
 191  99.43846
 192  31.05185
 193  -58.42993
 194  63.1064
 195  38.51591
 196  -32.08636
 197  73.91196
 198  19.61644
 199  180.4086
 200  229.4411
 201  84.10851
 202  153.7129
 203  48.57485
 204  32.82457
 205  74.79167
 206  85.30234
 207  0.7672639
 208  41.66121
 209  141.4438
 210  118.603
 211  -24.33895
 212  -13.34959
 213  35.32872
 214  167.9267
 215  122.5413
 216  110.2784
 217  -7.682396
 218  -11.27257
 219  150.2735
 220  228.3092
 221  133.6607
 222  13.46568
 223  17.98384
 224  -60.78926
 225  -82.68548
 226  24.27491
 227  144.5647
 228  60.16873
 229  83.62062
 230  156.4481
 231  130.9368
 232  75.5588
 233  98.9898
 234  11.15417
 235  100.9566
 236  165.6832
 237  135.5475
 238  24.98371
 239  82.83787
 240  60.60091
 241  113.5738
 242  184.1402
 243  144.8831
 244  186.1243
 245  71.50288
 246  35.37255
 247  100.9769
 248  133.9513
 249  22.89314
 250  42.41654
 251  34.90096
 252  54.57413
 253  141.8221
 254  75.99923
 255  49.45814
 256  43.90244
 257  158.3721
 258  62.61784
 259  -40.48531
 260  -35.7273
 261  -2.298087
 262  85.98359
 263  57.95127
 264  37.81794
 265  -46.66533
 266  72.59721
 267  21.05936
 268  124.3036
 269  133.5128
 270  80.7326
 271  98.11745
 272  29.78408
 273  142.7435
 274  109.5367
 275  112.614
 276  110.582
 277  75.30533
 278  61.84033
 279  -4.595974
 280  39.58116
 281  38.11949
 282  100.7731
 283  42.20363
 284  99.12476
 285  143.3759
 286  127.0823
 287  42.53847
 288  17.88453
 289  124.1566
 290  217.9214
 291  169.8767
 292  128.2931
 293  147.5389
 294  259.407
 295  182.8322
 296  12.20041
 297  74.42178
 298  100.2121
 299  20.30128
 300  59.93587
 301  152.99
 302  182.8453
 303  125.0145
 304  81.21394
 305  8.585743
 306  50.96611
 307  132.9749
 308  168.2672
 309  145.3007
 310  37.08694
 311  200.4103
 312  142.6904
 313  171.6654
 314  198.6667
 315  159.6761
 316  91.35456
 317  94.33977
 318  123.3787
 319  59.92331
 320  -23.94745
 321  36.99477
 322  128.171
 323  26.60743
 324  150.1226
 325  74.27099
 326  78.09632
 327  83.31641
 328  148.526
 329  142.6071
 330  32.94691
 331  88.20425
 332  150.3874
 333  76.45122
 334  34.51669
 335  -36.5906
 336  38.56658
 337  90.29956
 338  96.27646
 339  90.69116
 340  58.3816
 341  237.4822
 342  83.471
 343  62.71357
 344  69.48319
 345  7.154429
 346  47.24597
 347  210.2131
 348  292.3242
 349  171.9828
 350  66.07111
 351  112.375
 352  232.2753
 353  95.48376
 354  -35.64077
 355  -64.25191
 356  68.41054
 357  244.8477
 358  188.8629
 359  190.9347
 360  123.7278
 361  201.3083
 362  289.5914
 363  124.7488
 364  206.7193
 365  270.5188
 366  175.7403
 367  88.90517
 368  112.8784
 369  208.1199
 370  145.9372
 371  141.1772
 372  147.8088
 373  184.9691
 374  146.0336
 375  102.793
 376  76.56016
 377  132.1475
 378  285.5481
 379  256.2629
 380  235.8031
 381  276.9336
 382  216.1084
 383  84.08559
 384  109.7912
 385  -61.34132
 386  10.76054
 387  197.7882
 388  107.9513
 389  75.5694
 390  105.6603
 391  151.6629
 392  -86.42385
 393  35.25644
 394  183.6504
 395  174.2896
 396  185.8125
 397  100.358
 398  52.11834
 399  62.44733
 400  151.2147
 401  177.9418
 402  149.7982
 403  134.2258
 404  159.4118
 405  172.4163
 406  120.8902
 407  156.9304
 408  149.0787
 409  133.5227
 410  200.4238
 411  215.481
 412  201.5515
 413  -0.08835537
 414  -7.436725
 415  189.3547
 416  276.0275
 417  179.8145
 418  114.704
 419  -58.4975
 420  22.35317
 421  146.0065
 422  96.36501
 423  125.6766
 424  76.13817
 425  75.72127
 426  100.7768
 427  72.16143
 428  55.50087
 429  9.261732
 430  33.18495
 431  122.4442
 432  163.9433
 433  225.3436
 434  168.2785
 435  31.84959
 436  78.16872
 437  134.494
 438  166.4094
 439  150.7358
 440  33.11964
 441  62.00858
 442  120.0065
 443  159.9685
 444  90.07779
 445  162.6793
 446  166.9659
 447  143.0971
 448  180.1311
 449  59.53913
 450  -76.84552
 451  -36.70945
 452  -61.92793
 453  -15.665
 454  113.117
 455  109.0188
 456  -21.30019
 457  -62.64444
 458  89.13598
 459  -13.92891
 460  48.00969
 461  88.46533
 462  126.639
 463  127.4283
 464  46.31497
 465  1.963237
 466  -53.58878
 467  -7.915949
 468  89.15497
 469  5.3068
 470  -40.06878
 471  3.635667
 472  -58.03193
 473  38.1328
 474  -17.54816
 475  -68.2311
 476  35.61189
 477  48.98536
 478  156.0006
 479  110.6888
 480  174.1758
 481  170.6852
 482  41.31694
 483  160.7374
 484  180.4978
 485  187.0049
 486  207.223
 487  112.4943
 488  20.04239
 489  -17.8757
 490  123.7557
 491  214.9854
 492  88.4481
 493  10.60387
 494  52.58908
 495  150.0331
 496  203.7166
 497  95.92543
 498  127.4836
 499  111.2582
 500  9.082448
 501  95.23
 502  59.08417
 503  23.58648
 504  111.1431
 505  194.7453
 506  150.7456
 507  -14.28759
 508  37.8567
 509  412.8788
 510  580.3646
 511  664.3102
