# Input file       =  1186540742.11421_cleaned.dat
# Candidate        =  PSR_0332+5434
# Telescope        =  AR
# Epoch_topo       =  57977.110232803352
# Epoch_bary       =  N/A
# T_sample         =  0.002
# Data Folded      =  7340032
# Data Avg         =  0.0120218364050566
# Data StdDev      =  1.00003661440125 
# Profile Bins     =  512
# Profile Avg      =  172.409789249689 
# Profile StdDev   =  119.737420330202 
# Reduced chi-sqr  =  2.257
# Prob(Noise)      <  1.49e-51   (~15.1 sigma)
# P_topo (ms)      =  714.465589650308  +/- 0.000229
# P'_topo (s/s)    =  -0                +/- 1.21e-10
# P''_topo (s/s^2) =  0                 +/- 5.34e-14
# P_bary (ms)      =  N/A
# P'_bary (s/s)    =  N/A
# P''_bary (s/s^2) =  N/A
# P_orb (s)        =  N/A
# asin(i)/c (s)    =  N/A
# eccentricity     =  N/A
# w (rad)          =  N/A
# T_peri           =  N/A
######################################################
   0  974.2534
   1  967.7534
   2  615.6227
   3  413.4283
   4  214.031
   5  388.5406
   6  328.4924
   7  210.4001
   8  69.27121
   9  61.29696
  10  139.7562
  11  229.6916
  12  330.5287
  13  294.6784
  14  233.8839
  15  254.463
  16  324.472
  17  311.2345
  18  248.2724
  19  331.1551
  20  388.869
  21  167.2608
  22  73.60116
  23  108.0888
  24  224.7836
  25  180.1677
  26  405.4258
  27  355.7133
  28  272.2391
  29  186.0625
  30  192.623
  31  272.4883
  32  410.216
  33  314.5404
  34  155.3754
  35  231.9542
  36  330.1614
  37  366.3672
  38  271.0276
  39  245.7057
  40  290.5109
  41  189.2878
  42  183.9059
  43  170.0097
  44  287.5011
  45  317.3296
  46  428.3225
  47  244.0508
  48  134.0907
  49  92.02988
  50  121.7667
  51  176.2213
  52  350.0914
  53  332.9427
  54  208.6702
  55  178.8932
  56  274.7699
  57  218.5073
  58  125.5928
  59  310.5754
  60  333.9059
  61  284.0147
  62  208.6461
  63  228.5312
  64  146.9628
  65  256.6153
  66  274.976
  67  180.2134
  68  218.8444
  69  311.5894
  70  284.6699
  71  278.0579
  72  142.7543
  73  89.17155
  74  161.2396
  75  200.2584
  76  190.6474
  77  256.7014
  78  253.5919
  79  220.5666
  80  273.2545
  81  158.6157
  82  233.4821
  83  239.0711
  84  255.6854
  85  316.6949
  86  228.6011
  87  195.1035
  88  168.9704
  89  285.8033
  90  262.84
  91  174.9821
  92  216.2864
  93  219.9937
  94  167.7321
  95  301.5125
  96  354.1532
  97  238.4674
  98  318.6472
  99  442.9044
 100  333.8104
 101  224.0942
 102  209.8073
 103  268.265
 104  163.0277
 105  201.3232
 106  210.8575
 107  78.46381
 108  70.11175
 109  221.6707
 110  330.8418
 111  357.6993
 112  303.7522
 113  308.7661
 114  351.2142
 115  325.799
 116  365.5331
 117  324.1529
 118  192.543
 119  168.2917
 120  250.7657
 121  267.9236
 122  217.6946
 123  238.5498
 124  332.41
 125  198.3007
 126  176.0339
 127  202.5684
 128  140.2018
 129  109.5846
 130  -12.51091
 131  104.4271
 132  170.7734
 133  207.1078
 134  173.6367
 135  308.3904
 136  199.1929
 137  181.4614
 138  144.6476
 139  249.9859
 140  173.1763
 141  114.3088
 142  185.3311
 143  176.3265
 144  95.8301
 145  231.5771
 146  224.4171
 147  62.91643
 148  84.57312
 149  184.5718
 150  242.2913
 151  173.9205
 152  192.7113
 153  62.6729
 154  73.17126
 155  132.1217
 156  100.6286
 157  92.72578
 158  99.34277
 159  -21.64942
 160  2.604698
 161  62.193
 162  95.30767
 163  104.2787
 164  84.60435
 165  117.6294
 166  145.2208
 167  121.7073
 168  141.6983
 169  36.97782
 170  38.62895
 171  138.973
 172  120.0997
 173  94.84382
 174  43.68389
 175  54.39322
 176  -2.867407
 177  108.607
 178  199.9028
 179  98.99577
 180  -24.71196
 181  17.80569
 182  228.1799
 183  224.3443
 184  199.0478
 185  123.2402
 186  -3.077775
 187  -31.3431
 188  47.96377
 189  109.3435
 190  189.4951
 191  197.4993
 192  64.9708
 193  -5.165355
 194  -30.08928
 195  111.0792
 196  68.30766
 197  145.8737
 198  139.4787
 199  146.8455
 200  42.42546
 201  25.59599
 202  -29.81433
 203  -45.80782
 204  27.81008
 205  82.1668
 206  -35.70213
 207  72.93274
 208  -39.83105
 209  43.38777
 210  39.17777
 211  13.80938
 212  -12.17833
 213  34.51888
 214  127.7917
 215  -36.16337
 216  63.36195
 217  3.309758
 218  -134.7857
 219  74.09146
 220  107.9101
 221  -53.31589
 222  4.287002
 223  27.45487
 224  36.15284
 225  26.59396
 226  72.36633
 227  -37.26885
 228  -80.65652
 229  26.01417
 230  -126.2303
 231  -118.1055
 232  201.0105
 233  151.1232
 234  86.81408
 235  49.16513
 236  123.0105
 237  -32.62463
 238  23.89037
 239  122.1653
 240  51.99417
 241  142.8193
 242  80.57495
 243  125.342
 244  85.04435
 245  134.9426
 246  -56.08567
 247  65.28716
 248  45.25734
 249  75.16646
 250  199.6803
 251  165.8727
 252  295.4295
 253  370.3289
 254  321.3417
 255  169.8649
 256  166.1426
 257  90.91895
 258  -50.65284
 259  124.2252
 260  192.2612
 261  100.6097
 262  81.15296
 263  126.3321
 264  180.4203
 265  133.0572
 266  163.601
 267  211.0494
 268  210.7748
 269  86.36683
 270  117.5899
 271  81.03251
 272  41.01838
 273  5.985431
 274  -60.42695
 275  43.11119
 276  82.98106
 277  100.3467
 278  192.9056
 279  136.7144
 280  115.8487
 281  161.2012
 282  68.23263
 283  133.9801
 284  92.6503
 285  20.68755
 286  23.12544
 287  75.09073
 288  144.7308
 289  110.9658
 290  12.43286
 291  46.25863
 292  248.8179
 293  191.7241
 294  143.1785
 295  104.2624
 296  57.16138
 297  73.41096
 298  152.8009
 299  1.147687
 300  -52.97432
 301  88.48219
 302  127.3908
 303  235.6387
 304  87.64133
 305  116.5033
 306  144.6823
 307  18.11401
 308  35.52674
 309  187.1164
 310  242.1455
 311  164.2222
 312  -13.20558
 313  105.5341
 314  104.8508
 315  189.1848
 316  165.1043
 317  172.1078
 318  187.4359
 319  110.1525
 320  96.44418
 321  67.93005
 322  189.8917
 323  226.1861
 324  85.51569
 325  52.20081
 326  165.7647
 327  107.4368
 328  177.8728
 329  188.8829
 330  195.8233
 331  193.7356
 332  172.9678
 333  138.5584
 334  102.1039
 335  18.44178
 336  150.133
 337  82.96053
 338  -47.49327
 339  -3.197131
 340  -19.59288
 341  138.5473
 342  208.0949
 343  234.7747
 344  205.5217
 345  169.362
 346  131.7835
 347  147.8794
 348  97.07893
 349  165.9224
 350  190.414
 351  234.818
 352  11.12315
 353  27.18258
 354  143.7313
 355  148.0067
 356  239.469
 357  183.9048
 358  96.28272
 359  44.49602
 360  216.9339
 361  217.6272
 362  113.2004
 363  148.7769
 364  36.69452
 365  50.67349
 366  78.80953
 367  21.73327
 368  28.06176
 369  45.95447
 370  215.7053
 371  210.2163
 372  119.9175
 373  45.81631
 374  47.03648
 375  35.11676
 376  73.86768
 377  66.5106
 378  179.6821
 379  244.3944
 380  234.5936
 381  194.9458
 382  160.2815
 383  89.79445
 384  75.95469
 385  56.58433
 386  150.2577
 387  300.8667
 388  351.0166
 389  279.2316
 390  172.5626
 391  76.58495
 392  197.2127
 393  260.9149
 394  211.1198
 395  279.4029
 396  197.4475
 397  264.2711
 398  361.6002
 399  324.4218
 400  138.0955
 401  244.9024
 402  406.2757
 403  278.4031
 404  140.9234
 405  100.3614
 406  205.9667
 407  34.4832
 408  235.084
 409  139.2324
 410  176.8758
 411  361.6456
 412  271.1314
 413  190.008
 414  166.8484
 415  233.6306
 416  320.8343
 417  263.4621
 418  207.0906
 419  162.3872
 420  269.6828
 421  252.8849
 422  174.9861
 423  253.6653
 424  273.2517
 425  148.8862
 426  171.4219
 427  168.2457
 428  157.7571
 429  194.9368
 430  265.1585
 431  362.5046
 432  209.1889
 433  113.9486
 434  140.2795
 435  179.8627
 436  211.7178
 437  221.0242
 438  203.6447
 439  124.9359
 440  156.1233
 441  297.0491
 442  224.2592
 443  48.33456
 444  55.12927
 445  55.79173
 446  14.53019
 447  47.10667
 448  147.1428
 449  206.0482
 450  56.52813
 451  299.3865
 452  245.3101
 453  54.55739
 454  106.4903
 455  85.26943
 456  55.41088
 457  102.2453
 458  100.5179
 459  89.37142
 460  204.2826
 461  83.69633
 462  66.74284
 463  97.05266
 464  211.1313
 465  148.4003
 466  189.2325
 467  149.0619
 468  128.44
 469  264.2853
 470  285.906
 471  136.2925
 472  1.71571
 473  161.9484
 474  133.9879
 475  28.22356
 476  287.6245
 477  247.2024
 478  221.8625
 479  104.4943
 480  70.58366
 481  220.178
 482  180.3409
 483  230.1711
 484  249.63
 485  274.0866
 486  177.9118
 487  256.6382
 488  260.6796
 489  270.309
 490  296.5499
 491  347.6068
 492  239.6115
 493  339.3792
 494  320.9785
 495  356.7441
 496  318.4651
 497  229.0927
 498  319.4237
 499  310.4794
 500  133.1644
 501  316.6357
 502  390.2736
 503  420.6553
 504  226.7415
 505  342.9561
 506  460.1572
 507  475.6588
 508  479.8228
 509  693.9693
 510  846.2937
 511  916.0325
