# Input file       =  1186038713.111496_cleaned.dat
# Candidate        =  PSR_0332+5434
# Telescope        =  AR
# Epoch_topo       =  57971.299711938613
# Epoch_bary       =  N/A
# T_sample         =  0.002
# Data Folded      =  7340032
# Data Avg         =  0.00628752600236561
# Data StdDev      =  1.00003141551158 
# Profile Bins     =  512
# Profile Avg      =  90.0927539858668 
# Profile StdDev   =  119.736797851357 
# Reduced chi-sqr  =  1.247
# Prob(Noise)      <  0.000113   (~3.7 sigma)
# P_topo (ms)      =  714.46774510249   +/- 0.00012
# P'_topo (s/s)    =  -0                +/- 6.32e-11
# P''_topo (s/s^2) =  0                 +/- 2.79e-14
# P_bary (ms)      =  N/A
# P'_bary (s/s)    =  N/A
# P''_bary (s/s^2) =  N/A
# P_orb (s)        =  N/A
# asin(i)/c (s)    =  N/A
# eccentricity     =  N/A
# w (rad)          =  N/A
# T_peri           =  N/A
######################################################
   0  77.08552
   1  35.0658
   2  -36.03048
   3  37.19721
   4  89.93502
   5  96.67098
   6  91.51005
   7  57.01662
   8  236.995
   9  85.2434
  10  62.06649
  11  68.90528
  12  8.068324
  13  46.17672
  14  209.0278
  15  291.6862
  16  174.036
  17  65.92186
  18  112.2021
  19  231.6278
  20  97.73206
  21  -36.26038
  22  -64.02853
  23  66.78961
  24  244.6918
  25  189.1658
  26  190.8136
  27  123.5779
  28  200.0742
  29  290.0172
  30  126.4255
  31  203.5367
  32  271.4784
  33  176.6284
  34  90.92805
  35  111.6763
  36  207.1044
  37  146.6309
  38  141.5341
  39  146.5923
  40  186.0962
  41  146.1818
  42  103.2847
  43  76.688
  44  130.6842
  45  284.7516
  46  256.317
  47  236.0032
  48  277.1475
  49  217.1815
  50  84.65164
  51  109.6256
  52  -59.33242
  53  7.942525
  54  197.7269
  55  109.8311
  56  75.0267
  57  105.2526
  58  151.6056
  59  -85.23498
  60  32.43068
  61  184.7476
  62  173.9084
  63  186.994
  64  101.0483
  65  51.62772
  66  62.24966
  67  149.9605
  68  177.4398
  69  150.9801
  70  135.3128
  71  158.568
  72  171.6767
  73  120.75
  74  157.2124
  75  149.3963
  76  133.5628
  77  199.5999
  78  215.0144
  79  203.3247
  80  1.227878
  81  -8.936966
  82  188.3539
  83  276.4978
  84  180.2616
  85  115.9323
  86  -56.99195
  87  18.88719
  88  146.3697
  89  96.95316
  90  124.6987
  91  76.23072
  92  75.9557
  93  101.3358
  94  72.29403
  95  56.46334
  96  9.087745
  97  31.23378
  98  121.2773
  99  164.1951
 100  226.2131
 101  168.804
 102  33.19276
 103  77.03341
 104  134.6455
 105  165.2513
 106  152.5396
 107  33.80539
 108  61.06199
 109  119.1212
 110  159.8067
 111  90.58544
 112  161.9443
 113  168.2343
 114  142.2086
 115  181.1556
 116  60.27491
 117  -75.10778
 118  -37.74105
 119  -61.69402
 120  -17.63353
 121  113.2959
 122  109.2558
 123  -19.21305
 124  -64.20025
 125  89.41325
 126  -14.45214
 127  47.12389
 128  88.60345
 129  127.432
 130  126.7397
 131  47.23662
 132  1.304134
 133  -53.34613
 134  -9.006575
 135  89.28256
 136  6.903809
 137  -40.32987
 138  5.101277
 139  -59.04462
 140  36.89273
 141  -17.1337
 142  -68.38638
 143  36.26986
 144  48.93964
 145  154.6655
 146  110.7416
 147  173.8665
 148  171.2602
 149  41.51746
 150  160.5303
 151  180.4258
 152  185.6702
 153  208.2544
 154  112.5106
 155  20.7493
 156  -17.52284
 157  122.6039
 158  215.8346
 159  88.63081
 160  11.21769
 161  51.91578
 162  149.5348
 163  203.8729
 164  96.8367
 165  125.4109
 166  113.6415
 167  8.214732
 168  94.61273
 169  59.26622
 170  23.22877
 171  110.7754
 172  193.9809
 173  151.7773
 174  -11.78926
 175  34.12442
 176  409.7181
 177  580.3162
 178  663.6232
 179  767.3146
 180  665.2127
 181  380.0781
 182  270.8583
 183  293.6609
 184  119.441
 185  68.03136
 186  108.2491
 187  185.7762
 188  225.5576
 189  97.21741
 190  -48.54716
 191  57.16361
 192  210.1458
 193  111.1978
 194  157.5021
 195  179.9702
 196  162.1684
 197  119.0905
 198  195.0266
 199  97.70233
 200  61.67724
 201  63.23286
 202  89.18271
 203  120.2034
 204  137.9854
 205  -48.62668
 206  48.68234
 207  73.61015
 208  60.69438
 209  -85.80516
 210  42.02974
 211  70.58214
 212  101.1067
 213  22.48861
 214  -39.57023
 215  25.75171
 216  6.309587
 217  -90.15728
 218  134.2009
 219  162.3935
 220  145.4093
 221  -60.4594
 222  -46.94498
 223  46.97055
 224  55.595
 225  181.6699
 226  100.609
 227  -28.98668
 228  -107.7595
 229  -90.27393
 230  -66.82462
 231  43.4614
 232  17.37736
 233  -3.182924
 234  124.9292
 235  52.17717
 236  -94.33281
 237  -92.74083
 238  -22.8408
 239  55.53594
 240  -27.47656
 241  -94.30436
 242  65.0483
 243  -12.61936
 244  -80.66389
 245  -103.0621
 246  -126.8473
 247  25.88396
 248  146.2581
 249  63.52652
 250  31.82677
 251  115.4006
 252  144.9821
 253  86.05445
 254  28.76457
 255  -8.623416
 256  64.78854
 257  8.312971
 258  -19.87038
 259  149.8467
 260  217.7941
 261  103.8686
 262  123.5076
 263  150.9186
 264  178.1525
 265  59.33226
 266  107.524
 267  169.7332
 268  100.0564
 269  42.85044
 270  38.54163
 271  77.04531
 272  57.70641
 273  59.34758
 274  40.01218
 275  145.3025
 276  116.1064
 277  42.28928
 278  17.62844
 279  -99.05625
 280  39.73681
 281  8.636497
 282  10.87144
 283  43.67817
 284  127.352
 285  165.9068
 286  199.0222
 287  107.6641
 288  134.4101
 289  68.60116
 290  162.782
 291  10.80543
 292  -74.119
 293  33.80807
 294  157.3905
 295  101.2714
 296  85.2183
 297  69.52004
 298  131.8994
 299  137.6675
 300  26.97269
 301  -7.569274
 302  20.23603
 303  71.70262
 304  17.11588
 305  146.8267
 306  127.3048
 307  -21.93036
 308  44.45113
 309  79.26379
 310  44.80865
 311  52.86033
 312  61.87817
 313  140.4518
 314  254.9824
 315  123.4518
 316  133.4358
 317  167.2846
 318  45.67539
 319  151.0639
 320  111.4203
 321  -76.78718
 322  79.01569
 323  114.6593
 324  158.1568
 325  170.7917
 326  68.32128
 327  118.5811
 328  47.82449
 329  79.16529
 330  111.4359
 331  4.940985
 332  -0.8446526
 333  44.69456
 334  31.53946
 335  -8.286203
 336  -20.27243
 337  -10.96476
 338  130.1048
 339  135.0815
 340  174.0298
 341  106.6477
 342  30.21845
 343  152.9386
 344  43.83465
 345  80.54734
 346  5.223187
 347  221.901
 348  178.2982
 349  -36.30459
 350  -133.9653
 351  -29.41509
 352  147.7326
 353  92.97498
 354  35.47753
 355  -7.772234
 356  13.04114
 357  34.27572
 358  -6.358824
 359  39.07882
 360  36.9464
 361  97.35604
 362  55.91136
 363  61.1046
 364  41.58735
 365  78.006
 366  -31.9713
 367  29.18908
 368  64.69901
 369  173.2658
 370  99.69214
 371  34.21244
 372  -59.98914
 373  63.29954
 374  39.01028
 375  -33.46893
 376  73.1226
 377  20.61514
 378  178.3923
 379  231.452
 380  83.33276
 381  153.6165
 382  50.54324
 383  32.41664
 384  73.16667
 385  86.3313
 386  1.314136
 387  40.95248
 388  140.0428
 389  119.1388
 390  -22.86892
 391  -13.6845
 392  34.6213
 393  168.0863
 394  121.5934
 395  110.8581
 396  -6.083071
 397  -12.06916
 398  148.1662
 399  228.2466
 400  136.1681
 401  13.52832
 402  17.76815
 403  -59.87959
 404  -83.14788
 405  23.74475
 406  143.2113
 407  61.88356
 408  81.78505
 409  157.1049
 410  130.3016
 411  75.55022
 412  99.88882
 413  11.50397
 414  100.7228
 415  164.949
 416  136.3456
 417  24.7714
 418  82.58195
 419  61.02591
 420  113.258
 421  184.4012
 422  144.1998
 423  186.7322
 424  72.64916
 425  34.60855
 426  99.38966
 427  134.9751
 428  23.6853
 429  42.55433
 430  34.41921
 431  54.99192
 432  140.7129
 433  77.05263
 434  49.01486
 435  44.2661
 436  157.712
 437  63.2376
 438  -39.67376
 439  -35.34359
 440  -2.23493
 441  84.91801
 442  57.22009
 443  38.54439
 444  -47.23077
 445  72.66795
 446  21.61683
 447  123.3397
 448  133.8267
 449  81.05481
 450  97.62578
 451  30.17622
 452  141.7256
 453  111.5593
 454  110.1757
 455  112.2196
 456  74.50375
 457  62.96412
 458  -4.829831
 459  39.66887
 460  37.87815
 461  101.1133
 462  43.04951
 463  97.88316
 464  143.0314
 465  127.7282
 466  43.29683
 467  16.54778
 468  123.3494
 469  218.4101
 470  170.0455
 471  128.3887
 472  146.7002
 473  259.2317
 474  184.5986
 475  12.26345
 476  72.36209
 477  102.0838
 478  21.15711
 479  58.63258
 480  151.8713
 481  183.0557
 482  125.4051
 483  81.35863
 484  9.842271
 485  50.22171
 486  131.1241
 487  168.8268
 488  146.1455
 489  37.96922
 490  199.4557
 491  142.8026
 492  170.7579
 493  198.8778
 494  160.4461
 495  91.2008
 496  93.5687
 497  123.4591
 498  61.30893
 499  -23.72441
 500  35.7675
 501  129.1037
 502  25.74996
 503  149.3107
 504  75.62579
 505  77.76773
 506  83.7819
 507  147.7642
 508  143.6332
 509  33.60049
 510  86.40353
 511  151.0229
