# Input file       =  1186540742.11421_cleaned.dat
# Candidate        =  PSR_0332+5434
# Telescope        =  AR
# Epoch_topo       =  57977.110232803352
# Epoch_bary       =  N/A
# T_sample         =  0.002
# Data Folded      =  7340032
# Data Avg         =  0.0120218364050566
# Data StdDev      =  1.00003661440125 
# Profile Bins     =  512
# Profile Avg      =  172.409789285826 
# Profile StdDev   =  119.737420330202 
# Reduced chi-sqr  =  2.258
# Prob(Noise)      <  1.17e-51   (~15.1 sigma)
# P_topo (ms)      =  714.465589537442  +/- 0.000225
# P'_topo (s/s)    =  -0                +/- 1.19e-10
# P''_topo (s/s^2) =  0                 +/- 5.25e-14
# P_bary (ms)      =  N/A
# P'_bary (s/s)    =  N/A
# P''_bary (s/s^2) =  N/A
# P_orb (s)        =  N/A
# asin(i)/c (s)    =  N/A
# eccentricity     =  N/A
# w (rad)          =  N/A
# T_peri           =  N/A
######################################################
   0  939.1069
   1  1019.944
   2  803.7692
   3  531.8729
   4  287.7667
   5  280.0284
   6  395.4626
   7  277.9049
   8  133.0229
   9  57.09106
  10  69.367
  11  201.4733
  12  270.9945
  13  330.7134
  14  287.699
  15  211.7798
  16  297.3615
  17  320.3178
  18  275.248
  19  262.7766
  20  405.5751
  21  288.0366
  22  98.46169
  23  67.5741
  24  177.7286
  25  204.1386
  26  266.28
  27  432.2013
  28  301.2263
  29  241.3304
  30  167.2886
  31  227.3003
  32  330.3992
  33  414.9957
  34  202.7946
  35  181.5999
  36  270.3703
  37  367.3546
  38  335.3647
  39  231.3591
  40  283.2727
  41  241.143
  42  186.6487
  43  162.9466
  44  219.0735
  45  309.0456
  46  377.0078
  47  385.4243
  48  137.3966
  49  146.665
  50  83.79526
  51  172.2807
  52  225.4933
  53  384.0456
  54  245.9902
  55  196.1234
  56  215.2495
  57  283.1859
  58  149.7445
  59  180.2133
  60  354.6164
  61  310.5444
  62  252.8118
  63  222.4041
  64  196.1105
  65  148.96
  66  304.8347
  67  218.9849
  68  197.7884
  69  259.8026
  70  321.5532
  71  260.118
  72  241.447
  73  96.02885
  74  123.767
  75  182.365
  76  207.218
  77  191.5304
  78  283.4286
  79  210.5579
  80  266.0276
  81  232.3507
  82  147.7584
  83  269.7442
  84  215.6398
  85  306.382
  86  292.083
  87  201.4915
  88  174.3029
  89  202.0447
  90  315.7288
  91  215.7748
  92  179.5779
  93  238.6401
  94  170.5456
  95  226.42
  96  352.4644
  97  305.8669
  98  237.1798
  99  382.2943
 100  426.0777
 101  274.933
 102  194.0922
 103  260.8383
 104  214.8391
 105  163.6864
 106  225.5973
 107  172.0157
 108  36.04349
 109  148.3303
 110  257.3919
 111  369.9017
 112  312.4047
 113  304.6731
 114  325.3877
 115  351.9261
 116  333.9743
 117  378.9767
 118  258.2737
 119  167.9077
 120  188.1842
 121  284.8163
 122  240.8488
 123  216.3385
 124  274.1426
 125  305.3471
 126  162.0364
 127  197.4328
 128  174.8283
 129  123.8593
 130  67.21619
 131  -1.617004
 132  153.5506
 133  181.3484
 134  195.029
 135  230.6704
 136  286.3634
 137  170.549
 138  158.2869
 139  182.4836
 140  243.9882
 141  139.6761
 142  131.8168
 143  215.7719
 144  115.2014
 145  144.225
 146  268.8671
 147  133.1064
 148  40.57673
 149  126.9612
 150  241.2125
 151  209.1526
 152  180.1708
 153  148.4036
 154  43.56736
 155  108.0873
 156  129.3531
 157  83.0104
 158  108.9954
 159  46.92651
 160  -30.8329
 161  21.82782
 162  107.1863
 163  80.78871
 164  119.5232
 165  71.51363
 166  153.267
 167  121.7692
 168  138.562
 169  112.0759
 170  -1.770405
 171  103.7591
 172  122.5317
 173  124.8242
 174  46.84446
 175  66.98112
 176  17.45017
 177  42.14842
 178  153.3811
 179  175.4042
 180  29.74028
 181  -32.47172
 182  121.8454
 183  247.9859
 184  210.6585
 185  169.6386
 186  67.58743
 187  -37.45153
 188  12.7936
 189  56.12231
 190  155.5502
 191  200.6295
 192  157.1673
 193  41.86703
 194  -41.96778
 195  22.2244
 196  113.9247
 197  76.64905
 198  163.1106
 199  146.8841
 200  102.6945
 201  24.27897
 202  -3.399264
 203  -47.9538
 204  -22.96496
 205  88.12693
 206  18.56639
 207  7.953288
 208  33.62038
 209  -12.18651
 210  54.42077
 211  43.46514
 212  -28.62548
 213  8.048728
 214  82.29371
 215  66.69575
 216  -22.44725
 217  100.5994
 218  -100.1545
 219  -60.2523
 220  119.1829
 221  37.50019
 222  -49.71841
 223  26.32956
 224  23.10787
 225  28.59672
 226  43.31275
 227  54.3503
 228  -92.34054
 229  -12.40495
 230  -17.95802
 231  -193.388
 232  51.94871
 233  213.0482
 234  125.6666
 235  41.21236
 236  104.2468
 237  59.14739
 238  -44.59393
 239  84.51228
 240  88.46329
 241  79.75705
 242  138.2458
 243  90.92931
 244  118.1933
 245  124.7297
 246  37.04513
 247  -28.14027
 248  80.88474
 249  33.25682
 250  141.1701
 251  192.8822
 252  200.7091
 253  353.4908
 254  358.2558
 255  252.6194
 256  154.9828
 257  156.2932
 258  -3.497782
 259  11.20601
 260  184.3012
 261  170.7193
 262  56.84381
 263  99.78832
 264  156.8124
 265  156.5894
 266  147.3839
 267  179.1501
 268  237.8754
 269  159.9275
 270  73.3339
 271  126.9279
 272  36.30042
 273  40.40222
 274  -27.66795
 275  -35.74129
 276  90.56944
 277  76.30992
 278  139.6471
 279  194.5137
 280  93.41128
 281  164.3143
 282  95.93517
 283  97.65989
 284  116.9795
 285  81.35614
 286  -20.53156
 287  74.95057
 288  83.07394
 289  162.2477
 290  50.34363
 291  1.610961
 292  142.7764
 293  242.3186
 294  160.974
 295  123.4395
 296  95.65949
 297  51.04904
 298  129.8527
 299  105.0317
 300  -58.82782
 301  12.72377
 302  115.8298
 303  174.5035
 304  192.5346
 305  53.32706
 306  162.7132
 307  91.44305
 308  -1.93886
 309  102.0114
 310  226.7061
 311  240.0097
 312  55.00764
 313  27.52403
 314  123.9571
 315  130.8094
 316  192.0023
 317  148.8905
 318  194.6497
 319  149.6192
 320  105.5511
 321  82.34232
 322  101.2741
 323  228.0549
 324  182.4796
 325  36.3594
 326  122.7798
 327  141.6626
 328  117.8448
 329  199.4222
 330  183.44
 331  196.0151
 332  182.5737
 333  160.4323
 334  129.3957
 335  64.79508
 336  56.48136
 337  162.2496
 338  -0.6491486
 339  -39.6574
 340  -8.150758
 341  11.41752
 342  217.512
 343  201.802
 344  259.1726
 345  168.1184
 346  151.2025
 347  136.7276
 348  133.0045
 349  103.5208
 350  185.3607
 351  210.2339
 352  187.2959
 353  -56.36576
 354  142.6622
 355  108.4473
 356  216.1921
 357  197.4471
 358  162.0425
 359  30.81162
 360  120.3187
 361  258.0843
 362  146.3673
 363  143.0848
 364  96.28387
 365  47.05545
 366  48.28947
 367  80.38489
 368  2.763697
 369  34.07951
 370  86.98005
 371  277.1752
 372  147.3225
 373  109.5793
 374  20.88811
 375  45.73558
 376  56.79072
 377  62.34039
 378  95.5588
 379  230.9347
 380  239.1262
 381  225.274
 382  187.4334
 383  120.9318
 384  79.40651
 385  65.88931
 386  81.79858
 387  220.0989
 388  336.1875
 389  339.9546
 390  235.7897
 391  111.201
 392  98.63531
 393  259.5614
 394  220.7061
 395  260.8134
 396  239.5794
 397  216.0613
 398  285.0909
 399  391.8259
 400  236.6327
 401  135.5574
 402  358.6317
 403  350.1897
 404  238.254
 405  76.28663
 406  178.7869
 407  120.1478
 408  97.06239
 409  243.6675
 410  99.10622
 411  273.5846
 412  355.1177
 413  213.5703
 414  185.1651
 415  184.8871
 416  283.5665
 417  316.7252
 418  215.98
 419  187.6023
 420  188.0322
 421  284.6934
 422  209.8801
 423  182.9264
 424  319.8672
 425  198.9611
 426  156.7635
 427  169.0422
 428  158.4863
 429  173.7035
 430  204.0337
 431  346.0743
 432  299.9726
 433  147.5652
 434  112.1355
 435  162.9533
 436  198.9103
 437  226.0087
 438  200.2716
 439  208.9118
 440  91.08965
 441  231.7355
 442  292.7718
 443  136.8676
 444  48.53071
 445  55.96789
 446  25.53673
 447  24.14434
 448  64.19859
 449  217.2354
 450  130.8815
 451  140.4398
 452  326.7559
 453  144.4344
 454  32.96336
 455  137.208
 456  28.02198
 457  99.2028
 458  111.3939
 459  74.27018
 460  159.0277
 461  156.4292
 462  70.20812
 463  65.33601
 464  156.885
 465  205.3862
 466  140.0146
 467  196.0682
 468  111.3463
 469  187.3799
 470  293.2202
 471  244.0643
 472  50.85402
 473  33.47773
 474  232.2756
 475  8.75885
 476  167.4841
 477  287.9306
 478  239.4272
 479  185.2198
 480  44.97675
 481  144.5531
 482  212.809
 483  206.7905
 484  234.5796
 485  280.4806
 486  227.2317
 487  175.8639
 488  284.0222
 489  240.1584
 490  295.8721
 491  333.9572
 492  285.7562
 493  280.6237
 494  320.9401
 495  361.3632
 496  342.6871
 497  286.1535
 498  233.9246
 499  375.7589
 500  175.1991
 501  206.0636
 502  361.5646
 503  418.1015
 504  343.7719
 505  219.7421
 506  448.3881
 507  453.2443
 508  483.1033
 509  533.4711
 510  791.4918
 511  879.5824
