# Input file       =  1186612281.106419_cleaned.dat
# Candidate        =  PSR_0332+5434
# Telescope        =  AR
# Epoch_topo       =  57977.938230398366
# Epoch_bary       =  N/A
# T_sample         =  0.002
# Data Folded      =  7208960
# Data Avg         =  0.016593590640928
# Data StdDev      =  1.00017414187862 
# Profile Bins     =  512
# Profile Avg      =  233.630926704411 
# Profile StdDev   =  118.679839325318 
# Reduced chi-sqr  =  1.419
# Prob(Noise)      <  1.22e-09   (~6.0 sigma)
# P_topo (ms)      =  714.465357377783  +/- 0.000164
# P'_topo (s/s)    =  -0                +/- 8.84e-11
# P''_topo (s/s^2) =  0                 +/- 3.97e-14
# P_bary (ms)      =  N/A
# P'_bary (s/s)    =  N/A
# P''_bary (s/s^2) =  N/A
# P_orb (s)        =  N/A
# asin(i)/c (s)    =  N/A
# eccentricity     =  N/A
# w (rad)          =  N/A
# T_peri           =  N/A
######################################################
   0  945.9565
   1  745.1423
   2  691.2955
   3  545.4387
   4  378.8482
   5  289.3444
   6  182.6712
   7  217.1164
   8  307.625
   9  364.9236
  10  320.4118
  11  165.8611
  12  162.1919
  13  370.0594
  14  366.1918
  15  408.3972
  16  189.4885
  17  173.4247
  18  219.3382
  19  363.6884
  20  323.408
  21  347.3211
  22  275.6458
  23  348.6621
  24  335.3369
  25  294.9487
  26  173.1421
  27  267.9827
  28  283.3117
  29  340.8839
  30  201.3285
  31  282.3678
  32  218.7105
  33  220.147
  34  354.692
  35  330.0334
  36  293.0303
  37  229.7867
  38  186.6306
  39  227.8895
  40  333.2098
  41  374.3354
  42  280.1259
  43  114.0227
  44  72.07176
  45  224.0325
  46  292.6999
  47  268.9323
  48  258.6451
  49  275.946
  50  248.0372
  51  176.2329
  52  253.3627
  53  331.1573
  54  221.0017
  55  268.6587
  56  248.7175
  57  292.6598
  58  297.7393
  59  277.6795
  60  238.6653
  61  309.8772
  62  354.9123
  63  243.4872
  64  298.1736
  65  389.1104
  66  328.8566
  67  307.0602
  68  271.0546
  69  213.8119
  70  235.0758
  71  258.9376
  72  251.503
  73  245.1648
  74  293.2155
  75  128.5279
  76  16.73247
  77  41.05121
  78  115.6911
  79  180.3147
  80  152.0114
  81  131.3311
  82  205.2389
  83  122.1361
  84  209.0872
  85  182.0172
  86  231.3736
  87  265.6115
  88  275.4734
  89  262.4554
  90  134.2632
  91  107.706
  92  211.8458
  93  129.2944
  94  24.03126
  95  87.45596
  96  217.4423
  97  209.7002
  98  182.2352
  99  121.9173
 100  192.6539
 101  282.3226
 102  198.6179
 103  295.7038
 104  229.3379
 105  79.4734
 106  107.0514
 107  309.8252
 108  266.1803
 109  224.5267
 110  204.5996
 111  259.0239
 112  279.2381
 113  300.0934
 114  387.2048
 115  189.6869
 116  88.21672
 117  149.3338
 118  301.3425
 119  259.8501
 120  346.389
 121  366.171
 122  213.6158
 123  239.2082
 124  195.8654
 125  247.4422
 126  261.6321
 127  272.71
 128  105.0298
 129  124.4206
 130  249.168
 131  365.8602
 132  226.0193
 133  201.7689
 134  234.8093
 135  290.4559
 136  236.3712
 137  292.2663
 138  227.8108
 139  198.4832
 140  98.82595
 141  182.403
 142  223.7618
 143  204.0129
 144  221.7642
 145  349.3011
 146  338.0014
 147  241.1087
 148  83.95749
 149  259.2684
 150  277.6938
 151  279.0187
 152  205.9096
 153  235.8548
 154  393.5396
 155  197.1071
 156  243.8615
 157  171.6082
 158  221.4754
 159  116.4181
 160  106.0129
 161  364.7686
 162  454.2295
 163  279.8225
 164  155.4764
 165  353.3236
 166  421.3242
 167  268.4615
 168  311.5026
 169  207.4527
 170  263.9674
 171  286.2534
 172  229.0011
 173  152.0884
 174  202.4618
 175  174.5133
 176  326.1293
 177  333.4653
 178  278.5263
 179  197.5759
 180  212.4177
 181  352.6915
 182  300.8232
 183  232.2892
 184  266.7165
 185  227.2722
 186  170.169
 187  222.2376
 188  191.3976
 189  133.0706
 190  111.5633
 191  230.5323
 192  277.6507
 193  233.25
 194  374.1448
 195  167.9962
 196  124.9029
 197  275.6497
 198  168.1598
 199  126.8225
 200  317.838
 201  310.2845
 202  197.378
 203  261.3887
 204  303.7804
 205  256.6846
 206  238.559
 207  187.926
 208  175.9664
 209  182.583
 210  302.9886
 211  89.66732
 212  191.3752
 213  258.6988
 214  338.6359
 215  207.2758
 216  313.8725
 217  268.8971
 218  241.5665
 219  240.2087
 220  254.476
 221  296.9439
 222  213.3591
 223  143.6867
 224  86.24421
 225  223.9205
 226  217.229
 227  193.4756
 228  146.725
 229  129.1935
 230  237.9191
 231  235.3832
 232  235.2334
 233  203.7765
 234  240.0644
 235  104.569
 236  198.0414
 237  172.5766
 238  52.18676
 239  114.3434
 240  165.4573
 241  209.5819
 242  249.2668
 243  257.9896
 244  215.3857
 245  165.0092
 246  272.7642
 247  218.7072
 248  139.1865
 249  230.1937
 250  305.4316
 251  93.16477
 252  205.1597
 253  285.0049
 254  239.7269
 255  136.9692
 256  196.992
 257  221.2668
 258  178.0946
 259  182.1596
 260  255.6592
 261  338.0496
 262  259.7455
 263  226.3296
 264  310.0402
 265  371.1683
 266  360.1275
 267  333.0139
 268  280.491
 269  188.9047
 270  176.005
 271  381.2092
 272  284.1149
 273  197.7143
 274  191.6993
 275  60.23859
 276  141.3215
 277  231.2048
 278  193.9502
 279  226.8656
 280  304.1689
 281  319.3358
 282  203.6562
 283  135.3624
 284  60.12926
 285  207.4132
 286  167.0684
 287  168.4947
 288  228.8345
 289  359.5393
 290  368.8839
 291  406.7674
 292  243.4261
 293  169.1084
 294  101.6831
 295  173.3375
 296  299.323
 297  144.7005
 298  87.54724
 299  166.4014
 300  250.0292
 301  299.8512
 302  51.0383
 303  74.60801
 304  120.6877
 305  195.4025
 306  196.6086
 307  185.7301
 308  157.0974
 309  285.7193
 310  283.3216
 311  183.7985
 312  182.8804
 313  210.1641
 314  353.4026
 315  160.9212
 316  84.40864
 317  141.257
 318  157.2398
 319  85.33318
 320  135.3461
 321  168.3994
 322  240.2625
 323  272.0486
 324  207.0934
 325  80.88
 326  141.0182
 327  114.1413
 328  302.4445
 329  432.0498
 330  314.3759
 331  134.7684
 332  88.56971
 333  218.0054
 334  206.5049
 335  236.0825
 336  193.6379
 337  194.15
 338  279.692
 339  234.5702
 340  184.8919
 341  134.8608
 342  125.7748
 343  213.0464
 344  58.32455
 345  206.7152
 346  349.1778
 347  247.3489
 348  170.4402
 349  209.0228
 350  259.1296
 351  245.2612
 352  342.6106
 353  383.017
 354  205.5045
 355  160.7811
 356  172.9481
 357  363.0134
 358  229.7017
 359  254.1969
 360  194.9308
 361  221.4348
 362  194.9063
 363  140.1383
 364  228.4085
 365  264.7331
 366  245.2066
 367  143.0168
 368  146.8192
 369  147.9026
 370  42.68889
 371  53.76405
 372  194.4158
 373  166.2012
 374  195.7339
 375  329.4021
 376  304.0146
 377  195.5477
 378  187.6485
 379  212.7689
 380  241.7757
 381  166.3433
 382  244.1492
 383  332.1843
 384  271.6896
 385  235.0572
 386  210.3725
 387  142.3343
 388  127.968
 389  292.9286
 390  392.8052
 391  351.4303
 392  174.0896
 393  253.4822
 394  335.0978
 395  336.1898
 396  240.9425
 397  212.0045
 398  183.8001
 399  266.7668
 400  235.7177
 401  274.8199
 402  206.833
 403  151.1981
 404  193.7787
 405  219.8604
 406  202.3558
 407  282.5887
 408  180.2185
 409  229.699
 410  292.9712
 411  288.9161
 412  102.5276
 413  206.1567
 414  308.1338
 415  244.8171
 416  236.3218
 417  209.0375
 418  226.5594
 419  146.4548
 420  123.1215
 421  151.0658
 422  142.5726
 423  83.30401
 424  157.3436
 425  333.3981
 426  392.1709
 427  169.4278
 428  177.5157
 429  262.1801
 430  330.7569
 431  369.4164
 432  274.0503
 433  287.8297
 434  186.6814
 435  320.4293
 436  219.6523
 437  175.2337
 438  146.3252
 439  149.8493
 440  151.7349
 441  240.778
 442  152.2041
 443  114.6342
 444  113.868
 445  112.8165
 446  135.7525
 447  132.5369
 448  239.2937
 449  209.1583
 450  140.7141
 451  189.9268
 452  294.375
 453  242.6863
 454  269.4841
 455  359.0418
 456  355.4055
 457  366.1456
 458  286.0415
 459  195.7974
 460  151.5247
 461  152.6757
 462  206.1918
 463  232.6661
 464  152.9075
 465  220.1085
 466  232.6482
 467  173.4754
 468  207.3562
 469  177.2844
 470  190.2152
 471  43.92448
 472  86.42153
 473  142.8434
 474  32.03419
 475  100.0535
 476  114.2391
 477  151.6014
 478  178.3335
 479  179.069
 480  225.7885
 481  117.8045
 482  88.22913
 483  251.7894
 484  299.0696
 485  259.7888
 486  176.6585
 487  193.5036
 488  279.1268
 489  377.7126
 490  358.3457
 491  218.6425
 492  284.1869
 493  336.5919
 494  334.8507
 495  246.3983
 496  183.9948
 497  173.7065
 498  210.5935
 499  205.9872
 500  300.7897
 501  412.8022
 502  329.8636
 503  285.3224
 504  272.1421
 505  256.8054
 506  371.4046
 507  256.4574
 508  392.4746
 509  504.3154
 510  749.4598
 511  1032.719
