# Input file       =  1186814826.088579_cleaned.dat
# Candidate        =  PSR_0332+5434
# Telescope        =  AR
# Epoch_topo       =  57980.282501025220
# Epoch_bary       =  N/A
# T_sample         =  0.002
# Data Folded      =  7340032
# Data Avg         =  0.00931326319736966
# Data StdDev      =  1.00006559406392 
# Profile Bins     =  512
# Profile Avg      =  133.376529560365 
# Profile StdDev   =  119.740890153208 
# Reduced chi-sqr  =  1.074
# Prob(Noise)      <  0.12   (~1.2 sigma)
# P_topo (ms)      =  714.465156843263  +/- 0.000256
# P'_topo (s/s)    =  -0                +/- 1.35e-10
# P''_topo (s/s^2) =  0                 +/- 5.97e-14
# P_bary (ms)      =  N/A
# P'_bary (s/s)    =  N/A
# P''_bary (s/s^2) =  N/A
# P_orb (s)        =  N/A
# asin(i)/c (s)    =  N/A
# eccentricity     =  N/A
# w (rad)          =  N/A
# T_peri           =  N/A
######################################################
   0  551.3668
   1  776.4954
   2  641.7786
   3  480.1026
   4  240.6435
   5  191.6887
   6  75.63479
   7  78.04468
   8  -2.308823
   9  74.99375
  10  211.4781
  11  117.9062
  12  70.31921
  13  234.0144
  14  264.7041
  15  168.5069
  16  183.3674
  17  307.3323
  18  192.0195
  19  142.8128
  20  137.4479
  21  204.6726
  22  212.5715
  23  217.1047
  24  269.7539
  25  83.9418
  26  119.2932
  27  220.6977
  28  108.0472
  29  124.7543
  30  42.10203
  31  127.887
  32  101.3693
  33  26.9568
  34  113.3244
  35  189.8086
  36  128.7216
  37  -40.44381
  38  -38.43704
  39  136.0819
  40  238.9547
  41  157.1933
  42  90.0204
  43  91.94794
  44  193.5519
  45  114.716
  46  29.3694
  47  -60.81955
  48  26.47425
  49  110.9418
  50  311.1508
  51  186.5478
  52  64.94878
  53  106.8516
  54  133.2279
  55  161.2003
  56  135.0745
  57  4.046865
  58  -52.83075
  59  13.17755
  60  41.7173
  61  85.04574
  62  165.8188
  63  178.318
  64  16.54984
  65  100.0221
  66  13.19639
  67  106.9043
  68  225.4456
  69  178.3176
  70  26.16173
  71  187.8745
  72  212.195
  73  -55.89184
  74  -20.34303
  75  230.9097
  76  175.7623
  77  16.61377
  78  70.26045
  79  63.61333
  80  164.25
  81  230.2435
  82  153.4406
  83  134.0888
  84  74.55598
  85  125.2048
  86  106.0435
  87  198.2488
  88  208.535
  89  164.8787
  90  142.6142
  91  171.1255
  92  57.22259
  93  69.80457
  94  110.5529
  95  158.6369
  96  128.8966
  97  68.91514
  98  71.19659
  99  47.19375
 100  129.9876
 101  160.8465
 102  173.1248
 103  232.7659
 104  194.1276
 105  160.7634
 106  140.3321
 107  116.4547
 108  75.81801
 109  90.84744
 110  76.85181
 111  194.3401
 112  211.9287
 113  107.654
 114  -46.50172
 115  28.36833
 116  120.6906
 117  108.2716
 118  192.3979
 119  168.671
 120  106.1213
 121  91.07593
 122  147.9925
 123  118.5346
 124  106.2483
 125  151.5625
 126  28.70049
 127  -0.1459686
 128  80.85211
 129  144.4176
 130  189.9233
 131  156.5744
 132  52.34013
 133  135.1628
 134  153.5616
 135  72.98203
 136  113.224
 137  168.3863
 138  199.8424
 139  214.1255
 140  141.8824
 141  159.7128
 142  288.9853
 143  334.3214
 144  234.9585
 145  127.363
 146  148.4475
 147  268.4257
 148  111.099
 149  111.9856
 150  121.3113
 151  116.9615
 152  278.983
 153  208.5265
 154  85.20927
 155  -3.205948
 156  173.2178
 157  137.9714
 158  90.56185
 159  172.1526
 160  44.20428
 161  -69.57728
 162  10.0658
 163  15.34856
 164  67.81142
 165  162.3286
 166  124.0352
 167  117.7072
 168  122.8807
 169  7.54187
 170  16.29995
 171  166.4779
 172  189.6099
 173  77.7774
 174  63.61297
 175  36.01782
 176  -31.88947
 177  65.62676
 178  77.93588
 179  163.9302
 180  169.6319
 181  2.912503
 182  99.06129
 183  47.5333
 184  29.15868
 185  136.6833
 186  271.8254
 187  237.3701
 188  153.3238
 189  262.8146
 190  150.2819
 191  84.84603
 192  86.00736
 193  66.55867
 194  91.3354
 195  92.41548
 196  132.7007
 197  171.7191
 198  87.43021
 199  86.11239
 200  151.8721
 201  115.8657
 202  171.4554
 203  225.4962
 204  264.4553
 205  262.12
 206  120.5493
 207  148.6287
 208  199.2093
 209  251.7276
 210  139.5933
 211  11.59889
 212  148.7467
 213  135.0459
 214  98.34414
 215  93.98586
 216  65.25751
 217  73.16806
 218  126.5234
 219  -21.61405
 220  15.02167
 221  133.8537
 222  154.3187
 223  152.1899
 224  227.8982
 225  153.3547
 226  134.0359
 227  58.09412
 228  98.92748
 229  177.1751
 230  205.5711
 231  190.8722
 232  136.4308
 233  68.00819
 234  32.13227
 235  52.03733
 236  133.8754
 237  181.9139
 238  195.1151
 239  127.8051
 240  182.2099
 241  76.46603
 242  1.783698
 243  83.82549
 244  161.6536
 245  59.43065
 246  218.9718
 247  139.116
 248  47.23072
 249  90.27846
 250  100.3543
 251  90.59255
 252  121.4653
 253  101.4791
 254  78.42785
 255  130.7946
 256  126.5231
 257  149.752
 258  84.83451
 259  118.1195
 260  98.17834
 261  -31.06569
 262  -33.74197
 263  45.51419
 264  119.1657
 265  132.883
 266  178.2352
 267  131.2697
 268  193.4506
 269  29.65229
 270  53.46391
 271  130.1278
 272  -24.65222
 273  69.00875
 274  130.619
 275  129.8645
 276  141.9169
 277  62.27513
 278  27.18776
 279  65.97718
 280  89.22151
 281  83.33941
 282  144.2586
 283  70.49741
 284  105.9934
 285  166.0404
 286  173.4234
 287  137.0064
 288  139.8423
 289  5.903046
 290  38.76409
 291  169.1251
 292  195.5972
 293  169.8213
 294  10.14218
 295  127.8667
 296  204.0858
 297  171.4388
 298  111.5436
 299  16.62691
 300  82.6665
 301  147.5636
 302  161.0705
 303  96.49602
 304  107.5561
 305  143.8136
 306  248.1204
 307  275.8124
 308  155.7753
 309  207.4207
 310  227.6925
 311  121.5786
 312  103.5125
 313  83.04042
 314  258.0785
 315  73.23164
 316  103.5425
 317  132.2146
 318  79.81322
 319  62.26534
 320  89.67844
 321  103.9984
 322  243.2631
 323  292.1392
 324  224.591
 325  154.4475
 326  181.2084
 327  84.09959
 328  179.0629
 329  123.498
 330  166.4269
 331  99.39172
 332  41.58497
 333  106.3248
 334  117.1896
 335  188.4166
 336  163.9201
 337  169.4242
 338  288.9845
 339  163.5437
 340  100.4688
 341  80.15324
 342  52.86382
 343  70.2569
 344  61.82313
 345  152.6314
 346  124.1354
 347  62.73505
 348  67.13799
 349  85.43082
 350  200.6013
 351  273.775
 352  238.2769
 353  95.5173
 354  149.6579
 355  148.9738
 356  109.3201
 357  91.80271
 358  -3.854031
 359  41.35702
 360  53.72271
 361  81.53938
 362  76.98853
 363  75.10867
 364  162.9792
 365  206.8817
 366  185.8313
 367  234.6775
 368  196.3025
 369  -9.581765
 370  110.1861
 371  144.8202
 372  81.26898
 373  29.72598
 374  38.81204
 375  160.2004
 376  179.8644
 377  70.86664
 378  75.25421
 379  93.96887
 380  168.4168
 381  129.0071
 382  63.90644
 383  109.4084
 384  68.08141
 385  119.763
 386  220.4483
 387  209.7403
 388  119.5711
 389  107.579
 390  186.292
 391  131.9983
 392  147.9019
 393  143.3275
 394  138.034
 395  142.8604
 396  189.4486
 397  116.5417
 398  207.7988
 399  250.3376
 400  169.8066
 401  68.20277
 402  42.04818
 403  58.58335
 404  105.649
 405  31.65152
 406  137.9292
 407  136.3589
 408  81.98052
 409  38.31097
 410  12.93119
 411  29.19756
 412  167.7623
 413  166.2121
 414  177.7325
 415  137.9036
 416  139.6581
 417  173.7104
 418  162.7443
 419  294.9549
 420  166.2827
 421  103.0603
 422  85.99983
 423  88.31026
 424  36.57767
 425  14.69424
 426  17.13325
 427  90.93974
 428  53.72913
 429  126.0993
 430  146.7068
 431  129.9973
 432  65.24036
 433  183.3076
 434  213.5443
 435  159.977
 436  152.4799
 437  119.8186
 438  132.5325
 439  200.639
 440  174.9421
 441  155.3312
 442  223.8859
 443  331.6428
 444  250.504
 445  173.3897
 446  83.2604
 447  168.137
 448  -11.86944
 449  19.17433
 450  289.9199
 451  240.3331
 452  158.2541
 453  153.0515
 454  216.7071
 455  111.6336
 456  9.703768
 457  17.20423
 458  145.5056
 459  133.5484
 460  236.2561
 461  117.8502
 462  180.7707
 463  177.3915
 464  8.9755
 465  101.6934
 466  -18.53183
 467  35.33107
 468  180.1931
 469  209.8352
 470  92.57548
 471  55.38975
 472  161.1925
 473  17.66475
 474  91.01154
 475  234.9346
 476  71.89066
 477  110.8128
 478  110.1333
 479  67.89227
 480  122.2179
 481  98.5183
 482  121.4554
 483  200.2675
 484  166.418
 485  120.3907
 486  124.8783
 487  204.2068
 488  294.3427
 489  246.1101
 490  185.4494
 491  181.5755
 492  239.6018
 493  363.8713
 494  328.7583
 495  314.0103
 496  229.1948
 497  202.0859
 498  304.3362
 499  230.1404
 500  158.7251
 501  186.0457
 502  168.6166
 503  136.538
 504  115.648
 505  150.8768
 506  142.4864
 507  72.52845
 508  124.7813
 509  297.3242
 510  554.275
 511  553.9465
