# Input file       =  1186454626.109951_cleaned.dat
# Candidate        =  PSR_0332+5434
# Telescope        =  AR
# Epoch_topo       =  57976.113519791099
# Epoch_bary       =  N/A
# T_sample         =  0.002
# Data Folded      =  7340032
# Data Avg         =  0.00998788751164123
# Data StdDev      =  0.999995534366051
# Profile Bins     =  512
# Profile Avg      =  143.154664602321 
# Profile StdDev   =  119.732501692854 
# Reduced chi-sqr  =  1.424
# Prob(Noise)      <  8.65e-10   (~6.0 sigma)
# P_topo (ms)      =  714.465867826078  +/- 0.000194
# P'_topo (s/s)    =  -0                +/- 1.02e-10
# P''_topo (s/s^2) =  0                 +/- 4.51e-14
# P_bary (ms)      =  N/A
# P'_bary (s/s)    =  N/A
# P''_bary (s/s^2) =  N/A
# P_orb (s)        =  N/A
# asin(i)/c (s)    =  N/A
# eccentricity     =  N/A
# w (rad)          =  N/A
# T_peri           =  N/A
######################################################
   0  885.8461
   1  842.4031
   2  582.0677
   3  334.3318
   4  138.3566
   5  62.07679
   6  52.62293
   7  151.5582
   8  91.81841
   9  174.2261
  10  125.1878
  11  176.604
  12  5.336655
  13  -14.40877
  14  114.6255
  15  173.2865
  16  254.2851
  17  203.3939
  18  130.783
  19  212.4557
  20  208.8371
  21  110.6316
  22  111.5847
  23  90.3365
  24  78.52592
  25  206.0603
  26  342.3437
  27  266.8369
  28  145.043
  29  24.57579
  30  214.5053
  31  114.5496
  32  154.056
  33  206.775
  34  156.944
  35  99.09692
  36  61.5451
  37  36.59949
  38  -24.75484
  39  28.68196
  40  96.40844
  41  195.8758
  42  51.56793
  43  50.30798
  44  158.1248
  45  281.3253
  46  371.4955
  47  292.9055
  48  269.2423
  49  277.2067
  50  140.6951
  51  85.89012
  52  112.1045
  53  206.1369
  54  291.6907
  55  215.6659
  56  169.4454
  57  144.1229
  58  101.0283
  59  95.63545
  60  136.3208
  61  158.1497
  62  219.8353
  63  70.10767
  64  114.8298
  65  289.5082
  66  251.1233
  67  118.9933
  68  73.66882
  69  205.8491
  70  131.3736
  71  94.55318
  72  163.5917
  73  157.0682
  74  122.3285
  75  156.3148
  76  120.9668
  77  146.33
  78  104.8314
  79  -13.50921
  80  65.95302
  81  245.6857
  82  243.2787
  83  226.0723
  84  80.31333
  85  107.7505
  86  218.2195
  87  252.7396
  88  29.22286
  89  -27.17171
  90  57.55067
  91  211.3741
  92  209.6177
  93  148.7235
  94  181.4332
  95  239.9513
  96  186.5129
  97  199.006
  98  226.5157
  99  155.2949
 100  138.0355
 101  47.25668
 102  15.13762
 103  115.711
 104  101.5375
 105  116.3389
 106  194.6104
 107  93.53027
 108  64.36747
 109  158.1781
 110  192.9509
 111  180.925
 112  200.9997
 113  180.3244
 114  58.8367
 115  115.5264
 116  205.9274
 117  161.4643
 118  254.4029
 119  65.97018
 120  150.6071
 121  202.7418
 122  150.3314
 123  129.8901
 124  115.3356
 125  190.3281
 126  97.46526
 127  194.7548
 128  190.2224
 129  210.3185
 130  131.7729
 131  52.32497
 132  -26.82189
 133  84.95028
 134  286.9631
 135  136.4107
 136  62.99321
 137  76.46214
 138  23.26072
 139  155.4572
 140  215.2396
 141  227.2433
 142  276.8571
 143  269.5429
 144  165.7063
 145  219.5553
 146  120.8466
 147  63.29152
 148  40.65866
 149  144.2008
 150  178.0726
 151  124.4301
 152  202.0083
 153  263.2018
 154  253.6281
 155  135.8447
 156  152.434
 157  174.2766
 158  116.2176
 159  152.8288
 160  81.80674
 161  193.7019
 162  157.1687
 163  247.4733
 164  149.5115
 165  103.5038
 166  187.1717
 167  249.1505
 168  141.5664
 169  156.0355
 170  248.0327
 171  266.4836
 172  187.1781
 173  105.9802
 174  120.2227
 175  252.4734
 176  327.1073
 177  162.7351
 178  112.6342
 179  192.8703
 180  194.6014
 181  128.8233
 182  144.9275
 183  109.5061
 184  177.6191
 185  149.9801
 186  158.8897
 187  136.0945
 188  23.11837
 189  144.9613
 190  86.23161
 191  82.66773
 192  219.0303
 193  221.5949
 194  134.2222
 195  105.0615
 196  117.9946
 197  79.25665
 198  -35.71153
 199  97.73788
 200  22.96251
 201  144.0594
 202  51.91654
 203  151.6326
 204  195.936
 205  188.0119
 206  129.8042
 207  150.9967
 208  276.5836
 209  295.1982
 210  274.4175
 211  134.4606
 212  78.36425
 213  9.112975
 214  29.67275
 215  6.423138
 216  40.50298
 217  297.5046
 218  251.6814
 219  167.305
 220  175.6212
 221  164.8159
 222  189.0551
 223  286.8934
 224  289.4126
 225  164.4259
 226  233.661
 227  250.337
 228  119.6318
 229  76.96339
 230  107.65
 231  26.15454
 232  8.049844
 233  164.8917
 234  143.1811
 235  205.0508
 236  183.4582
 237  154.8299
 238  124.299
 239  116.2657
 240  225.2382
 241  234.5725
 242  140.8121
 243  172.7737
 244  65.20659
 245  19.18072
 246  139.9709
 247  160.8266
 248  183.3847
 249  123.8401
 250  75.30148
 251  177.6644
 252  127.2008
 253  86.4
 254  214.6563
 255  134.2891
 256  14.18665
 257  37.90545
 258  101.2872
 259  295.8763
 260  268.7188
 261  267.9955
 262  234.6695
 263  199.649
 264  122.1498
 265  148.6664
 266  161.4844
 267  254.0614
 268  35.70454
 269  15.76718
 270  161.9635
 271  203.3581
 272  97.74158
 273  22.48106
 274  91.37115
 275  45.37499
 276  -4.640428
 277  64.28373
 278  90.59985
 279  22.81262
 280  86.25211
 281  67.44558
 282  134.3247
 283  191.8734
 284  28.33891
 285  89.92123
 286  194.0565
 287  169.2301
 288  218.6048
 289  102.2942
 290  176.9693
 291  229.018
 292  115.0333
 293  61.8782
 294  29.8954
 295  112.3575
 296  142.0476
 297  140.3613
 298  84.68138
 299  -6.599083
 300  191.695
 301  198.3461
 302  166.6109
 303  45.43806
 304  270.3584
 305  230.4812
 306  230.1757
 307  229.3451
 308  234.7995
 309  140.1676
 310  136.9012
 311  219.3203
 312  245.5445
 313  181.4586
 314  227.49
 315  -1.953445
 316  -25.53929
 317  -3.22835
 318  108.6266
 319  209.8159
 320  169.4884
 321  193.6748
 322  138.9489
 323  24.43884
 324  -7.122187
 325  38.48186
 326  162.6705
 327  109.0197
 328  144.1368
 329  75.7636
 330  -25.20252
 331  128.2672
 332  223.1493
 333  337.1423
 334  312.7814
 335  238.0805
 336  162.7272
 337  224.2729
 338  57.65262
 339  41.90902
 340  150.0639
 341  145.9966
 342  170.6535
 343  87.21728
 344  144.4834
 345  233.0048
 346  114.1314
 347  126.3041
 348  240.5523
 349  256.6112
 350  284.1777
 351  199.4551
 352  253.2924
 353  209.0406
 354  110.2546
 355  202.6892
 356  172.8931
 357  64.99255
 358  79.62996
 359  71.59424
 360  163.1969
 361  242.1455
 362  80.70222
 363  25.64192
 364  -29.26299
 365  48.96739
 366  127.1686
 367  87.55808
 368  77.89047
 369  16.08213
 370  -25.07141
 371  -72.95645
 372  97.72224
 373  119.8178
 374  102.1338
 375  70.78996
 376  96.23347
 377  87.04411
 378  151.9668
 379  36.26831
 380  154.9158
 381  124.3096
 382  6.265364
 383  87.7925
 384  -16.96003
 385  -30.45633
 386  115.8985
 387  129.3468
 388  122.835
 389  81.37915
 390  26.39474
 391  98.33504
 392  -42.92244
 393  107.8492
 394  72.79212
 395  2.136219
 396  107.842
 397  215.8883
 398  197.9832
 399  183.7322
 400  208.0099
 401  277.2465
 402  205.5558
 403  166.4377
 404  149.0667
 405  138.2131
 406  127.0331
 407  194.3087
 408  182.0741
 409  162.2582
 410  43.00331
 411  3.583292
 412  7.319911
 413  -25.60099
 414  6.819338
 415  -49.38325
 416  82.48038
 417  23.85879
 418  70.61817
 419  97.07301
 420  128.1614
 421  142.8166
 422  89.02065
 423  65.68986
 424  90.12309
 425  101.5159
 426  86.27478
 427  -15.49783
 428  6.93128
 429  145.8382
 430  93.27174
 431  104.8279
 432  73.09335
 433  208.0336
 434  299.8433
 435  228.3356
 436  64.31821
 437  62.61583
 438  172.2666
 439  124.9689
 440  77.72277
 441  13.8112
 442  -38.41071
 443  112.6727
 444  6.193372
 445  -55.38116
 446  -22.12668
 447  39.54383
 448  30.83255
 449  89.00627
 450  182.8617
 451  144.9203
 452  231.5709
 453  94.59968
 454  117.317
 455  200.1748
 456  105.0585
 457  46.14946
 458  231.6988
 459  170.4335
 460  178.1141
 461  283.219
 462  88.86387
 463  131.8999
 464  175.0882
 465  34.13735
 466  29.14173
 467  160.0609
 468  191.3127
 469  124.7612
 470  118.7679
 471  229.1405
 472  30.26078
 473  50.29458
 474  -26.81174
 475  15.69756
 476  95.45216
 477  196.1802
 478  208.5572
 479  110.6478
 480  180.7008
 481  71.51705
 482  30.94684
 483  166.9569
 484  295.6585
 485  52.03528
 486  -50.38633
 487  164.1622
 488  161.1452
 489  63.01362
 490  155.0174
 491  246.715
 492  182.2076
 493  41.00655
 494  12.53031
 495  95.37666
 496  78.25987
 497  265.316
 498  260.4355
 499  156.7127
 500  194.8172
 501  191.2183
 502  149.3073
 503  171.406
 504  104.7946
 505  297.2433
 506  327.7679
 507  286.8448
 508  424.5974
 509  498.3976
 510  613.2307
 511  713.7571
