# Input file       =  1186109924.11468_cleaned.dat
# Candidate        =  PSR_0332+5434
# Telescope        =  AR
# Epoch_topo       =  57972.123913364354
# Epoch_bary       =  N/A
# T_sample         =  0.002
# Data Folded      =  7340032
# Data Avg         =  0.0043356963753022
# Data StdDev      =  1.0000514361775  
# Profile Bins     =  512
# Profile Avg      =  62.176519584619  
# Profile StdDev   =  119.739194986478 
# Reduced chi-sqr  =  1.189
# Prob(Noise)      <  0.00204   (~2.9 sigma)
# P_topo (ms)      =  714.467121039111  +/- 0.000102
# P'_topo (s/s)    =  -0                +/- 5.38e-11
# P''_topo (s/s^2) =  0                 +/- 2.38e-14
# P_bary (ms)      =  N/A
# P'_bary (s/s)    =  N/A
# P''_bary (s/s^2) =  N/A
# P_orb (s)        =  N/A
# asin(i)/c (s)    =  N/A
# eccentricity     =  N/A
# w (rad)          =  N/A
# T_peri           =  N/A
######################################################
   0  568.3685
   1  495.2426
   2  376.5338
   3  328.898
   4  102.2276
   5  37.1828
   6  92.11469
   7  15.939
   8  -123.8351
   9  -133.1041
  10  -127.4164
  11  105.6562
  12  99.90623
  13  152.4735
  14  152.3192
  15  18.38369
  16  79.24007
  17  17.38366
  18  1.198908
  19  12.59512
  20  -76.01405
  21  4.364781
  22  157.033
  23  97.0286
  24  -89.03224
  25  -2.172639
  26  79.84758
  27  -54.76805
  28  -0.08069249
  29  69.40026
  30  65.87234
  31  -10.626
  32  -1.730285
  33  52.52584
  34  -41.71815
  35  -2.648418
  36  -3.298764
  37  -49.79221
  38  -49.37687
  39  -67.99187
  40  113.107
  41  64.34087
  42  -51.04589
  43  -66.99133
  44  105.6197
  45  26.83122
  46  90.25961
  47  -46.80199
  48  -45.19215
  49  21.64137
  50  125.5622
  51  15.66056
  52  -29.3413
  53  54.7867
  54  86.06215
  55  114.2265
  56  14.52186
  57  24.8282
  58  -12.57016
  59  -63.23555
  60  38.04269
  61  82.6186
  62  13.83008
  63  -90.38634
  64  135.6619
  65  122.1127
  66  -102.662
  67  33.22756
  68  169.8873
  69  20.26156
  70  -15.63222
  71  -66.71236
  72  30.06642
  73  50.82663
  74  104.3393
  75  140.4574
  76  126.3283
  77  163.0311
  78  12.62302
  79  -19.85192
  80  44.27583
  81  10.36118
  82  94.12363
  83  51.90006
  84  61.96681
  85  126.5556
  86  194.4802
  87  146.0512
  88  47.39819
  89  39.7202
  90  178.8924
  91  112.9567
  92  88.52358
  93  -11.08407
  94  70.15562
  95  24.53174
  96  54.49091
  97  -58.4636
  98  -26.65439
  99  84.54214
 100  64.7998
 101  7.47168
 102  51.75778
 103  66.63196
 104  9.729449
 105  24.27301
 106  95.98533
 107  67.48275
 108  62.58004
 109  144.1539
 110  61.19441
 111  137.6642
 112  184.1503
 113  283.0775
 114  130.6771
 115  168.4633
 116  34.7115
 117  -89.71562
 118  79.15559
 119  137.3275
 120  45.85088
 121  94.92673
 122  67.52003
 123  140.0944
 124  69.56512
 125  17.82565
 126  -3.477425
 127  14.46812
 128  121.4653
 129  55.76728
 130  40.85874
 131  29.72562
 132  -2.402327
 133  67.42247
 134  107.0952
 135  123.5332
 136  185.2127
 137  141.2974
 138  4.0029
 139  60.60725
 140  -25.80342
 141  18.22616
 142  40.09721
 143  1.120939
 144  11.11018
 145  9.100968
 146  24.54448
 147  43.52182
 148  65.09492
 149  23.97009
 150  56.0173
 151  78.17439
 152  187.0201
 153  258.7824
 154  71.20122
 155  86.80816
 156  6.865317
 157  -12.40436
 158  -33.01345
 159  -92.78169
 160  -158.1655
 161  -185.0933
 162  -64.77431
 163  84.19003
 164  89.47603
 165  -46.32964
 166  -126.3751
 167  -119.2876
 168  15.02852
 169  135.3946
 170  -17.69279
 171  -73.79939
 172  69.56978
 173  81.52035
 174  58.45058
 175  52.89513
 176  61.34107
 177  52.15447
 178  146.6898
 179  128.4429
 180  100.6491
 181  56.04876
 182  86.58229
 183  -26.41298
 184  -77.05357
 185  50.51461
 186  -41.35823
 187  -37.5289
 188  12.77119
 189  155.2202
 190  147.6734
 191  67.92011
 192  169.6786
 193  178.4072
 194  64.64554
 195  51.25296
 196  118.5503
 197  184.4167
 198  301.2979
 199  147.6604
 200  121.9913
 201  26.10828
 202  -7.290151
 203  29.56411
 204  39.07827
 205  137.0938
 206  159.6504
 207  32.12798
 208  -129.8421
 209  -34.71214
 210  153.3145
 211  120.2942
 212  39.77673
 213  19.09627
 214  57.31454
 215  73.13807
 216  76.14358
 217  -1.45328
 218  -17.71534
 219  -4.239004
 220  150.2699
 221  138.3811
 222  -38.44725
 223  -24.26969
 224  -12.81998
 225  -28.97028
 226  20.41033
 227  -137.8932
 228  -102.7793
 229  -150.3245
 230  -6.156738
 231  205.8439
 232  90.15307
 233  -13.52151
 234  169.8212
 235  54.24967
 236  -31.13375
 237  109.142
 238  -7.698523
 239  -98.32065
 240  -33.06565
 241  -46.78586
 242  -97.34239
 243  -42.31275
 244  123.9137
 245  132.4611
 246  -1.439802
 247  114.7124
 248  138.419
 249  122.0081
 250  137.7316
 251  34.21843
 252  32.48642
 253  101.8382
 254  -40.76437
 255  -55.81014
 256  -24.80478
 257  81.86058
 258  216.8396
 259  154.8777
 260  55.12924
 261  93.17941
 262  128.6951
 263  82.97572
 264  21.05607
 265  62.55877
 266  99.50168
 267  218.4761
 268  209.5928
 269  70.07918
 270  77.93715
 271  88.86903
 272  27.89103
 273  24.13642
 274  111.2147
 275  85.6406
 276  -22.68401
 277  21.03982
 278  223.5032
 279  134.4654
 280  133.3156
 281  151.1789
 282  101.2865
 283  121.7359
 284  154.1467
 285  237.7314
 286  81.93379
 287  148.0338
 288  171.7772
 289  -5.695093
 290  -30.72163
 291  101.264
 292  226.027
 293  209.1424
 294  102.6366
 295  31.03562
 296  35.57645
 297  88.14625
 298  87.84689
 299  39.74942
 300  62.8129
 301  -46.36306
 302  62.19174
 303  137.5192
 304  163.9358
 305  73.61101
 306  86.2525
 307  -12.67488
 308  23.03001
 309  14.61109
 310  96.78231
 311  135.7773
 312  44.52626
 313  135.1043
 314  194.333
 315  48.84422
 316  47.96644
 317  66.13314
 318  133.8337
 319  32.15457
 320  -28.3991
 321  162.3782
 322  93.98884
 323  118.4766
 324  193.2871
 325  177.074
 326  48.9537
 327  -40.29673
 328  115.6832
 329  221.7205
 330  223.9326
 331  74.95625
 332  65.87349
 333  49.15334
 334  -13.70807
 335  56.89742
 336  68.87801
 337  88.3163
 338  65.041
 339  83.99941
 340  112.8394
 341  59.5816
 342  22.88958
 343  32.60525
 344  92.03908
 345  165.1088
 346  62.73638
 347  49.1188
 348  14.25206
 349  -86.61385
 350  57.26787
 351  199.9364
 352  90.21742
 353  -4.488672
 354  -34.84511
 355  53.64922
 356  -73.93707
 357  30.47568
 358  174.3063
 359  127.2201
 360  26.14646
 361  136.7846
 362  101.9426
 363  187.838
 364  150.2408
 365  -103.327
 366  -51.16508
 367  -0.4315389
 368  53.95763
 369  31.77627
 370  -36.91234
 371  79.75485
 372  181.8245
 373  155.5385
 374  32.00075
 375  120.3289
 376  197.8787
 377  256.7372
 378  112.1923
 379  -58.25774
 380  41.6747
 381  -5.61237
 382  65.78285
 383  121.4639
 384  146.5966
 385  79.39234
 386  -9.904035
 387  109.8631
 388  171.9129
 389  194.3376
 390  127.8446
 391  108.0282
 392  31.2025
 393  129.2399
 394  180.662
 395  53.22309
 396  119.1479
 397  59.38123
 398  104.7634
 399  26.3563
 400  2.367125
 401  -31.05448
 402  106.5542
 403  49.74787
 404  66.95128
 405  -10.80463
 406  -26.1965
 407  -83.06207
 408  128.7944
 409  55.91835
 410  121.9136
 411  194.5161
 412  48.95533
 413  113.6924
 414  65.38989
 415  -156.806
 416  -105.8262
 417  94.51409
 418  125.4818
 419  45.49078
 420  -16.88687
 421  83.41621
 422  -74.77411
 423  -12.49939
 424  -28.26665
 425  24.96914
 426  -51.42047
 427  35.42421
 428  24.06752
 429  35.35642
 430  -92.20994
 431  -156.9141
 432  46.5113
 433  28.50667
 434  -57.49225
 435  34.91748
 436  105.4074
 437  243.3679
 438  137.7195
 439  -20.34697
 440  9.835205
 441  119.0746
 442  82.78864
 443  -101.9661
 444  -132.9006
 445  40.52828
 446  23.26298
 447  68.33017
 448  -19.74855
 449  -2.380412
 450  61.46806
 451  0.9653441
 452  156.7437
 453  138.8787
 454  186.4586
 455  46.13007
 456  -3.667186
 457  39.11776
 458  82.19617
 459  125.6345
 460  78.54069
 461  184.27
 462  132.8055
 463  38.38983
 464  -110.0286
 465  6.383039
 466  152.1564
 467  157.2357
 468  -22.91285
 469  93.54482
 470  179.856
 471  63.13473
 472  -49.60899
 473  30.88681
 474  146.9244
 475  193.2022
 476  55.18807
 477  49.62835
 478  9.016121
 479  89.06116
 480  54.71208
 481  92.17004
 482  129.1538
 483  191.4223
 484  -112.4119
 485  -40.68829
 486  5.951099
 487  89.3153
 488  276.9886
 489  116.8568
 490  -104.4262
 491  -90.27116
 492  85.69139
 493  37.62897
 494  112.8133
 495  88.61983
 496  62.22392
 497  -168.8177
 498  -45.89904
 499  31.31841
 500  127.8382
 501  277.7912
 502  104.9624
 503  2.583144
 504  66.69897
 505  135.2779
 506  140.3227
 507  111.1789
 508  201.297
 509  304.3488
 510  448.4044
 511  494.187
