# Input file       =  1186956974.095455_cleaned.dat
# Candidate        =  PSR_0332+5434
# Telescope        =  AR
# Epoch_topo       =  57981.927732586286
# Epoch_bary       =  N/A
# T_sample         =  0.002
# Data Folded      =  7143424
# Data Avg         =  0.0199619519769366
# Data StdDev      =  1.00025004312659 
# Profile Bins     =  512
# Profile Avg      =  278.563367353273 
# Profile StdDev   =  118.148119222039 
# Reduced chi-sqr  =  1.560
# Prob(Noise)      <  7.09e-15   (~7.7 sigma)
# P_topo (ms)      =  714.464446148635  +/- 0.000196
# P'_topo (s/s)    =  -0                +/- 1.07e-10
# P''_topo (s/s^2) =  0                 +/- 4.83e-14
# P_bary (ms)      =  N/A
# P'_bary (s/s)    =  N/A
# P''_bary (s/s^2) =  N/A
# P_orb (s)        =  N/A
# asin(i)/c (s)    =  N/A
# eccentricity     =  N/A
# w (rad)          =  N/A
# T_peri           =  N/A
######################################################
   0  947.5195
   1  1050.119
   2  842.1779
   3  540.3539
   4  365.7234
   5  298.8338
   6  146.1021
   7  326.4323
   8  294.5845
   9  278.7792
  10  377.8572
  11  218.4224
  12  149.9106
  13  214.7595
  14  279.374
  15  160.8385
  16  295.4811
  17  512.8809
  18  323.3266
  19  98.58244
  20  188.8583
  21  275.3944
  22  281.3521
  23  232.2941
  24  275.8744
  25  317.7272
  26  372.8686
  27  270.9105
  28  166.6152
  29  190.5693
  30  195.1359
  31  280.4294
  32  289.4508
  33  314.7651
  34  348.3088
  35  197.2106
  36  348.3989
  37  441.6543
  38  293.305
  39  220.9969
  40  381.0817
  41  179.4913
  42  238.4712
  43  322.9369
  44  197.0054
  45  305.4842
  46  294.2349
  47  310.7388
  48  166.6353
  49  172.5617
  50  305.7452
  51  385.1361
  52  265.1166
  53  213.4819
  54  211.1891
  55  254.154
  56  226.9196
  57  224.2695
  58  225.2826
  59  293.3484
  60  144.7937
  61  193.4964
  62  289.1448
  63  373.2285
  64  412.5591
  65  470.7458
  66  432.5297
  67  417.4664
  68  285.1756
  69  260.132
  70  346.6746
  71  230.2849
  72  324.5159
  73  383.1354
  74  255.4082
  75  118.9345
  76  146.9011
  77  181.6179
  78  27.20067
  79  42.29509
  80  236.7843
  81  389.4203
  82  191.8691
  83  255.4212
  84  270.4271
  85  309.1066
  86  222.3349
  87  270.0124
  88  262.38
  89  243.783
  90  198.0476
  91  269.8701
  92  254.6963
  93  224.9976
  94  306.4778
  95  265.5885
  96  285.2552
  97  286.014
  98  260.2456
  99  255.5704
 100  232.3994
 101  245.3051
 102  199.8861
 103  241.4762
 104  285.8024
 105  382.1569
 106  323.4978
 107  218.0619
 108  18.65552
 109  77.45422
 110  208.031
 111  300.0342
 112  287.1824
 113  206.7883
 114  210.016
 115  249.8727
 116  214.2853
 117  155.1407
 118  99.10781
 119  120.1002
 120  142.2171
 121  245.1071
 122  287.0021
 123  282.4574
 124  239.4318
 125  187.1456
 126  312.8591
 127  239.5887
 128  247.6489
 129  334.3558
 130  338.4002
 131  300.7298
 132  196.5377
 133  239.7849
 134  263.6797
 135  254.5448
 136  194.5064
 137  149.2777
 138  202.5719
 139  280.2503
 140  366.3975
 141  153.9373
 142  178.2921
 143  162.1062
 144  109.002
 145  248.0466
 146  300.248
 147  286.2905
 148  205.5578
 149  77.34383
 150  198.9298
 151  235.5756
 152  274.8886
 153  369.0468
 154  192.9064
 155  141.6379
 156  338.4908
 157  306.1862
 158  220.2362
 159  168.9937
 160  137.4902
 161  209.3374
 162  183.385
 163  360.3996
 164  352.2767
 165  385.5745
 166  281.6476
 167  174.1735
 168  168.3336
 169  119.6136
 170  307.7184
 171  325.5685
 172  271.5214
 173  247.4147
 174  182.8043
 175  167.5251
 176  102.8188
 177  200.3471
 178  245.0679
 179  309.4846
 180  432.2814
 181  386.3524
 182  269.155
 183  252.4947
 184  334.4527
 185  361.1404
 186  452.3927
 187  293.9111
 188  143.958
 189  196.697
 190  328.5093
 191  338.6637
 192  375.5436
 193  335.2961
 194  401.0679
 195  338.8147
 196  338.9163
 197  262.8506
 198  243.8904
 199  241.1987
 200  376.8983
 201  175.8645
 202  208.5487
 203  238.55
 204  236.4023
 205  218.6481
 206  264.5264
 207  266.4665
 208  220.8836
 209  139.7341
 210  128.1031
 211  155.5443
 212  260.0857
 213  366.8647
 214  282.5265
 215  350.2852
 216  360.0707
 217  264.2943
 218  334.3346
 219  285.0152
 220  332.8333
 221  196.6681
 222  233.1039
 223  429.9331
 224  196.453
 225  132.9353
 226  158.8531
 227  272.2143
 228  276.7074
 229  372.7267
 230  351.9148
 231  377.1917
 232  261.6852
 233  294.1914
 234  234.2822
 235  79.22327
 236  234.2009
 237  260.4342
 238  245.438
 239  261.1651
 240  159.9328
 241  87.77213
 242  145.8896
 243  214.0162
 244  242.0956
 245  147.4629
 246  311.0457
 247  235.0372
 248  59.49484
 249  153.9895
 250  195.1451
 251  254.0996
 252  446.8306
 253  395.8695
 254  198.7292
 255  323.9769
 256  382.019
 257  312.9071
 258  224.3961
 259  281.5739
 260  326.3033
 261  352.8206
 262  292.9056
 263  185.5145
 264  315.107
 265  311.8388
 266  303.2534
 267  262.6396
 268  374.08
 269  390.6887
 270  224.7155
 271  309.3737
 272  352.2923
 273  317.3367
 274  259.1592
 275  327.2362
 276  256.3756
 277  204.283
 278  205.0059
 279  174.0661
 280  287.6309
 281  288.7206
 282  243.3058
 283  107.3106
 284  278.9699
 285  294.7979
 286  191.4127
 287  204.0518
 288  132.569
 289  81.00742
 290  246.4671
 291  414.3544
 292  346.0206
 293  358.2313
 294  385.818
 295  157.4964
 296  261.598
 297  358.0472
 298  383.6505
 299  307.6393
 300  243.926
 301  242.0913
 302  226.9101
 303  283.9787
 304  232.5746
 305  355.6598
 306  407.8818
 307  369.4946
 308  136.8431
 309  53.54954
 310  162.1398
 311  193.6769
 312  231.9033
 313  231.3189
 314  179.3194
 315  142.6793
 316  137.3896
 317  292.8771
 318  390.4885
 319  375.2363
 320  374.7806
 321  408.2249
 322  433.5821
 323  476.2634
 324  370.0095
 325  419.8536
 326  282.3454
 327  219.2041
 328  295.6976
 329  449.1171
 330  376.9899
 331  358.3455
 332  337.7621
 333  280.8505
 334  178.0652
 335  379.1232
 336  405.8288
 337  380.2874
 338  319.6341
 339  205.5883
 340  196.2896
 341  229.7318
 342  314.4096
 343  332.5975
 344  291.5883
 345  263.0223
 346  216.9182
 347  245.9447
 348  274.7974
 349  166.6806
 350  135.3808
 351  281.4814
 352  304.9219
 353  380.8557
 354  303.6479
 355  178.7879
 356  216.5092
 357  243.0571
 358  293.7113
 359  313.8319
 360  336.386
 361  313.7072
 362  283.1046
 363  393.0595
 364  429.7837
 365  372.2948
 366  370.2926
 367  194.5599
 368  287.066
 369  362.9441
 370  290.816
 371  209.9487
 372  175.8281
 373  237.9291
 374  301.6421
 375  225.9872
 376  173.2459
 377  291.3845
 378  350.5532
 379  293.5846
 380  248.8487
 381  280.9699
 382  217.7087
 383  259.3475
 384  265.7173
 385  180.6727
 386  159.824
 387  276.2578
 388  259.0875
 389  211.9968
 390  311.6241
 391  267.3663
 392  341.2278
 393  493.0078
 394  461.074
 395  263.4935
 396  320.6621
 397  313.7201
 398  300.6553
 399  265.124
 400  363.9694
 401  363.2846
 402  452.584
 403  481.677
 404  389.7998
 405  226.3205
 406  177.8266
 407  278.4908
 408  342.7491
 409  386.3911
 410  269.5851
 411  317.1885
 412  374.3321
 413  368.4392
 414  235.076
 415  199.9518
 416  259.0732
 417  185.4745
 418  277.3414
 419  374.0538
 420  274.5564
 421  213.7445
 422  319.1945
 423  363.4333
 424  349.5457
 425  240.6935
 426  293.8802
 427  347.3946
 428  350.1023
 429  303.933
 430  227.3544
 431  226.5213
 432  309.9816
 433  390.6939
 434  405.6563
 435  280.7587
 436  187.1452
 437  262.8584
 438  125.5536
 439  264.5734
 440  179.7647
 441  98.69492
 442  44.25587
 443  191.7516
 444  284.8282
 445  363.9147
 446  282.3927
 447  215.4547
 448  231.1643
 449  219.1093
 450  156.0183
 451  232.3049
 452  272.5031
 453  242.3567
 454  223.4672
 455  176.4785
 456  271.2754
 457  271.6885
 458  321.7716
 459  398.5956
 460  447.9409
 461  354.1724
 462  277.0485
 463  370.2933
 464  517.1432
 465  320.791
 466  232.5715
 467  326.0768
 468  232.6191
 469  220.1794
 470  298.9034
 471  372.8657
 472  304.0761
 473  316.4557
 474  344.3728
 475  334.6176
 476  334.8675
 477  221.2579
 478  320.9586
 479  358.4497
 480  358.3844
 481  483.435
 482  426.5765
 483  309.9976
 484  192.1498
 485  232.729
 486  204.7634
 487  198.808
 488  237.7118
 489  329.598
 490  272.0951
 491  250.0367
 492  383.7629
 493  459.6837
 494  279.3623
 495  405.5256
 496  358.3403
 497  241.2446
 498  242.5761
 499  195.6324
 500  241.177
 501  270.4067
 502  184.3918
 503  244.1775
 504  242.4174
 505  231.5372
 506  353.8561
 507  346.0198
 508  393.5647
 509  597.5634
 510  726.5045
 511  885.8801
