# Input file       =  1186799925.14863_cleaned.dat
# Candidate        =  PSR_0332+5434
# Telescope        =  AR
# Epoch_topo       =  57980.110036442478
# Epoch_bary       =  N/A
# T_sample         =  0.002
# Data Folded      =  7340032
# Data Avg         =  0.00741621497492868
# Data StdDev      =  1.00007937360534 
# Profile Bins     =  512
# Profile Avg      =  106.314482942786 
# Profile StdDev   =  119.742540019542 
# Reduced chi-sqr  =  1.588
# Prob(Noise)      <  5.08e-16   (~8.0 sigma)
# P_topo (ms)      =  714.464853544167  +/- 0.000114
# P'_topo (s/s)    =  -0                +/- 6e-11
# P''_topo (s/s^2) =  0                 +/- 2.65e-14
# P_bary (ms)      =  N/A
# P'_bary (s/s)    =  N/A
# P''_bary (s/s^2) =  N/A
# P_orb (s)        =  N/A
# asin(i)/c (s)    =  N/A
# eccentricity     =  N/A
# w (rad)          =  N/A
# T_peri           =  N/A
######################################################
   0  910.2331
   1  801.0843
   2  604.9622
   3  344.7032
   4  243.3929
   5  214.541
   6  94.19311
   7  34.63206
   8  68.18237
   9  110.9451
  10  100.8063
  11  52.26872
  12  43.91346
  13  79.20945
  14  14.10565
  15  98.87386
  16  236.3227
  17  61.34094
  18  -62.29677
  19  42.79942
  20  25.55686
  21  56.38282
  22  187.0786
  23  178.8814
  24  62.42596
  25  96.79216
  26  199.6837
  27  118.0071
  28  121.2876
  29  141.44
  30  143.9992
  31  182.0087
  32  172.8599
  33  78.55349
  34  44.51847
  35  182.4995
  36  93.92603
  37  37.18829
  38  66.36001
  39  -7.01653
  40  -81.45472
  41  198.8212
  42  169.859
  43  39.60175
  44  52.51628
  45  113.0195
  46  -35.63489
  47  35.38691
  48  107.0491
  49  187.8178
  50  183.8081
  51  39.28398
  52  -18.04022
  53  -64.58799
  54  2.935579
  55  117.6204
  56  107.8987
  57  31.63728
  58  78.95491
  59  -115.5645
  60  -100.2554
  61  -7.106545
  62  43.09447
  63  100.7439
  64  -21.09728
  65  35.79002
  66  139.6629
  67  4.164122
  68  145.3442
  69  12.22045
  70  -23.50775
  71  66.8003
  72  1.377414
  73  154.2317
  74  192.3965
  75  138.2834
  76  139.5452
  77  140.7404
  78  157.0082
  79  132.4932
  80  153.9678
  81  172.8935
  82  49.74907
  83  114.3103
  84  173.9032
  85  166.5584
  86  35.82451
  87  -46.13168
  88  17.5601
  89  140.8461
  90  113.4178
  91  -63.8402
  92  11.08686
  93  111.5757
  94  63.28416
  95  43.60703
  96  -80.7496
  97  69.97829
  98  40.32072
  99  140.5481
 100  110.1625
 101  85.25934
 102  96.83479
 103  175.2818
 104  97.31657
 105  39.794
 106  -61.02739
 107  -22.81596
 108  159.4855
 109  20.82407
 110  -132.2893
 111  -4.180635
 112  57.53329
 113  -5.524328
 114  152.5353
 115  160.6456
 116  79.9948
 117  -72.46886
 118  119.9361
 119  110.6965
 120  41.902
 121  71.60613
 122  55.23878
 123  143.8043
 124  183.8128
 125  146.6477
 126  145.1886
 127  204.3533
 128  220.8098
 129  81.33195
 130  -14.44483
 131  120.846
 132  246.5781
 133  210.8658
 134  69.76195
 135  81.97428
 136  155.6207
 137  44.81631
 138  75.96938
 139  142.175
 140  122.5479
 141  115.7916
 142  149.0521
 143  282.3859
 144  145.8897
 145  63.15431
 146  161.2012
 147  11.44153
 148  -21.30262
 149  -21.70631
 150  41.2909
 151  36.48753
 152  22.01529
 153  62.61291
 154  51.64282
 155  42.21144
 156  111.1712
 157  264.329
 158  203.8528
 159  286.8441
 160  192.8502
 161  142.9512
 162  135.1888
 163  33.54584
 164  -3.66814
 165  -30.20467
 166  151.5568
 167  156.2168
 168  39.93145
 169  72.84634
 170  99.12953
 171  42.82306
 172  17.03219
 173  -8.379116
 174  70.13298
 175  -4.249951
 176  41.73411
 177  88.70642
 178  133.8752
 179  325.2141
 180  140.0427
 181  64.73362
 182  69.63125
 183  78.95686
 184  -38.9125
 185  34.33656
 186  56.08115
 187  -7.384553
 188  -60.75031
 189  43.43645
 190  24.23526
 191  5.825681
 192  -172.9204
 193  8.390593
 194  4.437509
 195  -121.0055
 196  14.88098
 197  -14.04252
 198  217.7294
 199  180.1397
 200  165.7975
 201  22.51791
 202  192.1976
 203  182.2436
 204  -58.68026
 205  47.2935
 206  184.3583
 207  298.5661
 208  35.26987
 209  -75.72658
 210  50.30878
 211  70.41343
 212  98.22259
 213  150.0865
 214  131.1544
 215  192.3766
 216  169.1392
 217  169.9905
 218  215.6306
 219  247.4851
 220  219.3301
 221  165.2966
 222  265.851
 223  135.1802
 224  190.154
 225  179.6581
 226  289.2329
 227  192.9542
 228  63.53527
 229  20.70349
 230  15.04539
 231  42.06879
 232  171.2729
 233  103.428
 234  42.16322
 235  76.97384
 236  242.5101
 237  223.4416
 238  97.48153
 239  115.1573
 240  61.13226
 241  151.7613
 242  306.9858
 243  216.9596
 244  17.69925
 245  98.8652
 246  304.0637
 247  250.1239
 248  214.3454
 249  256.8009
 250  149.4538
 251  22.44357
 252  59.02802
 253  151.8289
 254  197.344
 255  123.8512
 256  79.29185
 257  168.3729
 258  81.70367
 259  37.62973
 260  87.27403
 261  110.4806
 262  75.21449
 263  85.15565
 264  58.39835
 265  72.8026
 266  -27.09182
 267  41.76654
 268  83.79395
 269  167.4451
 270  91.93779
 271  63.15933
 272  -2.718306
 273  29.63756
 274  97.7178
 275  29.54805
 276  202.0875
 277  179.3214
 278  69.49618
 279  56.71081
 280  208.8526
 281  151.5272
 282  -85.62827
 283  -14.62581
 284  145.477
 285  155.9973
 286  147.9869
 287  170.1128
 288  231.7457
 289  231.8011
 290  174.6923
 291  72.18052
 292  125.9697
 293  125.7489
 294  81.24084
 295  -16.92987
 296  56.69281
 297  147.7232
 298  13.20438
 299  105.7993
 300  144.9503
 301  119.5841
 302  -110.7332
 303  -8.294173
 304  181.7537
 305  211.3918
 306  66.40417
 307  -10.74402
 308  147.3242
 309  177.3014
 310  72.04116
 311  181.7197
 312  148.6096
 313  138.3058
 314  258.6393
 315  277.3796
 316  200.618
 317  84.59205
 318  71.26623
 319  92.44241
 320  42.24644
 321  -9.080291
 322  161.8248
 323  275.7633
 324  244.8208
 325  163.2189
 326  242.1783
 327  275.7226
 328  186.4127
 329  82.93593
 330  287.7672
 331  121.0495
 332  -83.09087
 333  -23.29425
 334  92.45123
 335  252.9877
 336  48.15018
 337  49.88473
 338  195.7241
 339  225.6783
 340  196.8029
 341  60.11805
 342  115.0875
 343  165.6204
 344  99.68593
 345  189.5684
 346  273.7427
 347  176.5641
 348  292.0257
 349  187.9975
 350  109.3615
 351  82.58783
 352  175.8138
 353  100.6403
 354  90.14776
 355  256.7703
 356  146.47
 357  32.66069
 358  147.4755
 359  102.2034
 360  145.7059
 361  20.18945
 362  53.63359
 363  66.7124
 364  208.8089
 365  334.8209
 366  72.84203
 367  168.0656
 368  136.5566
 369  109.8464
 370  106.7149
 371  155.9948
 372  94.69228
 373  68.5818
 374  164.5452
 375  271.0376
 376  57.23449
 377  101.956
 378  247.745
 379  199.9633
 380  160.9384
 381  202.1721
 382  158.3453
 383  180.6978
 384  153.5435
 385  220.5168
 386  92.24202
 387  -5.509923
 388  16.66192
 389  100.5088
 390  216.7043
 391  151.0528
 392  124.9719
 393  138.5158
 394  140.6784
 395  11.82671
 396  124.6212
 397  100.9249
 398  61.09749
 399  164.0793
 400  110.7955
 401  142.6376
 402  228.9642
 403  143.8416
 404  37.15812
 405  118.9067
 406  139.5643
 407  95.43659
 408  132.2252
 409  117.3725
 410  28.3265
 411  50.58113
 412  -9.17092
 413  148.3492
 414  106.269
 415  156.8248
 416  42.15337
 417  -13.74483
 418  12.20869
 419  62.46985
 420  166.3073
 421  147.2299
 422  78.02718
 423  117.438
 424  163.2489
 425  112.9382
 426  106.8612
 427  32.61595
 428  -22.55737
 429  63.57313
 430  -43.72451
 431  -122.1315
 432  37.74035
 433  176.5478
 434  107.5661
 435  -5.727444
 436  219.582
 437  256.36
 438  215.1203
 439  83.96793
 440  -11.61617
 441  135.2466
 442  134.1518
 443  65.79212
 444  28.79759
 445  52.6554
 446  139.4389
 447  113.0967
 448  173.2346
 449  189.7236
 450  303.6154
 451  91.02049
 452  64.41523
 453  27.13303
 454  -8.523394
 455  16.59977
 456  -1.294135
 457  34.36554
 458  -27.40168
 459  -54.05175
 460  -34.51542
 461  80.33779
 462  14.83944
 463  64.4118
 464  -9.57703
 465  129.6564
 466  120.2598
 467  39.34116
 468  -26.58711
 469  -16.08443
 470  -28.46019
 471  40.60599
 472  269.1522
 473  114.0544
 474  38.88724
 475  164.2894
 476  293.9996
 477  185.0082
 478  69.67782
 479  70.69203
 480  -8.628011
 481  45.4133
 482  86.62972
 483  36.79242
 484  -148.8756
 485  -20.26642
 486  74.75665
 487  30.21786
 488  -118.1599
 489  -80.83874
 490  -16.96916
 491  1.7095
 492  60.33677
 493  162.6381
 494  242.3045
 495  265.5704
 496  55.67774
 497  22.71298
 498  82.97259
 499  69.98533
 500  87.68404
 501  69.66396
 502  233.2878
 503  139.2585
 504  165.5903
 505  96.56986
 506  139.5381
 507  228.8358
 508  137.9483
 509  223.2141
 510  561.8792
 511  785.0103
