# Input file       =  1186900367.104086_cleaned.dat
# Candidate        =  PSR_0332+5434
# Telescope        =  AR
# Epoch_topo       =  57981.272559075071
# Epoch_bary       =  N/A
# T_sample         =  0.002
# Data Folded      =  7340032
# Data Avg         =  0.00826562250485076
# Data StdDev      =  1.00005171200232 
# Profile Bins     =  512
# Profile Avg      =  118.455782700296 
# Profile StdDev   =  119.739228011822 
# Reduced chi-sqr  =  1.281
# Prob(Noise)      <  1.64e-05   (~4.2 sigma)
# P_topo (ms)      =  714.464927350862  +/- 0.000202
# P'_topo (s/s)    =  -0                +/- 1.06e-10
# P''_topo (s/s^2) =  0                 +/- 4.7e-14
# P_bary (ms)      =  N/A
# P'_bary (s/s)    =  N/A
# P''_bary (s/s^2) =  N/A
# P_orb (s)        =  N/A
# asin(i)/c (s)    =  N/A
# eccentricity     =  N/A
# w (rad)          =  N/A
# T_peri           =  N/A
######################################################
   0  648.8724
   1  651.1465
   2  388.8962
   3  264.8527
   4  239.6157
   5  55.02693
   6  168.7153
   7  151.9667
   8  250.4565
   9  141.2277
  10  1.719786
  11  136.1156
  12  131.6478
  13  102.0286
  14  193.7135
  15  222.0643
  16  190.3089
  17  206.985
  18  -23.95872
  19  -4.492666
  20  -20.10189
  21  118.8883
  22  132.1541
  23  258.3927
  24  344.8144
  25  325.3872
  26  110.4975
  27  121.0061
  28  127.887
  29  77.16521
  30  103.7473
  31  118.4113
  32  72.8101
  33  134.4512
  34  173.3322
  35  118.59
  36  66.70966
  37  78.91667
  38  137.1018
  39  74.32862
  40  270.446
  41  204.5916
  42  107.0205
  43  115.0077
  44  81.30447
  45  23.38992
  46  -113.6136
  47  70.74486
  48  257.6493
  49  231.7954
  50  262.8237
  51  212.7554
  52  348.8116
  53  240.3254
  54  195.9078
  55  123.3082
  56  104.3469
  57  188.7586
  58  324.8448
  59  314.1205
  60  125.595
  61  24.02235
  62  27.08348
  63  74.26152
  64  79.06604
  65  60.0732
  66  167.048
  67  127.5506
  68  84.6354
  69  42.9785
  70  2.27077
  71  226.5252
  72  194.405
  73  110.5318
  74  197.9754
  75  -0.1177547
  76  -125.1019
  77  103.2932
  78  188.7312
  79  164.7415
  80  42.41709
  81  25.81974
  82  109.0577
  83  44.61778
  84  118.3288
  85  193.2331
  86  125.3668
  87  147.1568
  88  176.7046
  89  72.4832
  90  27.60314
  91  191.5435
  92  174.0274
  93  249.145
  94  135.5301
  95  72.39896
  96  188.2757
  97  65.5763
  98  39.87769
  99  175.1786
 100  114.094
 101  101.4027
 102  219.2155
 103  196.3851
 104  246.0479
 105  104.3173
 106  69.69132
 107  58.22142
 108  61.76162
 109  49.97472
 110  103.8415
 111  136.1066
 112  190.3296
 113  83.94256
 114  171.1021
 115  127.9345
 116  76.80566
 117  140.2935
 118  66.15844
 119  123.0699
 120  106.5769
 121  23.5582
 122  51.79071
 123  185.8329
 124  147.8294
 125  -106.5483
 126  -83.96837
 127  -18.09706
 128  -31.93871
 129  39.87442
 130  163.5841
 131  230.8466
 132  229.9888
 133  -34.23729
 134  -71.99602
 135  20.5437
 136  200.6173
 137  250.7924
 138  308.1449
 139  148.3398
 140  138.0247
 141  -0.6459426
 142  155.037
 143  117.4401
 144  181.1542
 145  -13.67051
 146  -230.1655
 147  -1.329746
 148  244.6335
 149  300.6544
 150  161.2761
 151  152.6266
 152  158.4693
 153  90.65015
 154  57.45489
 155  -60.19208
 156  -115.6809
 157  33.41343
 158  106.8477
 159  108.5585
 160  151.4018
 161  189.6691
 162  28.062
 163  12.69647
 164  104.0235
 165  97.7169
 166  17.77221
 167  91.27946
 168  128.6494
 169  112.0951
 170  156.7021
 171  104.7162
 172  56.07744
 173  54.91261
 174  105.0756
 175  101.4684
 176  6.933986
 177  65.01817
 178  173.9493
 179  207.3322
 180  202.3626
 181  73.62426
 182  -54.79463
 183  1.556519
 184  179.1482
 185  217.437
 186  -12.08007
 187  -31.53011
 188  54.74986
 189  107.1091
 190  132.227
 191  159.1109
 192  141.972
 193  203.6261
 194  315.9732
 195  123.8339
 196  49.00161
 197  177.0748
 198  150.1483
 199  155.069
 200  193.8229
 201  164.9108
 202  105.9836
 203  31.55602
 204  210.5785
 205  153.1995
 206  -4.220624
 207  3.189827
 208  50.92819
 209  82.95851
 210  164.3384
 211  150.7252
 212  119.1714
 213  -19.14311
 214  31.54178
 215  37.42206
 216  50.16334
 217  45.72778
 218  130.0333
 219  175.6668
 220  140.1368
 221  32.26758
 222  12.6805
 223  151.0236
 224  190.7586
 225  4.061872
 226  126.412
 227  152.921
 228  119.7781
 229  91.67586
 230  115.9976
 231  122.974
 232  63.43105
 233  150.8633
 234  107.3049
 235  76.19037
 236  66.60551
 237  -27.4299
 238  50.33947
 239  -1.654787
 240  151.5181
 241  234.0899
 242  282.0777
 243  70.10188
 244  29.51139
 245  85.18006
 246  13.19916
 247  41.7627
 248  153.0028
 249  189.6139
 250  79.1218
 251  121.4849
 252  224.974
 253  153.3366
 254  124.71
 255  112.3735
 256  267.2864
 257  134.0219
 258  92.86478
 259  102.9976
 260  85.1191
 261  35.50683
 262  50.08837
 263  48.58087
 264  113.7382
 265  93.90282
 266  187.6037
 267  169.6332
 268  177.7872
 269  191.5215
 270  281.207
 271  275.7853
 272  252.0285
 273  87.3368
 274  58.04683
 275  275.5849
 276  239.4552
 277  113.3535
 278  104.5859
 279  218.7912
 280  192.864
 281  -61.91217
 282  -49.2808
 283  56.35466
 284  112.2675
 285  211.5333
 286  179.7674
 287  146.6141
 288  195.6172
 289  200.3668
 290  233.9015
 291  172.5614
 292  228.8164
 293  60.23704
 294  3.015321
 295  61.53189
 296  165.9786
 297  194.5888
 298  124.9459
 299  42.77363
 300  77.32092
 301  83.6208
 302  72.75166
 303  50.68069
 304  -79.46419
 305  75.16054
 306  24.86261
 307  91.40577
 308  264.5148
 309  235.2726
 310  215.4658
 311  172.0648
 312  269.9931
 313  176.6612
 314  47.84291
 315  54.3265
 316  90.24638
 317  162.376
 318  38.35924
 319  31.96302
 320  26.78356
 321  62.54399
 322  88.5458
 323  125.3276
 324  103.0952
 325  85.11414
 326  55.08038
 327  -5.860072
 328  78.13985
 329  213.4284
 330  40.07883
 331  156.4417
 332  177.9993
 333  114.4823
 334  74.88676
 335  127.6581
 336  -25.17654
 337  -67.23036
 338  36.995
 339  73.79935
 340  11.61537
 341  0.4421263
 342  140.8437
 343  66.12062
 344  -76.84467
 345  -63.67375
 346  48.42916
 347  228.8203
 348  293.9403
 349  200.0145
 350  264.1486
 351  146.4121
 352  9.145067
 353  91.80547
 354  154.3993
 355  40.17601
 356  8.161709
 357  150.2148
 358  147.1189
 359  52.69172
 360  3.190955
 361  87.92465
 362  58.83144
 363  175.6672
 364  145.7394
 365  116.4443
 366  186.4032
 367  76.855
 368  128.3243
 369  159.6106
 370  81.5491
 371  -48.45967
 372  36.08377
 373  187.9217
 374  35.94188
 375  35.16359
 376  112.637
 377  44.40593
 378  130.2529
 379  127.3746
 380  -20.0953
 381  41.46694
 382  0.2107595
 383  47.05556
 384  84.79153
 385  133.7522
 386  179.2433
 387  125.8964
 388  16.16833
 389  106.3895
 390  63.85989
 391  -27.56516
 392  -22.8837
 393  169.3403
 394  98.13087
 395  56.98774
 396  163.62
 397  72.22152
 398  58.14371
 399  238.3078
 400  203.3257
 401  99.35684
 402  254.9382
 403  34.55573
 404  53.51843
 405  78.51003
 406  -56.01952
 407  -41.51088
 408  62.49416
 409  57.36879
 410  81.0281
 411  336.3753
 412  246.3507
 413  171.3002
 414  141.3452
 415  249.6122
 416  94.58862
 417  119.1025
 418  184.6487
 419  252.6752
 420  156.5596
 421  -8.559216
 422  -15.96464
 423  -50.02634
 424  111.8907
 425  175.6837
 426  264.2323
 427  229.4774
 428  72.63213
 429  5.620617
 430  24.95587
 431  115.5035
 432  77.47809
 433  153.221
 434  133.0595
 435  94.20842
 436  102.0688
 437  198.6087
 438  202.9513
 439  108.4528
 440  149.8631
 441  264.7143
 442  225.9563
 443  150.9868
 444  257.9742
 445  71.21326
 446  119.5327
 447  55.0861
 448  99.81593
 449  104.6442
 450  105.6829
 451  111.7754
 452  161.2919
 453  253.3198
 454  167.1173
 455  165.6737
 456  146.713
 457  155.3818
 458  92.69852
 459  163.8361
 460  191.6631
 461  179.2379
 462  178.0046
 463  17.29299
 464  -10.18404
 465  186.7817
 466  113.5972
 467  -3.744843
 468  63.76168
 469  163.3276
 470  168.0708
 471  130.4086
 472  137.719
 473  126.7998
 474  110.4672
 475  82.31248
 476  90.51461
 477  77.07993
 478  72.29716
 479  167.5919
 480  145.2252
 481  45.50959
 482  64.87479
 483  30.70242
 484  83.47454
 485  82.7616
 486  59.84641
 487  78.08287
 488  150.626
 489  222.2477
 490  152.4746
 491  187.9441
 492  218.891
 493  148.7864
 494  39.74542
 495  60.54881
 496  34.94091
 497  67.95798
 498  -1.367621
 499  -40.4884
 500  22.4453
 501  255.8737
 502  185.8912
 503  4.471742
 504  184.2102
 505  241.7762
 506  209.6407
 507  223.2878
 508  416.058
 509  407.7519
 510  425.5317
 511  595.3738
