# Input file       =  1186282239.11017_cleaned.dat
# Candidate        =  PSR_0332+5434
# Telescope        =  AR
# Epoch_topo       =  57974.118299886228
# Epoch_bary       =  N/A
# T_sample         =  0.002
# Data Folded      =  7340032
# Data Avg         =  0.00700439577308419
# Data StdDev      =  1.00005884516351 
# Profile Bins     =  512
# Profile Avg      =  100.4841568421   
# Profile StdDev   =  119.740082086869 
# Reduced chi-sqr  =  1.671
# Prob(Noise)      <  1.18e-19   (~9.0 sigma)
# P_topo (ms)      =  714.466465541142  +/- 0.000216
# P'_topo (s/s)    =  -0                +/- 1.14e-10
# P''_topo (s/s^2) =  0                 +/- 5.03e-14
# P_bary (ms)      =  N/A
# P'_bary (s/s)    =  N/A
# P''_bary (s/s^2) =  N/A
# P_orb (s)        =  N/A
# asin(i)/c (s)    =  N/A
# eccentricity     =  N/A
# w (rad)          =  N/A
# T_peri           =  N/A
######################################################
   0  912.162
   1  886.0645
   2  744.4054
   3  464.489
   4  235.1918
   5  264.554
   6  189.4649
   7  112.2355
   8  129.0352
   9  125.4224
  10  121.7583
  11  150.5497
  12  189.0672
  13  308.3662
  14  126.1453
  15  -57.81871
  16  -202.3966
  17  -163.3396
  18  22.23567
  19  126.5135
  20  -42.31528
  21  -19.13271
  22  -37.86539
  23  -3.402895
  24  -79.3997
  25  -96.28745
  26  -32.76884
  27  -70.16508
  28  -8.868421
  29  24.46822
  30  31.89803
  31  151.7835
  32  41.65975
  33  -61.27919
  34  22.11401
  35  143.16
  36  85.54202
  37  70.46253
  38  33.51085
  39  113.6876
  40  136.2361
  41  170.9807
  42  78.63519
  43  106.5504
  44  196.4662
  45  202.3514
  46  205.5896
  47  130.5034
  48  186.0186
  49  -31.74035
  50  -38.85703
  51  87.79176
  52  214.6453
  53  194.3782
  54  -9.753078
  55  7.639177
  56  32.62069
  57  74.74251
  58  3.196951
  59  99.38348
  60  96.5143
  61  161.7105
  62  193.8919
  63  5.403614
  64  -113.1607
  65  17.73149
  66  63.30943
  67  84.42979
  68  -23.90664
  69  81.74155
  70  83.77402
  71  50.98681
  72  9.816433
  73  -22.23876
  74  139.4716
  75  51.1484
  76  162.5558
  77  173.7944
  78  105.0256
  79  3.457901
  80  102.5829
  81  13.35539
  82  80.36217
  83  87.43793
  84  54.24843
  85  80.11576
  86  93.83343
  87  122.0843
  88  42.30444
  89  69.76703
  90  186.4896
  91  179.631
  92  206.83
  93  175.0002
  94  59.63516
  95  -12.62483
  96  176.5299
  97  124.4774
  98  -22.09201
  99  98.45324
 100  175.4165
 101  97.54765
 102  177.1255
 103  223.2717
 104  66.75584
 105  78.58552
 106  77.51774
 107  28.78508
 108  143.6721
 109  12.69999
 110  47.4018
 111  144.1456
 112  159.0351
 113  263.5207
 114  176.2711
 115  163.7356
 116  117.8608
 117  81.9527
 118  275.4762
 119  135.05
 120  132.7958
 121  -41.20122
 122  -68.18714
 123  159.3668
 124  273.0258
 125  212.6518
 126  95.3114
 127  93.8959
 128  90.43922
 129  124.3967
 130  187.7246
 131  199.8358
 132  34.28133
 133  68.24517
 134  53.53429
 135  88.69515
 136  153.2668
 137  198.2974
 138  177.6045
 139  249.7604
 140  190.4995
 141  269.4619
 142  42.53978
 143  58.72745
 144  151.1042
 145  157.4364
 146  153.6019
 147  87.90948
 148  81.03793
 149  118.8977
 150  102.2194
 151  206.6111
 152  206.5154
 153  302.0709
 154  160.6331
 155  134.5384
 156  103.8951
 157  112.279
 158  64.12411
 159  88.10995
 160  130.144
 161  35.63749
 162  44.78795
 163  156.9848
 164  184.3469
 165  270.6826
 166  143.7773
 167  9.434388
 168  -50.21347
 169  81.70486
 170  246.0668
 171  207.7154
 172  228.014
 173  155.0504
 174  -14.82606
 175  -26.73655
 176  148.4485
 177  106.8106
 178  104.8266
 179  102.0179
 180  -69.7681
 181  -30.66735
 182  19.1564
 183  85.96954
 184  -2.590113
 185  -18.40919
 186  32.81224
 187  71.56879
 188  81.7084
 189  67.94066
 190  34.93383
 191  52.02351
 192  -125.7133
 193  -61.13216
 194  71.24579
 195  66.62784
 196  126.2857
 197  140.4082
 198  143.8656
 199  177.9481
 200  167.5518
 201  176.4068
 202  106.2437
 203  109.4527
 204  131.2672
 205  119.1199
 206  115.3765
 207  121.43
 208  147.9994
 209  68.73212
 210  38.9556
 211  38.94779
 212  56.00998
 213  121.0902
 214  72.28642
 215  103.0233
 216  134.5382
 217  83.27021
 218  80.8554
 219  67.69804
 220  172.4317
 221  164.5248
 222  199.6118
 223  194.2885
 224  103.9617
 225  35.27257
 226  92.63927
 227  226.5576
 228  198.7925
 229  36.71726
 230  111.4686
 231  92.85584
 232  25.927
 233  88.97161
 234  183.9303
 235  44.40958
 236  47.99766
 237  16.8596
 238  177.9689
 239  268.8671
 240  270.763
 241  132.3095
 242  145.8999
 243  181.1083
 244  122.3271
 245  238.9025
 246  163.3682
 247  44.12522
 248  83.1828
 249  206.4044
 250  56.12308
 251  86.02002
 252  59.26183
 253  9.124672
 254  -3.122694
 255  35.45233
 256  44.50747
 257  88.3682
 258  144.8203
 259  149.8424
 260  7.916426
 261  -59.22829
 262  -85.99228
 263  7.014506
 264  -35.23928
 265  -22.24604
 266  -100.1807
 267  -17.79372
 268  -6.937029
 269  -75.08121
 270  83.65137
 271  144.6646
 272  139.6149
 273  101.5238
 274  -2.629293
 275  -23.73202
 276  24.24892
 277  119.2858
 278  127.4157
 279  96.57542
 280  66.59818
 281  32.12088
 282  122.7696
 283  144.797
 284  167.6581
 285  108.0351
 286  43.65787
 287  146.0167
 288  124.053
 289  169.1036
 290  105.7112
 291  136.1209
 292  63.53767
 293  -49.17814
 294  20.44922
 295  150.3886
 296  61.0786
 297  57.04631
 298  -49.22293
 299  0.1751724
 300  -33.68077
 301  12.43618
 302  -12.89329
 303  71.69062
 304  50.93198
 305  108.1442
 306  96.11203
 307  11.54567
 308  42.972
 309  116.1275
 310  204.8523
 311  299.3177
 312  156.3332
 313  -3.773633
 314  55.35802
 315  207.2251
 316  204.1636
 317  52.57421
 318  121.8812
 319  31.16615
 320  98.73685
 321  168.3383
 322  164.1082
 323  121.2455
 324  -6.489021
 325  -76.91971
 326  -31.82028
 327  99.75261
 328  154.1922
 329  55.03054
 330  120.2306
 331  121.4211
 332  -0.03473654
 333  -52.49195
 334  39.60176
 335  224.1112
 336  312.0903
 337  182.5881
 338  8.39262
 339  111.2045
 340  173.8019
 341  154.015
 342  167.4086
 343  15.06862
 344  -13.16858
 345  -35.12718
 346  69.5732
 347  156.3035
 348  96.76236
 349  -40.45755
 350  -88.37952
 351  104.2994
 352  172.0632
 353  196.2912
 354  218.1186
 355  -0.7124454
 356  7.611202
 357  64.25628
 358  218.138
 359  120.95
 360  -86.7469
 361  50.04361
 362  97.64783
 363  196.3047
 364  259.1013
 365  206.7699
 366  106.4397
 367  172.9685
 368  132.0568
 369  4.428962
 370  146.4253
 371  226.1082
 372  167.4094
 373  117.2349
 374  173.845
 375  101.3303
 376  198.7415
 377  183.3269
 378  117.143
 379  25.08725
 380  41.85963
 381  148.4775
 382  117.9566
 383  190.069
 384  186.9857
 385  5.28805
 386  53.77928
 387  99.54919
 388  160.4835
 389  137.9727
 390  119.5358
 391  144.5364
 392  280.0032
 393  196.7829
 394  48.5
 395  52.88869
 396  -21.85226
 397  134.2629
 398  135.1986
 399  185.2481
 400  65.19215
 401  64.26088
 402  74.12111
 403  113.0163
 404  180.745
 405  62.40444
 406  88.3819
 407  100.5309
 408  164.3638
 409  162.508
 410  96.36071
 411  59.89816
 412  26.08233
 413  158.9966
 414  153.5329
 415  142.0503
 416  108.235
 417  162.0981
 418  220.6955
 419  167.4794
 420  193.0874
 421  117.7351
 422  35.71499
 423  86.89832
 424  57.4355
 425  284.6143
 426  206.6211
 427  101.1339
 428  44.71409
 429  156.458
 430  209.8653
 431  151.6649
 432  30.30203
 433  86.81398
 434  5.030438
 435  -10.5506
 436  74.01085
 437  55.06438
 438  27.07828
 439  17.14561
 440  -19.38419
 441  122.1899
 442  60.96144
 443  -10.68703
 444  -6.862738
 445  -38.46392
 446  30.03303
 447  46.53872
 448  111.5
 449  9.340974
 450  -21.39557
 451  147.233
 452  92.43574
 453  -52.50964
 454  59.96508
 455  74.71095
 456  -38.71084
 457  -2.670421
 458  -74.46342
 459  64.43142
 460  53.72508
 461  75.02363
 462  156.433
 463  174.2581
 464  132.6461
 465  58.27658
 466  102.1307
 467  191.9412
 468  142.6222
 469  89.35027
 470  112.7618
 471  49.77061
 472  85.83825
 473  46.22734
 474  131.1943
 475  42.53934
 476  -11.5109
 477  -44.70621
 478  -72.33707
 479  91.26981
 480  109.4587
 481  83.3851
 482  145.1077
 483  46.9437
 484  114.425
 485  -24.43507
 486  21.0322
 487  -24.4532
 488  20.95011
 489  82.34599
 490  74.93057
 491  -14.97318
 492  -23.87879
 493  34.52896
 494  87.80721
 495  17.28934
 496  162.9767
 497  47.64273
 498  33.90114
 499  72.49662
 500  112.885
 501  -16.38894
 502  94.58377
 503  100.5796
 504  135.4137
 505  105.8385
 506  286.377
 507  246.296
 508  373.4747
 509  616.2346
 510  596.0748
 511  750.1191
