# Input file       =  1186971524.099253_cleaned.dat
# Candidate        =  PSR_0332+5434
# Telescope        =  AR
# Epoch_topo       =  57982.096135408021
# Epoch_bary       =  N/A
# T_sample         =  0.002
# Data Folded      =  7340032
# Data Avg         =  0.00330641743995772
# Data StdDev      =  1.00007109534035 
# Profile Bins     =  512
# Profile Avg      =  47.5873942042103 
# Profile StdDev   =  119.741548837738 
# Reduced chi-sqr  =  1.052
# Prob(Noise)      <  0.202   (~0.8 sigma)
# P_topo (ms)      =  714.464425731666  +/- 0.000151
# P'_topo (s/s)    =  -0                +/- 7.96e-11
# P''_topo (s/s^2) =  0                 +/- 3.51e-14
# P_bary (ms)      =  N/A
# P'_bary (s/s)    =  N/A
# P''_bary (s/s^2) =  N/A
# P_orb (s)        =  N/A
# asin(i)/c (s)    =  N/A
# eccentricity     =  N/A
# w (rad)          =  N/A
# T_peri           =  N/A
######################################################
   0  562.2496
   1  547.8969
   2  358.5845
   3  162.3364
   4  90.30399
   5  -26.15207
   6  14.89018
   7  31.4867
   8  36.18303
   9  50.8108
  10  77.34185
  11  104.103
  12  74.90199
  13  109.3089
  14  106.0889
  15  57.72781
  16  20.8946
  17  -33.52007
  18  -65.27565
  19  -86.56668
  20  0.4292417
  21  39.34856
  22  117.2387
  23  128.8551
  24  -95.47408
  25  -93.64893
  26  -17.44773
  27  -27.78513
  28  7.305697
  29  -31.82514
  30  4.938327
  31  -0.6106742
  32  -17.58183
  33  -36.96556
  34  54.55406
  35  204.9982
  36  9.171041
  37  33.74206
  38  10.58437
  39  2.700516
  40  -26.89703
  41  71.49861
  42  68.25084
  43  136.8598
  44  139.5595
  45  93.64661
  46  -37.82218
  47  -66.4791
  48  -119.2475
  49  51.70141
  50  94.23812
  51  -4.442069
  52  -5.755984
  53  -14.23234
  54  110.6848
  55  163.6757
  56  -59.91092
  57  -50.95243
  58  -124.925
  59  -171.1883
  60  -24.17079
  61  -29.17838
  62  -33.49293
  63  -68.85056
  64  26.87214
  65  174.4218
  66  114.0728
  67  -107.2362
  68  -46.25715
  69  -20.86959
  70  46.93541
  71  100.4712
  72  106.9562
  73  175.5146
  74  -57.97487
  75  13.41529
  76  97.18295
  77  -24.16802
  78  -66.91726
  79  -77.45785
  80  1.805295
  81  -77.83618
  82  -143.0826
  83  8.544699
  84  -47.73464
  85  -123.3934
  86  21.77696
  87  116.8002
  88  100.5032
  89  63.54143
  90  80.16401
  91  -5.77888
  92  -32.40696
  93  11.71567
  94  -11.74928
  95  48.40542
  96  52.94968
  97  -11.62685
  98  25.28971
  99  136.2594
 100  66.72091
 101  12.50296
 102  3.789386
 103  82.04088
 104  85.01772
 105  30.30346
 106  -28.52784
 107  59.56021
 108  108.1659
 109  74.45634
 110  98.33397
 111  82.24173
 112  107.322
 113  -28.49775
 114  36.49632
 115  53.16555
 116  31.60045
 117  64.27654
 118  112.0167
 119  50.79779
 120  -45.81427
 121  -23.14067
 122  -17.29387
 123  -130.6194
 124  -68.79089
 125  -89.41306
 126  68.5513
 127  66.23418
 128  124.8333
 129  199.5056
 130  44.79834
 131  -2.743764
 132  -55.00168
 133  -88.57812
 134  -77.41924
 135  -22.22512
 136  30.55228
 137  81.61893
 138  63.48611
 139  -3.975498
 140  97.55481
 141  108.8671
 142  21.84821
 143  -51.78687
 144  13.35738
 145  109.425
 146  -85.0686
 147  -42.70466
 148  82.69583
 149  84.43319
 150  140.0168
 151  163.1239
 152  63.74137
 153  -60.02688
 154  6.459413
 155  98.48734
 156  23.53734
 157  -97.13527
 158  31.22006
 159  113.9748
 160  141.6386
 161  134.7292
 162  105.1559
 163  -16.0915
 164  41.62272
 165  172.7697
 166  151.5895
 167  180.5632
 168  102.5228
 169  57.25632
 170  -24.91248
 171  28.68223
 172  -18.98849
 173  -131.2226
 174  26.42673
 175  105.6693
 176  89.65927
 177  195.6619
 178  82.70413
 179  29.26977
 180  35.36653
 181  18.78091
 182  97.56486
 183  -1.110963
 184  -23.04749
 185  -22.46202
 186  -8.442353
 187  7.853236
 188  8.421961
 189  -10.52294
 190  40.98576
 191  34.46854
 192  84.39943
 193  -4.624096
 194  136.3714
 195  134.9611
 196  111.5427
 197  40.67874
 198  29.58923
 199  54.41268
 200  25.756
 201  82.81751
 202  71.47116
 203  54.85595
 204  -36.42952
 205  28.78402
 206  193.4384
 207  49.44035
 208  145.0078
 209  177.2974
 210  53.32459
 211  76.63127
 212  -20.91618
 213  31.58647
 214  57.04976
 215  51.41841
 216  139.5302
 217  49.28652
 218  34.11306
 219  105.6544
 220  82.66059
 221  26.00212
 222  70.24178
 223  135.501
 224  148.9932
 225  77.32721
 226  66.20575
 227  43.19093
 228  68.86993
 229  60.48743
 230  95.03036
 231  65.84428
 232  -19.75267
 233  -4.454302
 234  132.619
 235  81.24398
 236  -75.53144
 237  -47.18034
 238  46.39431
 239  116.4215
 240  70.89074
 241  152.8057
 242  83.23595
 243  33.89705
 244  147.568
 245  159.9184
 246  67.09766
 247  -66.7558
 248  -141.8142
 249  -9.390807
 250  9.878502
 251  -54.73902
 252  -121.0458
 253  -96.92408
 254  -4.268773
 255  47.75387
 256  100.1003
 257  -33.83059
 258  40.51176
 259  16.02819
 260  -39.6297
 261  101.7321
 262  122.7213
 263  116.3863
 264  155.23
 265  117.7568
 266  -102.7634
 267  53.88604
 268  103.005
 269  86.18079
 270  105.8192
 271  64.67892
 272  86.46927
 273  52.77107
 274  31.07063
 275  118.4886
 276  186.9934
 277  265.6617
 278  133.336
 279  9.268939
 280  119.9073
 281  121.39
 282  89.91283
 283  24.48393
 284  -3.147091
 285  1.43179
 286  -35.72734
 287  32.32309
 288  65.20564
 289  30.48338
 290  51.9959
 291  121.7925
 292  97.19627
 293  -17.99574
 294  16.2548
 295  -2.661202
 296  69.04417
 297  127.9125
 298  116.2806
 299  56.13743
 300  -13.51815
 301  123.6183
 302  -37.81271
 303  20.48963
 304  70.66256
 305  -69.29337
 306  45.34201
 307  -61.14798
 308  -1.360675
 309  80.14389
 310  45.11547
 311  78.82529
 312  166.6275
 313  130.5321
 314  54.47807
 315  -12.82687
 316  47.93771
 317  34.52663
 318  -90.18275
 319  -48.92442
 320  -67.02137
 321  -128.7857
 322  -8.740001
 323  -49.06443
 324  42.22261
 325  257.5169
 326  331.8009
 327  283.8221
 328  0.9434003
 329  -19.02232
 330  -133.1429
 331  -26.92669
 332  71.60989
 333  -98.08808
 334  -38.79988
 335  35.36966
 336  -47.80387
 337  60.16561
 338  13.79788
 339  -41.35591
 340  61.776
 341  160.4892
 342  69.61221
 343  39.24426
 344  -32.61845
 345  64.27257
 346  26.19156
 347  76.68266
 348  26.44281
 349  99.99561
 350  193.6631
 351  210.2233
 352  48.43627
 353  -2.224661
 354  -8.233643
 355  156.9648
 356  139.3645
 357  32.43701
 358  52.25447
 359  109.4678
 360  95.27524
 361  0.6087084
 362  140.0399
 363  172.3462
 364  9.376977
 365  48.78499
 366  139.0739
 367  160.9881
 368  52.42304
 369  -5.042214
 370  61.13936
 371  137.1508
 372  110.8708
 373  -44.49283
 374  -32.984
 375  17.93846
 376  33.45241
 377  63.97342
 378  32.20705
 379  106.507
 380  73.51444
 381  -23.54747
 382  4.207521
 383  20.845
 384  -80.6058
 385  -8.32358
 386  -24.87166
 387  70.10995
 388  38.18848
 389  -35.95927
 390  20.5852
 391  169.2668
 392  78.93814
 393  1.471259
 394  81.268
 395  -14.97797
 396  8.480696
 397  101.7399
 398  175.5964
 399  27.97218
 400  -65.85326
 401  70.23832
 402  28.36048
 403  -23.03617
 404  64.84296
 405  67.87865
 406  144.3094
 407  71.82816
 408  -34.10698
 409  25.82996
 410  92.72329
 411  80.76167
 412  117.998
 413  129.0485
 414  7.337681
 415  -125.8289
 416  -38.75809
 417  47.71072
 418  -79.29594
 419  -23.86748
 420  144.1962
 421  128.4355
 422  -16.75773
 423  55.3586
 424  35.32796
 425  -82.53209
 426  -18.63737
 427  -26.56537
 428  -100.2647
 429  2.576048
 430  -58.29613
 431  98.24374
 432  214.7674
 433  137.5775
 434  64.44334
 435  90.06815
 436  65.1666
 437  -38.48298
 438  -79.29803
 439  76.63857
 440  53.84435
 441  -108.2332
 442  26.04705
 443  51.80352
 444  68.63117
 445  151.1254
 446  108.9316
 447  39.83075
 448  18.7569
 449  -40.19084
 450  -86.81718
 451  -35.23551
 452  89.67126
 453  46.51575
 454  -48.05486
 455  7.880582
 456  -23.45514
 457  29.17337
 458  219.3758
 459  199.7473
 460  76.91953
 461  24.26103
 462  -18.94909
 463  63.64767
 464  97.94239
 465  106.981
 466  93.0229
 467  143.8878
 468  -22.73104
 469  -73.39557
 470  118.2935
 471  38.39603
 472  36.2787
 473  163.8359
 474  75.54915
 475  -66.20453
 476  7.504863
 477  17.8171
 478  89.28815
 479  -6.094255
 480  -78.20663
 481  -36.66047
 482  53.47383
 483  65.30228
 484  110.3892
 485  152.695
 486  77.89067
 487  -24.82418
 488  94.43653
 489  159.9216
 490  53.92156
 491  104.726
 492  225.7047
 493  92.89845
 494  31.07186
 495  79.54844
 496  52.98071
 497  72.61158
 498  53.21914
 499  42.34019
 500  15.47835
 501  -14.54619
 502  28.66002
 503  102.9213
 504  223.4635
 505  264.729
 506  247.1792
 507  173.8424
 508  103.342
 509  215.1346
 510  422.4992
 511  464.716
