# Input file       =  1186210989.145512_cleaned.dat
# Candidate        =  PSR_0332+5434
# Telescope        =  AR
# Epoch_topo       =  57973.293647517501
# Epoch_bary       =  N/A
# T_sample         =  0.002
# Data Folded      =  7340032
# Data Avg         =  0.00758328266722778
# Data StdDev      =  1.00003933381611 
# Profile Bins     =  512
# Profile Avg      =  108.666704297297 
# Profile StdDev   =  119.737745934002 
# Reduced chi-sqr  =  1.638
# Prob(Noise)      <  3.71e-18   (~8.6 sigma)
# P_topo (ms)      =  714.467063716822  +/- 0.000129
# P'_topo (s/s)    =  -0                +/- 6.83e-11
# P''_topo (s/s^2) =  0                 +/- 3.01e-14
# P_bary (ms)      =  N/A
# P'_bary (s/s)    =  N/A
# P''_bary (s/s^2) =  N/A
# P_orb (s)        =  N/A
# asin(i)/c (s)    =  N/A
# eccentricity     =  N/A
# w (rad)          =  N/A
# T_peri           =  N/A
######################################################
   0  857.9594
   1  612.5118
   2  514.4776
   3  361.1559
   4  182.0242
   5  122.5625
   6  192.6598
   7  175.4066
   8  93.16437
   9  53.12447
  10  106.6027
  11  -14.1189
  12  30.11624
  13  101.7511
  14  96.01252
  15  282.2864
  16  329.7338
  17  234.3493
  18  86.36328
  19  63.48522
  20  51.09335
  21  234.6772
  22  125.2044
  23  94.53581
  24  144.8676
  25  99.15462
  26  104.7487
  27  25.58431
  28  168.1232
  29  214.6058
  30  97.1657
  31  68.18522
  32  182.983
  33  132.0693
  34  59.83055
  35  99.62373
  36  37.74699
  37  -2.547957
  38  61.4689
  39  117.4579
  40  42.37551
  41  -101.6612
  42  29.29253
  43  39.04064
  44  -25.75069
  45  -194.3979
  46  -70.0915
  47  -90.53265
  48  195.3864
  49  121.3591
  50  91.01285
  51  100.3537
  52  121.193
  53  47.13743
  54  21.40179
  55  161.5127
  56  139.2242
  57  71.98706
  58  -69.26698
  59  -2.22744
  60  88.66218
  61  144.9158
  62  12.03196
  63  -62.43224
  64  45.13475
  65  2.993601
  66  -118.3577
  67  -33.26247
  68  -25.17665
  69  -14.76604
  70  61.21989
  71  -63.18647
  72  97.58075
  73  -90.32673
  74  -60.17683
  75  74.85928
  76  90.03371
  77  55.34396
  78  117.5313
  79  104.502
  80  101.1507
  81  51.03638
  82  111.0956
  83  88.8436
  84  60.40709
  85  45.4258
  86  50.66095
  87  158.3777
  88  27.1636
  89  32.93842
  90  148.4024
  91  211.6798
  92  110.496
  93  206.065
  94  174.1615
  95  239.1932
  96  199.5587
  97  152.1978
  98  -19.22198
  99  79.0959
 100  76.75878
 101  -4.393144
 102  38.43085
 103  -21.75609
 104  54.34273
 105  101.4137
 106  -80.11309
 107  25.93209
 108  128.0346
 109  73.00801
 110  84.64985
 111  219.7922
 112  197.018
 113  263.8247
 114  166.3481
 115  305.3586
 116  334.9489
 117  214.4105
 118  255.3393
 119  315.4185
 120  159.3814
 121  95.09069
 122  5.671317
 123  105.285
 124  225.3606
 125  166.0844
 126  235.9836
 127  92.45909
 128  -13.56145
 129  -30.05987
 130  -31.30856
 131  186.9072
 132  177.0091
 133  150.7949
 134  296.7997
 135  175.118
 136  160.6112
 137  211.9565
 138  108.4813
 139  -47.89286
 140  98.34605
 141  84.46457
 142  36.00513
 143  117.8708
 144  82.74041
 145  161.6229
 146  233.4069
 147  304.6708
 148  230.1898
 149  269.1604
 150  228.8331
 151  202.3653
 152  249.8208
 153  320.8786
 154  278.7735
 155  201.1014
 156  167.7176
 157  211.8428
 158  203.3677
 159  240.39
 160  259.2003
 161  77.4944
 162  10.30905
 163  14.3573
 164  108.8348
 165  85.4707
 166  42.87963
 167  213.7374
 168  413.4342
 169  336.5657
 170  182.883
 171  43.72567
 172  35.77488
 173  236.4597
 174  69.03394
 175  26.29336
 176  71.15453
 177  178.6145
 178  179.8345
 179  -81.01105
 180  -80.13214
 181  129.1269
 182  176.2384
 183  198.1821
 184  170.2362
 185  121.3335
 186  59.15112
 187  72.76476
 188  114.4783
 189  154.3217
 190  32.35461
 191  189.237
 192  283.0973
 193  197.0113
 194  -2.004611
 195  -41.61915
 196  -7.843143
 197  90.35553
 198  114.4628
 199  -48.40975
 200  18.96181
 201  77.19209
 202  80.34058
 203  75.05289
 204  195.7621
 205  279.1479
 206  109.5
 207  17.33442
 208  79.93581
 209  45.84842
 210  199.0748
 211  88.62961
 212  85.42158
 213  81.10929
 214  42.38412
 215  115.5499
 216  60.25342
 217  5.491768
 218  34.72929
 219  -24.20212
 220  27.87697
 221  -34.0456
 222  -9.448852
 223  81.39525
 224  6.868716
 225  -16.92881
 226  33.71458
 227  240.935
 228  224.6112
 229  45.38451
 230  64.47083
 231  111.9031
 232  90.6484
 233  142.839
 234  66.64401
 235  134.7098
 236  208.5882
 237  191.8653
 238  134.9554
 239  -14.32662
 240  80.55191
 241  27.13905
 242  -104.6627
 243  23.51081
 244  22.7618
 245  91.00959
 246  67.69944
 247  0.08137379
 248  40.60945
 249  208.3764
 250  42.85716
 251  89.16894
 252  192.6097
 253  197.4776
 254  118.1875
 255  109.2278
 256  97.47188
 257  4.655801
 258  -94.74195
 259  -57.02288
 260  39.77069
 261  93.50119
 262  7.213364
 263  82.06483
 264  129.6832
 265  60.25493
 266  31.0355
 267  159.239
 268  225.8852
 269  192.1555
 270  138.0374
 271  21.36682
 272  120.6745
 273  -42.52072
 274  -138.8559
 275  -26.40689
 276  40.08719
 277  81.40519
 278  39.31846
 279  108.2486
 280  81.87853
 281  -3.579987
 282  12.52011
 283  -31.13017
 284  188.1528
 285  55.24931
 286  136.3418
 287  108.8318
 288  100.4547
 289  -18.82828
 290  -54.04989
 291  194.1618
 292  114.8954
 293  29.29277
 294  51.62505
 295  80.97662
 296  5.659866
 297  70.60659
 298  74.79029
 299  122.5268
 300  77.62375
 301  -14.05103
 302  -109.9981
 303  1.288433
 304  58.32104
 305  49.37998
 306  176.0459
 307  71.53973
 308  174.1168
 309  132.329
 310  227.4826
 311  66.90792
 312  73.97578
 313  86.62726
 314  83.01913
 315  108.8025
 316  87.00319
 317  43.3114
 318  86.15014
 319  103.631
 320  150.2946
 321  44.51775
 322  0.9504973
 323  -17.65324
 324  142.6216
 325  280.0347
 326  270.4294
 327  219.5419
 328  197.4433
 329  97.03131
 330  171.1357
 331  111.8695
 332  176.5893
 333  87.54226
 334  -46.9786
 335  135.3888
 336  144.8471
 337  152.6591
 338  179.3864
 339  40.90761
 340  35.1229
 341  173.8561
 342  117.0123
 343  116.6959
 344  176.5061
 345  -31.59879
 346  -97.76867
 347  -5.562819
 348  47.39274
 349  56.41031
 350  80.01904
 351  17.18359
 352  134.5522
 353  47.96846
 354  14.92734
 355  150.1508
 356  19.7431
 357  -36.91502
 358  -14.82553
 359  40.7747
 360  33.78305
 361  174.5019
 362  226.2901
 363  251.4393
 364  112.8867
 365  207.8859
 366  28.36412
 367  95.13309
 368  214.4164
 369  162.4142
 370  102.4919
 371  47.71698
 372  67.12589
 373  -72.36792
 374  32.00554
 375  133.1565
 376  100.1952
 377  48.7502
 378  72.89671
 379  97.4223
 380  73.54826
 381  -26.3463
 382  106.9605
 383  140.9353
 384  176.2347
 385  -33.9507
 386  -105.808
 387  -42.53859
 388  88.80482
 389  164.4866
 390  142.9594
 391  25.43838
 392  76.37722
 393  60.27791
 394  -76.34747
 395  58.90267
 396  127.1397
 397  176.4307
 398  141.2818
 399  205.8826
 400  266.4954
 401  196.5112
 402  132.2158
 403  107.3113
 404  68.20189
 405  90.78101
 406  77.76167
 407  142.9834
 408  42.69121
 409  134.9227
 410  176.2736
 411  176.6842
 412  70.03106
 413  35.52201
 414  59.11665
 415  40.1526
 416  144.0638
 417  241.6718
 418  297.5921
 419  139.4006
 420  165.1337
 421  142.1723
 422  170.0297
 423  178.4719
 424  89.79651
 425  201.331
 426  157.8471
 427  -8.872046
 428  183.2867
 429  146.0733
 430  9.518458
 431  77.71695
 432  123.4937
 433  48.55407
 434  103.0672
 435  96.70924
 436  168.1332
 437  51.41093
 438  51.12664
 439  72.36676
 440  105.0071
 441  -32.00909
 442  12.08994
 443  172.9958
 444  256.0283
 445  91.76051
 446  37.25698
 447  27.05846
 448  -34.49403
 449  14.76176
 450  95.29849
 451  222.1288
 452  216.9467
 453  242.9993
 454  286.5653
 455  129.3672
 456  147.3386
 457  177.0654
 458  169.6538
 459  160.3593
 460  155.1687
 461  58.1655
 462  109.2996
 463  177.7242
 464  314.1527
 465  166.4712
 466  162.1464
 467  135.7208
 468  182.2556
 469  210.8317
 470  30.03776
 471  168.9742
 472  87.04927
 473  136.5101
 474  29.89283
 475  -53.28469
 476  111.5127
 477  174.7439
 478  38.06927
 479  82.0435
 480  192.1481
 481  158.8153
 482  166.1134
 483  173.1664
 484  100.6226
 485  84.97915
 486  116.2382
 487  68.73143
 488  6.859392
 489  3.614781
 490  -23.00061
 491  102.4451
 492  190.5939
 493  198.9705
 494  227.2162
 495  198.6257
 496  250.536
 497  183.164
 498  120.1221
 499  148.3038
 500  103.9832
 501  35.97745
 502  79.10052
 503  150.8716
 504  230.3356
 505  348.0034
 506  170.1406
 507  275.6598
 508  351.9492
 509  503.8672
 510  664.7897
 511  779.1219
