# Input file       =  1186196071.12301_cleaned.dat
# Candidate        =  PSR_0332+5434
# Telescope        =  AR
# Epoch_topo       =  57973.120985220019
# Epoch_bary       =  N/A
# T_sample         =  0.002
# Data Folded      =  7340032
# Data Avg         =  0.0109726160444009
# Data StdDev      =  1.00006703625257 
# Profile Bins     =  512
# Profile Avg      =  157.155235626184 
# Profile StdDev   =  119.741062830834 
# Reduced chi-sqr  =  1.429
# Prob(Noise)      <  5.71e-10   (~6.1 sigma)
# P_topo (ms)      =  714.466786005602  +/- 0.000144
# P'_topo (s/s)    =  -0                +/- 7.59e-11
# P''_topo (s/s^2) =  0                 +/- 3.35e-14
# P_bary (ms)      =  N/A
# P'_bary (s/s)    =  N/A
# P''_bary (s/s^2) =  N/A
# P_orb (s)        =  N/A
# asin(i)/c (s)    =  N/A
# eccentricity     =  N/A
# w (rad)          =  N/A
# T_peri           =  N/A
######################################################
   0  901.7334
   1  954.0405
   2  551.4138
   3  347.6444
   4  74.34305
   5  31.1653
   6  91.08828
   7  108.59
   8  119.8978
   9  98.03685
  10  238.4672
  11  149.1759
  12  186.6453
  13  127.3612
  14  76.70436
  15  236.4668
  16  194.3037
  17  222.9937
  18  114.9734
  19  28.86042
  20  110.3382
  21  231.1776
  22  139.242
  23  116.0475
  24  126.5159
  25  130.7276
  26  152.6992
  27  152.4747
  28  150.7673
  29  143.6655
  30  250.3487
  31  242.0616
  32  252.8418
  33  147.9746
  34  217.8481
  35  197.8861
  36  170.1184
  37  130.0972
  38  87.18515
  39  239.5621
  40  344.3737
  41  389.4547
  42  290.7585
  43  131.0925
  44  113.3829
  45  200.9727
  46  226.2145
  47  186.4327
  48  247.0563
  49  235.3853
  50  167.7816
  51  148.3274
  52  195.8826
  53  98.23161
  54  100.3284
  55  115.0847
  56  143.5914
  57  182.1975
  58  112.0328
  59  155.5821
  60  91.4156
  61  18.31793
  62  182.0627
  63  288.2711
  64  204.1885
  65  204.0034
  66  14.32887
  67  138.915
  68  197.4103
  69  303.8572
  70  429.2692
  71  173.3444
  72  125.5328
  73  212.8577
  74  157.1361
  75  148.1744
  76  211.9837
  77  71.62465
  78  34.75591
  79  146.8698
  80  -10.13567
  81  -1.914985
  82  145.7414
  83  180.7856
  84  75.32353
  85  17.26468
  86  126.1258
  87  43.20961
  88  5.90701
  89  1.432117
  90  -40.24462
  91  41.46815
  92  138.1144
  93  -4.49079
  94  32.08416
  95  243.8565
  96  131.4251
  97  114.4743
  98  180.6759
  99  74.6494
 100  17.43224
 101  1.529961
 102  53.17333
 103  60.65605
 104  16.55718
 105  92.39224
 106  111.2481
 107  126.8233
 108  101.1915
 109  151.9363
 110  125.8146
 111  25.26937
 112  91.67921
 113  164.8196
 114  192.2062
 115  107.8211
 116  199.2011
 117  292.6848
 118  75.98534
 119  158.3434
 120  210.5876
 121  166.5314
 122  134.6921
 123  88.90942
 124  68.06418
 125  81.11382
 126  273.1446
 127  122.5307
 128  172.6915
 129  188.0772
 130  218.4357
 131  117.258
 132  95.3385
 133  95.32611
 134  154.745
 135  235.795
 136  296.0987
 137  263.0178
 138  171.0184
 139  137.9628
 140  200.1499
 141  137.1347
 142  73.74461
 143  288.7551
 144  182.8564
 145  113.9044
 146  141.0878
 147  127.671
 148  145.4612
 149  210.5502
 150  58.88962
 151  123.083
 152  172.4175
 153  168.7513
 154  278.8727
 155  295.6746
 156  260.8695
 157  141.9434
 158  71.18495
 159  142.4107
 160  62.7138
 161  82.65565
 162  85.05651
 163  183.0667
 164  199.2769
 165  152.6462
 166  151.7553
 167  128.9218
 168  137.2409
 169  83.81425
 170  257.7846
 171  178.536
 172  100.9525
 173  121.0599
 174  99.01518
 175  90.77979
 176  210.667
 177  148.7508
 178  84.71776
 179  103.8745
 180  85.84635
 181  108.0904
 182  141.5142
 183  208.2688
 184  138.6905
 185  220.7797
 186  201.7549
 187  174.2585
 188  181.5787
 189  201.0126
 190  99.61936
 191  94.65815
 192  46.84505
 193  28.97225
 194  120.4998
 195  -35.47433
 196  -68.38894
 197  122.2628
 198  213.6797
 199  189.0339
 200  248.4055
 201  178.3041
 202  131.6284
 203  112.1676
 204  106.991
 205  260.0897
 206  150.3102
 207  7.126973
 208  189.2749
 209  313.8248
 210  131.3809
 211  73.31926
 212  144.1706
 213  221.9344
 214  126.6992
 215  86.23112
 216  236.4605
 217  246.7063
 218  155.6688
 219  220.7988
 220  234.6482
 221  196.8688
 222  183.2847
 223  166.9187
 224  332.5812
 225  243.4536
 226  179.323
 227  131.4947
 228  153.4254
 229  89.61826
 230  168.0867
 231  162.976
 232  154.8598
 233  133.3148
 234  264.1442
 235  197.9608
 236  106.3663
 237  107.0836
 238  284.829
 239  127.6115
 240  109.4577
 241  300.7528
 242  364.7776
 243  244.1057
 244  162.7927
 245  287.6979
 246  272.6414
 247  177.4776
 248  81.27513
 249  97.04283
 250  173.3893
 251  225.2207
 252  206.522
 253  169.5278
 254  80.98947
 255  138.053
 256  133.0909
 257  160.2507
 258  191.0897
 259  118.2719
 260  118.7854
 261  182.363
 262  143.5753
 263  97.66348
 264  282.4754
 265  179.1298
 266  215.8494
 267  202.6931
 268  117.8761
 269  100.4705
 270  186.127
 271  109.7184
 272  123.5015
 273  244.628
 274  103.176
 275  210.4841
 276  244.9545
 277  126.4081
 278  124.5161
 279  196.441
 280  284.4498
 281  232.1169
 282  188.833
 283  191.224
 284  78.16913
 285  267.5608
 286  274.0381
 287  355.7542
 288  210.3867
 289  133.396
 290  27.17546
 291  150.1562
 292  210.6393
 293  228.0745
 294  301.6415
 295  184.2525
 296  21.0361
 297  56.42237
 298  230.4033
 299  182.4294
 300  177.7338
 301  281.7807
 302  114.0167
 303  193.8033
 304  136.8992
 305  152.0954
 306  121.3247
 307  17.72193
 308  160.7574
 309  290.1537
 310  12.22187
 311  117.6013
 312  239.033
 313  213.7735
 314  206.7703
 315  210.5541
 316  191.7737
 317  210.3621
 318  58.33014
 319  -8.349957
 320  152.6174
 321  116.4333
 322  85.97053
 323  212.4234
 324  239.7007
 325  262.9961
 326  77.48965
 327  119.6824
 328  168.869
 329  136.2584
 330  25.87244
 331  18.92354
 332  26.88413
 333  103.6833
 334  101.1649
 335  90.58299
 336  57.91102
 337  161.4259
 338  191.1385
 339  164.4229
 340  158.6849
 341  184.3684
 342  288.2232
 343  227.7665
 344  230.0659
 345  228.0382
 346  166.456
 347  154.7032
 348  149.9132
 349  229.6878
 350  190.4911
 351  110.654
 352  93.23627
 353  170.0719
 354  184.4716
 355  213.0555
 356  173.3581
 357  124.0845
 358  187.1988
 359  285.8217
 360  161.6965
 361  70.34757
 362  90.77216
 363  12.98112
 364  104.1339
 365  154.8712
 366  71.44447
 367  28.50026
 368  89.58855
 369  25.92068
 370  -58.25503
 371  -53.73787
 372  119.9506
 373  78.62656
 374  23.00963
 375  96.53098
 376  160.547
 377  207.0519
 378  147.2601
 379  78.53267
 380  69.53864
 381  122.9276
 382  264.5085
 383  161.515
 384  115.3196
 385  152.6106
 386  189.7049
 387  150.9463
 388  45.42959
 389  41.37922
 390  216.0601
 391  75.51753
 392  50.67424
 393  110.0903
 394  12.13725
 395  78.60433
 396  261.5281
 397  262.6768
 398  160.7761
 399  162.5407
 400  226.1198
 401  77.80006
 402  146.4427
 403  174.0508
 404  59.85857
 405  55.91423
 406  91.96233
 407  98.37827
 408  171.2163
 409  232.0465
 410  182.8396
 411  156.3952
 412  153.3954
 413  221.792
 414  256.9814
 415  269.5359
 416  295.4038
 417  261.312
 418  304.4309
 419  156.41
 420  70.18448
 421  243.5814
 422  290.5595
 423  287.7131
 424  212.3934
 425  219.5309
 426  245.65
 427  243.4647
 428  127.2063
 429  112.7194
 430  115.396
 431  190.4542
 432  -1.704097
 433  -45.66177
 434  111.4566
 435  218.7091
 436  256.7918
 437  94.61751
 438  17.3959
 439  101.0767
 440  314.186
 441  305.6134
 442  110.3129
 443  27.86127
 444  212.6064
 445  132.3535
 446  157.1687
 447  44.7185
 448  50.51641
 449  54.58271
 450  228.4715
 451  200.6819
 452  164.9436
 453  141.7608
 454  98.93132
 455  171.3719
 456  162.5484
 457  98.21317
 458  112.1305
 459  304.8651
 460  320.1336
 461  230.7741
 462  194.9276
 463  184.9214
 464  155.0795
 465  81.34111
 466  13.75658
 467  133.5547
 468  228.9346
 469  125.372
 470  29.92035
 471  44.02304
 472  126.2886
 473  94.45734
 474  95.32371
 475  13.02161
 476  33.55126
 477  121.6561
 478  82.74093
 479  127.6757
 480  124.0596
 481  49.68563
 482  75.41595
 483  37.01674
 484  208.1089
 485  165.6133
 486  63.16722
 487  117.1656
 488  163.1505
 489  130.65
 490  -5.467535
 491  116.6169
 492  152.2691
 493  326.8284
 494  358.0283
 495  175.0502
 496  86.10278
 497  167.3893
 498  149.1062
 499  39.82777
 500  10.92194
 501  -64.84428
 502  68.64488
 503  201.9474
 504  158.7067
 505  68.45225
 506  140.854
 507  285.6743
 508  467.3275
 509  582.8476
 510  621.1487
 511  727.6971
