# Input file       =  1186383347.125036_cleaned.dat
# Candidate        =  PSR_0332+5434
# Telescope        =  AR
# Epoch_topo       =  57975.288531539765
# Epoch_bary       =  N/A
# T_sample         =  0.002
# Data Folded      =  7340032
# Data Avg         =  0.00877273176495503
# Data StdDev      =  1.00003161190954 
# Profile Bins     =  512
# Profile Avg      =  125.782678130549 
# Profile StdDev   =  119.736821366682 
# Reduced chi-sqr  =  1.383
# Prob(Noise)      <  1.88e-08   (~5.5 sigma)
# P_topo (ms)      =  714.466442622755  +/- 0.000196
# P'_topo (s/s)    =  -0                +/- 1.04e-10
# P''_topo (s/s^2) =  0                 +/- 4.57e-14
# P_bary (ms)      =  N/A
# P'_bary (s/s)    =  N/A
# P''_bary (s/s^2) =  N/A
# P_orb (s)        =  N/A
# asin(i)/c (s)    =  N/A
# eccentricity     =  N/A
# w (rad)          =  N/A
# T_peri           =  N/A
######################################################
   0  804.6551
   1  705.37
   2  434.9919
   3  292.1951
   4  151.2988
   5  190.9756
   6  226.3662
   7  192.2406
   8  133.0501
   9  32.96624
  10  79.69839
  11  163.1164
  12  162.678
  13  98.81045
  14  132.669
  15  225.279
  16  228.2362
  17  124.2637
  18  102.9589
  19  134.8418
  20  -49.24741
  21  40.79655
  22  203.1618
  23  90.97554
  24  34.38192
  25  228.708
  26  172.8905
  27  28.25442
  28  191.24
  29  176.6809
  30  276.076
  31  118.7776
  32  163.3608
  33  159.8196
  34  67.74918
  35  10.52828
  36  -7.524509
  37  44.19905
  38  -84.38795
  39  0.8250576
  40  60.60044
  41  120.9924
  42  107.1551
  43  162.0167
  44  130.0191
  45  72.3295
  46  172.5828
  47  227.9803
  48  317.1013
  49  274.6211
  50  231.1632
  51  132.0236
  52  100.5624
  53  56.46109
  54  -38.29289
  55  95.38283
  56  41.23476
  57  65.87257
  58  103.6767
  59  182.0829
  60  165.0125
  61  234.652
  62  205.2169
  63  109.9854
  64  179.7725
  65  195.3054
  66  92.94426
  67  109.126
  68  8.530239
  69  -20.40916
  70  -25.73335
  71  179.575
  72  106.1409
  73  10.90167
  74  141.9128
  75  239.5197
  76  266.1117
  77  137.0737
  78  -44.55495
  79  131.9816
  80  166.8825
  81  197.4291
  82  39.86702
  83  111.4711
  84  112.7209
  85  -55.66325
  86  51.51534
  87  92.74369
  88  87.47813
  89  141.59
  90  81.71987
  91  60.19963
  92  98.31531
  93  -69.82898
  94  34.87713
  95  31.22634
  96  60.23014
  97  115.9266
  98  116.4125
  99  -9.591519
 100  46.67165
 101  158.8554
 102  175.7978
 103  40.06391
 104  23.53367
 105  60.21567
 106  112.2603
 107  119.5427
 108  185.5081
 109  151.3092
 110  101.8414
 111  44.24321
 112  117.223
 113  92.48793
 114  21.72622
 115  29.86407
 116  266.8199
 117  327.837
 118  281.0405
 119  175.7892
 120  135.9924
 121  53.28392
 122  22.59049
 123  202.8489
 124  263.7695
 125  168.2243
 126  173.8855
 127  180.0851
 128  164.2896
 129  126.567
 130  96.11531
 131  165.765
 132  122.123
 133  66.26191
 134  166.2539
 135  20.50914
 136  34.52564
 137  71.05287
 138  131.3225
 139  158.535
 140  101.9198
 141  154.3259
 142  78.69128
 143  61.35826
 144  141.0437
 145  13.93409
 146  58.81995
 147  78.87836
 148  119.0774
 149  21.27619
 150  -19.31034
 151  191.0907
 152  74.24658
 153  -79.43306
 154  -55.15773
 155  -30.04899
 156  -81.13158
 157  41.67169
 158  185.4355
 159  50.29052
 160  73.81825
 161  122.7594
 162  157.4405
 163  58.13299
 164  57.60627
 165  86.61727
 166  6.532334
 167  152.8219
 168  102.4778
 169  142.254
 170  95.13239
 171  127.1836
 172  110.8779
 173  135.4062
 174  88.6598
 175  45.39403
 176  94.47685
 177  98.3259
 178  192.5068
 179  178.5703
 180  233.7371
 181  242.2022
 182  175.2063
 183  102.5148
 184  176.7348
 185  179.7913
 186  216.35
 187  188.42
 188  289.9882
 189  305.2414
 190  110.7539
 191  205.1921
 192  86.09296
 193  138.1932
 194  159.8977
 195  139.2228
 196  273.818
 197  139.6576
 198  258.88
 199  289.6144
 200  212.0685
 201  147.4666
 202  76.99051
 203  161.4898
 204  128.5643
 205  206.8618
 206  97.86372
 207  40.62045
 208  81.824
 209  20.08566
 210  86.03637
 211  216.5267
 212  161.3988
 213  172.1877
 214  194.8944
 215  255.2113
 216  86.81402
 217  30.16586
 218  106.8021
 219  153.1864
 220  150.2277
 221  244.2839
 222  158.7092
 223  101.6948
 224  0.09311639
 225  156.0744
 226  147.89
 227  122.9653
 228  46.94935
 229  153.8198
 230  99.68661
 231  -62.56137
 232  -57.40345
 233  114.0206
 234  194.8077
 235  100.6697
 236  -33.68607
 237  9.266841
 238  190.9334
 239  173.4846
 240  213.71
 241  280.733
 242  71.04343
 243  71.81401
 244  -26.32999
 245  69.77483
 246  -14.78164
 247  226.1783
 248  143.1615
 249  113.7863
 250  29.43168
 251  49.87481
 252  -22.86102
 253  111.0039
 254  303.8555
 255  262.8453
 256  206.7254
 257  194.798
 258  336.3127
 259  109.0153
 260  90.75714
 261  181.7522
 262  115.3301
 263  228.2877
 264  68.89323
 265  128.5481
 266  218.3711
 267  175.934
 268  143.7186
 269  92.59082
 270  78.18594
 271  40.54962
 272  -33.71589
 273  155.9893
 274  181.5345
 275  71.79422
 276  89.14577
 277  41.63199
 278  131.6033
 279  164.5258
 280  77.97832
 281  78.56097
 282  71.27198
 283  85.11903
 284  -20.29553
 285  35.54224
 286  99.44751
 287  64.64035
 288  153.3139
 289  68.91622
 290  117.5801
 291  24.76369
 292  -88.86497
 293  1.492474
 294  175.1912
 295  79.35405
 296  30.68435
 297  30.75018
 298  5.602952
 299  84.69858
 300  80.88848
 301  149.7672
 302  48.1601
 303  -36.83824
 304  35.26854
 305  85.7251
 306  37.21978
 307  76.91992
 308  69.51561
 309  202.4574
 310  154.2375
 311  32.65842
 312  -76.92027
 313  -76.9339
 314  85.55545
 315  162.5299
 316  47.79426
 317  15.45957
 318  8.400685
 319  59.40689
 320  145.7063
 321  164.7972
 322  240.2114
 323  235.1417
 324  160.1787
 325  125.9501
 326  100.4243
 327  128.1659
 328  -7.824837
 329  11.82635
 330  -37.14622
 331  15.10511
 332  127.9535
 333  16.90904
 334  -10.90649
 335  9.833692
 336  63.41666
 337  126.3421
 338  154.2421
 339  178.26
 340  139.4688
 341  252.135
 342  245.4361
 343  294.8042
 344  299.9105
 345  140.8303
 346  208.5761
 347  135.9057
 348  108.9544
 349  135.0572
 350  0.114559
 351  40.87251
 352  80.91924
 353  116.7111
 354  239.5458
 355  226.8145
 356  77.44896
 357  232.5389
 358  131.0369
 359  111.4633
 360  95.66148
 361  164.3388
 362  210.0192
 363  176.3203
 364  79.18152
 365  105.028
 366  162.6924
 367  95.86906
 368  117.35
 369  221.9684
 370  192.2274
 371  89.65064
 372  59.33203
 373  161.8722
 374  73.66425
 375  46.00588
 376  46.91699
 377  71.0332
 378  12.01991
 379  101.9498
 380  73.03582
 381  7.048418
 382  153.0988
 383  179.1116
 384  46.54562
 385  45.1981
 386  135.8684
 387  7.622967
 388  16.09068
 389  112.0542
 390  241.3143
 391  331.8586
 392  269.8083
 393  177.1147
 394  109.5118
 395  232.2055
 396  230.6089
 397  5.11211
 398  40.66859
 399  91.92507
 400  151.0665
 401  226.1622
 402  105.4582
 403  24.16149
 404  118.9735
 405  151.9308
 406  289.7634
 407  223.5439
 408  261.899
 409  200.8325
 410  89.57741
 411  114.9145
 412  213.9131
 413  256.7038
 414  180.0885
 415  25.31305
 416  71.09465
 417  148.1079
 418  78.2869
 419  161.088
 420  189.7486
 421  168.3609
 422  191.4493
 423  197.0529
 424  95.36999
 425  25.19073
 426  126.9813
 427  -20.57562
 428  71.00549
 429  75.68713
 430  62.66457
 431  103.6671
 432  46.42436
 433  62.74094
 434  51.3837
 435  155.3167
 436  88.32829
 437  20.48514
 438  60.55983
 439  201.0611
 440  139.0184
 441  155.2928
 442  110.8401
 443  232.4115
 444  297.3704
 445  121.2256
 446  1.322138
 447  129.1633
 448  189.2122
 449  125.0708
 450  76.52135
 451  153.5514
 452  229.9559
 453  -12.13723
 454  -15.65272
 455  53.64398
 456  163.5979
 457  122.1994
 458  87.71552
 459  94.43462
 460  164.5579
 461  358.3714
 462  279.1066
 463  89.13303
 464  -32.67773
 465  151.5529
 466  250.2692
 467  23.32044
 468  53.26596
 469  154.7122
 470  220.6869
 471  76.70829
 472  131.7688
 473  231.5661
 474  184.0482
 475  183.915
 476  184.9689
 477  32.50979
 478  104.8789
 479  122.4249
 480  161.9217
 481  79.29609
 482  42.78439
 483  130.004
 484  278.4307
 485  337.253
 486  183.6508
 487  74.87135
 488  154.6238
 489  114.4216
 490  -52.62211
 491  100.0949
 492  265.596
 493  368.1402
 494  219.7879
 495  238.6506
 496  207.9837
 497  160.021
 498  124.6697
 499  205.8688
 500  132.4819
 501  95.22066
 502  52.54824
 503  111.3292
 504  248.2996
 505  250.0762
 506  200.0382
 507  79.36586
 508  244.0875
 509  570.6635
 510  692.6192
 511  615.1741
