# Input file       =  1186353793.111462_cleaned.dat
# Candidate        =  PSR_0332+5434
# Telescope        =  AR
# Epoch_topo       =  57974.946471197480
# Epoch_bary       =  N/A
# T_sample         =  0.002
# Data Folded      =  7208960
# Data Avg         =  0.0132648373532907
# Data StdDev      =  1.00009295588563 
# Profile Bins     =  512
# Profile Avg      =  186.823295639871 
# Profile StdDev   =  118.670205862304 
# Reduced chi-sqr  =  1.706
# Prob(Noise)      <  2.91e-21   (~9.4 sigma)
# P_topo (ms)      =  714.466197330388  +/- 0.000187
# P'_topo (s/s)    =  -0                +/- 1.01e-10
# P''_topo (s/s^2) =  0                 +/- 4.52e-14
# P_bary (ms)      =  N/A
# P'_bary (s/s)    =  N/A
# P''_bary (s/s^2) =  N/A
# P_orb (s)        =  N/A
# asin(i)/c (s)    =  N/A
# eccentricity     =  N/A
# w (rad)          =  N/A
# T_peri           =  N/A
######################################################
   0  929.9802
   1  718.938
   2  454.0875
   3  388.7413
   4  235.329
   5  267.0265
   6  131.3332
   7  166.7397
   8  259.5418
   9  232.8256
  10  103.8225
  11  125.8919
  12  350.8743
  13  274.547
  14  182.7261
  15  215.8709
  16  307.1131
  17  256.9649
  18  196.1817
  19  168.2003
  20  78.7674
  21  145.8638
  22  131.9783
  23  215.1698
  24  233.6279
  25  217.3655
  26  94.73811
  27  95.49402
  28  333.1038
  29  187.8183
  30  23.06216
  31  190.7163
  32  260.9965
  33  224.0213
  34  174.055
  35  172.7941
  36  153.5996
  37  191.7628
  38  29.01183
  39  149.6595
  40  246.2157
  41  80.33465
  42  -94.39273
  43  100.1878
  44  204.2894
  45  288.7553
  46  183.2124
  47  136.6055
  48  72.96557
  49  102.3718
  50  264.6846
  51  312.6866
  52  257.1369
  53  98.25366
  54  128.4237
  55  104.2505
  56  147.5464
  57  270.0674
  58  298.3539
  59  160.2875
  60  82.23813
  61  91.28401
  62  228.4033
  63  251.5764
  64  126.9571
  65  3.686254
  66  229.2807
  67  354.3429
  68  53.79401
  69  -90.43787
  70  0.1543598
  71  69.11031
  72  83.2523
  73  87.10481
  74  275.2572
  75  151.8088
  76  157.1665
  77  177.8874
  78  236.195
  79  129.5299
  80  169.5545
  81  208.0971
  82  74.30786
  83  -6.186851
  84  120.2205
  85  210.6977
  86  282.8929
  87  280.4041
  88  132.3769
  89  64.9788
  90  13.24244
  91  18.63135
  92  132.1359
  93  166.45
  94  53.20958
  95  89.43752
  96  89.44474
  97  50.80212
  98  98.6121
  99  272.6404
 100  238.3292
 101  199.9422
 102  137.5109
 103  155.0106
 104  83.35316
 105  -5.09172
 106  88.86823
 107  154.8877
 108  84.38036
 109  87.68875
 110  174.7828
 111  278.8205
 112  267.9291
 113  216.0566
 114  201.0988
 115  201.9268
 116  98.46427
 117  239.3777
 118  200.4557
 119  224.2978
 120  182.5174
 121  319.2087
 122  335.5984
 123  224.6812
 124  65.69759
 125  118.4544
 126  198.7782
 127  274.2425
 128  295.2798
 129  224.848
 130  98.1117
 131  193.2778
 132  265.5857
 133  53.76294
 134  131.5948
 135  260.3014
 136  334.4016
 137  410.0551
 138  359.5509
 139  354.1159
 140  228.8799
 141  163.9701
 142  126.594
 143  66.86769
 144  231.8921
 145  270.6005
 146  58.46136
 147  169.8625
 148  209.5854
 149  218.4066
 150  200.3792
 151  144.5919
 152  190.7946
 153  124.1026
 154  283.0875
 155  226.5022
 156  327.9308
 157  376.0307
 158  387.3716
 159  250.7218
 160  236.4156
 161  374.6179
 162  288.7026
 163  341.4334
 164  206.5828
 165  151.1947
 166  73.53802
 167  57.30785
 168  65.56621
 169  67.63662
 170  147.6834
 171  225.9791
 172  188.2746
 173  98.13286
 174  154.7793
 175  70.99496
 176  177.5708
 177  304.8179
 178  96.26199
 179  118.9346
 180  181.9944
 181  137.8823
 182  149.7819
 183  224.7604
 184  168.7929
 185  213.7355
 186  204.4388
 187  245.0804
 188  248.2276
 189  129.7775
 190  77.17864
 191  128.7518
 192  139.2752
 193  202.0064
 194  131.1048
 195  109.1005
 196  111.8815
 197  56.86212
 198  31.69555
 199  166.8416
 200  70.3756
 201  96.29417
 202  117.1066
 203  122.0759
 204  117.3761
 205  176.4794
 206  341.9026
 207  197.2253
 208  49.54303
 209  122.6063
 210  52.17834
 211  131.7085
 212  246.5437
 213  210.8565
 214  151.976
 215  87.5024
 216  78.77058
 217  167.2895
 218  274.428
 219  351.547
 220  134.9535
 221  204.9872
 222  269.5435
 223  249.5513
 224  239.8601
 225  215.2446
 226  143.3763
 227  54.24758
 228  162.8798
 229  259.8514
 230  156.3157
 231  93.09204
 232  88.13378
 233  122.9068
 234  101.2184
 235  136.25
 236  267.9368
 237  225.7243
 238  197.5653
 239  75.37439
 240  -9.025841
 241  179.6842
 242  203.5514
 243  129.6452
 244  213.5417
 245  286.2995
 246  291.5707
 247  222.6348
 248  252.3689
 249  177.8602
 250  161.3627
 251  156.3905
 252  221.9069
 253  194.5655
 254  160.3129
 255  196.7038
 256  151.252
 257  42.83376
 258  132.1082
 259  62.54464
 260  98.50307
 261  173.4335
 262  110.0554
 263  74.16673
 264  77.47865
 265  183.1657
 266  253.0415
 267  204.0247
 268  209.1879
 269  134.1544
 270  211.5337
 271  210.7287
 272  138.3096
 273  51.79795
 274  102.3442
 275  61.81315
 276  76.23141
 277  188.4936
 278  245.8034
 279  75.92806
 280  96.27711
 281  172.9268
 282  86.37262
 283  221.7874
 284  350.1699
 285  243.5914
 286  103.133
 287  173.1634
 288  203.88
 289  97.4357
 290  78.12052
 291  103.5183
 292  136.3724
 293  237.1753
 294  302.2055
 295  191.2663
 296  205.8254
 297  225.4647
 298  229.0491
 299  204.605
 300  102.6106
 301  74.0955
 302  169.015
 303  271.8383
 304  359.264
 305  189.8655
 306  148.7728
 307  205.3872
 308  104.7155
 309  27.35489
 310  -6.017969
 311  -18.26197
 312  30.23807
 313  88.1482
 314  -10.8766
 315  45.66668
 316  19.5253
 317  35.46805
 318  75.2366
 319  180.8893
 320  166.253
 321  98.45105
 322  286.5273
 323  118.7458
 324  176.6499
 325  55.59146
 326  32.62496
 327  173.413
 328  286.2771
 329  162.5889
 330  46.64048
 331  195.6411
 332  96.70947
 333  69.92005
 334  94.64883
 335  151.7867
 336  220.2219
 337  194.7413
 338  117.7451
 339  66.89108
 340  6.796442
 341  171.3035
 342  192.9081
 343  228.2694
 344  253.1313
 345  199.3637
 346  62.50146
 347  139.4626
 348  90.13439
 349  70.48098
 350  39.36992
 351  143.1476
 352  267.2775
 353  315.8974
 354  194.7575
 355  144.6467
 356  205.7302
 357  210.9447
 358  148.067
 359  113.5725
 360  91.72813
 361  187.6086
 362  206.8348
 363  192.6951
 364  274.6393
 365  249.9224
 366  135.9713
 367  104.3619
 368  149.8107
 369  211.4984
 370  198.7276
 371  92.47561
 372  157.3364
 373  199.9834
 374  81.61206
 375  116.5405
 376  70.76443
 377  177.5678
 378  203.5821
 379  162.8486
 380  201.4415
 381  165.445
 382  174.6764
 383  117.1178
 384  194.5526
 385  145.0323
 386  143.7273
 387  104.9308
 388  173.5505
 389  253.0569
 390  199.5832
 391  128.204
 392  231.2105
 393  250.6478
 394  148.8089
 395  93.15211
 396  206.357
 397  221.4501
 398  164.2184
 399  113.9368
 400  -4.427696
 401  81.90858
 402  246.263
 403  326.7784
 404  254.2217
 405  187.1587
 406  119.7069
 407  236.4996
 408  244.0746
 409  239.633
 410  252.0897
 411  222.5754
 412  295.3029
 413  266.0196
 414  87.54012
 415  167.3348
 416  293.8472
 417  168.175
 418  159.2245
 419  283.8803
 420  354.9252
 421  312.9424
 422  506.0697
 423  410.1146
 424  369.0514
 425  237.8447
 426  238.1064
 427  204.4719
 428  160.4956
 429  160.5765
 430  233.7815
 431  183.4799
 432  151.7709
 433  51.97835
 434  76.65273
 435  171.9918
 436  120.6195
 437  98.49804
 438  76.49409
 439  196.0537
 440  270.3146
 441  241.7232
 442  345.3531
 443  337.2973
 444  257.5516
 445  221.076
 446  216.5832
 447  80.02966
 448  165.4196
 449  216.9112
 450  274.3104
 451  178.8917
 452  205.1963
 453  397.541
 454  334.6311
 455  129.1449
 456  81.12216
 457  73.57766
 458  88.34306
 459  201.3155
 460  356.7937
 461  316.9085
 462  304.9129
 463  365.3412
 464  430.1725
 465  303.5786
 466  290.178
 467  271.6999
 468  238.2531
 469  131.5284
 470  208.2292
 471  260.2705
 472  242.2508
 473  177.5894
 474  152.1041
 475  207.0629
 476  186.4345
 477  314.5406
 478  224.1189
 479  231.0007
 480  286.0782
 481  108.5718
 482  108.1611
 483  315.4164
 484  292.6741
 485  314.4895
 486  328.4728
 487  231.665
 488  161.6608
 489  158.6216
 490  169.6893
 491  197.1906
 492  264.4267
 493  250.3832
 494  299.5626
 495  265.227
 496  229.3955
 497  220.9469
 498  160.1606
 499  122.1348
 500  115.5574
 501  245.7598
 502  254.4914
 503  150.127
 504  351.1814
 505  429.4558
 506  282.1156
 507  349.8802
 508  531.1808
 509  676.9938
 510  903.827
 511  927.6808
