# Input file       =  1186210989.145512_cleaned.dat
# Candidate        =  PSR_0332+5434
# Telescope        =  AR
# Epoch_topo       =  57973.293647517501
# Epoch_bary       =  N/A
# T_sample         =  0.002
# Data Folded      =  7340032
# Data Avg         =  0.00758328266722778
# Data StdDev      =  1.00003933381611 
# Profile Bins     =  512
# Profile Avg      =  108.666704208326 
# Profile StdDev   =  119.737745934002 
# Reduced chi-sqr  =  1.629
# Prob(Noise)      <  8.63e-18   (~8.5 sigma)
# P_topo (ms)      =  714.467063797122  +/- 0.00013
# P'_topo (s/s)    =  -0                +/- 6.88e-11
# P''_topo (s/s^2) =  0                 +/- 3.04e-14
# P_bary (ms)      =  N/A
# P'_bary (s/s)    =  N/A
# P''_bary (s/s^2) =  N/A
# P_orb (s)        =  N/A
# asin(i)/c (s)    =  N/A
# eccentricity     =  N/A
# w (rad)          =  N/A
# T_peri           =  N/A
######################################################
   0  852.0931
   1  754.1057
   2  568.7666
   3  449.601
   4  286.4123
   5  126.5061
   6  152.3056
   7  202.664
   8  134.0544
   9  64.39326
  10  84.02668
  11  68.99788
  12  -30.08975
  13  70.36983
  14  98.22707
  15  156.4077
  16  346.7958
  17  282.4851
  18  169.7353
  19  60.34624
  20  43.70092
  21  124.1404
  22  251.2898
  23  44.04377
  24  175.1328
  25  95.90279
  26  123.0034
  27  48.9445
  28  58.32275
  29  236.7615
  30  171.5345
  31  52.54556
  32  131.6034
  33  173.2561
  34  81.11484
  35  72.6944
  36  92.22142
  37  -10.75258
  38  38.31907
  39  87.78632
  40  118.1332
  41  -50.66827
  42  -60.00948
  43  43.95031
  44  30.96583
  45  -112.7611
  46  -157.6886
  47  -77.29001
  48  6.967422
  49  229.3485
  50  71.62299
  51  117.8133
  52  92.58106
  53  118.1903
  54  -14.64583
  55  104.474
  56  156.1086
  57  128.9334
  58  0.1739823
  59  -66.73102
  60  47.72909
  61  111.1083
  62  123.5539
  63  -57.93962
  64  -4.689223
  65  42.28116
  66  -71.79485
  67  -93.75383
  68  7.333861
  69  -29.98985
  70  18.16263
  71  8.831977
  72  -21.23815
  73  70.32785
  74  -155.3963
  75  25.45004
  76  96.9536
  77  61.21333
  78  93.94128
  79  116.5381
  80  111.4916
  81  66.61765
  82  64.57336
  83  128.6452
  84  43.39944
  85  83.65981
  86  7.571045
  87  132.4458
  88  115.7757
  89  -4.309995
  90  78.42719
  91  196.8779
  92  156.9088
  93  151.7657
  94  202.8529
  95  198.1637
  96  224.658
  97  196.6536
  98  65.46078
  99  -9.491904
 100  109.1852
 101  19.33208
 102  18.56412
 103  50.96117
 104  -37.11082
 105  142.0274
 106  -17.73517
 107  -54.19071
 108  91.53448
 109  119.6193
 110  46.31928
 111  140.3214
 112  228.1445
 113  210.5278
 114  233.5988
 115  186.6118
 116  365.2708
 117  283.5084
 118  196.105
 119  325.22
 120  239.5865
 121  136.5535
 122  52.65853
 123  22.96129
 124  170.666
 125  197.8444
 126  189.9338
 127  222.2829
 128  -4.4572
 129  22.20156
 130  -91.76517
 131  92.2193
 132  201.0856
 133  137.6792
 134  221.1206
 135  273.0823
 136  129.9909
 137  182.6296
 138  205.2359
 139  -1.278846
 140  17.15317
 141  127.4129
 142  42.74399
 143  77.07494
 144  97.22965
 145  112.3456
 146  200.1595
 147  274.2544
 148  262.7853
 149  236.1153
 150  261.8274
 151  216.955
 152  216.6891
 153  293.4279
 154  322.0197
 155  238.0182
 156  184.2711
 157  153.3259
 158  234.9632
 159  182.6147
 160  292.2185
 161  176.9902
 162  43.23695
 163  -1.972692
 164  40.21981
 165  138.5561
 166  32.20689
 167  110.2001
 168  304.8924
 169  414.3696
 170  264.7362
 171  133.6802
 172  6.860293
 173  144.7266
 174  184.608
 175  20.27092
 176  30.17406
 177  116.6872
 178  208.5789
 179  77.05606
 180  -124.881
 181  4.000777
 182  182.7032
 183  173.7458
 184  199.3885
 185  161.4538
 186  68.11653
 187  73.0894
 188  74.21026
 189  144.2178
 190  115.6595
 191  50.47171
 192  276.3771
 193  263.6129
 194  99.90766
 195  -30.73946
 196  -45.03895
 197  29.32143
 198  140.4792
 199  23.71071
 200  -22.89335
 201  42.54246
 202  99.87764
 203  59.93047
 204  113.7193
 205  251.4432
 206  242.6527
 207  22.37422
 208  62.49614
 209  38.67926
 210  112.3456
 211  175.212
 212  62.54695
 213  101.2604
 214  64.12209
 215  56.5794
 216  120.5236
 217  4.40826
 218  38.44429
 219  11.0139
 220  -12.23715
 221  7.801872
 222  -58.51938
 223  63.51033
 224  49.38074
 225  0.3561302
 226  -22.34617
 227  133.0752
 228  269.5872
 229  135.5523
 230  19.08523
 231  102.955
 232  110.2099
 233  106.9445
 234  121.582
 235  63.99502
 236  191.533
 237  211.1179
 238  176.3151
 239  53.87107
 240  15.32505
 241  99.51441
 242  -67.78856
 243  -52.53826
 244  17.54815
 245  50.25805
 246  97.63326
 247  47.20404
 248  -2.448921
 249  140.8379
 250  150.8301
 251  24.11195
 252  160.1444
 253  190.143
 254  168.9283
 255  93.26253
 256  119.5557
 257  58.1975
 258  -51.64288
 259  -87.65942
 260  -17.09497
 261  79.71867
 262  46.62989
 263  28.68759
 264  119.7128
 265  113.4279
 266  26.53718
 267  80.66996
 268  210.269
 269  203.2227
 270  172.6031
 271  78.58903
 272  54.17482
 273  92.48158
 274  -133.3256
 275  -90.74837
 276  23.67433
 277  61.32954
 278  65.16389
 279  52.18411
 280  127.0209
 281  19.19808
 282  21.92422
 283  -40.32385
 284  85.93764
 285  134.756
 286  76.75806
 287  131.6188
 288  113.2082
 289  53.61245
 290  -63.20446
 291  45.55748
 292  218.4274
 293  45.88247
 294  44.83141
 295  60.63791
 296  48.6184
 297  16.68771
 298  83.58889
 299  91.22713
 300  126.2693
 301  25.06637
 302  -51.87138
 303  -93.63489
 304  59.65065
 305  40.86665
 306  109.9796
 307  136.1214
 308  95.50711
 309  172.1061
 310  185.46
 311  161.4442
 312  55.42899
 313  86.21344
 314  89.42007
 315  71.7998
 316  106.6437
 317  60.74159
 318  58.71818
 319  108.0272
 320  131.2213
 321  109.0366
 322  18.24978
 323  -43.00584
 324  46.90236
 325  220.173
 326  307.6635
 327  230.9224
 328  230.8583
 329  132.9872
 330  126.1388
 331  156.1105
 332  114.7652
 333  195.4212
 334  -24.47236
 335  30.59565
 336  155.3208
 337  126.5446
 338  187.6738
 339  114.6619
 340  8.367958
 341  113.7225
 342  174.4927
 343  103.5905
 344  154.0641
 345  105.5803
 346  -108.9519
 347  -53.32508
 348  16.75673
 349  62.505
 350  59.29191
 351  56.2895
 352  56.62326
 353  145.8341
 354  -13.00251
 355  83.82563
 356  128.8104
 357  -43.62354
 358  -20.93207
 359  19.89326
 360  23.53739
 361  99.65438
 362  188.347
 363  268.2052
 364  160.5246
 365  177.6266
 366  147.4087
 367  18.56098
 368  159.4927
 369  198.152
 370  152.7152
 371  58.20068
 372  65.63506
 373  6.551955
 374  -65.9141
 375  113.0996
 376  126.6304
 377  60.09928
 378  49.72982
 379  69.49906
 380  116.1389
 381  19.15297
 382  18.1766
 383  146.2378
 384  154.0216
 385  99.43091
 386  -93.20158
 387  -108.4113
 388  50.81147
 389  95.38228
 390  219.5934
 391  60.04644
 392  48.59248
 393  85.78996
 394  -27.58704
 395  -32.80339
 396  91.79997
 397  163.8708
 398  150.584
 399  166.8103
 400  242.6837
 401  255.2413
 402  149.7192
 403  125.8345
 404  88.56068
 405  81.05956
 406  74.08559
 407  103.09
 408  111.1862
 409  52.86711
 410  188.6647
 411  174.9678
 412  153.1445
 413  28.10415
 414  49.44749
 415  49.4443
 416  57.91969
 417  211.9484
 418  276.5862
 419  228.0303
 420  143.8291
 421  149.4849
 422  166.858
 423  176.3315
 424  126.6826
 425  125.2392
 426  210.4745
 427  71.40461
 428  30.25784
 429  251.7401
 430  47.89877
 431  25.09091
 432  123.3049
 433  62.60147
 434  89.30115
 435  80.54146
 436  159.5324
 437  107.7907
 438  46.1876
 439  50.06458
 440  114.4852
 441  50.08785
 442  -58.51275
 443  90.92697
 444  235.9691
 445  200.0992
 446  28.26298
 447  58.94426
 448  -11.57883
 449  -13.00139
 450  39.25982
 451  160.7893
 452  234.0951
 453  215.8042
 454  264.514
 455  229.908
 456  98.0836
 457  189.1944
 458  160.1172
 459  168.4673
 460  161.9248
 461  126.1913
 462  72.43404
 463  129.4675
 464  248.8342
 465  262.5132
 466  140.4892
 467  172.8071
 468  117.6992
 469  236.3521
 470  102.1444
 471  87.849
 472  140.7066
 473  93.88599
 474  132.8385
 475  -25.81013
 476  1.341883
 477  158.1649
 478  122.5033
 479  16.14908
 480  150.0945
 481  198.536
 482  137.3267
 483  203.4913
 484  121.7545
 485  87.62102
 486  88.57747
 487  120.5979
 488  32.23176
 489  2.024839
 490  -13.68455
 491  15.38559
 492  161.6634
 493  191.6662
 494  219.6363
 495  205.1701
 496  229.6989
 497  217.1219
 498  140.8509
 499  130.6156
 500  144.3064
 501  87.72675
 502  29.05264
 503  115.3589
 504  169.6746
 505  328.4662
 506  275.3961
 507  174.9181
 508  325.6708
 509  396.9683
 510  586.4858
 511  703.7316
