# Input file       =  1186038713.111496_cleaned.dat
# Candidate        =  PSR_0332+5434
# Telescope        =  AR
# Epoch_topo       =  57971.299711938613
# Epoch_bary       =  N/A
# T_sample         =  0.002
# Data Folded      =  7340032
# Data Avg         =  0.00628752600236561
# Data StdDev      =  1.00003141551158 
# Profile Bins     =  512
# Profile Avg      =  90.0927606198154 
# Profile StdDev   =  119.736797851357 
# Reduced chi-sqr  =  1.234
# Prob(Noise)      <  0.000228   (~3.5 sigma)
# P_topo (ms)      =  714.467744086195  +/- 0.000121
# P'_topo (s/s)    =  -0                +/- 6.4e-11
# P''_topo (s/s^2) =  0                 +/- 2.82e-14
# P_bary (ms)      =  N/A
# P'_bary (s/s)    =  N/A
# P''_bary (s/s^2) =  N/A
# P_orb (s)        =  N/A
# asin(i)/c (s)    =  N/A
# eccentricity     =  N/A
# w (rad)          =  N/A
# T_peri           =  N/A
######################################################
   0  740.5779
   1  505.4953
   2  287.253
   3  304.5201
   4  199.4461
   5  69.87062
   6  81.74627
   7  154.3547
   8  202.3222
   9  188.5386
  10  -20.08625
  11  -4.841104
  12  162.0404
  13  173.6657
  14  118.9877
  15  168.5504
  16  170.5114
  17  113.6695
  18  188.6702
  19  149.019
  20  70.36947
  21  46.3964
  22  79.43569
  23  93.69183
  24  174.6576
  25  19.55567
  26  1.269899
  27  44.6726
  28  119.7553
  29  -61.4352
  30  -17.89957
  31  64.21339
  32  81.97026
  33  72.42207
  34  -19.37683
  35  -24.19099
  36  70.94885
  37  -110.4851
  38  48.4007
  39  152.1941
  40  171.6935
  41  35.04964
  42  -91.255
  43  47.13617
  44  30.68596
  45  134.7812
  46  148.2723
  47  26.19648
  48  -83.9994
  49  -95.42259
  50  -87.57002
  51  -5.600205
  52  30.29146
  53  -5.45894
  54  64.7569
  55  136.2183
  56  -57.18727
  57  -99.12421
  58  -54.36499
  59  10.74347
  60  36.52837
  61  -113.7253
  62  1.019246
  63  39.16441
  64  -62.31612
  65  -64.1526
  66  -130.6603
  67  -56.79556
  68  91.76198
  69  111.4145
  70  26.67455
  71  94.65669
  72  159.5378
  73  104.0604
  74  60.0648
  75  -41.79644
  76  59.93047
  77  39.02747
  78  5.946747
  79  34.66934
  80  231.0943
  81  135.96
  82  132.8819
  83  117.4905
  84  197.4797
  85  83.86826
  86  73.78256
  87  141.3456
  88  152.7166
  89  57.47488
  90  43.19839
  91  77.69734
  92  51.57084
  93  77.39
  94  19.78244
  95  109.6008
  96  136.3227
  97  69.14497
  98  27.95685
  99  -51.89731
 100  -32.5796
 101  48.06656
 102  -8.823953
 103  39.88736
 104  90.37568
 105  144.1329
 106  175.1784
 107  148.4945
 108  130.4665
 109  94.88577
 110  115.1337
 111  106.3402
 112  -68.80273
 113  -26.19472
 114  124.3917
 115  133.8586
 116  90.89278
 117  86.3287
 118  76.41268
 119  152.2798
 120  77.1857
 121  12.46114
 122  -7.675632
 123  51.45118
 124  31.93132
 125  82.66548
 126  189.7436
 127  12.84047
 128  1.439263
 129  76.57687
 130  56.51491
 131  39.8162
 132  70.41527
 133  82.31652
 134  246.9847
 135  181.0583
 136  102.3807
 137  164.2236
 138  90.90598
 139  81.66739
 140  188.9898
 141  -26.60531
 142  -6.805401
 143  119.8472
 144  124.4964
 145  193.0321
 146  95.2149
 147  88.27248
 148  90.2107
 149  49.54276
 150  109.0817
 151  76.94193
 152  -40.67772
 153  53.60693
 154  32.08774
 155  2.953314
 156  -14.47409
 157  -19.45534
 158  59.90788
 159  155.9374
 160  149.6439
 161  147.44
 162  46.77694
 163  107.6268
 164  110.0826
 165  47.30922
 166  30.93727
 167  100.933
 168  254.0536
 169  52.08088
 170  -111.6822
 171  -87.76184
 172  62.58428
 173  133.9672
 174  49.0638
 175  -4.262227
 176  45.16213
 177  -2.862821
 178  40.97239
 179  -6.584306
 180  50.28374
 181  58.96735
 182  87.30737
 183  52.00236
 184  58.00887
 185  64.78835
 186  24.61929
 187  -17.88382
 188  43.23755
 189  148.3868
 190  118.8947
 191  94.206
 192  -64.19241
 193  7.824414
 194  64.14691
 195  -5.897535
 196  24.94911
 197  61.9697
 198  54.55997
 199  262.6301
 200  129.4121
 201  130.8061
 202  106.7322
 203  25.31285
 204  49.49075
 205  103.9192
 206  28.02317
 207  23.79789
 208  78.10554
 209  171.4422
 210  16.8849
 211  -26.56129
 212  -1.872521
 213  121.4195
 214  152.6279
 215  133.785
 216  48.38944
 217  -46.5426
 218  77.99252
 219  197.2724
 220  213.0188
 221  31.2163
 222  23.39789
 223  -18.39036
 224  -92.34694
 225  -17.75586
 226  83.85296
 227  124.9436
 228  26.82852
 229  157.5521
 230  129.7343
 231  112.6806
 232  83.26205
 233  64.58514
 234  40.22401
 235  142.0033
 236  173.3184
 237  56.85643
 238  49.88953
 239  91.97997
 240  62.10492
 241  178.3066
 242  145.9989
 243  177.04
 244  133.4147
 245  21.36417
 246  80.73764
 247  141.6702
 248  74.00397
 249  23.94203
 250  7.217055
 251  54.24385
 252  86.39532
 253  150.8867
 254  37.78932
 255  28.6755
 256  120.725
 257  116.9818
 258  17.43586
 259  -56.37581
 260  -5.940072
 261  48.51423
 262  74.9914
 263  46.5282
 264  -30.70423
 265  27.6202
 266  44.45201
 267  58.72079
 268  154.5399
 269  96.29594
 270  93.06878
 271  61.31291
 272  81.3692
 273  178.0739
 274  78.11793
 275  118.5974
 276  60.33483
 277  80.46932
 278  12.95075
 279  28.07783
 280  35.90372
 281  80.22781
 282  74.06882
 283  60.92296
 284  135.2299
 285  135.5409
 286  92.77892
 287  -5.231566
 288  84.81116
 289  188.3469
 290  203.2117
 291  153.0402
 292  99.82033
 293  225.3813
 294  249.2559
 295  64.53178
 296  34.06028
 297  95.40659
 298  58.10886
 299  25.02125
 300  104.5613
 301  184.8347
 302  148.4166
 303  119.8487
 304  27.50892
 305  29.53824
 306  77.93254
 307  181.3151
 308  164.2468
 309  70.36885
 310  121.0848
 311  189.5067
 312  144.6831
 313  192.8827
 314  179.7607
 315  120.125
 316  78.16666
 317  121.7899
 318  91.76639
 319  10.17863
 320  -20.6693
 321  124.9755
 322  52.31233
 323  90.8205
 324  131.3159
 325  59.78478
 326  87.10857
 327  99.18613
 328  175.1166
 329  66.25204
 330  55.40178
 331  147.1467
 332  120.1787
 333  54.9934
 334  -12.81421
 335  -20.87991
 336  83.65978
 337  87.79537
 338  115.3231
 339  40.86753
 340  163.4489
 341  175.2115
 342  26.66552
 343  87.87301
 344  41.57675
 345  23.50196
 346  128.0217
 347  290.6285
 348  234.1034
 349  103.783
 350  70.08163
 351  178.101
 352  195.0515
 353  -13.93225
 354  -57.50758
 355  -14.58577
 356  182.695
 357  218.7237
 358  186.7657
 359  154.1277
 360  164.0576
 361  263.0436
 362  227.1891
 363  94.15231
 364  303.6832
 365  202.739
 366  139.1634
 367  78.89798
 368  167.2831
 369  191.1603
 370  123.1249
 371  155.9526
 372  169.8699
 373  174.8026
 374  113.9117
 375  101.0298
 376  80.78743
 377  237.1465
 378  262.0863
 379  245.4762
 380  255.3054
 381  274.4055
 382  112.176
 383  120.9368
 384  22.27819
 385  -57.40557
 386  132.1494
 387  161.4994
 388  66.71328
 389  93.35663
 390  152.955
 391  33.94881
 392  -93.77803
 393  172.239
 394  167.7085
 395  187.0963
 396  144.0785
 397  51.61964
 398  65.38243
 399  91.99822
 400  189.9462
 401  158.3028
 402  146.4481
 403  143.5366
 404  171.981
 405  149.0024
 406  120.5977
 407  172.1527
 408  106.8456
 409  172.6211
 410  220.0329
 411  237.0881
 412  94.28341
 413  -39.68826
 414  80.6443
 415  279.6573
 416  220.3244
 417  124.7056
 418  34.20539
 419  -66.4333
 420  156.4151
 421  100.7662
 422  105.1475
 423  105.4591
 424  59.37373
 425  105.247
 426  77.13863
 427  76.29474
 428  38.68707
 429  6.722513
 430  85.87801
 431  141.8321
 432  200.4713
 433  200.0463
 434  97.26884
 435  36.98141
 436  131.7872
 437  150.6223
 438  174.2635
 439  80.28808
 440  24.96926
 441  93.30295
 442  134.7827
 443  137.808
 444  95.77077
 445  214.954
 446  105.4526
 447  193.9916
 448  123.0985
 449  -3.667736
 450  -75.12216
 451  -32.8036
 452  -76.21106
 453  62.07969
 454  119.2669
 455  66.1065
 456  -99.37894
 457  57.38723
 458  24.55107
 459  13.02113
 460  57.6815
 461  132.3836
 462  110.6376
 463  116.0342
 464  -1.897266
 465  -17.94137
 466  -59.24121
 467  65.92388
 468  68.77155
 469  -44.09838
 470  2.335133
 471  -46.27719
 472  -1.227752
 473  32.34534
 474  -77.7588
 475  -12.96004
 476  45.08555
 477  108.461
 478  150.1325
 479  111.3246
 480  211.3623
 481  71.23178
 482  87.77979
 483  200.5691
 484  171.5073
 485  217.8893
 486  143.2427
 487  84.13577
 488  -17.41453
 489  45.07056
 490  197.1107
 491  146.4059
 492  37.11254
 493  14.38568
 494  101.1982
 495  196.8535
 496  151.5647
 497  84.80634
 498  163.992
 499  15.34925
 500  75.27872
 501  80.73783
 502  30.85584
 503  55.02466
 504  166.9659
 505  195.0793
 506  62.4987
 507  -45.511
 508  246.656
 509  537.9943
 510  624.988
 511  739.516
