# Input file       =  1186383347.125036_cleaned.dat
# Candidate        =  PSR_0332+5434
# Telescope        =  AR
# Epoch_topo       =  57975.288531539765
# Epoch_bary       =  N/A
# T_sample         =  0.002
# Data Folded      =  7340032
# Data Avg         =  0.00877273176495503
# Data StdDev      =  1.00003161190954 
# Profile Bins     =  512
# Profile Avg      =  125.782678055405 
# Profile StdDev   =  119.736821366682 
# Reduced chi-sqr  =  1.375
# Prob(Noise)      <  3.41e-08   (~5.4 sigma)
# P_topo (ms)      =  714.466442438077  +/- 0.000197
# P'_topo (s/s)    =  -0                +/- 1.04e-10
# P''_topo (s/s^2) =  0                 +/- 4.58e-14
# P_bary (ms)      =  N/A
# P'_bary (s/s)    =  N/A
# P''_bary (s/s^2) =  N/A
# P_orb (s)        =  N/A
# asin(i)/c (s)    =  N/A
# eccentricity     =  N/A
# w (rad)          =  N/A
# T_peri           =  N/A
######################################################
   0  693.5532
   1  815.5832
   2  564.8928
   3  380.5364
   4  214.6184
   5  159.1604
   6  211.7873
   7  199.0331
   8  176.2952
   9  81.14465
  10  48.46487
  11  122.0801
  12  167.087
  13  137.0421
  14  107.6473
  15  183.5989
  16  232.3631
  17  178.6084
  18  87.53838
  19  151.3539
  20  49.7247
  21  -43.32841
  22  131.776
  23  192.6198
  24  -2.265422
  25  129.6026
  26  250.27
  27  79.54154
  28  87.73182
  29  204.6403
  30  203.461
  31  251.8728
  32  75.7974
  33  209.6031
  34  118.8392
  35  35.07257
  36  1.677379
  37  2.457788
  38  2.226329
  39  -73.35501
  40  32.52274
  41  92.06777
  42  115.3457
  43  129.7702
  44  166.1264
  45  84.6202
  46  114.6566
  47  197.4712
  48  281.7498
  49  302.8596
  50  268.1342
  51  175.4014
  52  109.0993
  53  106.4859
  54  -5.255296
  55  11.16869
  56  86.22385
  57  19.28958
  58  97.82941
  59  138.2604
  60  196.9727
  61  164.3992
  62  258.7689
  63  141.3248
  64  137.2705
  65  205.5838
  66  143.5564
  67  101.3716
  68  55.61469
  69  3.321684
  70  -55.04124
  71  69.84354
  72  191.0047
  73  42.84334
  74  51.54249
  75  207.6407
  76  232.2824
  77  252.503
  78  5.338407
  79  27.55312
  80  164.0956
  81  198.7161
  82  120.9396
  83  43.16772
  84  133.9015
  85  56.53466
  86  -60.48496
  87  127.7637
  88  42.44357
  89  139.5777
  90  123.2826
  91  43.73996
  92  104.5443
  93  29.57747
  94  -51.27254
  95  62.26888
  96  19.04817
  97  90.8299
  98  138.879
  99  53.31281
 100  -14.11802
 101  99.47208
 102  191.2077
 103  111.9838
 104  28.49049
 105  27.72028
 106  108.3225
 107  93.88793
 108  151.8998
 109  176.4632
 110  137.6022
 111  70.63165
 112  50.66204
 113  140.3378
 114  39.46706
 115  29.9585
 116  117.8191
 117  335.8897
 118  312.238
 119  234.7361
 120  132.5501
 121  119.3977
 122  -6.530967
 123  119.5949
 124  248.9619
 125  226.4508
 126  137.7121
 127  190.6257
 128  170.5307
 129  152.1332
 130  102.486
 131  118.6694
 132  190.7644
 133  58.08782
 134  130.8846
 135  124.2488
 136  -5.39924
 137  70.19111
 138  71.07276
 139  162.035
 140  130.2289
 141  114.5868
 142  156.0809
 143  18.55599
 144  130.8526
 145  74.22905
 146  20.56007
 147  71.23141
 148  95.24245
 149  108.2219
 150  -47.65041
 151  85.82415
 152  175.8692
 153  -12.45895
 154  -77.93336
 155  -41.24883
 156  -53.31757
 157  -57.09959
 158  150.4586
 159  140.7076
 160  36.09077
 161  82.19022
 162  159.1712
 163  112.7523
 164  64.77497
 165  61.84091
 166  43.94061
 167  55.97778
 168  153.5209
 169  109.8169
 170  120.9193
 171  111.518
 172  124.1582
 173  129.9864
 174  122.6593
 175  60.50877
 176  74.98257
 177  76.03667
 178  151.193
 179  176.5805
 180  204.4477
 181  245.5109
 182  214.0324
 183  128.8389
 184  128.7594
 185  203.0617
 186  175.7238
 187  217.1464
 188  211.3609
 189  351.3511
 190  199.3602
 191  131.8769
 192  182.7091
 193  64.45093
 194  176.6205
 195  107.8096
 196  220.4488
 197  238.8632
 198  162.9772
 199  300.4973
 200  257.9054
 201  170.5158
 202  114.9793
 203  93.92172
 204  170.0935
 205  150.7836
 206  192.8093
 207  25.88792
 208  81.65673
 209  57.51596
 210  23.88522
 211  146.8379
 212  218.0175
 213  150.7815
 214  202.9879
 215  202.2313
 216  212.3961
 217  23.47793
 218  66.82368
 219  147.4116
 220  124.6783
 221  205.767
 222  210.991
 223  138.3301
 224  37.44965
 225  60.47356
 226  188.8932
 227  123.0604
 228  98.30763
 229  55.41723
 230  194.6926
 231  -0.3295733
 232  -68.19293
 233  -13.51618
 234  190.9342
 235  170.0182
 236  40.55266
 237  -57.22439
 238  84.57293
 239  222.8555
 240  144.2867
 241  289.5103
 242  173.4129
 243  76.20809
 244  16.96431
 245  22.00901
 246  22.81924
 247  89.01605
 248  227.0592
 249  110.9203
 250  73.0747
 251  35.54697
 252  21.90996
 253  6.801346
 254  210.2536
 255  304.1346
 256  239.1675
 257  175.4408
 258  289.2854
 259  251.8095
 260  51.6539
 261  151.9764
 262  143.2885
 263  164.2911
 264  183.1003
 265  43.56253
 266  201.9124
 267  195.55
 268  166.6155
 269  120.7038
 270  69.32966
 271  79.8524
 272  -18.37024
 273  49.45905
 274  189.2835
 275  142.7723
 276  70.87478
 277  86.40167
 278  59.31519
 279  166.4349
 280  117.3672
 281  66.65635
 282  77.26766
 283  94.2201
 284  32.58416
 285  -11.60385
 286  84.3247
 287  66.71231
 288  119.1809
 289  102.0481
 290  103.392
 291  83.14566
 292  -22.04984
 293  -89.06938
 294  111.9721
 295  150.2639
 296  33.14833
 297  32.10368
 298  16.09616
 299  29.26641
 300  95.41598
 301  92.62028
 302  155.3109
 303  -30.78126
 304  -10.59178
 305  70.15943
 306  55.72315
 307  69.2119
 308  52.28114
 309  134.0197
 310  196.9363
 311  112.6463
 312  -12.65231
 313  -114.4729
 314  -10.38291
 315  139.2045
 316  124.4599
 317  12.94184
 318  19.0508
 319  22.91667
 320  111.9651
 321  162.7449
 322  176.0309
 323  264.9316
 324  187.4355
 325  164.3857
 326  87.91175
 327  129.8602
 328  53.6138
 329  -5.331213
 330  7.226523
 331  -49.78083
 332  97.00575
 333  90.15823
 334  -10.31616
 335  -2.778943
 336  15.3968
 337  100.2409
 338  130.1786
 339  179.3851
 340  165.2782
 341  170.3147
 342  281.1156
 343  235.0778
 344  336.3002
 345  223.9324
 346  144.7687
 347  210.887
 348  73.59399
 349  152.2368
 350  71.87354
 351  -0.5477569
 352  75.28032
 353  76.87303
 354  152.0768
 355  284.7757
 356  129.9169
 357  174.0815
 358  201.2268
 359  102.0678
 360  89.76783
 361  116.6876
 362  206.4644
 363  200.4419
 364  139.1456
 365  67.99206
 366  146.4816
 367  129.4678
 368  89.97781
 369  158.4522
 370  248.6675
 371  127.8644
 372  69.34012
 373  87.45937
 374  152.3293
 375  29.81027
 376  68.91046
 377  47.66556
 378  73.17342
 379  17.1815
 380  139.7665
 381  -8.814023
 382  77.29999
 383  176.4903
 384  143.8816
 385  20.53534
 386  95.41143
 387  80.79658
 388  -18.51507
 389  73.44367
 390  164.272
 391  311.7825
 392  291.7318
 393  248.5597
 394  110.2286
 395  151.887
 396  283.5392
 397  121.7622
 398  -0.02418262
 399  56.41614
 400  112.1717
 401  186.3949
 402  221.8166
 403  14.51489
 404  80.32887
 405  109.8902
 406  235.1515
 407  264.3989
 408  245.6553
 409  251.7397
 410  153.8065
 411  68.63084
 412  165.0067
 413  235.1628
 414  245.2558
 415  97.4564
 416  14.82526
 417  123.9508
 418  121.5461
 419  89.23221
 420  195.5046
 421  172.2517
 422  176.0843
 423  223.2879
 424  151.1888
 425  37.99482
 426  77.29557
 427  71.41298
 428  -1.3603
 429  97.12183
 430  56.4926
 431  87.32604
 432  74.06805
 433  55.96825
 434  47.05309
 435  104.6109
 436  151.5194
 437  35.37504
 438  22.56175
 439  125.5795
 440  197.1383
 441  122.4322
 442  148.8764
 443  124.9646
 444  297.6228
 445  241.5163
 446  47.25158
 447  51.08504
 448  160.6591
 449  180.9864
 450  84.81971
 451  102.681
 452  205.8
 453  147.7287
 454  -55.79429
 455  19.6528
 456  102.5507
 457  161.4701
 458  106.9002
 459  83.38666
 460  97.52283
 461  257.4052
 462  346.5809
 463  201.3507
 464  19.87836
 465  17.81273
 466  255.9262
 467  144.3295
 468  14.96467
 469  79.27864
 470  209.1307
 471  153.0834
 472  91.09399
 473  188.5149
 474  227.0281
 475  157.3866
 476  201.1008
 477  125.6068
 478  16.5604
 479  157.4049
 480  121.4434
 481  177.5636
 482  5.546669
 483  97.675
 484  154.2732
 485  348.859
 486  272.9269
 487  125.122
 488  93.18525
 489  175.2713
 490  21.67797
 491  -13.90042
 492  189.8505
 493  314.6987
 494  327.6437
 495  200.4019
 496  255.8155
 497  167.0831
 498  140.5776
 499  146.9978
 500  199.6606
 501  106.0852
 502  82.25655
 503  50.11309
 504  180.228
 505  263.1161
 506  245.1363
 507  121.8721
 508  117.8277
 509  373.6658
 510  686.96
 511  637.3877
