# Input file       =  1186181463.107759_cleaned.dat
# Candidate        =  PSR_0332+5434
# Telescope        =  AR
# Epoch_topo       =  57972.951910969430
# Epoch_bary       =  N/A
# T_sample         =  0.002
# Data Folded      =  7143424
# Data Avg         =  0.0155881942786346
# Data StdDev      =  1.00005472675195 
# Profile Bins     =  512
# Profile Avg      =  217.452220802983 
# Profile StdDev   =  118.12504872834  
# Reduced chi-sqr  =  1.666
# Prob(Noise)      <  1.92e-19   (~8.9 sigma)
# P_topo (ms)      =  714.466829198267  +/- 0.000279
# P'_topo (s/s)    =  -0                +/- 1.51e-10
# P''_topo (s/s^2) =  0                 +/- 6.86e-14
# P_bary (ms)      =  N/A
# P'_bary (s/s)    =  N/A
# P''_bary (s/s^2) =  N/A
# P_orb (s)        =  N/A
# asin(i)/c (s)    =  N/A
# eccentricity     =  N/A
# w (rad)          =  N/A
# T_peri           =  N/A
######################################################
   0  971.7477
   1  981.8935
   2  832.4051
   3  476.2803
   4  364.2391
   5  189.2905
   6  100.3286
   7  193.1127
   8  222.5134
   9  288.1639
  10  263.1696
  11  125.5129
  12  76.88264
  13  252.5549
  14  165.9211
  15  107.6877
  16  190.5749
  17  215.7146
  18  167.8441
  19  222.7419
  20  212.4908
  21  165.1975
  22  277.3654
  23  263.205
  24  309.869
  25  257.5975
  26  261.3987
  27  150.2414
  28  144.2308
  29  142.7818
  30  103.5414
  31  143.0114
  32  148.1913
  33  271.6754
  34  217.6351
  35  233.3788
  36  40.60038
  37  43.45083
  38  113.0503
  39  253.7238
  40  76.40754
  41  163.9897
  42  233.5529
  43  219.6903
  44  156.4998
  45  96.45004
  46  131.2086
  47  245.336
  48  226.1285
  49  259.2824
  50  248.5035
  51  134.062
  52  107.5782
  53  145.1624
  54  89.76845
  55  148.431
  56  221.0607
  57  185.7081
  58  218.1627
  59  185.2543
  60  186.8696
  61  157.5063
  62  104.7284
  63  122.9998
  64  271.7791
  65  230.6928
  66  403.8394
  67  352.479
  68  218.6881
  69  274.0535
  70  254.0881
  71  260.8918
  72  205.7755
  73  119.7557
  74  193.451
  75  293.3503
  76  205.6637
  77  239.7344
  78  265.8201
  79  323.4258
  80  218.2145
  81  109.5892
  82  100.5261
  83  136.4578
  84  285.0482
  85  286.7381
  86  141.4054
  87  134.703
  88  256.7517
  89  223.5297
  90  100.4407
  91  183.4288
  92  226.5326
  93  305.6228
  94  282.6033
  95  226.4752
  96  233.1463
  97  338.0053
  98  216.842
  99  162.5825
 100  234.514
 101  116.5805
 102  10.98971
 103  99.46391
 104  147.4441
 105  218.0201
 106  200.1761
 107  142.0434
 108  160.3587
 109  309.1914
 110  265.8992
 111  208.1831
 112  221.1529
 113  275.4105
 114  233.0921
 115  240.2669
 116  333.7396
 117  248.0733
 118  148.2582
 119  201.3482
 120  362.7573
 121  424.2549
 122  351.4505
 123  213.9769
 124  159.8101
 125  198.1359
 126  309.9147
 127  194.1646
 128  125.7257
 129  294.8304
 130  302.3761
 131  175.1631
 132  115.3024
 133  198.3194
 134  163.5519
 135  165.0871
 136  102.0022
 137  225.513
 138  281.5424
 139  57.46426
 140  220.9081
 141  357.0222
 142  262.5113
 143  163.8807
 144  179.7957
 145  222.5849
 146  205.4039
 147  205.3524
 148  262.7
 149  137.3945
 150  254.231
 151  257.8769
 152  216.0098
 153  247.0008
 154  173.4211
 155  95.62167
 156  133.9197
 157  194.9132
 158  337.5781
 159  330.4704
 160  268.3013
 161  282.0977
 162  217.0422
 163  31.54329
 164  -21.59866
 165  223.2981
 166  320.7368
 167  260.6426
 168  347.9877
 169  402.6928
 170  183.6443
 171  136.2106
 172  179.2988
 173  225.216
 174  186.971
 175  160.325
 176  228.4855
 177  140.8557
 178  196.6891
 179  262.4984
 180  183.5034
 181  199.6729
 182  290.9204
 183  185.8136
 184  210.5861
 185  335.6155
 186  352
 187  333.5524
 188  382.674
 189  350.6811
 190  261.0319
 191  220.6613
 192  264.8899
 193  340.33
 194  223.6965
 195  220.276
 196  200.3721
 197  126.1577
 198  141.4062
 199  217.7084
 200  150.3884
 201  317.1533
 202  235.2092
 203  253.338
 204  137.4388
 205  108.6177
 206  114.4612
 207  148.943
 208  137.9078
 209  306.2029
 210  300.7948
 211  270.4265
 212  220.8971
 213  157.8609
 214  115.405
 215  175.3715
 216  308.1999
 217  175.2176
 218  265.7449
 219  164.2193
 220  222.414
 221  226.0238
 222  126.7187
 223  166.6865
 224  245.9946
 225  306.7795
 226  140.2049
 227  -3.784884
 228  142.9156
 229  93.50212
 230  211.1403
 231  374.2866
 232  164.2384
 233  162.9136
 234  175.4663
 235  70.01554
 236  211.655
 237  417.9338
 238  251.1632
 239  85.84331
 240  250.5457
 241  201.0209
 242  288.3459
 243  117.9492
 244  -24.07111
 245  50.46283
 246  43.75163
 247  69.14173
 248  84.21076
 249  287.7659
 250  351.6025
 251  230.4599
 252  191.3107
 253  176.462
 254  234.6595
 255  343.9368
 256  262.017
 257  240.2019
 258  138.4483
 259  115.4222
 260  233.6488
 261  146.5225
 262  207.6441
 263  243.3462
 264  285.5142
 265  203.9109
 266  292.37
 267  253.2692
 268  147.3186
 269  140.7585
 270  189.1757
 271  221.5312
 272  253.5805
 273  333.9461
 274  200.1641
 275  108.7121
 276  193.0782
 277  200.4659
 278  261.9825
 279  336.3368
 280  262.3192
 281  180.0055
 282  242.1933
 283  309.7232
 284  340.862
 285  185.1707
 286  177.0379
 287  95.92685
 288  232.0993
 289  124.6977
 290  147.474
 291  274.0041
 292  222.0374
 293  276.2972
 294  277.2694
 295  75.76201
 296  103.0973
 297  114.796
 298  90.35167
 299  168.8723
 300  146.4715
 301  60.24763
 302  114.8531
 303  189.6701
 304  186.2192
 305  73.67685
 306  136.2305
 307  251.1464
 308  155.0459
 309  146.6146
 310  241.5915
 311  186.136
 312  201.5484
 313  133.9466
 314  182.9561
 315  223.3097
 316  144.4989
 317  316.1501
 318  294.4867
 319  39.5008
 320  106.862
 321  243.6432
 322  282.8401
 323  246.0904
 324  283.5846
 325  88.95146
 326  -7.328867
 327  88.7142
 328  167.9258
 329  337.3241
 330  264.8266
 331  207.3807
 332  153.8089
 333  282.8506
 334  308.2187
 335  210.498
 336  206.8698
 337  137.0886
 338  127.0132
 339  231.3505
 340  208.2348
 341  189.4459
 342  65.25156
 343  20.29694
 344  64.2014
 345  217.2561
 346  101.1439
 347  152.487
 348  86.7074
 349  51.54934
 350  209.3333
 351  127.2507
 352  167.3847
 353  124.8061
 354  136.5695
 355  221.4805
 356  112.9771
 357  289.7859
 358  316.0764
 359  137.5606
 360  161.9058
 361  219.267
 362  224.3693
 363  141.0512
 364  126.6039
 365  156.1237
 366  122.6508
 367  238.607
 368  146.4492
 369  60.55924
 370  187.3093
 371  266.8305
 372  298.4529
 373  150.7717
 374  145.3158
 375  226.4779
 376  157.8139
 377  183.8321
 378  74.37594
 379  90.71183
 380  34.95101
 381  262.8284
 382  383.3688
 383  271.4165
 384  308.1179
 385  249.9317
 386  238.4022
 387  218.1371
 388  109.6278
 389  77.02454
 390  178.0616
 391  346.9805
 392  277.7971
 393  266.244
 394  322.0112
 395  229.8394
 396  252.1065
 397  150.9899
 398  80.28291
 399  176.6211
 400  258.9708
 401  249.2752
 402  259.758
 403  357.4943
 404  348.0841
 405  209.1592
 406  146.7385
 407  93.48679
 408  226.6942
 409  232.4437
 410  191.1544
 411  205.8297
 412  320.3872
 413  299.8464
 414  134.6129
 415  53.12401
 416  180.1867
 417  261.4467
 418  301.9088
 419  131.0201
 420  65.1882
 421  17.8771
 422  224.5994
 423  192.1122
 424  168.4597
 425  282.1535
 426  157.0809
 427  183.7506
 428  191.1091
 429  347.3111
 430  286.4953
 431  174.1978
 432  289.0175
 433  149.9871
 434  107.0831
 435  204.3107
 436  183.6157
 437  259.351
 438  215.7479
 439  276.6845
 440  215.2755
 441  147.4411
 442  181.9242
 443  230.4335
 444  318.9041
 445  163.8218
 446  151.8894
 447  300.3402
 448  260.828
 449  152.4162
 450  144.7407
 451  287.5475
 452  332.1385
 453  253.3836
 454  141.2807
 455  207.677
 456  325.8524
 457  274.7009
 458  319.2638
 459  192.3611
 460  39.04456
 461  161.9787
 462  338.1068
 463  234.4748
 464  132.5912
 465  179.1427
 466  221.5518
 467  202.1708
 468  307.4028
 469  313.1557
 470  265.1938
 471  249.4809
 472  183.8996
 473  353.1785
 474  358.9925
 475  267.3849
 476  282.5668
 477  506.0946
 478  474.7317
 479  250.834
 480  130.2987
 481  151.577
 482  272.9583
 483  171.0049
 484  197.9415
 485  255.4696
 486  162.5569
 487  125.3043
 488  94.3709
 489  137.8405
 490  300.729
 491  171.7247
 492  251.0756
 493  256.5583
 494  327.2322
 495  246.6464
 496  304.9182
 497  294.233
 498  210.5099
 499  193.7501
 500  413.0912
 501  501.915
 502  347.9959
 503  382.5433
 504  434.3073
 505  356.174
 506  396.6297
 507  517.638
 508  518.2263
 509  556.5739
 510  666.5067
 511  879.3052
