# Input file       =  1186124839.104553_cleaned.dat
# Candidate        =  PSR_0332+5434
# Telescope        =  AR
# Epoch_topo       =  57972.296540561954
# Epoch_bary       =  N/A
# T_sample         =  0.002
# Data Folded      =  7340032
# Data Avg         =  0.00815703328560774
# Data StdDev      =  1.00002053838678 
# Profile Bins     =  512
# Profile Avg      =  116.881235208787 
# Profile StdDev   =  119.735495500178 
# Reduced chi-sqr  =  1.492
# Prob(Noise)      <  3.08e-12   (~6.9 sigma)
# P_topo (ms)      =  714.467396573771  +/- 0.000205
# P'_topo (s/s)    =  -0                +/- 1.08e-10
# P''_topo (s/s^2) =  0                 +/- 4.77e-14
# P_bary (ms)      =  N/A
# P'_bary (s/s)    =  N/A
# P''_bary (s/s^2) =  N/A
# P_orb (s)        =  N/A
# asin(i)/c (s)    =  N/A
# eccentricity     =  N/A
# w (rad)          =  N/A
# T_peri           =  N/A
######################################################
   0  826.5541
   1  745.5545
   2  521.9071
   3  352.041
   4  99.7979
   5  94.51685
   6  253.9328
   7  207.3668
   8  119.0475
   9  18.75502
  10  30.99414
  11  88.95644
  12  235.5322
  13  211.7346
  14  159.27
  15  237.4524
  16  120.649
  17  129.162
  18  233.8837
  19  216.2386
  20  95.75356
  21  153.6941
  22  183.0832
  23  79.95053
  24  118.8177
  25  244.2348
  26  99.40717
  27  19.03429
  28  131.4575
  29  226.5311
  30  129.1183
  31  163.3326
  32  231.4671
  33  139.4926
  34  250.1317
  35  155.6594
  36  34.8712
  37  73.11986
  38  97.44191
  39  208.4458
  40  44.77031
  41  131.549
  42  209.9798
  43  113.3388
  44  -13.92984
  45  8.740803
  46  0.8734315
  47  -45.9606
  48  -38.85947
  49  -26.76296
  50  -48.75538
  51  31.60488
  52  159.2918
  53  279.892
  54  298.5605
  55  317.244
  56  50.58817
  57  85.41084
  58  234.0267
  59  279.4498
  60  258.7519
  61  187.6099
  62  184.6759
  63  217.6623
  64  240.0775
  65  238.8475
  66  192.5538
  67  113.4759
  68  61.92859
  69  105.6915
  70  51.17624
  71  49.96431
  72  89.72604
  73  85.45581
  74  125.3481
  75  123.8849
  76  92.86187
  77  77.54831
  78  97.36512
  79  168.0843
  80  158.6408
  81  71.54427
  82  167.9697
  83  164.1176
  84  45.53404
  85  153.1079
  86  203.785
  87  -26.2044
  88  74.35912
  89  176.7805
  90  135.4705
  91  231.4971
  92  166.8054
  93  178.6905
  94  50.40674
  95  86.12971
  96  155.8111
  97  74.29114
  98  33.6418
  99  59.31229
 100  14.05162
 101  40.09962
 102  125.8724
 103  132.127
 104  25.30996
 105  25.38979
 106  155.1962
 107  132.2561
 108  145.9324
 109  184.2789
 110  144.1429
 111  123.44
 112  69.63024
 113  143.1562
 114  217.7289
 115  109.8068
 116  -20.19982
 117  108.3901
 118  189.1929
 119  169.3853
 120  92.57438
 121  195.3571
 122  137.2755
 123  161.6221
 124  28.38046
 125  67.65929
 126  139.3736
 127  4.78021
 128  9.237614
 129  7.232491
 130  -44.67279
 131  24.89132
 132  134.0996
 133  160.3558
 134  136.0336
 135  97.49319
 136  79.72144
 137  -22.09109
 138  -0.998621
 139  73.82239
 140  42.14733
 141  55.15482
 142  -1.692071
 143  -78.86533
 144  108.7907
 145  196.7741
 146  259.7444
 147  54.53193
 148  21.46312
 149  165.7497
 150  140.3669
 151  13.77209
 152  42.37123
 153  59.10754
 154  -51.47576
 155  -5.553422
 156  132.2818
 157  174.5655
 158  165.5372
 159  189.1738
 160  141.5254
 161  97.64211
 162  61.16145
 163  -100.5267
 164  -34.11874
 165  29.26663
 166  27.68905
 167  8.874729
 168  -112.7685
 169  -8.722586
 170  183.404
 171  72.08183
 172  95.68567
 173  119.6556
 174  85.67775
 175  103.6787
 176  82.58156
 177  43.52676
 178  60.85875
 179  54.76545
 180  111.1184
 181  157.4855
 182  103.8316
 183  47.21414
 184  -21.81251
 185  -164.0183
 186  -179.7396
 187  84.02287
 188  5.402906
 189  42.02092
 190  68.41017
 191  123.0179
 192  135.6853
 193  64.52837
 194  91.89062
 195  105.1858
 196  -45.44375
 197  -25.08698
 198  142.3675
 199  110.599
 200  0.9990018
 201  72.88258
 202  178.156
 203  104.8146
 204  157.5545
 205  192.7589
 206  158.168
 207  167.8039
 208  186.7021
 209  -2.925443
 210  -114.2336
 211  62.2035
 212  76.78312
 213  -46.1858
 214  -10.95546
 215  -3.862353
 216  60.18652
 217  -17.99216
 218  -126.9409
 219  90.61903
 220  141.3841
 221  180.7795
 222  61.34716
 223  49.1763
 224  211.7409
 225  103.0644
 226  142.8652
 227  97.60114
 228  124.5961
 229  153.0659
 230  28.92925
 231  39.51701
 232  159.115
 233  83.63096
 234  64.63941
 235  -80.41516
 236  -81.06596
 237  45.42537
 238  158.5803
 239  113.9383
 240  262.6997
 241  150.8365
 242  25.05054
 243  -60.38848
 244  97.17334
 245  174.4971
 246  193.2957
 247  132.1287
 248  22.11483
 249  -21.14236
 250  57.89055
 251  245.7893
 252  269.8859
 253  84.67892
 254  46.01021
 255  125.3009
 256  82.24808
 257  125.606
 258  52.11653
 259  -8.356502
 260  31.97399
 261  63.09683
 262  109.7683
 263  227.6481
 264  181.4562
 265  150.8409
 266  122.4916
 267  159.944
 268  131.915
 269  198.9895
 270  180.6211
 271  98.00105
 272  53.90743
 273  214.291
 274  230.2369
 275  138.8946
 276  29.55297
 277  102.2644
 278  46.75171
 279  96.20103
 280  157.4238
 281  110.9102
 282  107.8975
 283  80.45805
 284  42.66752
 285  122.7351
 286  139.522
 287  191.668
 288  147.0453
 289  165.3425
 290  140.1935
 291  173.4768
 292  99.85474
 293  184.9968
 294  275.0586
 295  227.3839
 296  363.9884
 297  168.381
 298  75.50069
 299  28.6524
 300  189.5236
 301  301.2767
 302  280.9581
 303  201.7797
 304  140.7545
 305  118.3319
 306  109.8215
 307  180.4142
 308  136.7699
 309  130.8752
 310  116.2785
 311  100.4965
 312  113.2408
 313  45.4367
 314  58.44884
 315  48.03923
 316  6.583193
 317  106.1972
 318  147.0811
 319  117.8033
 320  119.2669
 321  125.6142
 322  132.211
 323  83.10012
 324  -57.62318
 325  -23.77197
 326  23.89857
 327  96.68075
 328  94.75652
 329  193.7739
 330  85.82155
 331  -67.20752
 332  161.9964
 333  312.1985
 334  277.2524
 335  239.2011
 336  74.46149
 337  102.5115
 338  61.03359
 339  122.5646
 340  80.44114
 341  4.263021
 342  69.52366
 343  -19.57139
 344  102.384
 345  82.23831
 346  74.77715
 347  63.74528
 348  216.9759
 349  84.49162
 350  165.5656
 351  121.4006
 352  47.73158
 353  29.36609
 354  141.2744
 355  176.744
 356  146.8507
 357  124.6582
 358  165.1032
 359  77.40588
 360  -10.4086
 361  126.5151
 362  266.9847
 363  135.1246
 364  189.9817
 365  179.2735
 366  15.34889
 367  108.4601
 368  167.535
 369  110.4026
 370  84.79147
 371  9.456781
 372  170.0333
 373  208.2074
 374  180.6656
 375  142.9319
 376  295.0811
 377  231.0531
 378  174.5248
 379  100.4843
 380  226.8314
 381  251.8754
 382  -4.913037
 383  18.85708
 384  33.95712
 385  144.404
 386  78.78485
 387  203.4435
 388  203.3736
 389  204.9525
 390  204.6882
 391  103.6312
 392  89.48999
 393  92.53515
 394  21.27047
 395  136.2086
 396  43.63707
 397  68.87801
 398  58.42413
 399  119.9556
 400  229.4235
 401  87.94756
 402  -34.43574
 403  -16.08261
 404  -49.56611
 405  75.2131
 406  190.3336
 407  145.7356
 408  151.7521
 409  126.1505
 410  101.4387
 411  167.4827
 412  90.66145
 413  79.59258
 414  89.88389
 415  143.1293
 416  122.3654
 417  132.4166
 418  68.44498
 419  -11.91885
 420  -68.37399
 421  47.10051
 422  55.29675
 423  36.12082
 424  109.6343
 425  136.8148
 426  115.8742
 427  262.5121
 428  152.6444
 429  151.9651
 430  83.80351
 431  51.26238
 432  123.5505
 433  111.8767
 434  85.43291
 435  117.2411
 436  54.20127
 437  87.9828
 438  -32.75285
 439  -31.60359
 440  197.7629
 441  183.4605
 442  199.276
 443  178.4607
 444  223.1639
 445  220.4177
 446  94.12911
 447  87.08978
 448  217.0737
 449  90.90703
 450  173.2281
 451  150.9735
 452  68.28072
 453  99.98986
 454  286.9659
 455  338.9756
 456  199.1183
 457  163.5014
 458  240.4212
 459  314.6419
 460  123.7205
 461  -58.79599
 462  134.3601
 463  115.6869
 464  -64.04797
 465  -90.91168
 466  107.2946
 467  165.3369
 468  176.5867
 469  189.1832
 470  166.202
 471  47.66773
 472  -32.83067
 473  32.96551
 474  89.44997
 475  14.05765
 476  74.21043
 477  179.823
 478  -28.11148
 479  25.58952
 480  201.9064
 481  106.2892
 482  168.9311
 483  216.9158
 484  75.82998
 485  92.39409
 486  8.443493
 487  108.7718
 488  249.2554
 489  211.106
 490  156.6409
 491  121.2259
 492  163.6557
 493  166.9774
 494  50.2069
 495  164.6845
 496  236.3753
 497  142.8378
 498  66.27058
 499  0.3809106
 500  14.30593
 501  196.7089
 502  254.2448
 503  70.50484
 504  195.1723
 505  352.5865
 506  222.8338
 507  221.2337
 508  199.059
 509  479.0081
 510  599.1428
 511  825.9
