# Input file       =  1186282239.11017_cleaned.dat
# Candidate        =  PSR_0332+5434
# Telescope        =  AR
# Epoch_topo       =  57974.118299886228
# Epoch_bary       =  N/A
# T_sample         =  0.002
# Data Folded      =  7340032
# Data Avg         =  0.00700439577308419
# Data StdDev      =  1.00005884516351 
# Profile Bins     =  512
# Profile Avg      =  100.484157148611 
# Profile StdDev   =  119.740082086869 
# Reduced chi-sqr  =  1.666
# Prob(Noise)      <  2.06e-19   (~8.9 sigma)
# P_topo (ms)      =  714.466465595948  +/- 0.000192
# P'_topo (s/s)    =  -0                +/- 1.01e-10
# P''_topo (s/s^2) =  0                 +/- 4.48e-14
# P_bary (ms)      =  N/A
# P'_bary (s/s)    =  N/A
# P''_bary (s/s^2) =  N/A
# P_orb (s)        =  N/A
# asin(i)/c (s)    =  N/A
# eccentricity     =  N/A
# w (rad)          =  N/A
# T_peri           =  N/A
######################################################
   0  852.7792
   1  929.3917
   2  817.8218
   3  651.6889
   4  310.7867
   5  244.5485
   6  236.2767
   7  145.0666
   8  131.8623
   9  130.017
  10  107.2691
  11  132.4799
  12  151.6597
  13  262.044
  14  258.4169
  15  35.67913
  16  -128.1031
  17  -193.8708
  18  -111.1413
  19  120.8102
  20  29.77574
  21  -40.12163
  22  -28.47198
  23  -12.7114
  24  -30.47945
  25  -95.1371
  26  -67.93918
  27  -44.25465
  28  -69.48063
  29  30.10873
  30  12.31963
  31  91.36234
  32  129.7087
  33  -28.99297
  34  -43.36913
  35  93.11459
  36  125.8576
  37  77.3907
  38  55.13821
  39  45.59727
  40  140.1915
  41  138.039
  42  170.597
  43  54.30672
  44  165.051
  45  197.7724
  46  199.1617
  47  164.1278
  48  174.4636
  49  109.5062
  50  -87.78774
  51  27.03612
  52  131.2797
  53  256.4126
  54  87.38997
  55  -25.2183
  56  28.48348
  57  53.96536
  58  47.75908
  59  38.11174
  60  110.3257
  61  105.5649
  62  190.5806
  63  134.4172
  64  -94.90935
  65  -43.1354
  66  35.45446
  67  91.05274
  68  29.90771
  69  9.540439
  70  96.40083
  71  73.13989
  72  28.02748
  73  -7.55744
  74  28.93217
  75  130.9128
  76  69.10939
  77  196.8666
  78  165.444
  79  26.12267
  80  47.814
  81  76.60912
  82  6.578461
  83  122.9535
  84  49.73402
  85  90.64626
  86  59.89708
  87  134.3151
  88  60.54849
  89  50.0806
  90  118.9951
  91  212.0264
  92  179.832
  93  202.7083
  94  135.7782
  95  -6.689486
  96  67.74699
  97  181.8338
  98  51.61957
  99  -1.397384
 100  172.7149
 101  126.5111
 102  110.1676
 103  225.4852
 104  171.4609
 105  39.17715
 106  114.7144
 107  23.11096
 108  84.54545
 109  117.8503
 110  -27.47795
 111  124.1488
 112  134.6927
 113  196.2705
 114  253.3299
 115  149.042
 116  185.3855
 117  43.78248
 118  196.5755
 119  214.0212
 120  138.0784
 121  68.94738
 122  -100.6717
 123  28.60661
 124  249.4277
 125  262.6556
 126  152.7943
 127  59.05411
 128  124.5094
 129  78.89895
 130  171.8604
 131  198.9789
 132  122.4469
 133  42.97984
 134  63.52904
 135  75.25893
 136  86.52308
 137  198.5505
 138  176.3481
 139  241.4174
 140  192.9888
 141  243.3344
 142  171.2527
 143  22.41717
 144  104.7991
 145  167.7472
 146  158.1262
 147  132.1766
 148  61.34172
 149  116.3453
 150  89.94916
 151  159.1277
 152  193.9391
 153  272.8871
 154  243.458
 155  145.1681
 156  108.7259
 157  115.9026
 158  82.79771
 159  80.92169
 160  106.5696
 161  113.9772
 162  -24.73923
 163  137.8578
 164  145.1033
 165  247.3592
 166  232.1579
 167  77.67648
 168  -40.06792
 169  -17.0265
 170  181.1171
 171  234.1
 172  218.3703
 173  206.2149
 174  88.31168
 175  -54.70036
 176  57.79307
 177  161.3983
 178  73.30585
 179  137.6208
 180  -1.760623
 181  -50.06427
 182  -23.52662
 183  77.47152
 184  24.5439
 185  -6.447697
 186  -11.29405
 187  73.96487
 188  82.50375
 189  63.38053
 190  47.83411
 191  53.76738
 192  -11.97369
 193  -133.8194
 194  9.913844
 195  80.55292
 196  77.30704
 197  150.1316
 198  125.1829
 199  158.6818
 200  189.6887
 201  154.7575
 202  171.6009
 203  70.82256
 204  138.8104
 205  117.8715
 206  127.5643
 207  93.41087
 208  151.0798
 209  117.4624
 210  56.94905
 211  56.68572
 212  30.71361
 213  76.5251
 214  112.0319
 215  59.73044
 216  149.6314
 217  99.60234
 218  85.7651
 219  64.85381
 220  103.0631
 221  177.8502
 222  169.4419
 223  220.5088
 224  155.9119
 225  68.5228
 226  34.06361
 227  165.1403
 228  236.152
 229  120.4806
 230  38.19003
 231  144.1631
 232  49.58898
 233  37.75257
 234  160.6194
 235  107.7563
 236  51.67653
 237  11.3602
 238  98.13963
 239  209.3801
 240  319.1614
 241  171.7207
 242  134.3564
 243  159.0129
 244  155.2475
 245  164.3125
 246  243.5985
 247  89.82338
 248  49.22059
 249  145.7767
 250  168.6365
 251  38.75344
 252  97.48456
 253  17.95951
 254  1.304549
 255  15.62696
 256  51.88245
 257  52.73463
 258  114.6686
 259  159.6963
 260  103.6302
 261  -50.00779
 262  -80.78341
 263  -44.95552
 264  -1.202817
 265  -21.74689
 266  -46.0721
 267  -95.6073
 268  24.59164
 269  -70.32442
 270  -8.000291
 271  131.4874
 272  133.8915
 273  133.8048
 274  52.03217
 275  -13.53036
 276  -13.71766
 277  64.94804
 278  141.3591
 279  95.77836
 280  102.1669
 281  35.17118
 282  67.35119
 283  143.3347
 284  132.5817
 285  184.7999
 286  33.21197
 287  128.9579
 288  119.3842
 289  154.6772
 290  143.9941
 291  104.0262
 292  132.7299
 293  -13.86116
 294  -38.32555
 295  109.4143
 296  107.3999
 297  67.22246
 298  -13.86309
 299  -24.58257
 300  -8.209441
 301  -19.30267
 302  10.9254
 303  1.505013
 304  98.58748
 305  36.51151
 306  144.4797
 307  40.08596
 308  24.62967
 309  62.17248
 310  168.5721
 311  235.5119
 312  278.5241
 313  58.04902
 314  -1.732449
 315  119.9596
 316  240.3799
 317  114.556
 318  96.23075
 319  84.82088
 320  37.09343
 321  151.1262
 322  174.1426
 323  154.393
 324  59.62678
 325  -53.42119
 326  -73.34313
 327  22.07102
 328  155.366
 329  106.9714
 330  59.87553
 331  150.3965
 332  65.47052
 333  -38.47502
 334  -29.78519
 335  115.6839
 336  294.981
 337  273.6857
 338  92.35162
 339  13.12831
 340  170.8559
 341  156.963
 342  186.1166
 343  107.0601
 344  -20.13104
 345  -26.96135
 346  -5.644752
 347  119.5553
 348  150.8717
 349  53.27975
 350  -103.5141
 351  -3.632248
 352  137.1954
 353  190.2651
 354  230.1652
 355  139.35
 356  -42.23395
 357  29.86237
 358  106.1875
 359  255.0516
 360  -21.42114
 361  -29.11548
 362  71.09788
 363  139.7405
 364  233.9824
 365  261.1328
 366  132.5983
 367  130.9906
 368  180.5897
 369  61.55557
 370  14.50267
 371  227.0385
 372  204.371
 373  161.5898
 374  126.3047
 375  156.9581
 376  100.3847
 377  223.579
 378  136.9336
 379  93.30967
 380  3.710014
 381  110.9409
 382  147.2419
 383  119.549
 384  237.4949
 385  75.06165
 386  30.01036
 387  55.23768
 388  151.6001
 389  138.1929
 390  146.4331
 391  106.9352
 392  214.2041
 393  275.841
 394  109.9423
 395  43.43594
 396  4.274158
 397  50.24579
 398  152.8166
 399  164.063
 400  131.1169
 401  49.67002
 402  77.259
 403  80.83624
 404  153.3837
 405  143.3642
 406  53.80702
 407  89.09657
 408  132.1617
 409  169.5825
 410  143.8723
 411  73.71781
 412  31.56815
 413  78.91399
 414  174.6115
 415  140.6881
 416  125.4858
 417  115.6937
 418  211.3716
 419  199.9292
 420  173.9444
 421  177.8536
 422  44.40141
 423  84.7755
 424  46.92797
 425  165.4004
 426  281.7542
 427  140.0214
 428  73.57752
 429  75.11107
 430  217.7422
 431  183.6547
 432  91.30196
 433  39.51947
 434  63.84555
 435  -22.87853
 436  29.76167
 437  71.72598
 438  41.6121
 439  16.06536
 440  5.401548
 441  28.57954
 442  139.7493
 443  3.314395
 444  0.8173038
 445  -30.27392
 446  -22.47912
 447  47.167
 448  74.701
 449  101.945
 450  -45.3333
 451  53.60539
 452  173.685
 453  -15.68137
 454  -9.520591
 455  87.71921
 456  22.70838
 457  -17.88671
 458  -38.69396
 459  -37.27041
 460  95.73843
 461  9.364153
 462  153.2931
 463  133.903
 464  185.9485
 465  83.69411
 466  61.56126
 467  161.2298
 468  187.8035
 469  101.8204
 470  99.09469
 471  90.9407
 472  58.75173
 473  89.46585
 474  58.9366
 475  121.5707
 476  -6.714962
 477  -8.239955
 478  -71.90891
 479  -19.46659
 480  151.3267
 481  43.14603
 482  159.7122
 483  66.51373
 484  98.78317
 485  42.32022
 486  -24.69476
 487  12.09339
 488  -21.8655
 489  57.04125
 490  103.5599
 491  44.08909
 492  -20.94238
 493  -3.670813
 494  67.30333
 495  23.48216
 496  85.48849
 497  119.2951
 498  32.66145
 499  40.49429
 500  112.6009
 501  68.0185
 502  15.35594
 503  112.5181
 504  115.1509
 505  100.171
 506  179.7798
 507  295.0683
 508  276.4569
 509  484.6868
 510  640.4958
 511  619.6533
