# Input file       =  1186784914.239803_cleaned.dat
# Candidate        =  PSR_0332+5434
# Telescope        =  AR
# Epoch_topo       =  57979.936299071793
# Epoch_bary       =  N/A
# T_sample         =  0.002
# Data Folded      =  7405568
# Data Avg         =  0.016460926447738
# Data StdDev      =  1.00031325506869 
# Profile Bins     =  512
# Profile Avg      =  238.084078296529 
# Profile StdDev   =  120.3040450773   
# Reduced chi-sqr  =  1.531
# Prob(Noise)      <  1.02e-13   (~7.3 sigma)
# P_topo (ms)      =  714.464866468513  +/- 0.000161
# P'_topo (s/s)    =  -0                +/- 8.4e-11
# P''_topo (s/s^2) =  0                 +/- 3.67e-14
# P_bary (ms)      =  N/A
# P'_bary (s/s)    =  N/A
# P''_bary (s/s^2) =  N/A
# P_orb (s)        =  N/A
# asin(i)/c (s)    =  N/A
# eccentricity     =  N/A
# w (rad)          =  N/A
# T_peri           =  N/A
######################################################
   0  939.6631
   1  953.2379
   2  732.8077
   3  438.6469
   4  261.9934
   5  233.2069
   6  181.9158
   7  287.399
   8  217.8436
   9  276.6457
  10  266.994
  11  253.4031
  12  297.4037
  13  275.227
  14  216.1761
  15  211.7397
  16  155.1671
  17  181.007
  18  194.4637
  19  158.9322
  20  279.4517
  21  407.2494
  22  281.9624
  23  170.4673
  24  247.3331
  25  314.3813
  26  200.7144
  27  262.8483
  28  302.8384
  29  192.9104
  30  162.3356
  31  201.8053
  32  227.5503
  33  237.3946
  34  226.5409
  35  231.2225
  36  299.0766
  37  257.9674
  38  202.6415
  39  216.0502
  40  310.3466
  41  247.9493
  42  198.9126
  43  157.3258
  44  209.8721
  45  264.0522
  46  196.5507
  47  111.4337
  48  31.06093
  49  93.21067
  50  268.001
  51  284.4151
  52  303.6944
  53  32.41331
  54  207.8761
  55  244.3534
  56  220.0459
  57  283.4164
  58  264.2282
  59  246.4532
  60  128.0462
  61  136.2636
  62  249.2279
  63  161.323
  64  123.6163
  65  133.2301
  66  293.4267
  67  358.7398
  68  190.9413
  69  109.5401
  70  182.1601
  71  52.62637
  72  216.4753
  73  365.8613
  74  437.7048
  75  378.2957
  76  298.6218
  77  296.2643
  78  292.4174
  79  274.2872
  80  164.4687
  81  308.5541
  82  340.6113
  83  182.2707
  84  281.4523
  85  278.5374
  86  313.4283
  87  262.6762
  88  307.1689
  89  277.4557
  90  335.4095
  91  304.521
  92  317.9131
  93  123.4551
  94  320.236
  95  272.5632
  96  274.7352
  97  317.4026
  98  379.8681
  99  187.6673
 100  228.4836
 101  358.5769
 102  380.1005
 103  213.6256
 104  187.4747
 105  288.1125
 106  354.4067
 107  247.617
 108  155.8261
 109  248.7033
 110  214.3221
 111  188.2605
 112  -14.47513
 113  172.1467
 114  347.0273
 115  383.1336
 116  252.2119
 117  163.8436
 118  334.0225
 119  338.811
 120  258.3827
 121  237.6487
 122  171.6409
 123  212.4335
 124  155.8329
 125  139.2047
 126  221.4942
 127  284.9231
 128  364.5973
 129  290.7711
 130  273.4067
 131  157.805
 132  315.6564
 133  320.5959
 134  192.5358
 135  276.5663
 136  384.1917
 137  399.0966
 138  289.4774
 139  290.0397
 140  348.4298
 141  300.5349
 142  200.7552
 143  253.3295
 144  279.9865
 145  274.8414
 146  265.4514
 147  216.7565
 148  269.808
 149  352.7313
 150  150.9628
 151  159.748
 152  128.6694
 153  225.2233
 154  188.7532
 155  306.0893
 156  234.6508
 157  182.6076
 158  227.0422
 159  203.9994
 160  331.8293
 161  339.8612
 162  319.3058
 163  195.6042
 164  120.4849
 165  139.6687
 166  130.8392
 167  207.7083
 168  241.6985
 169  259.1131
 170  290.3581
 171  304.9104
 172  288.8288
 173  261.4291
 174  397.823
 175  333.8919
 176  319.5664
 177  209.1624
 178  226.7058
 179  401.1702
 180  367.4161
 181  254.3602
 182  294.4106
 183  311.5062
 184  274.3481
 185  366.6365
 186  251.8962
 187  237.0235
 188  148.9057
 189  163.5432
 190  243.2181
 191  203.5527
 192  279.341
 193  394.6974
 194  324.7245
 195  233.4226
 196  162.3022
 197  301.2511
 198  339.7034
 199  244.8534
 200  297.1822
 201  351.7314
 202  323.0521
 203  240.1012
 204  251.6688
 205  286.6389
 206  400.4359
 207  305.9415
 208  237.6004
 209  185.1804
 210  224.1771
 211  152.6522
 212  132.0258
 213  433.6433
 214  429.1341
 215  338.5028
 216  432.509
 217  291.3462
 218  152.768
 219  203.9914
 220  297.5359
 221  214.7915
 222  147.5802
 223  181.7547
 224  198.2054
 225  327.6537
 226  198.1893
 227  255.6031
 228  311.3307
 229  282.8052
 230  156.0589
 231  195.956
 232  208.489
 233  125.7745
 234  293.838
 235  77.17012
 236  92.2836
 237  121.2875
 238  93.14082
 239  214.0934
 240  300.151
 241  278.6023
 242  350.8992
 243  411.9606
 244  275.239
 245  245.2255
 246  307.5671
 247  234.3736
 248  159.4443
 249  30.68024
 250  141.9126
 251  361.0807
 252  346.5775
 253  307.9788
 254  250.5882
 255  215.8367
 256  186.0678
 257  222.2281
 258  279.4141
 259  377.9034
 260  373.624
 261  265.1824
 262  173.893
 263  72.96444
 264  203.8055
 265  333.3988
 266  224.6376
 267  380.2942
 268  335.1773
 269  174.4286
 270  273.7201
 271  311.3802
 272  386.9271
 273  330.6341
 274  260.8479
 275  300.2186
 276  179.7136
 277  121.3632
 278  316.6452
 279  196.9673
 280  95.38482
 281  203.2222
 282  168.2002
 283  252.775
 284  287.5933
 285  241.4464
 286  183.0567
 287  93.11925
 288  292.1104
 289  250.9491
 290  65.80004
 291  224.4807
 292  259.4318
 293  339.5511
 294  283.6613
 295  362.9754
 296  347.3688
 297  304.4903
 298  378.5356
 299  326.8634
 300  156.2583
 301  80.31461
 302  221.7467
 303  329.7713
 304  192.9622
 305  208.6935
 306  322.1669
 307  246.232
 308  310.7122
 309  252.2136
 310  328.5831
 311  277.9148
 312  221.1835
 313  286.8377
 314  310.4924
 315  338.5857
 316  194.0799
 317  152.0398
 318  280.1702
 319  288.1295
 320  379.7825
 321  357.2829
 322  341.7103
 323  220.3131
 324  170.9846
 325  265.8691
 326  36.35004
 327  156.9973
 328  199.8555
 329  244.3461
 330  255.7496
 331  229.5055
 332  253.4146
 333  116.7847
 334  206.7511
 335  291.4285
 336  272.1075
 337  268.4328
 338  386.9466
 339  341.6704
 340  161.0815
 341  246.9639
 342  301.8539
 343  287.9869
 344  254.4507
 345  293.618
 346  205.0477
 347  140.6249
 348  203.2803
 349  201.4083
 350  248.3498
 351  188.8802
 352  190.4329
 353  215.3808
 354  231.1369
 355  226.9971
 356  397.907
 357  260.6807
 358  96.86049
 359  203.822
 360  310.1564
 361  271.3472
 362  276.2614
 363  240.6674
 364  259.3821
 365  126.8834
 366  17.46261
 367  257.832
 368  422.8659
 369  375.7534
 370  148.2128
 371  38.54524
 372  51.4139
 373  119.4878
 374  108.5895
 375  307.3128
 376  294.8726
 377  247.8967
 378  186.3779
 379  110.8866
 380  171.3934
 381  206.4968
 382  74.34953
 383  148.7757
 384  238.293
 385  84.45956
 386  208.1721
 387  263.4939
 388  163.2074
 389  73.67382
 390  73.28779
 391  127.7124
 392  91.01949
 393  152.9462
 394  147.3905
 395  30.38667
 396  66.77122
 397  229.8535
 398  241.7867
 399  316.9876
 400  369.3714
 401  142.1571
 402  73.5323
 403  224.6271
 404  289.0302
 405  152.4001
 406  120.9423
 407  24.09628
 408  -31.55239
 409  166.9195
 410  172.0324
 411  111.9197
 412  135.0101
 413  156.3129
 414  270.9099
 415  246.6234
 416  297.2328
 417  311.8769
 418  164.6707
 419  91.8251
 420  94.34588
 421  173.9669
 422  243.4945
 423  190.8635
 424  195.1379
 425  267.8723
 426  332.2063
 427  188.0754
 428  182.3684
 429  109.7139
 430  186.8475
 431  308.3439
 432  224.8393
 433  217.0866
 434  238.5814
 435  281.3941
 436  161.5114
 437  227.4783
 438  351.4375
 439  263.2014
 440  101.2571
 441  15.39982
 442  98.97308
 443  211.4223
 444  243.4274
 445  248.2084
 446  166.3823
 447  155.4739
 448  164.5127
 449  182.6754
 450  130.0624
 451  104.227
 452  172.3795
 453  193.2026
 454  112.1892
 455  76.11417
 456  112.7936
 457  263.8791
 458  384.3158
 459  337.4546
 460  262.9915
 461  66.59769
 462  157.9318
 463  201.372
 464  90.40071
 465  150.1142
 466  245.4664
 467  231.3232
 468  149.5128
 469  193.953
 470  340.752
 471  256.1176
 472  299.8972
 473  165.8427
 474  -6.8211
 475  68.8111
 476  199.0177
 477  82.87605
 478  129.9344
 479  125.3257
 480  313.154
 481  88.47897
 482  3.426802
 483  178.0933
 484  308.0869
 485  169.4203
 486  50.09315
 487  153.8396
 488  279.2562
 489  247.1099
 490  249.2554
 491  140.4643
 492  148.468
 493  187.0454
 494  236.0074
 495  206.253
 496  234.6881
 497  287.5915
 498  251.3479
 499  268.0663
 500  207.6778
 501  39.76382
 502  55.93619
 503  218.9897
 504  330.6326
 505  215.3819
 506  302.7662
 507  455.2413
 508  506.564
 509  460.4475
 510  629.1548
 511  875.0155
