# Input file       =  1186956974.095455_cleaned.dat
# Candidate        =  PSR_0332+5434
# Telescope        =  AR
# Epoch_topo       =  57981.927732586286
# Epoch_bary       =  N/A
# T_sample         =  0.002
# Data Folded      =  7143424
# Data Avg         =  0.0199619519769366
# Data StdDev      =  1.00025004312659 
# Profile Bins     =  512
# Profile Avg      =  278.563367365934 
# Profile StdDev   =  118.148119222039 
# Reduced chi-sqr  =  1.562
# Prob(Noise)      <  5.77e-15   (~7.7 sigma)
# P_topo (ms)      =  714.464446011184  +/- 0.000196
# P'_topo (s/s)    =  -0                +/- 1.06e-10
# P''_topo (s/s^2) =  0                 +/- 4.82e-14
# P_bary (ms)      =  N/A
# P'_bary (s/s)    =  N/A
# P''_bary (s/s^2) =  N/A
# P_orb (s)        =  N/A
# asin(i)/c (s)    =  N/A
# eccentricity     =  N/A
# w (rad)          =  N/A
# T_peri           =  N/A
######################################################
   0  1023.132
   1  964.6765
   2  671.6359
   3  402.1686
   4  363.5132
   5  182.4251
   6  238.9012
   7  351.0866
   8  223.3905
   9  380.0786
  10  276.997
  11  183.1939
  12  153.0875
  13  289.6865
  14  212.154
  15  184.7211
  16  460.7923
  17  437.1922
  18  179.7785
  19  105.0875
  20  254.1514
  21  288.6835
  22  257.5918
  23  255.9696
  24  288.3932
  25  343.4353
  26  343.5958
  27  181.3461
  28  206.6731
  29  169.124
  30  260.5634
  31  267.8108
  32  293.9042
  33  361.0771
  34  259.4995
  35  256.2542
  36  428.704
  37  378.3118
  38  202.3726
  39  330.7374
  40  298.3695
  41  156.0469
  42  336.6228
  43  236.2906
  44  244.1592
  45  313.9812
  46  301.3865
  47  259.249
  48  118.9674
  49  262.2485
  50  357.418
  51  326.6169
  52  235.0347
  53  192.893
  54  249.9277
  55  239.541
  56  212.3532
  57  212.3503
  58  280.7759
  59  221.7741
  60  140.7912
  61  252.3653
  62  338.9919
  63  396.5731
  64  458.6178
  65  446.3508
  66  425.0988
  67  369.3593
  68  230.108
  69  346.92
  70  276.5413
  71  256.4792
  72  382.3654
  73  319.1063
  74  171.3255
  75  105.0574
  76  194.3809
  77  91.54665
  78  5.81713
  79  138.9704
  80  362.6933
  81  286.3162
  82  186.7222
  83  286.6449
  84  273.6624
  85  284.0197
  86  222.9289
  87  292.8212
  88  249.8662
  89  212.9099
  90  225.7282
  91  293.0683
  92  211.5401
  93  303.6762
  94  256.4645
  95  277.4682
  96  290.367
  97  277.5914
  98  263.9882
  99  227.0322
 100  249.3476
 101  225.875
 102  210.5456
 103  264.2146
 104  332.1944
 105  366.1649
 106  286.7859
 107  94.82946
 108  29.35312
 109  146.61
 110  247.8339
 111  325.7314
 112  217.244
 113  205.2216
 114  244.8927
 115  244.3767
 116  184.8644
 117  114.1495
 118  100.3708
 119  123.4809
 120  193.7874
 121  290.9321
 122  284.7173
 123  283.7657
 124  165.8887
 125  278.1012
 126  266.319
 127  236.2392
 128  289.5606
 129  351.7047
 130  324.3306
 131  254.4241
 132  193.8205
 133  270.6876
 134  239.0056
 135  234.4588
 136  154.4023
 137  173.8777
 138  246.4152
 139  347.6779
 140  270.2528
 141  113.8875
 142  225.9091
 143  75.09441
 144  214.047
 145  252.0663
 146  339.8124
 147  228.9206
 148  140.6294
 149  104.0612
 150  251.1845
 151  237.0791
 152  344.6685
 153  297.6043
 154  106.9446
 155  260.5701
 156  351.2058
 157  250.5467
 158  200.7827
 159  132.6507
 160  183.673
 161  176.2558
 162  279.4001
 163  368.8606
 164  371.9272
 165  357.7906
 166  187.4351
 167  183.8106
 168  109.3972
 169  225.0202
 170  346.7266
 171  299.2026
 172  265.3842
 173  206.4245
 174  160.8601
 175  131.2359
 176  122.2615
 177  271.514
 178  233.3599
 179  418.3944
 180  415.1277
 181  336.5198
 182  226.8922
 183  291.1841
 184  353.2145
 185  411.6528
 186  400.4068
 187  192.6554
 188  154.0091
 189  285.6855
 190  327.118
 191  358.7506
 192  357.6933
 193  373.5782
 194  366.0571
 195  352.1449
 196  270.8501
 197  284.8243
 198  185.4775
 199  380.6079
 200  238.3936
 201  200.413
 202  218.7675
 203  258.5269
 204  215.3595
 205  235.2158
 206  274.1609
 207  229.1603
 208  186.5123
 209  109.2004
 210  167.3052
 211  190.8016
 212  346.2236
 213  322.0167
 214  286.5978
 215  388.5712
 216  295.4988
 217  305.6463
 218  315.5296
 219  299.2599
 220  295.7689
 221  137.6256
 222  400.8123
 223  309.6889
 224  126.8533
 225  145.8138
 226  209.3894
 227  288.4961
 228  323.8509
 229  371.8126
 230  377.1417
 231  300.8235
 232  268.3796
 233  290.9294
 234  139.7238
 235  135.4745
 236  287.8075
 237  226.9727
 238  273.3042
 239  201.1681
 240  115.0256
 241  98.01018
 242  205.3702
 243  228.4738
 244  194.3405
 245  202.151
 246  324.0953
 247  109.1338
 248  104.0993
 249  191.3546
 250  204.9493
 251  361.8646
 252  480.0967
 253  250.3564
 254  244.2056
 255  368.8861
 256  360.2455
 257  251.3887
 258  251.8275
 259  308.0909
 260  345.6468
 261  338.8738
 262  203.7857
 263  242.8281
 264  345.7434
 265  304.226
 266  284.6496
 267  292.3798
 268  442.431
 269  257.6052
 270  267.9103
 271  342.4891
 272  347.2792
 273  276.6383
 274  287.5976
 275  312.6243
 276  204.2925
 277  207.0114
 278  190.5864
 279  215.4369
 280  319.6382
 281  263.2966
 282  154.9281
 283  172.4864
 284  334.4535
 285  237.3349
 286  193.1775
 287  187.2792
 288  58.14341
 289  151.7137
 290  356.0218
 291  412.2004
 292  306.7031
 293  414.7493
 294  243.5305
 295  196.4032
 296  340.7119
 297  361.2521
 298  373.8196
 299  240.9158
 300  258.028
 301  217.0119
 302  276.4419
 303  238.7805
 304  304.5536
 305  390.2285
 306  404.711
 307  242.217
 308  46.04352
 309  131.2557
 310  181.0305
 311  218.5865
 312  247.4719
 313  197.0647
 314  161.8049
 315  105.2258
 316  223.6845
 317  350.6483
 318  404.8741
 319  349.6176
 320  424.6365
 321  395.4139
 322  476.8297
 323  413.5717
 324  383.6984
 325  397.877
 326  198.9014
 327  254.2245
 328  382.5397
 329  434.5358
 330  344.8177
 331  364.8301
 332  312.0707
 333  215.1744
 334  246.7091
 335  438.2071
 336  377.9259
 337  361.6999
 338  259.4801
 339  192.0535
 340  220.0691
 341  260.9103
 342  339.8305
 343  300.524
 344  294.3587
 345  225.2456
 346  227.399
 347  258.4966
 348  228.2852
 349  115.011
 350  228.8026
 351  298.2827
 352  338.4419
 353  370.2969
 354  226.868
 355  188.5205
 356  245.9311
 357  262.6519
 358  310.9016
 359  312.4921
 360  341.251
 361  273.0557
 362  341.5228
 363  426.752
 364  386.9609
 365  380.7405
 366  286.363
 367  206.066
 368  371.657
 369  312.7294
 370  245.7432
 371  193.0852
 372  189.4185
 373  293.1337
 374  261.3217
 375  193.7247
 376  209.6676
 377  345.891
 378  322.1079
 379  259.634
 380  273.7173
 381  238.7342
 382  254.6367
 383  264.1939
 384  231.9782
 385  129.8814
 386  239.2316
 387  295.6932
 388  209.3156
 389  263.3436
 390  294.1599
 391  279.702
 392  431.7531
 393  533.1205
 394  327.5249
 395  298.3163
 396  308.6502
 397  322.3834
 398  262.4134
 399  316.0907
 400  357.6169
 401  401.0936
 402  475.2533
 403  455.5156
 404  280.9663
 405  179.043
 406  244.2498
 407  321.1768
 408  394.8805
 409  325.7129
 410  241.9601
 411  383.8109
 412  362.6747
 413  324.9657
 414  170.2345
 415  255.0451
 416  210.4566
 417  222.2853
 418  341.9955
 419  341.4684
 420  197.0106
 421  285.5318
 422  350.8091
 423  383.0868
 424  274.9525
 425  259.8786
 426  323.1214
 427  347.0988
 428  333.3948
 429  254.9343
 430  223.2042
 431  261.5807
 432  363.8073
 433  407.2855
 434  356.1609
 435  200.1096
 436  261.7247
 437  179.2176
 438  186.889
 439  240.1385
 440  121.4053
 441  57.74952
 442  108.4803
 443  249.546
 444  323.1112
 445  344.4337
 446  217.3017
 447  231.7196
 448  222.7275
 449  193.3254
 450  180.1789
 451  286.4352
 452  248.4968
 453  242.05
 454  193.6159
 455  206.5909
 456  288.7658
 457  278.1456
 458  371.7662
 459  436.7001
 460  396.8462
 461  306.1859
 462  293.593
 463  493.6348
 464  433.5589
 465  239.4751
 466  283.3311
 467  292.8039
 468  198.2177
 469  257.7119
 470  370.4609
 471  335.8562
 472  299.2201
 473  335.8815
 474  330.8608
 475  339.5585
 476  284.5988
 477  231.0406
 478  403.6517
 479  299.6026
 480  463.4763
 481  440.3789
 482  385.3091
 483  232.0364
 484  194.9614
 485  236.6188
 486  168.0578
 487  224.8923
 488  300.0775
 489  319.4131
 490  254.1776
 491  286.7779
 492  487.2121
 493  342.1745
 494  335.4635
 495  410.7837
 496  262.2594
 497  260.3032
 498  193.2103
 499  223.8929
 500  266.018
 501  230.7991
 502  189.6412
 503  270.8752
 504  220.9286
 505  300.9963
 506  366.0362
 507  332.0227
 508  519.1924
 509  665.4622
 510  826.4759
 511  918.6367
