# Input file       =  1186095281.118897_cleaned.dat
# Candidate        =  PSR_0332+5434
# Telescope        =  AR
# Epoch_topo       =  57971.954434246494
# Epoch_bary       =  N/A
# T_sample         =  0.002
# Data Folded      =  7208960
# Data Avg         =  0.0188757889417852
# Data StdDev      =  1.0000956671843  
# Profile Bins     =  512
# Profile Avg      =  265.752207172577 
# Profile StdDev   =  118.670527582771 
# Reduced chi-sqr  =  1.539
# Prob(Noise)      <  4.98e-14   (~7.4 sigma)
# P_topo (ms)      =  714.467166800982  +/- 0.000164
# P'_topo (s/s)    =  -0                +/- 8.83e-11
# P''_topo (s/s^2) =  0                 +/- 3.97e-14
# P_bary (ms)      =  N/A
# P'_bary (s/s)    =  N/A
# P''_bary (s/s^2) =  N/A
# P_orb (s)        =  N/A
# asin(i)/c (s)    =  N/A
# eccentricity     =  N/A
# w (rad)          =  N/A
# T_peri           =  N/A
######################################################
   0  1094.108
   1  911.3719
   2  692.9047
   3  458.6129
   4  384.1778
   5  276.6964
   6  183.6918
   7  206.6587
   8  212.2231
   9  224.035
  10  276.7583
  11  174.2148
  12  232.4014
  13  297.8631
  14  220.2238
  15  116.6809
  16  116.1034
  17  310.9609
  18  245.682
  19  246.5476
  20  260.0807
  21  316.9021
  22  367.7759
  23  125.1578
  24  146.9994
  25  159.7654
  26  59.44659
  27  82.51042
  28  244.7171
  29  308.6873
  30  394.461
  31  422.299
  32  314.6931
  33  402.5387
  34  370.2458
  35  223.9252
  36  115.5348
  37  111.9262
  38  253.0788
  39  249.6195
  40  227.5422
  41  306.2748
  42  428.8951
  43  309.5522
  44  318.8747
  45  279.9249
  46  293.3742
  47  353.4162
  48  353.0856
  49  393.8115
  50  247.4459
  51  213.296
  52  271.9897
  53  264.67
  54  215.1887
  55  289.7722
  56  395.2487
  57  292.8802
  58  260.7033
  59  245.7814
  60  274.2345
  61  306.4846
  62  207.9104
  63  286.5694
  64  215.8393
  65  181.8278
  66  271.0183
  67  344.5954
  68  408.9723
  69  400.387
  70  440.5175
  71  351.69
  72  271.1082
  73  396.7589
  74  477.1881
  75  435.9958
  76  260.9046
  77  230.7475
  78  256.2686
  79  235.6226
  80  169.5391
  81  294.6662
  82  313.2946
  83  157.0246
  84  293.2317
  85  370.1694
  86  231.5182
  87  237.1039
  88  266.7379
  89  286.0253
  90  205.4834
  91  255.2399
  92  212.748
  93  257.2465
  94  357.3524
  95  231.9067
  96  198.6148
  97  206.1133
  98  236.208
  99  305.6335
 100  249.1357
 101  242.4389
 102  260.4719
 103  281.6127
 104  192.3645
 105  238.2628
 106  340.2603
 107  334.7448
 108  255.6953
 109  435.0742
 110  417.2254
 111  179.1714
 112  169.4565
 113  351.1404
 114  100.9225
 115  18.8569
 116  229.3138
 117  202.6089
 118  217.073
 119  298.2921
 120  246.3303
 121  206.7037
 122  194.6605
 123  397.849
 124  254.3208
 125  178.2561
 126  306.7761
 127  217.5088
 128  69.34654
 129  152.8874
 130  187.8868
 131  146.5014
 132  166.0537
 133  184.4568
 134  177.7294
 135  392.3669
 136  254.3873
 137  207.3444
 138  162.2541
 139  213.9698
 140  313.0274
 141  211.7488
 142  235.8902
 143  311.1838
 144  193.9078
 145  306.4036
 146  443.4299
 147  307.3412
 148  292.9329
 149  189.142
 150  294.5022
 151  249.2799
 152  138.9122
 153  125.5844
 154  56.4166
 155  110.9844
 156  186.071
 157  317.6408
 158  388.5735
 159  261.3954
 160  281.1915
 161  353.2067
 162  245.3387
 163  222.8165
 164  220.0804
 165  248.5431
 166  239.9528
 167  308.5859
 168  310.7657
 169  193.4165
 170  291.283
 171  298.4328
 172  260.6079
 173  306.988
 174  304.8541
 175  398.5905
 176  384.5521
 177  141.9882
 178  160.1561
 179  294.6298
 180  311.7607
 181  321.7738
 182  404.7589
 183  373.2592
 184  205.5918
 185  151.983
 186  62.51251
 187  252.0609
 188  292.0734
 189  116.9474
 190  187.5218
 191  335.1961
 192  359.3046
 193  191.4087
 194  147.2462
 195  223.9869
 196  189.288
 197  103.1144
 198  225.683
 199  346.817
 200  363.2144
 201  265.1067
 202  312.9913
 203  269.8788
 204  213.6185
 205  343.317
 206  365.0086
 207  193.6334
 208  198.9404
 209  300.9135
 210  240.6982
 211  194.9197
 212  296.5747
 213  215.9459
 214  155.4657
 215  231.9196
 216  218.367
 217  161.4475
 218  271.2975
 219  264.7667
 220  255.823
 221  306.3404
 222  286.029
 223  283.9293
 224  371.3085
 225  322.0756
 226  307.7571
 227  343.0751
 228  330.4368
 229  284.3291
 230  260.6249
 231  339.9584
 232  325.9211
 233  367.8905
 234  210.8511
 235  184.4515
 236  26.37816
 237  162.1042
 238  264.7454
 239  374.9336
 240  333.6357
 241  137.7758
 242  140.5675
 243  193.4654
 244  323.1429
 245  273.459
 246  272.2103
 247  256.4215
 248  266.9546
 249  341.7776
 250  263.8627
 251  116.5471
 252  303.2529
 253  418.3487
 254  271.3474
 255  260.5661
 256  155.8075
 257  85.26334
 258  227.7794
 259  236.0105
 260  197.8826
 261  203.0429
 262  404.8743
 263  391.1255
 264  300.4798
 265  158.7793
 266  220.7904
 267  293.4411
 268  208.4871
 269  226.5421
 270  116.2712
 271  266.3465
 272  349.5532
 273  417.7062
 274  370.0696
 275  225.5799
 276  304.4347
 277  219.748
 278  59.85234
 279  205.8668
 280  178.1096
 281  258.4408
 282  383.043
 283  484.5587
 284  383.133
 285  289.0878
 286  335.3955
 287  380.4151
 288  321.8774
 289  336.3751
 290  237.257
 291  213.2063
 292  285.2401
 293  245.382
 294  235.0826
 295  316.9005
 296  216.8162
 297  378.4925
 298  394.2512
 299  405.2499
 300  308.4639
 301  197.8936
 302  229.3991
 303  320.5001
 304  418.2072
 305  274.1547
 306  196.8459
 307  222.7293
 308  324.6325
 309  251.874
 310  270.9889
 311  233.0892
 312  251.4518
 313  309.7569
 314  312.6255
 315  348.0876
 316  237.983
 317  223.4505
 318  315.7758
 319  302.355
 320  140.5003
 321  228.709
 322  172.0486
 323  205.9596
 324  268.1914
 325  375.8559
 326  278.5373
 327  179.2546
 328  298.1136
 329  204.4435
 330  339.8607
 331  387.471
 332  334.2962
 333  274.2615
 334  164.1776
 335  263.7128
 336  194.6017
 337  178.4002
 338  206.593
 339  263.0861
 340  177.4305
 341  263.5289
 342  263.4676
 343  343.4311
 344  321.6065
 345  90.90946
 346  322.7447
 347  387.5179
 348  197.8854
 349  236.8911
 350  199.8645
 351  221.4381
 352  288.2715
 353  272.0742
 354  144.3676
 355  126.5163
 356  251.2979
 357  152.8735
 358  112.9117
 359  316.6274
 360  317.6038
 361  250.1239
 362  269.5395
 363  256.6627
 364  311.3524
 365  282.7667
 366  342.5266
 367  173.0297
 368  165.5949
 369  169.99
 370  125.0896
 371  220.5976
 372  180.9754
 373  287.641
 374  352.3465
 375  288.7078
 376  186.7926
 377  226.6665
 378  172.2751
 379  121.2869
 380  189.727
 381  255.9442
 382  163.1708
 383  125.1897
 384  238.8325
 385  332.4415
 386  331.1774
 387  198.0153
 388  109.5743
 389  329.7348
 390  236.2308
 391  243.4401
 392  167.0288
 393  285.9013
 394  223.5208
 395  197.0286
 396  241.9836
 397  223.4699
 398  319.7376
 399  235.7643
 400  282.6747
 401  204.9094
 402  215.674
 403  151.865
 404  300.2257
 405  393.4877
 406  401.3131
 407  350.9948
 408  241.1041
 409  213.7472
 410  177.6928
 411  175.704
 412  189.9683
 413  92.33128
 414  283.2532
 415  311.6848
 416  344.2194
 417  182.6492
 418  171.8478
 419  265.8139
 420  266.0615
 421  295.0971
 422  224.4021
 423  146.8557
 424  258.6011
 425  347.9569
 426  324.198
 427  329.7152
 428  260.4464
 429  304.5013
 430  69.50683
 431  84.50813
 432  65.85199
 433  94.12168
 434  268.5288
 435  275.2212
 436  302.6347
 437  227.9498
 438  232.7069
 439  247.5789
 440  199.5095
 441  204.2257
 442  201.2427
 443  216.629
 444  141.3964
 445  186.1165
 446  123.2778
 447  281.9002
 448  304.5893
 449  295.4345
 450  342.6221
 451  295.9911
 452  180.0051
 453  121.5458
 454  213.2267
 455  270.1518
 456  289.7559
 457  341.1164
 458  241.3926
 459  242.9023
 460  229.8744
 461  130.7369
 462  301.5773
 463  245.6056
 464  192.738
 465  233.9234
 466  218.6309
 467  257.9834
 468  275.0467
 469  346.1423
 470  278.5569
 471  119.0123
 472  237.6873
 473  356.0859
 474  405.0126
 475  240.2666
 476  78.2237
 477  137.9013
 478  274.3882
 479  244.387
 480  168.923
 481  169.0165
 482  100.075
 483  230.9523
 484  262.2008
 485  236.5497
 486  297.0775
 487  315.945
 488  300.633
 489  249.4152
 490  256.1301
 491  356.4913
 492  470.5016
 493  424.7868
 494  360.4291
 495  245.6868
 496  346.2373
 497  464.6445
 498  430.3647
 499  485.6691
 500  396.2569
 501  388.9014
 502  429.0444
 503  285.7567
 504  275.1495
 505  313.4394
 506  443.3705
 507  399.524
 508  357.5875
 509  613.6771
 510  814.3099
 511  919.2631
