# Input file       =  1187129238.101036_cleaned.dat
# Candidate        =  PSR_0332+5434
# Telescope        =  AR
# Epoch_topo       =  57983.921528947176
# Epoch_bary       =  N/A
# T_sample         =  0.002
# Data Folded      =  7208960
# Data Avg         =  0.0266322708881024
# Data StdDev      =  1.00038433328407 
# Profile Bins     =  512
# Profile Avg      =  374.990434143909 
# Profile StdDev   =  118.704780464248 
# Reduced chi-sqr  =  1.510
# Prob(Noise)      <  6.61e-13   (~7.1 sigma)
# P_topo (ms)      =  714.464087626525  +/- 0.00018
# P'_topo (s/s)    =  -0                +/- 9.67e-11
# P''_topo (s/s^2) =  0                 +/- 4.35e-14
# P_bary (ms)      =  N/A
# P'_bary (s/s)    =  N/A
# P''_bary (s/s^2) =  N/A
# P_orb (s)        =  N/A
# asin(i)/c (s)    =  N/A
# eccentricity     =  N/A
# w (rad)          =  N/A
# T_peri           =  N/A
######################################################
   0  1099.52
   1  999.9274
   2  643.2375
   3  464.1661
   4  384.1028
   5  422.1097
   6  330.6467
   7  295.419
   8  373.5059
   9  564.177
  10  419.5294
  11  374.6335
  12  289.5616
  13  292.2305
  14  416.7238
  15  441.8046
  16  354.8233
  17  400.6751
  18  436.5873
  19  329.2475
  20  411.3891
  21  515.4976
  22  383.5968
  23  326.382
  24  324.2697
  25  374.0976
  26  353.4291
  27  328.0923
  28  452.2137
  29  526.971
  30  361.5725
  31  267.7467
  32  357.3943
  33  438.1174
  34  392.2274
  35  279.8191
  36  359.3935
  37  404.2191
  38  369.4871
  39  256.2338
  40  435.1599
  41  322.5639
  42  359.7479
  43  383.0002
  44  430.6257
  45  454.4524
  46  429.8447
  47  410.9044
  48  418.868
  49  397.3103
  50  373.963
  51  420.2759
  52  513.9555
  53  469.1006
  54  425.4492
  55  499.3419
  56  604.9519
  57  498.6126
  58  399.6953
  59  360.6114
  60  376.7769
  61  377.5354
  62  425.8045
  63  351.0391
  64  243.6303
  65  387.8154
  66  485.2148
  67  515.7802
  68  375.8897
  69  384.6639
  70  401.1466
  71  569.2209
  72  491.0042
  73  351.924
  74  430.429
  75  331.3918
  76  380.3343
  77  409.0249
  78  380.8059
  79  375.536
  80  471.9812
  81  482.604
  82  453.5849
  83  359.7207
  84  412.3839
  85  402.8622
  86  360.135
  87  387.6755
  88  412.8891
  89  329.7728
  90  344.1533
  91  278.8765
  92  279.917
  93  300.3859
  94  274.1572
  95  411.942
  96  370.6967
  97  313.3033
  98  352.9792
  99  413.8286
 100  382.5298
 101  358.9936
 102  354.8326
 103  333.9769
 104  254.545
 105  334.0834
 106  296.8708
 107  364.6862
 108  371.5498
 109  293.9532
 110  457.1103
 111  339.9918
 112  390.2291
 113  317.4511
 114  349.2717
 115  312.5995
 116  307.5791
 117  370.8875
 118  348.8862
 119  422.4048
 120  419.4883
 121  285.5734
 122  158.7655
 123  147.9483
 124  470.7414
 125  365.9958
 126  295.5606
 127  364.7234
 128  421.1368
 129  489.2835
 130  367.845
 131  328.2557
 132  456.0199
 133  384.9364
 134  397.4958
 135  449.3815
 136  499.1228
 137  445.2446
 138  397.4789
 139  322.3526
 140  397.8979
 141  336.1267
 142  214.3983
 143  388.2475
 144  574.2646
 145  425.7978
 146  418.5438
 147  451.7859
 148  391.6077
 149  327.821
 150  350.1807
 151  250.2123
 152  186.7736
 153  322.4608
 154  385.2266
 155  234.4279
 156  166.9993
 157  261.4666
 158  401.9042
 159  467.0412
 160  458.4181
 161  400.567
 162  280.9912
 163  394.0862
 164  448.7689
 165  400.3639
 166  377.1725
 167  343.5509
 168  361.9346
 169  458.5475
 170  387.5832
 171  259.604
 172  226.8799
 173  376.0332
 174  348.2844
 175  317.3348
 176  337.2333
 177  434.9495
 178  468.3517
 179  448.8748
 180  420.2901
 181  369.2258
 182  397.6789
 183  284.6317
 184  298.7889
 185  336.0834
 186  415.0162
 187  351.1413
 188  281.0929
 189  315.3703
 190  391.1432
 191  442.1697
 192  444.6685
 193  482.3616
 194  425.369
 195  207.1923
 196  226.0969
 197  351.3105
 198  305.8697
 199  322.5825
 200  432.5954
 201  538.4995
 202  528.2065
 203  332.085
 204  323.8378
 205  451.0704
 206  533.0521
 207  452.0562
 208  335.5535
 209  370.358
 210  346.331
 211  396.9001
 212  387.9887
 213  452.9781
 214  313.6761
 215  306.2896
 216  341.9646
 217  356.1643
 218  203.3508
 219  213.5361
 220  415.8051
 221  509.3212
 222  466.5153
 223  444.6093
 224  402.6219
 225  365.6374
 226  417.879
 227  495.9144
 228  399.2637
 229  330.2121
 230  340.7451
 231  398.582
 232  433.3697
 233  339.8481
 234  408.8784
 235  282.9893
 236  332.6696
 237  485.292
 238  436.8931
 239  406.2542
 240  378.2794
 241  266.7819
 242  196.888
 243  164.5407
 244  344.6565
 245  441.281
 246  386.0916
 247  358.9916
 248  333.8348
 249  318.9173
 250  324.9443
 251  485.6313
 252  503.4417
 253  438.0413
 254  492.0672
 255  421.4034
 256  508.9781
 257  369.4437
 258  422.0662
 259  309.6075
 260  242.3065
 261  355.364
 262  318.6235
 263  349.8004
 264  376.6337
 265  292.9322
 266  329.9908
 267  260.4956
 268  304.9385
 269  357.8586
 270  406.2194
 271  575.5037
 272  533.0829
 273  428.2686
 274  408.2019
 275  245.3315
 276  331.2232
 277  363.8148
 278  480.7155
 279  365.8191
 280  295.9167
 281  340.0765
 282  371.7864
 283  429.3441
 284  272.7657
 285  191.5357
 286  423.2778
 287  469.364
 288  465.9766
 289  500.029
 290  295.8268
 291  338.5881
 292  430.6276
 293  389.746
 294  403.592
 295  364.3155
 296  288.6796
 297  376.9363
 298  385.744
 299  426.1829
 300  554.4792
 301  488.7274
 302  306.6705
 303  264.381
 304  307.3168
 305  352.6749
 306  482.1998
 307  425.5617
 308  330.6602
 309  156.2022
 310  88.10999
 311  192.3226
 312  189.7401
 313  308.4694
 314  331.7225
 315  413.7613
 316  414.0098
 317  402.7217
 318  364.5051
 319  365.4019
 320  418.2179
 321  372.2176
 322  323.3431
 323  405.9097
 324  355.3352
 325  196.1578
 326  226.4865
 327  372.6736
 328  384.1042
 329  140.5208
 330  136.4343
 331  385.2065
 332  241.9312
 333  378.6561
 334  430.9232
 335  381.1685
 336  434.3215
 337  352.0878
 338  372.762
 339  332.802
 340  274.1882
 341  277.9013
 342  331.9729
 343  363.1966
 344  355.0326
 345  336.3147
 346  347.3123
 347  328.9648
 348  354.5639
 349  433.9194
 350  442.9278
 351  372.7932
 352  468.2391
 353  439.7825
 354  393.8117
 355  451.4099
 356  339.0858
 357  375.1319
 358  463.0617
 359  414.9709
 360  442.6975
 361  347.0336
 362  430.5087
 363  448.0079
 364  427.4546
 365  321.9115
 366  270.4074
 367  255.7572
 368  121.998
 369  136.2132
 370  425.0453
 371  490.4355
 372  383.0705
 373  304.0882
 374  242.1168
 375  199.9653
 376  274.3279
 377  363.414
 378  269.5186
 379  216.345
 380  269.7108
 381  287.6666
 382  373.6061
 383  435.3616
 384  341.2601
 385  291.1565
 386  347.2758
 387  315.809
 388  329.1123
 389  214.9585
 390  266.2187
 391  305.8074
 392  391.5545
 393  389.7975
 394  262.1258
 395  288.0433
 396  315.9249
 397  428.8145
 398  268.7815
 399  252.5372
 400  395.846
 401  354.5864
 402  331.8177
 403  274.0693
 404  326.2235
 405  379.8159
 406  397.1145
 407  356.8698
 408  253.1712
 409  262.6516
 410  379.8964
 411  336.1909
 412  268.3477
 413  298.3677
 414  330.6772
 415  453.2691
 416  335.5889
 417  297.6242
 418  395.6562
 419  414.8298
 420  358.0908
 421  308.4564
 422  332.0422
 423  428.3065
 424  400.9052
 425  440.2015
 426  451.4787
 427  398.6847
 428  367.017
 429  272.6962
 430  407.478
 431  353.6499
 432  300.5804
 433  339.8431
 434  365.2388
 435  384.3191
 436  506.2824
 437  327.9942
 438  308.6186
 439  424.6074
 440  336.6028
 441  207.9865
 442  172.0712
 443  397.5802
 444  358.7585
 445  401.1216
 446  368.2802
 447  330.1753
 448  281.0437
 449  362.363
 450  295.8617
 451  150.6215
 452  297.128
 453  369.0537
 454  455.031
 455  433.5003
 456  281.9447
 457  277.6943
 458  243.0213
 459  354.337
 460  396.6752
 461  233.3261
 462  385.6309
 463  454.6312
 464  238.1593
 465  324.1939
 466  407.3003
 467  428.6397
 468  439.2469
 469  516.0643
 470  478.1697
 471  459.4374
 472  454.3689
 473  472.5669
 474  356.2433
 475  274.9962
 476  344.3689
 477  526.5748
 478  566.4658
 479  314.5827
 480  173.459
 481  277.9339
 482  445.2328
 483  404.2107
 484  322.6202
 485  341.9478
 486  236.4585
 487  366.6949
 488  559.6689
 489  476.3073
 490  544.5599
 491  460.481
 492  436.6489
 493  438.5922
 494  475.8384
 495  311.1982
 496  340.7545
 497  165.3469
 498  346.8249
 499  400.8606
 500  312.1624
 501  331.3568
 502  361.7733
 503  445.5632
 504  527.1129
 505  583.706
 506  510.813
 507  573.7813
 508  697.2244
 509  879.4279
 510  963.567
 511  981.0053
