# Input file       =  1187990819.111274_cleaned.dat
# Candidate        =  PSR_0332+5434
# Telescope        =  AR
# Epoch_topo       =  57993.893531380483
# Epoch_bary       =  N/A
# T_sample         =  0.002
# Data Folded      =  7208960
# Data Avg         =  0.0158737349474588
# Data StdDev      =  1.00018404536248 
# Profile Bins     =  512
# Profile Avg      =  223.495696123999 
# Profile StdDev   =  118.681014464551 
# Reduced chi-sqr  =  1.836
# Prob(Noise)      <  1.33e-27   (~10.8 sigma)
# P_topo (ms)      =  714.463335205506  +/- 0.000172
# P'_topo (s/s)    =  -0                +/- 9.22e-11
# P''_topo (s/s^2) =  0                 +/- 4.14e-14
# P_bary (ms)      =  N/A
# P'_bary (s/s)    =  N/A
# P''_bary (s/s^2) =  N/A
# P_orb (s)        =  N/A
# asin(i)/c (s)    =  N/A
# eccentricity     =  N/A
# w (rad)          =  N/A
# T_peri           =  N/A
######################################################
   0  1001.064
   1  965.5437
   2  905.9653
   3  723.5504
   4  438.2537
   5  334.3805
   6  190.449
   7  201.9536
   8  398.0686
   9  348.8417
  10  327.4189
  11  199.4512
  12  273.6982
  13  332.2242
  14  301.5146
  15  367.5535
  16  330.792
  17  168.7718
  18  166.8347
  19  310.9821
  20  213.6448
  21  43.83836
  22  155.0845
  23  227.4662
  24  246.4554
  25  166.4913
  26  75.06569
  27  147.8564
  28  239.0135
  29  174.2644
  30  145.6588
  31  195.3983
  32  262.5346
  33  138.2658
  34  99.75977
  35  207.4653
  36  112.6865
  37  106.9853
  38  120.6091
  39  140.0725
  40  144.5742
  41  224.7816
  42  174.4566
  43  95.2691
  44  225.8904
  45  204.7157
  46  299.94
  47  295.2963
  48  221.1642
  49  214.7322
  50  263.7997
  51  300.4241
  52  250.0201
  53  173.3972
  54  346.0033
  55  169.2091
  56  249.1481
  57  288.7879
  58  162.0265
  59  232.2642
  60  244.1022
  61  237.4541
  62  103.0433
  63  133.4118
  64  203.9473
  65  232.9134
  66  330.1159
  67  111.0884
  68  77.72427
  69  181.706
  70  104.6449
  71  171.4581
  72  62.75631
  73  86.18056
  74  121.9067
  75  184.5713
  76  323.6587
  77  265.2596
  78  148.9691
  79  200.9053
  80  131.523
  81  202.9603
  82  186.8987
  83  260.0895
  84  247.729
  85  275.0736
  86  244.2675
  87  216.4803
  88  227.5982
  89  250.1591
  90  269.2189
  91  210.2704
  92  187.3974
  93  188.5245
  94  221.5089
  95  358.0515
  96  197.3276
  97  64.79226
  98  160.4673
  99  439.0015
 100  356.8476
 101  168.2237
 102  252.4719
 103  380.5327
 104  361.4339
 105  256.1087
 106  184.1299
 107  207.3375
 108  195.2189
 109  170.9881
 110  253.4127
 111  242.8072
 112  203.6681
 113  159.9706
 114  180.9359
 115  203.7759
 116  186.1531
 117  203.3131
 118  116.5584
 119  138.6725
 120  389.2123
 121  233.4344
 122  252.1503
 123  241.7516
 124  41.35422
 125  120.4654
 126  62.30286
 127  68.13209
 128  140.858
 129  147.8754
 130  165.3988
 131  126.3783
 132  135.43
 133  258.2594
 134  159.2675
 135  94.00224
 136  126.5941
 137  129.2617
 138  137.102
 139  164.7742
 140  167.4653
 141  274.9965
 142  212.0893
 143  88.53133
 144  124.363
 145  134.065
 146  221.0032
 147  278.645
 148  395.6496
 149  347.5839
 150  282.13
 151  250.8148
 152  166.1068
 153  93.40304
 154  72.24424
 155  215.321
 156  161.9339
 157  100.2342
 158  30.10254
 159  137.9756
 160  198.5677
 161  222.6291
 162  163.4192
 163  167.4858
 164  176.556
 165  124.9687
 166  126.5818
 167  164.7281
 168  164.6898
 169  179.568
 170  166.2474
 171  167.5459
 172  87.11226
 173  90.19466
 174  177.2812
 175  182.5726
 176  162.2544
 177  108.0499
 178  88.23051
 179  166.9504
 180  230.6305
 181  194.7067
 182  239.1401
 183  218.4656
 184  162.8915
 185  -3.357189
 186  94.4785
 187  205.6396
 188  185.1328
 189  339.515
 190  234.0545
 191  155.7632
 192  128.8642
 193  244.6839
 194  166.5237
 195  83.10089
 196  178.4274
 197  360.8021
 198  319.2168
 199  195.9386
 200  419.625
 201  343.2528
 202  84.07456
 203  51.42817
 204  249.9974
 205  236.8613
 206  79.08545
 207  36.5186
 208  103.13
 209  69.59003
 210  88.92666
 211  132.8891
 212  90.22086
 213  68.85419
 214  221.2271
 215  346.7314
 216  197.4154
 217  55.90081
 218  -41.80211
 219  62.06733
 220  210.6136
 221  163.6038
 222  260.5887
 223  352.5198
 224  336.7359
 225  179.2019
 226  165.7786
 227  192.2491
 228  174.8327
 229  166.2119
 230  330.2943
 231  288.0636
 232  278.7887
 233  152.3505
 234  15.86558
 235  176.7002
 236  312.0988
 237  363.8374
 238  361.3811
 239  273.6345
 240  145.192
 241  58.03971
 242  178.1659
 243  243.0244
 244  254.6243
 245  155.2117
 246  203.2137
 247  235.5107
 248  116.8283
 249  190.8193
 250  152.9806
 251  107.066
 252  62.66999
 253  81.62937
 254  138.5269
 255  167.3441
 256  146.0665
 257  159.9282
 258  128.7002
 259  141.95
 260  32.26186
 261  127.1271
 262  290.0313
 263  205.4334
 264  218.9507
 265  140.2137
 266  89.74693
 267  102.0095
 268  85.2898
 269  257.2897
 270  321.854
 271  182.3637
 272  33.55658
 273  182.5024
 274  88.86538
 275  47.9735
 276  91.48363
 277  161.36
 278  298.5189
 279  207.7442
 280  219.6734
 281  230.9503
 282  241.4465
 283  178.4273
 284  201.9781
 285  161.7991
 286  273.5494
 287  294.0642
 288  212.7598
 289  147.9234
 290  216.7252
 291  193.4269
 292  141.7787
 293  233.1166
 294  247.0683
 295  198.7916
 296  158.7558
 297  217.2339
 298  272.9027
 299  291.8353
 300  303.7322
 301  182.9194
 302  90.4436
 303  224.3003
 304  322.966
 305  329.2407
 306  302.901
 307  122.0863
 308  116.0801
 309  266.0723
 310  208.281
 311  86.82571
 312  107.0368
 313  61.41788
 314  201.5437
 315  209.4955
 316  82.85983
 317  4.384703
 318  15.80006
 319  248.9317
 320  243.589
 321  308.3998
 322  378.2558
 323  338.8833
 324  282.5102
 325  221.4852
 326  267.6984
 327  371.7734
 328  244.978
 329  238.6349
 330  267.8766
 331  228.5134
 332  240.0043
 333  155.9569
 334  143.3448
 335  191.4633
 336  216.5438
 337  269.7136
 338  279.2127
 339  358.9671
 340  211.7691
 341  166.5703
 342  181.9625
 343  190.3682
 344  156.8801
 345  352.0817
 346  305.3588
 347  264.9334
 348  183.157
 349  93.17648
 350  278.1982
 351  348.9545
 352  362.4009
 353  223.8002
 354  249.8173
 355  317.1256
 356  332.8232
 357  312.6949
 358  391.2617
 359  266.4399
 360  163.2064
 361  211.013
 362  300.4577
 363  361.3519
 364  388.106
 365  258.4407
 366  150.5242
 367  357.94
 368  327.9387
 369  232.0118
 370  173.9705
 371  225.0747
 372  222.3252
 373  152.3744
 374  219.7645
 375  181.823
 376  247.2266
 377  156.8097
 378  76.10786
 379  188.3083
 380  446.3596
 381  409.9366
 382  256.0346
 383  67.55084
 384  188.1289
 385  331.2811
 386  187.4012
 387  206.6131
 388  338.6746
 389  319.0384
 390  283.9698
 391  320.1483
 392  208.2192
 393  228.7793
 394  279.7656
 395  330.0506
 396  324.3218
 397  265.8627
 398  202.5233
 399  142.6381
 400  179.9709
 401  282.67
 402  248.7993
 403  189.7222
 404  239.6746
 405  258.7679
 406  292.4266
 407  278.1491
 408  274.4681
 409  160.5029
 410  181.4795
 411  279.4672
 412  166.8235
 413  309.5598
 414  337.7428
 415  376.2898
 416  250.0952
 417  98.44514
 418  151.0842
 419  186.535
 420  248.3539
 421  274.4716
 422  223.4659
 423  159.4444
 424  199.1175
 425  311.4186
 426  284.898
 427  273.4877
 428  198.6305
 429  84.47101
 430  234.4324
 431  249.2156
 432  211.2315
 433  225.0929
 434  296.6552
 435  304.0981
 436  278.0982
 437  171.3731
 438  325.2758
 439  273.4447
 440  192.0133
 441  192.6447
 442  122.1358
 443  340.9962
 444  437.9302
 445  240.8165
 446  157.1253
 447  218.7295
 448  217.6024
 449  243.1745
 450  264.2086
 451  235.1428
 452  290.0455
 453  324.673
 454  361.7821
 455  338.9493
 456  364.2417
 457  231.0544
 458  196.1817
 459  164.2461
 460  254.5214
 461  141.3839
 462  116.025
 463  112.9291
 464  31.02306
 465  235.3483
 466  366.5682
 467  417.2147
 468  271.2173
 469  322.0112
 470  217.3413
 471  218.6739
 472  177.143
 473  193.9725
 474  162.3906
 475  212.3636
 476  175.9356
 477  226.2802
 478  180.7868
 479  353.3015
 480  337.0592
 481  166.5993
 482  242.5772
 483  333.2498
 484  402.531
 485  323.3976
 486  245.4648
 487  333.8964
 488  119.3139
 489  120.7518
 490  261.9724
 491  306.3286
 492  148.3072
 493  157.4061
 494  303.1709
 495  302.3667
 496  212.3779
 497  297.8195
 498  248.5856
 499  193.4163
 500  288.6401
 501  313.4806
 502  329.7119
 503  364.3691
 504  347.5001
 505  342.6215
 506  389.0676
 507  474.9773
 508  585.7881
 509  596.5264
 510  738.5118
 511  939.4843
