# Input file       =  1187489097.112756_cleaned.dat
# Candidate        =  PSR_0332+5434
# Telescope        =  AR
# Epoch_topo       =  57988.086563805045
# Epoch_bary       =  N/A
# T_sample         =  0.002
# Data Folded      =  7340032
# Data Avg         =  0.0104982649557409
# Data StdDev      =  1.00030517353187 
# Profile Bins     =  512
# Profile Avg      =  150.332857111785 
# Profile StdDev   =  119.769575730358 
# Reduced chi-sqr  =  1.785
# Prob(Noise)      <  4.62e-25   (~10.3 sigma)
# P_topo (ms)      =  714.463581064868  +/- 0.000154
# P'_topo (s/s)    =  -0                +/- 8.13e-11
# P''_topo (s/s^2) =  0                 +/- 3.59e-14
# P_bary (ms)      =  N/A
# P'_bary (s/s)    =  N/A
# P''_bary (s/s^2) =  N/A
# P_orb (s)        =  N/A
# asin(i)/c (s)    =  N/A
# eccentricity     =  N/A
# w (rad)          =  N/A
# T_peri           =  N/A
######################################################
   0  755.6035
   1  952.5247
   2  931.3628
   3  764.8936
   4  465.342
   5  395.5416
   6  139.9543
   7  179.7191
   8  229.9759
   9  222.0538
  10  256.1452
  11  200.5066
  12  97.07613
  13  249.6782
  14  255.8739
  15  124.1674
  16  186.2595
  17  119.5853
  18  232.713
  19  291.1227
  20  195.1365
  21  172.6983
  22  90.27072
  23  85.80994
  24  31.17662
  25  -89.39156
  26  -26.49171
  27  131.8583
  28  214.1888
  29  174.8423
  30  -3.744986
  31  117.1551
  32  250.4259
  33  259.3814
  34  133.7488
  35  92.14248
  36  111.1539
  37  -40.94055
  38  200.353
  39  227.6592
  40  180.1861
  41  156.3436
  42  73.57443
  43  -63.00005
  44  -54.34153
  45  39.45636
  46  219.2989
  47  175.0554
  48  181.2512
  49  76.50533
  50  -34.49993
  51  76.79099
  52  139.1632
  53  34.78144
  54  12.6958
  55  16.98461
  56  26.85856
  57  33.44684
  58  155.0212
  59  34.21648
  60  13.0172
  61  76.34853
  62  167.6914
  63  152.896
  64  63.75748
  65  191.9106
  66  171.9692
  67  100.7651
  68  61.77156
  69  118.3765
  70  184.331
  71  88.89681
  72  244.2447
  73  153.596
  74  115.28
  75  125.9913
  76  356.2664
  77  402.5571
  78  203.3038
  79  133.1454
  80  201.3259
  81  239.3004
  82  193.2655
  83  3.178629
  84  171.4681
  85  184.2554
  86  179.7405
  87  73.33811
  88  54.63043
  89  -11.88429
  90  28.51656
  91  175.9806
  92  340.4191
  93  258.9137
  94  111.5805
  95  118.5014
  96  146.8777
  97  112.4942
  98  85.19476
  99  255.9691
 100  204.1574
 101  166.5432
 102  79.97365
 103  127.431
 104  176.4474
 105  140.3486
 106  148.6623
 107  121.6846
 108  156.7271
 109  159.1
 110  208.0786
 111  216.8404
 112  117.1156
 113  137.5776
 114  243.7204
 115  159.4766
 116  84.99606
 117  96.04128
 118  158.4522
 119  165.4396
 120  137.8485
 121  349.1715
 122  229.6194
 123  199.1981
 124  270.0231
 125  22.44753
 126  202.5778
 127  153.7826
 128  186.8154
 129  174.2398
 130  180.2263
 131  199.4028
 132  229.0667
 133  110.837
 134  192.1289
 135  250.2994
 136  77.32832
 137  154.4327
 138  290.5941
 139  178.5311
 140  148.4733
 141  0.4253213
 142  130.1375
 143  194.5827
 144  25.14649
 145  -17.3237
 146  -8.130206
 147  38.03432
 148  76.50349
 149  82.80238
 150  178.0188
 151  54.42982
 152  107.0065
 153  175.7184
 154  105.1492
 155  86.50706
 156  49.27898
 157  121.7677
 158  50.95103
 159  51.32478
 160  195.7558
 161  187.571
 162  223.2265
 163  -5.316502
 164  -22.72973
 165  -2.827651
 166  114.3412
 167  204.5723
 168  173.0081
 169  32.06001
 170  -103.9716
 171  178.7275
 172  329.4666
 173  172.7028
 174  215.1643
 175  318.5434
 176  215.2443
 177  51.90329
 178  127.902
 179  169.137
 180  108.2817
 181  85.06351
 182  146.3217
 183  97.75142
 184  97.97574
 185  207.5502
 186  272.8186
 187  118.4003
 188  79.57994
 189  207.8915
 190  184.7335
 191  200.9677
 192  152.7935
 193  42.07863
 194  131.2426
 195  171.395
 196  218.3423
 197  98.64856
 198  107.2107
 199  114.864
 200  151.0191
 201  207.1439
 202  98.93941
 203  116.1891
 204  44.98872
 205  170.0448
 206  165.0721
 207  105.0339
 208  30.78524
 209  247.0253
 210  96.37269
 211  -17.3065
 212  12.0316
 213  107.3396
 214  57.45919
 215  54.09341
 216  -11.40067
 217  102.5245
 218  108.3179
 219  101.8687
 220  54.40271
 221  -88.16323
 222  5.638892
 223  54.59287
 224  99.21344
 225  11.53134
 226  1.430491
 227  117.312
 228  35.65828
 229  74.43208
 230  136.9807
 231  153.119
 232  177.4475
 233  -4.636864
 234  86.70222
 235  56.12662
 236  -9.085282
 237  63.23398
 238  10.78162
 239  -20.1512
 240  48.17338
 241  39.99536
 242  -30.488
 243  -7.52806
 244  15.38215
 245  31.75226
 246  88.95611
 247  151.4362
 248  -3.054078
 249  -65.56062
 250  -7.666884
 251  -31.03054
 252  80.55661
 253  122.7335
 254  170.846
 255  203.4028
 256  171.4947
 257  -50.27201
 258  151.2626
 259  147.9713
 260  105.2456
 261  39.47657
 262  202.8289
 263  209.5229
 264  50.60857
 265  36.77169
 266  155.1433
 267  287.5076
 268  264.8177
 269  128.9392
 270  221.6199
 271  244.7079
 272  282.2612
 273  15.02453
 274  41.08584
 275  175.4597
 276  -1.541469
 277  152.8231
 278  116.0539
 279  131.3272
 280  121.5482
 281  284.5979
 282  239.2929
 283  69.90047
 284  96.57767
 285  215.8187
 286  230.2887
 287  308.6435
 288  352.0935
 289  306.3611
 290  262.7685
 291  195.9608
 292  121.2104
 293  205.5342
 294  163.9355
 295  227.1188
 296  242.9119
 297  318.1588
 298  159.6362
 299  189.8168
 300  292.6208
 301  297.8542
 302  291.8174
 303  173.3681
 304  64.99702
 305  58.02542
 306  153.2407
 307  181.4757
 308  210.5109
 309  126.9947
 310  129.0571
 311  226.7514
 312  86.09093
 313  189.5028
 314  240.3138
 315  286.4735
 316  237.4618
 317  129.8037
 318  175.5283
 319  189.8912
 320  230.0799
 321  233.5353
 322  205.8927
 323  311.2952
 324  256.6107
 325  225.228
 326  203.5447
 327  254.4754
 328  251.0875
 329  186.945
 330  145.4363
 331  21.54809
 332  -18.9546
 333  36.15281
 334  57.64164
 335  178.1994
 336  175.8304
 337  207.8183
 338  253.0952
 339  252.9362
 340  206.9911
 341  127.5811
 342  92.16069
 343  172.86
 344  219.6125
 345  224.7351
 346  283.5598
 347  292.3919
 348  298.5587
 349  306.2192
 350  110.2135
 351  206.578
 352  205.8943
 353  167.8267
 354  122.8546
 355  130.0425
 356  206.5351
 357  180.2315
 358  296.0482
 359  213.1905
 360  196.8816
 361  295.7537
 362  154.5149
 363  105.1669
 364  118.1911
 365  231.0781
 366  170.4102
 367  222.9457
 368  331.7291
 369  191.9777
 370  191.0197
 371  253.487
 372  174.2094
 373  257.5427
 374  281.837
 375  350.5716
 376  209.7072
 377  232.3227
 378  285.3553
 379  206.6484
 380  110.1165
 381  158.2092
 382  222.3563
 383  155.8794
 384  84.53597
 385  173.4979
 386  210.159
 387  314.2709
 388  226.1587
 389  170.6065
 390  256.6245
 391  125.7853
 392  28.30561
 393  74.84179
 394  213.9946
 395  165.6806
 396  252.0806
 397  279.5351
 398  215.4076
 399  104.4898
 400  182.8483
 401  231.656
 402  303.193
 403  270.9338
 404  143.78
 405  129.3101
 406  77.1254
 407  -19.90276
 408  129.6042
 409  211.5214
 410  78.4804
 411  101.1675
 412  14.96628
 413  -20.68314
 414  0.4499286
 415  99.26085
 416  169.3776
 417  141.4604
 418  187.6803
 419  153.8772
 420  97.07471
 421  65.82603
 422  48.90632
 423  30.94361
 424  39.50784
 425  93.09186
 426  127.6019
 427  182.2319
 428  239.2239
 429  158.5744
 430  141.6922
 431  184.5138
 432  126.2578
 433  158.6214
 434  213.3514
 435  203.8211
 436  187.3943
 437  159.0206
 438  249.2527
 439  219.6496
 440  190.5605
 441  101.4261
 442  62.27636
 443  80.79936
 444  267.4649
 445  85.42034
 446  77.69008
 447  42.57086
 448  95.21957
 449  124.6931
 450  -26.80147
 451  53.01768
 452  104.6937
 453  240.9944
 454  154.5671
 455  1.15939
 456  -72.55679
 457  8.306752
 458  59.62749
 459  94.42179
 460  167.8005
 461  108.6843
 462  102.7034
 463  32.11389
 464  95.22749
 465  164.1664
 466  50.90237
 467  24.00478
 468  -40.62159
 469  76.29319
 470  55.38188
 471  134.591
 472  190.8418
 473  228.5195
 474  234.6643
 475  289.9043
 476  239.6053
 477  253.7502
 478  168.666
 479  35.8139
 480  100.9434
 481  206.559
 482  177.1439
 483  38.63426
 484  99.56555
 485  122.99
 486  0.775939
 487  -22.52034
 488  88.52705
 489  90.3379
 490  75.89783
 491  84.79889
 492  191.9554
 493  152.9767
 494  172.1701
 495  248.3263
 496  203.1084
 497  145.6832
 498  113.8225
 499  -25.98958
 500  -49.47626
 501  73.49503
 502  213.0194
 503  181.2498
 504  140.4546
 505  93.13556
 506  171.9316
 507  202.616
 508  233.045
 509  346.5998
 510  621.3439
 511  730.5118
