# Input file       =  1187158786.106359_cleaned.dat
# Candidate        =  PSR_0332+5434
# Telescope        =  AR
# Epoch_topo       =  57984.263519749526
# Epoch_bary       =  N/A
# T_sample         =  0.002
# Data Folded      =  7340032
# Data Avg         =  0.0123511314371973
# Data StdDev      =  1.00003609813515 
# Profile Bins     =  512
# Profile Avg      =  177.105441871023 
# Profile StdDev   =  119.737358516095 
# Reduced chi-sqr  =  1.581
# Prob(Noise)      <  9.33e-16   (~7.9 sigma)
# P_topo (ms)      =  714.464379189467  +/- 0.000245
# P'_topo (s/s)    =  -0                +/- 1.29e-10
# P''_topo (s/s^2) =  0                 +/- 5.7e-14
# P_bary (ms)      =  N/A
# P'_bary (s/s)    =  N/A
# P''_bary (s/s^2) =  N/A
# P_orb (s)        =  N/A
# asin(i)/c (s)    =  N/A
# eccentricity     =  N/A
# w (rad)          =  N/A
# T_peri           =  N/A
######################################################
   0  824.9318
   1  690.6596
   2  704.1347
   3  481.5382
   4  215.3834
   5  176.6713
   6  222.3888
   7  129.9887
   8  169.4185
   9  316.9133
  10  345.2354
  11  158.4695
  12  200.2933
  13  302.3456
  14  266.095
  15  275.5374
  16  407.9227
  17  276.9417
  18  223.0272
  19  211.0664
  20  292.231
  21  280.848
  22  270.5788
  23  266.9572
  24  210.2595
  25  233.6043
  26  228.7634
  27  245.2745
  28  274.4607
  29  286.6542
  30  191.4955
  31  201.5946
  32  197.8514
  33  187.0709
  34  124.0056
  35  171.4307
  36  96.20724
  37  97.71402
  38  184.1635
  39  213.5718
  40  180.5367
  41  239.3235
  42  107.9363
  43  119.8325
  44  117.9841
  45  153.5373
  46  160.9766
  47  -31.79629
  48  19.56959
  49  98.3923
  50  133.2064
  51  114.1483
  52  128.6487
  53  68.08176
  54  69.40493
  55  118.0958
  56  144.688
  57  165.0715
  58  207.2218
  59  225.4978
  60  187.1664
  61  337.1398
  62  258.5455
  63  164.9224
  64  212.3671
  65  201.9723
  66  169.9406
  67  250.7726
  68  242.7248
  69  163.1656
  70  246.5137
  71  256.4193
  72  463.283
  73  408.0929
  74  233.5269
  75  262.2091
  76  257.0244
  77  246.5502
  78  246.4953
  79  204.218
  80  187.5824
  81  166.6494
  82  190.2172
  83  302.1337
  84  246.7889
  85  222.5238
  86  340.9696
  87  248.123
  88  248.4196
  89  215.0066
  90  281.4328
  91  370.6677
  92  297.0305
  93  126.5947
  94  235.8651
  95  315.6248
  96  381.4908
  97  264.7636
  98  204.7961
  99  79.92788
 100  85.55255
 101  89.03122
 102  107.0027
 103  177.6262
 104  115.1488
 105  77.18456
 106  32.52708
 107  85.74225
 108  70.02834
 109  108.1542
 110  187.3508
 111  147.5721
 112  128.7848
 113  -1.093841
 114  -113.1877
 115  110.2395
 116  182.0419
 117  182.1322
 118  133.569
 119  64.24761
 120  172.9461
 121  136.5955
 122  270.0148
 123  242.1474
 124  140.2005
 125  78.78712
 126  166.2311
 127  68.48685
 128  63.01165
 129  124.7127
 130  117.5084
 131  262.8748
 132  296.9278
 133  194.8113
 134  72.34394
 135  119.6684
 136  235.7054
 137  142.2678
 138  199.7193
 139  287.8109
 140  158.6864
 141  173.5319
 142  187.1761
 143  119.5356
 144  172.4982
 145  240.9946
 146  287.6011
 147  301.0706
 148  140.2301
 149  205.6822
 150  186.4523
 151  225.7897
 152  284.1088
 153  203.8936
 154  187.2018
 155  -18.52285
 156  -21.81353
 157  174.538
 158  176.9136
 159  264.8052
 160  378.3541
 161  193.1449
 162  117.4429
 163  159.289
 164  -20.55218
 165  -46.70399
 166  -19.83421
 167  16.12864
 168  148.2542
 169  228.5135
 170  106.6529
 171  -1.298797
 172  -18.97869
 173  9.603625
 174  14.46459
 175  19.32102
 176  31.62538
 177  0.4322356
 178  61.78411
 179  104.0528
 180  182.4433
 181  164.3744
 182  59.30642
 183  89.12126
 184  185.0353
 185  -3.290887
 186  -64.12251
 187  173.3787
 188  179.9643
 189  25.42828
 190  8.291733
 191  104.4469
 192  112.7884
 193  136.735
 194  170.5558
 195  146.1799
 196  123.5509
 197  -8.832134
 198  25.78074
 199  167.2288
 200  211.4444
 201  103.4441
 202  -48.033
 203  18.79832
 204  66.49806
 205  91.31152
 206  257.1478
 207  119.8433
 208  164.6272
 209  161.4758
 210  144.0752
 211  272.4067
 212  238.3104
 213  129.7831
 214  140.5291
 215  79.84324
 216  64.16119
 217  66.20309
 218  181.4028
 219  150.0637
 220  93.74363
 221  258.8427
 222  121.338
 223  94.43758
 224  162.2596
 225  104.0727
 226  117.5412
 227  147.9523
 228  236.3409
 229  202.6678
 230  64.01894
 231  181.6517
 232  109.2524
 233  161.3457
 234  124.7456
 235  164.2742
 236  223.3261
 237  141.1301
 238  51.22964
 239  24.16098
 240  9.214404
 241  82.33121
 242  156.9753
 243  220.6467
 244  97.79641
 245  167.6741
 246  35.43085
 247  -39.26598
 248  -84.09692
 249  31.31539
 250  49.91313
 251  307.1301
 252  230.713
 253  111.3401
 254  19.54948
 255  68.16269
 256  64.01384
 257  3.822635
 258  152.399
 259  141.5385
 260  257.2675
 261  208.0265
 262  207.0161
 263  65.79923
 264  135.6171
 265  175.1906
 266  125.6358
 267  239.8486
 268  152.5124
 269  1.813526
 270  145.731
 271  124.0916
 272  230.3107
 273  196.2255
 274  209.7318
 275  253.1944
 276  269.644
 277  101.3734
 278  215.3691
 279  146.5289
 280  7.462673
 281  52.88572
 282  85.58018
 283  167.8291
 284  206.4573
 285  147.9382
 286  263.1382
 287  174.9839
 288  185.868
 289  228.7588
 290  212.3127
 291  231.3604
 292  227.8938
 293  297.5972
 294  306.4435
 295  372.2479
 296  317.1108
 297  235.3864
 298  205.1617
 299  270.2004
 300  206.0901
 301  122.8716
 302  220.1506
 303  249.3647
 304  349.3835
 305  315.4492
 306  231.7608
 307  272.0665
 308  254.3066
 309  266.6884
 310  127.1914
 311  91.44812
 312  47.67825
 313  230.4984
 314  205.2235
 315  101.2526
 316  168.2743
 317  163.5414
 318  -14.20419
 319  -4.995817
 320  104.5457
 321  213.6001
 322  64.3206
 323  7.26154
 324  132.0092
 325  198.1669
 326  211.4353
 327  -46.56574
 328  41.14333
 329  217.2351
 330  194.3512
 331  155.4259
 332  247.1463
 333  156.266
 334  207.2015
 335  342.7892
 336  268.0413
 337  302.3476
 338  196.3526
 339  151.2361
 340  83.84311
 341  85.63963
 342  54.30392
 343  28.69855
 344  208.2858
 345  231.9321
 346  161.7771
 347  184.5258
 348  34.91936
 349  69.87966
 350  158.0421
 351  212.828
 352  276.1178
 353  235.7063
 354  267.3121
 355  188.4621
 356  294.5094
 357  184.6855
 358  185.2
 359  196.966
 360  103.083
 361  70.45927
 362  328.8369
 363  338.7534
 364  137.3954
 365  117.1228
 366  214.5991
 367  18.40354
 368  14.48656
 369  27.14606
 370  169.7158
 371  241.1085
 372  321.535
 373  343.5516
 374  179.0987
 375  239.8023
 376  263.7217
 377  183.9448
 378  87.62901
 379  143.5507
 380  173.9052
 381  229.4114
 382  162.0184
 383  75.25769
 384  46.37313
 385  174.5996
 386  272.0487
 387  188.6501
 388  256.7151
 389  247.9942
 390  200.9408
 391  99.98671
 392  78.73037
 393  170.7354
 394  121.85
 395  79.57611
 396  156.511
 397  221.0434
 398  196.763
 399  41.08109
 400  146.1544
 401  239.8548
 402  198.3184
 403  174.6317
 404  33.50351
 405  139.3904
 406  281.2186
 407  294.7018
 408  313.9516
 409  267.0703
 410  193.1572
 411  344.6944
 412  212.9153
 413  221.9258
 414  272.7893
 415  186.1959
 416  145.2749
 417  165.1734
 418  238.3736
 419  116.8414
 420  181.2205
 421  211.0444
 422  158.1746
 423  159.526
 424  324.5069
 425  276.961
 426  242.3719
 427  239.6349
 428  96.11247
 429  107.8943
 430  95.28133
 431  200.0588
 432  261.3682
 433  232.2619
 434  68.93893
 435  23.74589
 436  134.2143
 437  191.4053
 438  239.1505
 439  158.9713
 440  100.364
 441  243.4235
 442  131.0543
 443  137.8128
 444  291.0647
 445  312.5278
 446  196.3941
 447  166.8901
 448  260.5184
 449  286.371
 450  242.5063
 451  277.9296
 452  266.2327
 453  157.3501
 454  210.7369
 455  224.8494
 456  224.4171
 457  164.1084
 458  244.6201
 459  363.1874
 460  308.5312
 461  262.9082
 462  257.4725
 463  91.79507
 464  72.50311
 465  206.9695
 466  222.2876
 467  267.7748
 468  312.2735
 469  200.6079
 470  179.4451
 471  223.3576
 472  292.7835
 473  158.5255
 474  145.3296
 475  73.64027
 476  97.8299
 477  219.0169
 478  281.395
 479  180.8232
 480  164.0869
 481  97.33353
 482  20.85751
 483  63.17817
 484  198.4754
 485  169.642
 486  48.88213
 487  124.8242
 488  146.1818
 489  71.60115
 490  107.6266
 491  185.7936
 492  77.22427
 493  -30.05801
 494  153.5388
 495  152.4998
 496  140.0619
 497  178.2849
 498  362.7807
 499  262.7952
 500  136.2399
 501  127.3343
 502  132.8869
 503  164.1724
 504  184.5104
 505  294.3803
 506  194.2422
 507  263.29
 508  436.6162
 509  557.6513
 510  614.2095
 511  791.7223
