# Input file       =  1187230060.106899_cleaned.dat
# Candidate        =  PSR_0332+5434
# Telescope        =  AR
# Epoch_topo       =  57985.088450311334
# Epoch_bary       =  N/A
# T_sample         =  0.002
# Data Folded      =  7340032
# Data Avg         =  0.00144755774048871
# Data StdDev      =  1.00011029266769 
# Profile Bins     =  512
# Profile Avg      =  20.8652858340785 
# Profile StdDev   =  119.746242052758 
# Reduced chi-sqr  =  1.469
# Prob(Noise)      <  2.2e-11   (~6.6 sigma)
# P_topo (ms)      =  714.463921435629  +/- 0.000225
# P'_topo (s/s)    =  -0                +/- 1.19e-10
# P''_topo (s/s^2) =  0                 +/- 5.24e-14
# P_bary (ms)      =  N/A
# P'_bary (s/s)    =  N/A
# P''_bary (s/s^2) =  N/A
# P_orb (s)        =  N/A
# asin(i)/c (s)    =  N/A
# eccentricity     =  N/A
# w (rad)          =  N/A
# T_peri           =  N/A
######################################################
   0  744.4249
   1  766.2807
   2  504.4331
   3  363.9333
   4  45.52282
   5  -7.609095
   6  114.7424
   7  216.7976
   8  90.34061
   9  37.57717
  10  39.10547
  11  186.9437
  12  78.60603
  13  -45.81074
  14  -21.86613
  15  57.47428
  16  80.70114
  17  132.7242
  18  -3.504954
  19  52.84304
  20  56.59998
  21  -19.21879
  22  -57.0828
  23  2.202173
  24  -89.74033
  25  -59.81483
  26  -67.6834
  27  35.43343
  28  -7.41923
  29  -76.41112
  30  5.305311
  31  158.4845
  32  -54.28398
  33  -75.07824
  34  -78.70621
  35  -19.26315
  36  -28.36295
  37  -95.00256
  38  -8.172253
  39  129.2882
  40  86.48837
  41  105.7105
  42  126.7417
  43  37.97907
  44  150.9153
  45  137.4329
  46  27.68867
  47  -85.67687
  48  -206.6935
  49  -145.2349
  50  0.720674
  51  -82.98944
  52  -24.70568
  53  -90.60617
  54  51.33154
  55  37.50986
  56  99.95844
  57  18.1659
  58  -35.76583
  59  -52.73108
  60  -17.68861
  61  7.462166
  62  -12.52557
  63  29.35743
  64  69.5049
  65  10.80001
  66  -6.953479
  67  -48.92764
  68  11.40474
  69  39.15522
  70  27.68276
  71  -2.272473
  72  168.5737
  73  4.091957
  74  -6.236482
  75  58.67272
  76  -30.70372
  77  -8.226351
  78  85.54567
  79  -117.8641
  80  -120.4706
  81  -91.88126
  82  28.65409
  83  19.36684
  84  12.88652
  85  52.86778
  86  14.74932
  87  -18.29229
  88  -75.02495
  89  -27.32458
  90  8.752102
  91  47.74933
  92  56.49308
  93  -154.5713
  94  -100.7618
  95  121.5726
  96  197.2831
  97  139.0112
  98  -53.79308
  99  1.402728
 100  -6.148606
 101  -37.61792
 102  90.86586
 103  102.3094
 104  37.69983
 105  -192.0938
 106  -7.15894
 107  87.04679
 108  6.079337
 109  -52.69342
 110  42.56247
 111  -84.15969
 112  -103.8074
 113  52.2416
 114  200.332
 115  122.994
 116  66.85663
 117  111.2064
 118  -18.93204
 119  -12.88903
 120  -15.81431
 121  -9.846097
 122  -14.43405
 123  -146.5149
 124  -159.5013
 125  -126.6748
 126  -103.2412
 127  -53.28396
 128  -94.18973
 129  25.72239
 130  30.96854
 131  -72.35365
 132  -47.84448
 133  35.03313
 134  56.3194
 135  21.95873
 136  -92.86095
 137  -30.63837
 138  48.69876
 139  46.07763
 140  -42.6877
 141  -51.57182
 142  -38.27496
 143  17.40262
 144  -15.72488
 145  -44.31569
 146  61.64166
 147  25.13497
 148  -44.16347
 149  45.80626
 150  154.5924
 151  4.787125
 152  22.86282
 153  85.57022
 154  -34.78108
 155  -55.55502
 156  -12.99469
 157  -25.99185
 158  53.94514
 159  -45.50642
 160  -101.3927
 161  25.56226
 162  10.56714
 163  -73.84755
 164  95.04488
 165  223.9158
 166  158.634
 167  42.95213
 168  77.24304
 169  9.452025
 170  -49.86693
 171  64.93962
 172  94.89201
 173  42.70056
 174  9.605572
 175  -4.500725
 176  66.00916
 177  89.35872
 178  146.5291
 179  223.6922
 180  108.2736
 181  140.1835
 182  56.12655
 183  101.9259
 184  72.51763
 185  130.5987
 186  166.3639
 187  224.6486
 188  122.8772
 189  15.90456
 190  -111.3374
 191  -103.4068
 192  -30.5935
 193  23.11211
 194  -8.650845
 195  -22.807
 196  68.61344
 197  43.53961
 198  153.6597
 199  41.42226
 200  -118.0779
 201  36.94434
 202  52.11516
 203  145.145
 204  139.7625
 205  88.24024
 206  65.99437
 207  -59.09198
 208  -23.99684
 209  -121.9058
 210  -142.8566
 211  -89.36288
 212  -159.6898
 213  151.4512
 214  194.3593
 215  135.6382
 216  -21.06824
 217  -63.16532
 218  27.72557
 219  108.9747
 220  -12.95325
 221  123.9345
 222  15.77162
 223  14.67214
 224  108.3349
 225  13.34692
 226  52.10829
 227  -40.01294
 228  67.10921
 229  16.66086
 230  -36.7084
 231  -6.638667
 232  37.18866
 233  93.63415
 234  0.4407232
 235  171.1872
 236  219.8241
 237  92.28719
 238  -110.7911
 239  -118.6255
 240  88.77791
 241  43.56716
 242  -139.6025
 243  -202.1249
 244  -33.85667
 245  -47.96218
 246  -10.51413
 247  45.1365
 248  79.08214
 249  -6.412637
 250  -27.04044
 251  28.42269
 252  -27.69331
 253  -2.636508
 254  96.95379
 255  57.29233
 256  33.93719
 257  76.06872
 258  144.432
 259  74.66386
 260  -57.67114
 261  -56.05431
 262  -113.3693
 263  -111.0191
 264  -89.13018
 265  17.27546
 266  22.31192
 267  40.61668
 268  78.54312
 269  20.18056
 270  -101.4841
 271  -30.95352
 272  48.85564
 273  70.62885
 274  -15.94594
 275  94.65397
 276  90.36597
 277  20.86036
 278  15.10334
 279  143.0954
 280  50.64775
 281  -71.7812
 282  16.84009
 283  63.33981
 284  -73.39407
 285  58.29037
 286  49.10724
 287  43.81152
 288  69.25545
 289  116.3179
 290  -3.667817
 291  1.223467
 292  -51.20578
 293  24.9005
 294  215.9332
 295  252.4955
 296  52.39356
 297  99.2252
 298  174.3823
 299  16.67745
 300  -3.738619
 301  79.26552
 302  219.608
 303  114.861
 304  124.1965
 305  93.21221
 306  -113.5373
 307  -22.45395
 308  -51.90529
 309  -73.78416
 310  21.98203
 311  -61.45356
 312  -45.08707
 313  -14.72685
 314  29.50702
 315  68.15713
 316  -87.86227
 317  -1.586219
 318  -69.86497
 319  -19.08604
 320  4.023288
 321  -23.86496
 322  -54.32243
 323  12.73722
 324  14.85523
 325  62.71943
 326  37.8758
 327  -2.387589
 328  -19.47562
 329  9.053625
 330  19.07434
 331  -63.23738
 332  -195.023
 333  -159.8495
 334  -29.69744
 335  -8.599643
 336  -46.43487
 337  -27.17253
 338  -107.3616
 339  -94.34238
 340  0.8688917
 341  -9.42285
 342  -101.7776
 343  23.21989
 344  164.2125
 345  85.00715
 346  7.537347
 347  29.0668
 348  -7.543874
 349  30.1769
 350  -33.20053
 351  -52.93101
 352  3.513913
 353  25.51556
 354  -12.57072
 355  100.4923
 356  182.454
 357  126.0149
 358  -65.90395
 359  -1.751883
 360  28.22537
 361  -195.8189
 362  -76.62975
 363  24.2464
 364  10.04351
 365  58.97228
 366  -18.72389
 367  -126.5893
 368  -106.9344
 369  141.5215
 370  151.7689
 371  121.6718
 372  130.2241
 373  115.9458
 374  -23.45783
 375  26.64052
 376  122.1844
 377  11.26971
 378  -98.82058
 379  -51.19467
 380  28.88383
 381  63.60421
 382  112.1681
 383  18.8261
 384  10.67243
 385  40.3567
 386  106.5603
 387  87.94904
 388  12.59815
 389  -80.29545
 390  61.97648
 391  121.0803
 392  7.890998
 393  -103.437
 394  -62.06728
 395  -35.17714
 396  5.349308
 397  36.96595
 398  59.32056
 399  79.39546
 400  7.055081
 401  -25.59761
 402  28.75222
 403  25.59689
 404  0.8367746
 405  -73.98876
 406  23.42814
 407  68.85182
 408  9.256681
 409  -9.543195
 410  7.364832
 411  -130.2669
 412  -154.6702
 413  -91.64993
 414  123.0495
 415  52.0862
 416  -73.56224
 417  -105.5368
 418  -91.59493
 419  -4.412883
 420  -23.71494
 421  38.93405
 422  16.36448
 423  -88.61106
 424  -97.34935
 425  55.01571
 426  3.272992
 427  -29.70918
 428  -17.25887
 429  -65.21622
 430  -87.52628
 431  182.4666
 432  174.8601
 433  138.503
 434  5.463679
 435  96.45771
 436  72.93524
 437  -13.18193
 438  -86.47813
 439  -111.3769
 440  -100.625
 441  -167.0377
 442  11.71624
 443  -7.685136
 444  -39.77537
 445  16.17035
 446  108.1059
 447  26.72863
 448  9.97646
 449  28.99513
 450  45.84121
 451  -24.80672
 452  -87.74918
 453  18.58156
 454  112.1612
 455  19.20339
 456  -2.710884
 457  -70.5632
 458  -142.7155
 459  -51.01025
 460  13.00798
 461  -32.89417
 462  12.37495
 463  -37.79792
 464  -4.996417
 465  61.63602
 466  158.5511
 467  0.503808
 468  -115.4222
 469  71.98396
 470  46.37641
 471  -109.0453
 472  105.3164
 473  47.66913
 474  -205.1793
 475  -56.73101
 476  78.48347
 477  69.00945
 478  -108.442
 479  -63.12373
 480  5.471411
 481  -44.15413
 482  10.07094
 483  39.30856
 484  -23.52653
 485  -3.930443
 486  48.74253
 487  52.76784
 488  -32.58379
 489  -114.0891
 490  -55.14826
 491  38.16236
 492  97.93071
 493  13.31267
 494  12.45638
 495  153.4817
 496  22.12808
 497  -34.98337
 498  -123.3846
 499  -53.6818
 500  27.5834
 501  -53.81795
 502  86.20132
 503  18.36814
 504  12.67508
 505  163.6674
 506  204.6413
 507  139.7863
 508  188.2347
 509  359.8143
 510  496.5133
 511  645.7441
