# Input file       =  1187934207.111591_cleaned.dat
# Candidate        =  PSR_0332+5434
# Telescope        =  AR
# Epoch_topo       =  57993.238299902674
# Epoch_bary       =  N/A
# T_sample         =  0.002
# Data Folded      =  7340032
# Data Avg         =  0.0116807796711296
# Data StdDev      =  1.00004382047578 
# Profile Bins     =  512
# Profile Avg      =  167.402432398939 
# Profile StdDev   =  119.738283135386 
# Reduced chi-sqr  =  1.273
# Prob(Noise)      <  2.62e-05   (~4.0 sigma)
# P_topo (ms)      =  714.463676080825  +/- 0.000152
# P'_topo (s/s)    =  -0                +/- 8.04e-11
# P''_topo (s/s^2) =  0                 +/- 3.55e-14
# P_bary (ms)      =  N/A
# P'_bary (s/s)    =  N/A
# P''_bary (s/s^2) =  N/A
# P_orb (s)        =  N/A
# asin(i)/c (s)    =  N/A
# eccentricity     =  N/A
# w (rad)          =  N/A
# T_peri           =  N/A
######################################################
   0  761.7848
   1  644.4551
   2  455.006
   3  325.4947
   4  176.6411
   5  233.6245
   6  271.2492
   7  352.9654
   8  250.4952
   9  191.6411
  10  178.5248
  11  87.48457
  12  43.73417
  13  9.487529
  14  79.42717
  15  92.73471
  16  167.2618
  17  276.5558
  18  48.4257
  19  210.133
  20  271.6908
  21  192.9826
  22  190.5535
  23  145.0193
  24  83.49464
  25  94.6665
  26  55.94931
  27  136.2836
  28  53.93453
  29  63.10392
  30  59.90164
  31  -19.13811
  32  152.0622
  33  202.7607
  34  141.0698
  35  53.40639
  36  72.17151
  37  87.52185
  38  237.4664
  39  196.8407
  40  175.8659
  41  131.7229
  42  156.1373
  43  247.6729
  44  235.192
  45  270.4826
  46  166.2371
  47  177.4
  48  269.419
  49  293.7842
  50  193.8775
  51  203.0013
  52  264.8247
  53  200.9732
  54  131.3266
  55  50.19916
  56  211.5783
  57  112.814
  58  146.2643
  59  281.5765
  60  148.2744
  61  190.7207
  62  289.5456
  63  189.8969
  64  28.61521
  65  58.04297
  66  143.7404
  67  167.9018
  68  73.62222
  69  10.73547
  70  -11.38768
  71  136.5077
  72  200.3791
  73  75.05337
  74  148.4027
  75  328.5215
  76  217.2498
  77  221.5325
  78  206.1242
  79  198.1493
  80  301.5403
  81  363.5797
  82  273.197
  83  274.671
  84  264.9291
  85  275.331
  86  265.8681
  87  375.1893
  88  264.2059
  89  207.1893
  90  143.6809
  91  227.3819
  92  221.1851
  93  191.9802
  94  46.12951
  95  27.55883
  96  144.3983
  97  92.50607
  98  8.031719
  99  136.824
 100  161.7997
 101  168.3831
 102  -34.47732
 103  46.82209
 104  7.189512
 105  131.3308
 106  240.0478
 107  122.7368
 108  161.1596
 109  299.843
 110  179.6864
 111  236.6042
 112  278.48
 113  111.7401
 114  74.0117
 115  169.5905
 116  181.3479
 117  82.2366
 118  269.5518
 119  263.4614
 120  201.8953
 121  170.8658
 122  203.6091
 123  249.9901
 124  197.8277
 125  132.9331
 126  151.6876
 127  180.0187
 128  283.0644
 129  103.3968
 130  111.6095
 131  179.9368
 132  121.3191
 133  136.5088
 134  202.127
 135  239.1982
 136  340.8492
 137  246.7864
 138  255.7486
 139  223.4732
 140  35.87289
 141  62.27121
 142  224.0624
 143  178.5412
 144  277.6555
 145  244.7461
 146  272.727
 147  106.0896
 148  228.2784
 149  232.3804
 150  219.4612
 151  175.9541
 152  253.1301
 153  258.3965
 154  197.9318
 155  92.26802
 156  147.0651
 157  134.3967
 158  168.0668
 159  203.1628
 160  155.0414
 161  79.38145
 162  135.5708
 163  218.6295
 164  191.9877
 165  194.7966
 166  253.6585
 167  162.2381
 168  51.05568
 169  160.3574
 170  107.2297
 171  213.8295
 172  118.185
 173  259.5747
 174  179.8746
 175  236.1326
 176  126.3082
 177  70.28516
 178  100.3763
 179  58.73073
 180  141.1422
 181  237.8556
 182  71.47064
 183  189.6768
 184  352.1906
 185  377.2605
 186  287.4522
 187  306.6881
 188  169.9821
 189  108.2504
 190  169.5873
 191  151.2389
 192  95.71421
 193  229.7088
 194  261.7328
 195  176.2813
 196  111.5982
 197  235.7844
 198  160.7087
 199  145.9173
 200  278.7265
 201  313.1151
 202  284.5027
 203  216.8909
 204  -30.92656
 205  -12.04297
 206  294.7607
 207  188.2964
 208  153.3457
 209  109.8879
 210  124.5544
 211  135.3352
 212  146.0871
 213  213.1028
 214  181.8317
 215  118.2803
 216  217.4478
 217  143.9716
 218  136.9438
 219  87.37556
 220  113.493
 221  134.3766
 222  129.9323
 223  38.46946
 224  59.19858
 225  85.19453
 226  229.2613
 227  183.1686
 228  93.67467
 229  138.7543
 230  165.0584
 231  82.90845
 232  86.32034
 233  141.2161
 234  124.0785
 235  148.251
 236  123.5003
 237  194.9149
 238  170.0142
 239  246.283
 240  190.0087
 241  151.872
 242  218.5143
 243  201.6898
 244  158.9236
 245  181.6335
 246  0.9039075
 247  14.59386
 248  86.47291
 249  172.9086
 250  202.966
 251  160.7715
 252  254.7028
 253  251.1512
 254  115.1738
 255  121.8078
 256  115.0717
 257  55.2365
 258  105.9977
 259  150.9654
 260  59.53503
 261  99.92507
 262  141.0969
 263  172.6719
 264  109.9971
 265  32.20305
 266  169.3064
 267  153.2602
 268  48.1313
 269  84.09238
 270  -32.22458
 271  33.28156
 272  51.01348
 273  112.8395
 274  34.57671
 275  83.20007
 276  142.0631
 277  60.21589
 278  76.52776
 279  76.5925
 280  110.4378
 281  185.6091
 282  139.3884
 283  219.2472
 284  89.11225
 285  48.31556
 286  127.4583
 287  110.592
 288  239.9637
 289  140.9258
 290  71.1309
 291  87.58099
 292  198.1156
 293  79.90843
 294  93.5261
 295  185.7012
 296  129.9195
 297  123.5677
 298  174.9819
 299  198.4834
 300  205.1757
 301  129.4166
 302  85.7699
 303  36.50706
 304  53.46119
 305  169.5555
 306  61.13111
 307  66.6004
 308  90.40412
 309  142.4327
 310  135.4467
 311  117.3805
 312  119.862
 313  152.7588
 314  168.0026
 315  222.4253
 316  245.7043
 317  275.2206
 318  206.3561
 319  151.9684
 320  217.7303
 321  181.1258
 322  122.3039
 323  94.3353
 324  32.38271
 325  -11.8349
 326  31.29141
 327  -22.08388
 328  146.4786
 329  138.4698
 330  179.1472
 331  43.14489
 332  106.1502
 333  163.2886
 334  254.9868
 335  215.8083
 336  75.44147
 337  130.9906
 338  98.45893
 339  248.8087
 340  335.2116
 341  280.009
 342  244.6493
 343  262.9001
 344  209.7523
 345  210.9006
 346  168.0604
 347  295.1635
 348  302.6045
 349  282.6927
 350  213.8065
 351  171.2072
 352  70.05717
 353  55.02399
 354  -4.514502
 355  194.6841
 356  287.3895
 357  240.0997
 358  211.1477
 359  75.56352
 360  250.3924
 361  200.5481
 362  152.4607
 363  238.0591
 364  302.5602
 365  315.6528
 366  126.0387
 367  85.72589
 368  110.1309
 369  80.57736
 370  263.3077
 371  196.9897
 372  115.211
 373  177.9496
 374  267.2911
 375  261.5917
 376  297.8011
 377  34.84148
 378  91.25916
 379  136.3987
 380  63.3763
 381  118.2281
 382  148.5343
 383  200.4987
 384  165.1006
 385  157.3181
 386  334.9232
 387  246.827
 388  139.9244
 389  215.3192
 390  295.8458
 391  118.592
 392  84.06775
 393  129.6145
 394  144.6221
 395  137.8478
 396  141.7268
 397  38.31464
 398  25.12892
 399  180.474
 400  249.3679
 401  134.7521
 402  222.6954
 403  220.9235
 404  173.565
 405  122.0149
 406  322.3079
 407  281.9579
 408  195.2227
 409  228.5641
 410  220.2043
 411  241.45
 412  319.6795
 413  65.79394
 414  126.6019
 415  259.4209
 416  289.4111
 417  105.69
 418  113.2381
 419  157.3424
 420  149.8648
 421  188.3733
 422  120.8836
 423  30.51447
 424  79.16841
 425  209.8577
 426  274.761
 427  100.8665
 428  99.69154
 429  205.8556
 430  181.6152
 431  293.925
 432  175.8862
 433  -94.36245
 434  67.58598
 435  252.4421
 436  223.3945
 437  136.5705
 438  45.92756
 439  136.1476
 440  283.892
 441  219.0356
 442  165.1031
 443  54.30395
 444  51.84908
 445  173.7437
 446  181.9117
 447  102.6912
 448  151.3185
 449  107.1899
 450  133.2045
 451  105.9137
 452  101.5825
 453  152.0582
 454  103.2028
 455  88.23318
 456  175.3246
 457  93.75565
 458  -7.187945
 459  121.6675
 460  150.2457
 461  198.4403
 462  308.6672
 463  172.925
 464  174.6346
 465  197.514
 466  98.615
 467  29.20175
 468  278.7568
 469  166.2363
 470  157.3108
 471  -61.3257
 472  91.95912
 473  93.63432
 474  131.3412
 475  39.26818
 476  141.0441
 477  235.5421
 478  205.2956
 479  120.8565
 480  85.18587
 481  115.1375
 482  167.106
 483  165.1443
 484  69.63688
 485  6.951788
 486  168.1074
 487  197.7491
 488  181.0629
 489  206.3432
 490  280.6346
 491  130.4194
 492  183.8337
 493  279.0787
 494  259.3804
 495  193.1845
 496  199.5335
 497  81.47756
 498  62.17122
 499  66.31091
 500  194.366
 501  267.0913
 502  234.2117
 503  287.697
 504  348.0318
 505  362.9442
 506  288.0908
 507  231.2415
 508  245.5714
 509  470.5504
 510  708.6277
 511  785.8089
