# Input file       =  1187589586.114317_cleaned.dat
# Candidate        =  PSR_0332+5434
# Telescope        =  AR
# Epoch_topo       =  57989.249630952741
# Epoch_bary       =  N/A
# T_sample         =  0.002
# Data Folded      =  7340032
# Data Avg         =  0.00398296054016305
# Data StdDev      =  1.00002751784491 
# Profile Bins     =  512
# Profile Avg      =  57.1986571578836 
# Profile StdDev   =  119.736331171892 
# Reduced chi-sqr  =  1.292
# Prob(Noise)      <  8.61e-06   (~4.3 sigma)
# P_topo (ms)      =  714.463814109326  +/- 0.000188
# P'_topo (s/s)    =  -0                +/- 9.9e-11
# P''_topo (s/s^2) =  0                 +/- 4.37e-14
# P_bary (ms)      =  N/A
# P'_bary (s/s)    =  N/A
# P''_bary (s/s^2) =  N/A
# P_orb (s)        =  N/A
# asin(i)/c (s)    =  N/A
# eccentricity     =  N/A
# w (rad)          =  N/A
# T_peri           =  N/A
######################################################
   0  754.2538
   1  661.8767
   2  521.8171
   3  292.7476
   4  61.90868
   5  4.043022
   6  103.6454
   7  74.61594
   8  -37.15522
   9  55.70266
  10  161.3223
  11  129.4136
  12  71.75667
  13  117.2449
  14  135.5629
  15  151.0944
  16  131.1697
  17  64.60472
  18  -108.6972
  19  89.93445
  20  58.59375
  21  138.0514
  22  88.57664
  23  64.62844
  24  122.7661
  25  95.72427
  26  19.40195
  27  72.24565
  28  50.78332
  29  65.96026
  30  1.809437
  31  -52.2254
  32  -134.1503
  33  -200.4893
  34  -157.6838
  35  -46.97636
  36  -21.48993
  37  223.3849
  38  75.79478
  39  -65.22488
  40  42.58341
  41  -58.48271
  42  -60.56377
  43  17.04122
  44  23.71942
  45  -75.56164
  46  -134.2551
  47  114.2344
  48  55.18186
  49  -79.63635
  50  106.4421
  51  124.3896
  52  126.1601
  53  -66.44073
  54  30.48333
  55  39.96876
  56  34.50005
  57  9.407688
  58  101.2538
  59  -9.025523
  60  -8.662404
  61  11.4037
  62  124.8203
  63  -16.03918
  64  -25.42188
  65  -27.05927
  66  55.35568
  67  57.6212
  68  285.6638
  69  224.6312
  70  190.7807
  71  14.89165
  72  -34.99094
  73  -20.02831
  74  4.771156
  75  -87.75155
  76  -8.997189
  77  104.277
  78  43.4506
  79  2.631448
  80  33.43501
  81  92.57522
  82  195.4032
  83  124.8899
  84  92.45287
  85  11.45491
  86  -13.13199
  87  35.92168
  88  132.7505
  89  25.4164
  90  112.0108
  91  153.7708
  92  60.13495
  93  -32.16879
  94  -102.5273
  95  26.7655
  96  59.17885
  97  -12.47177
  98  129.6169
  99  28.65166
 100  47.71751
 101  -76.58054
 102  -94.14639
 103  94.00948
 104  60.68722
 105  7.346918
 106  -128.3103
 107  -125.2813
 108  -83.38258
 109  -13.54496
 110  16.85636
 111  69.92445
 112  41.22531
 113  -28.34307
 114  -18.17973
 115  33.02942
 116  -1.122358
 117  123.8056
 118  90.65117
 119  -8.793972
 120  84.78445
 121  78.7918
 122  116.4138
 123  138.5832
 124  14.79356
 125  46.9119
 126  82.66913
 127  186.6285
 128  66.92738
 129  41.54385
 130  43.28344
 131  180.4781
 132  149.5272
 133  138.067
 134  91.90012
 135  102.1018
 136  137.3933
 137  113.6311
 138  -1.565341
 139  135.0356
 140  120.7889
 141  113.5571
 142  141.7894
 143  7.344466
 144  -42.08983
 145  -34.52504
 146  118.5571
 147  184.9685
 148  153.0554
 149  35.22086
 150  154.4809
 151  113.5648
 152  91.12733
 153  129.3087
 154  140.0266
 155  49.13072
 156  83.69489
 157  104.5212
 158  154.3188
 159  77.39269
 160  87.35168
 161  138.0028
 162  55.39521
 163  62.98879
 164  94.5934
 165  6.541259
 166  -142.436
 167  -61.1572
 168  9.119322
 169  0.2872392
 170  58.06499
 171  36.34774
 172  135.6637
 173  -26.74975
 174  -6.654452
 175  196.5931
 176  68.01218
 177  119.119
 178  -5.504519
 179  77.47772
 180  71.15473
 181  71.07043
 182  150.0779
 183  94.69868
 184  130.8706
 185  228.1615
 186  91.85403
 187  127.651
 188  -18.44332
 189  62.71248
 190  64.82117
 191  50.14256
 192  -54.48553
 193  41.15405
 194  112.4945
 195  204.9576
 196  38.15687
 197  3.921117
 198  -5.090311
 199  62.94301
 200  19.98037
 201  22.52576
 202  -13.90574
 203  52.5131
 204  144.2326
 205  199.6188
 206  106.4981
 207  228.5361
 208  268.2595
 209  294.846
 210  99.01069
 211  74.87392
 212  70.68707
 213  55.39193
 214  34.54294
 215  121.9072
 216  145.9955
 217  205.3764
 218  182.6124
 219  219.0961
 220  69.61534
 221  24.75296
 222  -40.19392
 223  14.38177
 224  122.3008
 225  135.15
 226  187.794
 227  150.7017
 228  148.8445
 229  170.6443
 230  63.79576
 231  41.93766
 232  22.85552
 233  222.3128
 234  244.9457
 235  22.3319
 236  51.24054
 237  157.0284
 238  164.2754
 239  -15.91522
 240  30.54498
 241  61.20637
 242  -1.342005
 243  -16.97153
 244  54.79219
 245  -108.3871
 246  -74.56465
 247  -12.54301
 248  98.24458
 249  76.89017
 250  8.915052
 251  -109.4995
 252  -22.19416
 253  62.36957
 254  111.3227
 255  -11.40558
 256  -123.7805
 257  -57.75506
 258  111.6846
 259  -44.93343
 260  53.95901
 261  61.07209
 262  67.57624
 263  12.79058
 264  101.4111
 265  176.4389
 266  -39.09721
 267  -165.357
 268  0.6581728
 269  -61.11009
 270  -31.05914
 271  40.65471
 272  76.1497
 273  223.5355
 274  78.21497
 275  -57.76498
 276  -40.25777
 277  183.6855
 278  37.77103
 279  70.81198
 280  5.049193
 281  76.72202
 282  82.51966
 283  173.7868
 284  127.2156
 285  42.08394
 286  -40.26041
 287  -22.04599
 288  -10.4014
 289  -8.359584
 290  36.59361
 291  91.28233
 292  121.4283
 293  -9.772623
 294  -62.52874
 295  -39.99747
 296  154.2202
 297  109.8655
 298  108.5018
 299  110.7071
 300  148.2072
 301  34.28561
 302  141.4523
 303  -3.763787
 304  14.17628
 305  136.3877
 306  -51.73053
 307  -69.10364
 308  142.708
 309  121.1817
 310  64.57042
 311  -131.0721
 312  -15.53579
 313  35.81734
 314  39.60656
 315  106.5231
 316  73.77017
 317  79.45343
 318  72.88199
 319  92.91723
 320  52.07933
 321  19.37783
 322  -81.43874
 323  -86.65147
 324  -130.9579
 325  -60.6002
 326  57.89957
 327  2.285161
 328  -101.939
 329  1.040079
 330  -5.614423
 331  63.77901
 332  180.6194
 333  113.2298
 334  29.84336
 335  41.15804
 336  211.1088
 337  58.77071
 338  -37.15301
 339  28.30532
 340  132.328
 341  3.429001
 342  -14.8514
 343  -53.78008
 344  55.55366
 345  80.89981
 346  119.6653
 347  66.42507
 348  25.13098
 349  46.27671
 350  19.8019
 351  31.44821
 352  -0.280309
 353  -154.4158
 354  -173.2254
 355  -49.48593
 356  -4.962664
 357  -10.28063
 358  -41.04731
 359  59.54905
 360  14.76686
 361  48.22624
 362  46.9288
 363  40.54782
 364  52.10191
 365  135.2637
 366  -0.08298425
 367  -5.047406
 368  -25.86938
 369  22.72915
 370  234.6559
 371  90.519
 372  -64.60573
 373  -37.87401
 374  2.89999
 375  -48.43998
 376  -43.164
 377  35.78179
 378  20.2647
 379  15.87162
 380  -19.06338
 381  85.4558
 382  138.5315
 383  149.981
 384  34.88909
 385  27.74777
 386  147.9225
 387  104.8875
 388  13.47573
 389  76.18869
 390  68.26922
 391  133.9828
 392  75.51054
 393  -70.64627
 394  32.32005
 395  17.43579
 396  114.9761
 397  159.5615
 398  48.25993
 399  32.51252
 400  88.05167
 401  15.48476
 402  20.83331
 403  -7.41784
 404  68.16886
 405  101.6833
 406  157.9165
 407  8.261603
 408  -127.6882
 409  10.41129
 410  110.7463
 411  96.06064
 412  96.57502
 413  99.35192
 414  123.0756
 415  -46.29876
 416  -10.96314
 417  46.39132
 418  127.5757
 419  69.68751
 420  101.5802
 421  -5.448596
 422  43.35233
 423  6.612281
 424  -32.64661
 425  35.33845
 426  77.814
 427  64.48188
 428  53.80692
 429  -25.76044
 430  -29.92386
 431  27.83357
 432  100.7831
 433  176.2083
 434  3.019076
 435  40.18163
 436  -1.554174
 437  23.15737
 438  44.15501
 439  22.66508
 440  36.25858
 441  41.3381
 442  -39.79894
 443  -11.81726
 444  -91.70057
 445  21.53956
 446  -32.56268
 447  75.99814
 448  77.55753
 449  -27.89505
 450  -51.71712
 451  79.15625
 452  65.73341
 453  113.1559
 454  55.35334
 455  244.9827
 456  197.276
 457  70.68886
 458  -107.5814
 459  60.48058
 460  109.5857
 461  184.0464
 462  104.0735
 463  169.308
 464  272.0293
 465  134.364
 466  3.75795
 467  -29.75195
 468  68.73479
 469  109.2334
 470  7.9415
 471  -16.74935
 472  -12.49855
 473  -10.37699
 474  -34.76691
 475  -29.71047
 476  102.1508
 477  178.6389
 478  192.3688
 479  94.51276
 480  20.27162
 481  -51.15023
 482  -75.6873
 483  -22.50721
 484  62.02549
 485  40.59922
 486  -118.7955
 487  -133.9276
 488  83.29535
 489  -15.62314
 490  19.82229
 491  85.35894
 492  5.519571
 493  19.86877
 494  88.33636
 495  147.7471
 496  186.8234
 497  148.7182
 498  78.0089
 499  51.07388
 500  174.1429
 501  102.0953
 502  142.4793
 503  135.6626
 504  42.80574
 505  71.55566
 506  131.2297
 507  14.13622
 508  135.3696
 509  312.205
 510  380.0479
 511  576.093
