# Input file       =  1187675783.136082_cleaned.dat
# Candidate        =  PSR_0332+5434
# Telescope        =  AR
# Epoch_topo       =  57990.247281667616
# Epoch_bary       =  N/A
# T_sample         =  0.002
# Data Folded      =  7340032
# Data Avg         =  0.010202107072473
# Data StdDev      =  1.00003643217868 
# Profile Bins     =  512
# Profile Avg      =  146.153995846732 
# Profile StdDev   =  119.737398512142 
# Reduced chi-sqr  =  1.304
# Prob(Noise)      <  4.12e-06   (~4.5 sigma)
# P_topo (ms)      =  714.463755068263  +/- 0.000436
# P'_topo (s/s)    =  -0                +/- 2.3e-10
# P''_topo (s/s^2) =  0                 +/- 1.02e-13
# P_bary (ms)      =  N/A
# P'_bary (s/s)    =  N/A
# P''_bary (s/s^2) =  N/A
# P_orb (s)        =  N/A
# asin(i)/c (s)    =  N/A
# eccentricity     =  N/A
# w (rad)          =  N/A
# T_peri           =  N/A
######################################################
   0  749.7637
   1  735.8286
   2  574.392
   3  338.3999
   4  246.8534
   5  296.0624
   6  174.8387
   7  277.4712
   8  250.9885
   9  220.4632
  10  25.66743
  11  57.80678
  12  103.6054
  13  115.5142
  14  183.9722
  15  80.25205
  16  136.9033
  17  214.4047
  18  113.1548
  19  69.1854
  20  54.68227
  21  5.545664
  22  86.09721
  23  63.39122
  24  197.9629
  25  156.9083
  26  65.38163
  27  22.87376
  28  59.15895
  29  125.4142
  30  52.13985
  31  53.122
  32  178.3043
  33  172.9546
  34  40.27159
  35  133.576
  36  129.5236
  37  113.9892
  38  131.6588
  39  101.9705
  40  127.4116
  41  137.2708
  42  84.5825
  43  206.566
  44  196.964
  45  189.0867
  46  64.72044
  47  140.8426
  48  175.9426
  49  -58.14377
  50  -22.9965
  51  178.5775
  52  174.8687
  53  73.11353
  54  132.8949
  55  128.6958
  56  100.0459
  57  135.6606
  58  189.7193
  59  250.5931
  60  223.1647
  61  160.9127
  62  242.4372
  63  219.0733
  64  298.507
  65  226.0398
  66  222.2761
  67  272.9373
  68  245.0616
  69  223.4963
  70  76.06224
  71  128.4758
  72  163.6617
  73  108.957
  74  134.0034
  75  186.2283
  76  118.8825
  77  176.8759
  78  36.12186
  79  51.01078
  80  171.1654
  81  226.7348
  82  102.2779
  83  -9.752804
  84  69.78177
  85  -61.89624
  86  -4.091152
  87  17.66492
  88  -116.9872
  89  73.19783
  90  162.2933
  91  4.343256
  92  -128.2952
  93  11.91814
  94  82.33971
  95  179.0264
  96  274.8016
  97  54.6585
  98  -56.81539
  99  75.60376
 100  0.5646121
 101  66.64398
 102  -9.770171
 103  37.13818
 104  173.5219
 105  110.0725
 106  85.43782
 107  46.78101
 108  234.9479
 109  155.9171
 110  119.0705
 111  115.8296
 112  145.7801
 113  115.3135
 114  62.50835
 115  95.26845
 116  143.4411
 117  215.8214
 118  228.5604
 119  92.37907
 120  113.1096
 121  246.3405
 122  16.23396
 123  209.2783
 124  216.5267
 125  253.8281
 126  234.05
 127  125.1723
 128  143.4972
 129  115.7327
 130  96.69922
 131  29.0003
 132  54.29418
 133  77.44623
 134  117.5597
 135  115.6956
 136  160.3713
 137  240.9519
 138  195.058
 139  86.89417
 140  87.7564
 141  95.69261
 142  94.0434
 143  -54.5092
 144  152.5338
 145  167.0238
 146  67.56336
 147  79.95318
 148  110.9832
 149  162.443
 150  262.912
 151  243.1825
 152  150.4896
 153  -34.55711
 154  84.52437
 155  109.7911
 156  249.0151
 157  128.0854
 158  91.01335
 159  178.1442
 160  179.1197
 161  57.75854
 162  92.04604
 163  154.2759
 164  72.29355
 165  49.63008
 166  -16.75491
 167  112.5657
 168  73.93461
 169  -0.8301184
 170  106.6625
 171  77.3861
 172  173.8146
 173  45.21957
 174  61.91437
 175  150.6744
 176  108.8425
 177  76.73089
 178  88.48042
 179  145.539
 180  158.8832
 181  10.2172
 182  85.74807
 183  100.6652
 184  -7.011318
 185  113.0112
 186  100.8653
 187  -4.704226
 188  76.49989
 189  30.98649
 190  98.66384
 191  219.1184
 192  261.3272
 193  231.2199
 194  168.9064
 195  173.9231
 196  38.24126
 197  116.2017
 198  163.6341
 199  140.1385
 200  143.0339
 201  110.2048
 202  16.89145
 203  19.23447
 204  94.5443
 205  80.16788
 206  120.3442
 207  210.1089
 208  114.3827
 209  149.9284
 210  313.022
 211  447.1038
 212  305.1548
 213  138.3205
 214  165.6888
 215  232.2291
 216  264.6328
 217  134.1953
 218  6.601013
 219  100.0256
 220  194.1086
 221  82.37216
 222  4.006424
 223  137.3385
 224  275.2263
 225  183.7691
 226  104.4953
 227  151.9808
 228  186.7414
 229  71.73297
 230  125.2193
 231  68.3502
 232  38.809
 233  78.383
 234  67.51113
 235  43.66878
 236  -7.736139
 237  83.8959
 238  48.71661
 239  -0.495578
 240  159.687
 241  245.7812
 242  178.3742
 243  40.45749
 244  117.0768
 245  129.5007
 246  111.9938
 247  156.1076
 248  261.5786
 249  287.8031
 250  51.33063
 251  121.139
 252  174.0949
 253  63.06488
 254  134.9672
 255  176.1309
 256  174.6057
 257  127.7548
 258  40.9437
 259  53.12703
 260  178.8715
 261  -0.7786714
 262  -80.72369
 263  -40.42641
 264  54.41166
 265  126.2086
 266  183.3706
 267  243.5563
 268  232.6371
 269  248.8612
 270  211.201
 271  108.0718
 272  229.0373
 273  279.6684
 274  218.1878
 275  281.2308
 276  209.1638
 277  263.5623
 278  119.6314
 279  192.8124
 280  150.8185
 281  138.7873
 282  125.3741
 283  319.2353
 284  187.4091
 285  103.8332
 286  107.2851
 287  105.1998
 288  108.036
 289  78.08025
 290  162.0413
 291  325.8867
 292  231.7954
 293  43.8765
 294  64.27742
 295  199.499
 296  238.8175
 297  251.3947
 298  203.0353
 299  144.3569
 300  203.799
 301  333.338
 302  259.2068
 303  141.2687
 304  136.3872
 305  51.22723
 306  37.68487
 307  15.64212
 308  132.6176
 309  156.6488
 310  146.0096
 311  162.7677
 312  144.2312
 313  199.5238
 314  242.9601
 315  216.0243
 316  105.4795
 317  107.1766
 318  164.3987
 319  179.2396
 320  116.3199
 321  9.165941
 322  20.89761
 323  31.58028
 324  17.03699
 325  26.43176
 326  54.87761
 327  174.3563
 328  240.8901
 329  109.5927
 330  56.84781
 331  111.9675
 332  95.60507
 333  227.4195
 334  168.162
 335  229.7824
 336  275.7213
 337  151.5906
 338  167.9998
 339  118.7876
 340  113.3145
 341  142.9585
 342  123.9628
 343  193.6534
 344  177.8253
 345  293.9304
 346  331.7967
 347  225.0309
 348  173.6122
 349  212.3947
 350  63.59941
 351  64.38393
 352  151.8118
 353  208.6274
 354  192.0502
 355  153.9048
 356  176.0706
 357  47.23182
 358  6.294798
 359  168.6864
 360  92.90392
 361  198.7093
 362  126.7405
 363  38.77639
 364  68.8469
 365  158.1272
 366  200.0186
 367  71.183
 368  124.3853
 369  312.1437
 370  142.6335
 371  132.9173
 372  189.8112
 373  20.44618
 374  26.30554
 375  69.59291
 376  193.9009
 377  244.9064
 378  124.8715
 379  248.9111
 380  222.7415
 381  179.7511
 382  133.2141
 383  29.18453
 384  107.4839
 385  176.3357
 386  175.4041
 387  213.965
 388  194.2204
 389  125.3538
 390  192.9137
 391  177.7591
 392  164.4064
 393  151.6911
 394  137.9242
 395  90.64092
 396  80.33743
 397  140.7377
 398  46.18988
 399  66.46751
 400  191.308
 401  73.14114
 402  115.0574
 403  138.9157
 404  234.0087
 405  197.9216
 406  126.1506
 407  141.5538
 408  147.8324
 409  100.1607
 410  225.5637
 411  233.5444
 412  242.6035
 413  125.3747
 414  132.5829
 415  246.2704
 416  266.0946
 417  56.70033
 418  68.27133
 419  138.575
 420  122.9
 421  211.3433
 422  55.0038
 423  123.1616
 424  226.8644
 425  354.5812
 426  186.2304
 427  102.4971
 428  229.7316
 429  242.6924
 430  61.12988
 431  202.4976
 432  234.2978
 433  224.7716
 434  203.8872
 435  115.1047
 436  80.35697
 437  247.521
 438  194.3813
 439  152.1891
 440  154.9818
 441  260.0424
 442  199.9235
 443  164.0913
 444  9.138935
 445  19.59183
 446  153.4548
 447  255.1207
 448  247.3708
 449  100.3958
 450  78.15267
 451  86.50663
 452  170.6021
 453  182.0026
 454  195.4335
 455  118.6221
 456  114.1365
 457  194.2331
 458  166.8098
 459  139.9543
 460  188.0613
 461  245.8139
 462  238.7727
 463  219.0493
 464  184.566
 465  80.47406
 466  11.22767
 467  6.68082
 468  96.3666
 469  229.5021
 470  162.1143
 471  115.2724
 472  149.0395
 473  63.87523
 474  129.9018
 475  224.5677
 476  188.4216
 477  91.75275
 478  45.68019
 479  145.4322
 480  96.4541
 481  -20.89619
 482  9.219505
 483  100.5588
 484  103.0683
 485  68.25401
 486  90.215
 487  184.7991
 488  212.6621
 489  242.8602
 490  210.3849
 491  166.4342
 492  154.8918
 493  324.9278
 494  294.0258
 495  251.5405
 496  191.0271
 497  195.7234
 498  307.6094
 499  326.5714
 500  226.7186
 501  138.7048
 502  252.9846
 503  396.2453
 504  339.5274
 505  271.5722
 506  324.3089
 507  284.1154
 508  369.0914
 509  417.7573
 510  448.0582
 511  685.9233
