# Input file       =  1187417273.104428_cleaned.dat
# Candidate        =  PSR_0332+5434
# Telescope        =  AR
# Epoch_topo       =  57987.255267412365
# Epoch_bary       =  N/A
# T_sample         =  0.002
# Data Folded      =  7340032
# Data Avg         =  0.00721330404871267
# Data StdDev      =  1.00002290724655 
# Profile Bins     =  512
# Profile Avg      =  103.351451634071 
# Profile StdDev   =  119.73577913095  
# Reduced chi-sqr  =  1.782
# Prob(Noise)      <  6.85e-25   (~10.2 sigma)
# P_topo (ms)      =  714.463987453473  +/- 0.000101
# P'_topo (s/s)    =  -0                +/- 5.34e-11
# P''_topo (s/s^2) =  0                 +/- 2.36e-14
# P_bary (ms)      =  N/A
# P'_bary (s/s)    =  N/A
# P''_bary (s/s^2) =  N/A
# P_orb (s)        =  N/A
# asin(i)/c (s)    =  N/A
# eccentricity     =  N/A
# w (rad)          =  N/A
# T_peri           =  N/A
######################################################
   0  960.5168
   1  957.9336
   2  751.0465
   3  480.9272
   4  321.598
   5  163.6901
   6  37.0402
   7  223.4672
   8  297.8491
   9  184.476
  10  80.539
  11  135.4309
  12  288.5627
  13  193.2008
  14  246.6264
  15  168.3763
  16  136.3001
  17  240.6436
  18  155.3366
  19  74.48161
  20  23.99154
  21  69.8494
  22  181.7491
  23  150.3818
  24  -15.97753
  25  34.83565
  26  199.1763
  27  105.918
  28  3.11564
  29  26.81412
  30  14.11862
  31  106.9069
  32  51.3494
  33  204.2272
  34  228.8089
  35  39.51062
  36  30.95953
  37  211.8057
  38  314.51
  39  250.9309
  40  177.8096
  41  248.8736
  42  326.3092
  43  29.50771
  44  145.3192
  45  118.3046
  46  221.1222
  47  66.36518
  48  26.95452
  49  -13.45124
  50  57.88983
  51  29.05712
  52  123.2284
  53  66.62492
  54  100.5613
  55  176.613
  56  252.6878
  57  109.4697
  58  124.2393
  59  113.0414
  60  -2.639183
  61  97.59538
  62  169.0912
  63  29.11451
  64  -2.354289
  65  104.0807
  66  85.42504
  67  136.7797
  68  184.1346
  69  284.9828
  70  243.1721
  71  165.8707
  72  123.1118
  73  54.70958
  74  132.1627
  75  164.4912
  76  140.7632
  77  229.7387
  78  104.6921
  79  36.89114
  80  51.1511
  81  53.67607
  82  173.7515
  83  88.5974
  84  -17.45378
  85  47.03924
  86  53.44281
  87  87.94825
  88  -73.53264
  89  -15.73274
  90  66.66782
  91  103.5458
  92  101.9594
  93  80.78456
  94  19.14608
  95  159.0236
  96  160.0299
  97  192.926
  98  34.5467
  99  -11.73533
 100  51.9315
 101  -0.5276013
 102  -5.479784
 103  -31.70403
 104  166.9585
 105  147.3205
 106  18.5944
 107  61.71565
 108  88.54465
 109  -31.71067
 110  -127.5089
 111  -30.20554
 112  -14.24558
 113  125.4436
 114  157.4473
 115  43.38736
 116  178.1908
 117  72.77129
 118  19.03323
 119  -53.48355
 120  -146.1234
 121  5.366257
 122  -7.79949
 123  65.28151
 124  159.7933
 125  201.4724
 126  16.44499
 127  -33.5103
 128  52.56163
 129  186.8967
 130  39.98997
 131  45.00807
 132  15.85673
 133  -34.17553
 134  -16.99734
 135  155.5377
 136  227.5026
 137  254.3854
 138  141.8913
 139  123.2638
 140  118.7051
 141  191.4375
 142  248.4882
 143  97.22929
 144  -47.87275
 145  59.86246
 146  110.5362
 147  173.1509
 148  188.7805
 149  273.8615
 150  104.6742
 151  2.462358
 152  79.66412
 153  69.49525
 154  51.25121
 155  42.79203
 156  -37.01954
 157  173.0113
 158  216.2116
 159  74.13091
 160  106.7908
 161  59.91354
 162  168.6953
 163  97.60316
 164  182.1326
 165  144.5133
 166  124.2693
 167  12.43375
 168  129.3416
 169  116.065
 170  141.4779
 171  127.0639
 172  33.74923
 173  145.1093
 174  186.3153
 175  105.4352
 176  111.3395
 177  179.6389
 178  118.5181
 179  92.50506
 180  131.7078
 181  149.1333
 182  84.89869
 183  69.11327
 184  9.920916
 185  -22.30133
 186  45.37635
 187  101.6962
 188  60.95775
 189  14.6798
 190  96.60392
 191  197.685
 192  234.9303
 193  150.5083
 194  147.6748
 195  197.5807
 196  148.546
 197  81.88033
 198  6.657851
 199  138.8928
 200  217.8466
 201  91.1386
 202  96.61961
 203  163.5193
 204  234.3907
 205  204.5574
 206  24.58694
 207  164.2514
 208  229.0512
 209  93.40144
 210  99.94637
 211  147.3553
 212  27.54882
 213  39.62057
 214  138.3741
 215  140.8815
 216  35.19403
 217  62.67871
 218  102.1702
 219  50.29849
 220  80.6389
 221  109.1995
 222  106.3717
 223  84.76585
 224  118.6102
 225  52.27423
 226  72.06799
 227  153.7937
 228  153.7579
 229  43.29218
 230  -53.07343
 231  176.4197
 232  184.0926
 233  106.6636
 234  116.8517
 235  112.2009
 236  195.9693
 237  165.7193
 238  37.29359
 239  32.55908
 240  -22.00468
 241  9.170348
 242  219.7265
 243  142.554
 244  122.2857
 245  -10.87701
 246  41.50595
 247  88.12037
 248  -35.85704
 249  -12.62144
 250  -13.37341
 251  -1.684641
 252  218.5047
 253  230.9781
 254  23.73511
 255  -83.11073
 256  -18.36158
 257  -125.3531
 258  -65.33923
 259  -8.744526
 260  115.0771
 261  171.1495
 262  73.89509
 263  -34.64924
 264  31.12807
 265  106.4678
 266  -10.93938
 267  -14.58015
 268  8.823164
 269  -0.1175265
 270  30.90521
 271  164.2255
 272  158.1093
 273  159.9656
 274  139.7083
 275  203.5592
 276  129.3331
 277  95.25523
 278  85.99263
 279  10.14563
 280  74.54665
 281  107.3504
 282  93.25227
 283  94.3942
 284  43.80375
 285  49.19728
 286  40.78522
 287  17.05756
 288  -67.26925
 289  -21.46766
 290  -82.35205
 291  -29.22185
 292  58.68438
 293  133.0151
 294  83.93726
 295  173.0511
 296  167.8285
 297  192.8973
 298  174.8984
 299  104.5898
 300  -12.98075
 301  35.82185
 302  9.646544
 303  -83.28493
 304  108.4882
 305  210.6276
 306  29.75806
 307  32.16693
 308  211.1465
 309  145.2591
 310  147.959
 311  251.9928
 312  248.6013
 313  121.6903
 314  115.0332
 315  255.6887
 316  278.9781
 317  81.784
 318  61.35938
 319  74.8484
 320  87.78905
 321  181.0331
 322  126.0455
 323  41.24123
 324  9.431282
 325  22.7923
 326  97.03838
 327  77.71729
 328  72.16962
 329  98.25755
 330  -52.94776
 331  38.70171
 332  -37.00785
 333  -24.90789
 334  -33.59089
 335  -24.70327
 336  82.08236
 337  106.8406
 338  66.56348
 339  5.975932
 340  46.27172
 341  70.71477
 342  123.8424
 343  220.419
 344  233.29
 345  131.5559
 346  13.03993
 347  165.9641
 348  131.8349
 349  184.4449
 350  111.3915
 351  184.437
 352  137.3445
 353  85.78117
 354  184.0081
 355  125.9271
 356  190.2281
 357  226.36
 358  40.52266
 359  87.17999
 360  84.67284
 361  0.2860978
 362  73.31839
 363  144.4057
 364  145.6432
 365  -27.41388
 366  -21.03583
 367  50.89655
 368  86.34329
 369  13.62562
 370  127.1606
 371  231.6843
 372  141.7412
 373  62.47196
 374  117.4544
 375  3.27322
 376  12.53549
 377  197.628
 378  268.6011
 379  62.54863
 380  29.16496
 381  158.186
 382  16.36898
 383  30.95441
 384  107.6147
 385  76.92036
 386  176.3205
 387  153.2992
 388  71.37966
 389  -23.33559
 390  34.92231
 391  62.73008
 392  194.1603
 393  85.24789
 394  -18.67393
 395  11.5221
 396  135.5597
 397  117.5408
 398  90.54187
 399  113.898
 400  79.67669
 401  76.2681
 402  122.4162
 403  94.88104
 404  84.40959
 405  224.3419
 406  132.221
 407  17.28791
 408  -158.209
 409  99.1122
 410  129.5061
 411  35.7769
 412  87.03147
 413  109.1894
 414  44.41245
 415  -107.9364
 416  -168.0081
 417  -18.91935
 418  71.27624
 419  117.6473
 420  126.172
 421  90.30013
 422  204.6431
 423  -3.550662
 424  -38.0898
 425  85.79026
 426  171.3105
 427  81.0307
 428  45.56413
 429  100.6466
 430  155.2245
 431  60.66164
 432  73.45823
 433  58.5573
 434  60.0289
 435  112.5807
 436  136.9402
 437  13.96162
 438  163.1273
 439  104.3919
 440  100.8549
 441  -62.15351
 442  -57.11987
 443  102.9724
 444  -115.2145
 445  5.773481
 446  113.513
 447  -19.75421
 448  -121.1145
 449  24.63837
 450  186.788
 451  39.96865
 452  38.86547
 453  17.5672
 454  87.53022
 455  118.9091
 456  100.6088
 457  51.58997
 458  53.71285
 459  140.9694
 460  80.1968
 461  244.6647
 462  132.6173
 463  239.1863
 464  116.8645
 465  64.58405
 466  194.4969
 467  86.63499
 468  73.73608
 469  81.16246
 470  -88.88649
 471  -67.75504
 472  66.17914
 473  143.4346
 474  178.1891
 475  91.89516
 476  -19.50229
 477  15.04053
 478  107.8047
 479  216.9998
 480  61.62274
 481  -71.43725
 482  -81.14417
 483  57.55268
 484  10.13374
 485  -62.3137
 486  -24.50581
 487  76.48804
 488  129.1946
 489  97.74233
 490  184.0808
 491  300.2748
 492  219.0263
 493  59.771
 494  250.9157
 495  283.867
 496  143.4686
 497  83.60845
 498  120.9917
 499  204.6438
 500  35.54895
 501  225.7683
 502  336.328
 503  278.4572
 504  203.6517
 505  345.0578
 506  332.1032
 507  258.5923
 508  344.9336
 509  445.8762
 510  586.334
 511  755.1467
