# Input file       =  1187848054.111043_cleaned.dat
# Candidate        =  PSR_0332+5434
# Telescope        =  AR
# Epoch_topo       =  57992.241158692625
# Epoch_bary       =  N/A
# T_sample         =  0.002
# Data Folded      =  7340032
# Data Avg         =  0.0108019714004914
# Data StdDev      =  1.00004312261911 
# Profile Bins     =  512
# Profile Avg      =  154.819640374935 
# Profile StdDev   =  119.738199578889 
# Reduced chi-sqr  =  1.387
# Prob(Noise)      <  1.44e-08   (~5.5 sigma)
# P_topo (ms)      =  714.463685256953  +/- 0.000267
# P'_topo (s/s)    =  -0                +/- 1.41e-10
# P''_topo (s/s^2) =  0                 +/- 6.22e-14
# P_bary (ms)      =  N/A
# P'_bary (s/s)    =  N/A
# P''_bary (s/s^2) =  N/A
# P_orb (s)        =  N/A
# asin(i)/c (s)    =  N/A
# eccentricity     =  N/A
# w (rad)          =  N/A
# T_peri           =  N/A
######################################################
   0  848.8834
   1  766.0447
   2  640.2648
   3  410.7789
   4  366.0813
   5  193.2671
   6  119.5241
   7  120.3599
   8  165.166
   9  24.30064
  10  153.3279
  11  211.7222
  12  219.4881
  13  170.0317
  14  76.96198
  15  144.6754
  16  229.6464
  17  162.3511
  18  147.1263
  19  -10.38617
  20  -52.8195
  21  62.66182
  22  266.2132
  23  179.705
  24  117.6679
  25  190.8176
  26  248.8763
  27  121.6392
  28  214.6193
  29  173.7431
  30  0.03217802
  31  44.42542
  32  216.1506
  33  166.3875
  34  157.3533
  35  182.539
  36  228.6698
  37  104.8967
  38  36.35712
  39  60.29377
  40  77.965
  41  177.8892
  42  264.5775
  43  178.088
  44  60.09432
  45  42.44479
  46  76.71526
  47  19.96662
  48  107.2548
  49  85.21281
  50  148.5415
  51  151.3057
  52  147.4785
  53  181.8311
  54  167.4933
  55  92.17175
  56  71.38368
  57  256.6122
  58  194.8551
  59  305.8558
  60  149.0265
  61  234.826
  62  158.6871
  63  61.86773
  64  52.03152
  65  -3.735846
  66  242.2524
  67  257.1669
  68  232.9327
  69  283.1977
  70  193.7079
  71  197.8508
  72  52.46796
  73  81.46535
  74  222.149
  75  264.8759
  76  177.5869
  77  264.5636
  78  174.2403
  79  115.5983
  80  96.80252
  81  215.7516
  82  189.4873
  83  120.3459
  84  182.1013
  85  249.708
  86  144.4033
  87  225.1605
  88  37.50963
  89  4.766198
  90  126.3659
  91  152.1458
  92  80.95899
  93  119.0408
  94  216.0675
  95  236.6766
  96  286.3069
  97  147.0562
  98  163.3202
  99  120.732
 100  204.4578
 101  127.2293
 102  81.18812
 103  215.0509
 104  157.7065
 105  101.2235
 106  36.2292
 107  -15.00539
 108  77.10784
 109  102.9678
 110  79.53898
 111  204.334
 112  212.7007
 113  76.82488
 114  187.5088
 115  266.1027
 116  246.7335
 117  137.5204
 118  205.8546
 119  222.4731
 120  168.5549
 121  18.71413
 122  76.75009
 123  81.40893
 124  135.2857
 125  243.4177
 126  173.9108
 127  306.9286
 128  186.4417
 129  115.219
 130  186.4949
 131  303.0396
 132  237.8881
 133  199.1695
 134  304.866
 135  191.1257
 136  227.4966
 137  322.1353
 138  267.7498
 139  130.1567
 140  131.7676
 141  308.0887
 142  159.3969
 143  191.9751
 144  303.6789
 145  147.9739
 146  166.976
 147  151.7477
 148  228.1143
 149  268.7639
 150  253.9429
 151  225.4957
 152  231.0499
 153  269.0253
 154  186.2948
 155  181.7541
 156  129.9995
 157  197.9266
 158  151.6189
 159  122.1965
 160  124.6167
 161  295.4767
 162  246.4657
 163  190.2453
 164  207.9742
 165  98.71487
 166  139.313
 167  222.9219
 168  306.2188
 169  184.9424
 170  59.25673
 171  130.319
 172  71.95849
 173  172.1804
 174  155.9379
 175  247.0347
 176  113.4259
 177  176.7027
 178  133.917
 179  147.9976
 180  158.3363
 181  213.1937
 182  192.3987
 183  323.3468
 184  254.4068
 185  238.7162
 186  217.6098
 187  127.8782
 188  25.96204
 189  195.1947
 190  140.7098
 191  149.3208
 192  206.1365
 193  203.4879
 194  184.0686
 195  27.57793
 196  114.0175
 197  228.039
 198  156.9532
 199  75.94074
 200  143.5523
 201  149.3508
 202  283.177
 203  269.9924
 204  228.2818
 205  153.9005
 206  97.55777
 207  80.35422
 208  241.2195
 209  264.8091
 210  285.3466
 211  194.4347
 212  240.0323
 213  316.8274
 214  153.4828
 215  -25.69708
 216  161.5939
 217  252.91
 218  168.0553
 219  129.3278
 220  99.61186
 221  179.4712
 222  231.853
 223  267.3029
 224  195.5551
 225  190.7905
 226  126.351
 227  93.32652
 228  200.7008
 229  208.1988
 230  245.6366
 231  102.6844
 232  -50.47612
 233  -40.49889
 234  107.36
 235  190.356
 236  72.7551
 237  159.3954
 238  110.6541
 239  52.64061
 240  30.81836
 241  7.818545
 242  51.81414
 243  -40.6137
 244  -18.37569
 245  114.0303
 246  -56.02426
 247  3.225077
 248  19.57148
 249  57.46357
 250  50.22555
 251  100.7708
 252  52.78782
 253  76.49106
 254  234.5894
 255  173.5585
 256  92.76356
 257  125.2041
 258  81.7083
 259  21.99181
 260  -6.134
 261  107.815
 262  71.46437
 263  120.3928
 264  144.3709
 265  202.4155
 266  109.7182
 267  -13.49891
 268  33.77345
 269  90.50025
 270  139.6425
 271  75.58716
 272  134.7423
 273  213.2397
 274  102.3371
 275  122.1975
 276  210.1147
 277  236.3983
 278  228.1044
 279  83.12855
 280  208.2742
 281  155.4234
 282  82.42422
 283  138.3961
 284  83.51058
 285  212.3307
 286  228.0321
 287  228.8444
 288  80.17969
 289  131.498
 290  166.7724
 291  271.2938
 292  96.49185
 293  95.27261
 294  109.76
 295  56.34207
 296  110.0025
 297  139.1385
 298  262.8981
 299  252.8634
 300  112.3466
 301  79.47079
 302  134.7386
 303  38.68778
 304  -1.702061
 305  96.01411
 306  185.5544
 307  99.2406
 308  0.5173202
 309  205.6798
 310  181.8842
 311  82.35687
 312  -8.299152
 313  8.896852
 314  26.55806
 315  148.3823
 316  132.5834
 317  101.0458
 318  158.5647
 319  180.6908
 320  98.28526
 321  92.26405
 322  91.88349
 323  10.14944
 324  40.42785
 325  157.1045
 326  172.5312
 327  318.8771
 328  255.9269
 329  319.352
 330  158.0917
 331  110.7802
 332  157.1909
 333  206.2274
 334  83.24808
 335  55.44499
 336  90.85268
 337  301.0511
 338  288.2056
 339  244.5572
 340  238.6023
 341  180.8042
 342  145.8858
 343  151.6235
 344  244.1326
 345  165.5566
 346  258.6786
 347  349.7456
 348  306.3851
 349  327.753
 350  178.9836
 351  134.2625
 352  166.8882
 353  182.6304
 354  183.2899
 355  262.8475
 356  232.0005
 357  187.3921
 358  296.0612
 359  373.485
 360  282.4474
 361  251.9503
 362  375.1612
 363  345.097
 364  318.4136
 365  192.9297
 366  170.8768
 367  158.2128
 368  34.81329
 369  40.92076
 370  186.9087
 371  238.4084
 372  95.22594
 373  95.00574
 374  77.82122
 375  65.23957
 376  -10.03933
 377  73.61174
 378  206.4748
 379  209.7623
 380  215.8809
 381  138.5776
 382  125.8482
 383  141.0432
 384  139.3557
 385  70.28828
 386  94.07383
 387  171.8757
 388  40.66777
 389  -67.96653
 390  118.3412
 391  159.1822
 392  127.4923
 393  180.218
 394  120.8967
 395  109.1379
 396  -11.01705
 397  -110.4164
 398  -41.22873
 399  25.91923
 400  115.0991
 401  29.03924
 402  9.736639
 403  122.928
 404  100.1875
 405  167.7409
 406  119.1328
 407  55.09401
 408  161.1716
 409  168.9754
 410  204.4292
 411  248.7287
 412  104.684
 413  59.1514
 414  31.03705
 415  92.17474
 416  193.0989
 417  344.2587
 418  151.0414
 419  173.8438
 420  111.8093
 421  206.176
 422  170.2623
 423  133.1861
 424  296.8129
 425  77.81013
 426  171.2045
 427  214.4328
 428  196.7566
 429  114.3221
 430  83.05262
 431  197.4383
 432  209.1697
 433  102.7092
 434  235.064
 435  143.731
 436  126.7119
 437  98.08971
 438  132.3699
 439  113.4783
 440  16.26579
 441  168.2798
 442  213.2901
 443  147.5232
 444  91.40861
 445  78.81617
 446  186.3956
 447  201.5074
 448  59.12786
 449  111.6899
 450  175.1087
 451  46.37934
 452  103.6484
 453  -56.87845
 454  -44.04131
 455  99.8297
 456  165.1221
 457  178.2144
 458  226.1821
 459  213.5225
 460  83.64138
 461  -31.9631
 462  209.5463
 463  149.4948
 464  89.20126
 465  48.99069
 466  123.7779
 467  -15.9887
 468  -39.85172
 469  81.64233
 470  125.1922
 471  17.1763
 472  -68.74438
 473  46.11422
 474  26.80077
 475  156.7691
 476  124.5107
 477  71.16283
 478  79.45586
 479  152.257
 480  195.6889
 481  158.9111
 482  115.5301
 483  121.7617
 484  77.79097
 485  107.6601
 486  110.8117
 487  154.0693
 488  180.408
 489  333.2456
 490  204.2375
 491  258.649
 492  209.1017
 493  293.3367
 494  252.5486
 495  151.732
 496  51.40188
 497  137.4231
 498  73.59575
 499  -49.25969
 500  194.5526
 501  310.8852
 502  256.148
 503  193.0184
 504  221.9832
 505  175.745
 506  205.1413
 507  224.5097
 508  251.3697
 509  401.1906
 510  327.5512
 511  715.809
