# Input file       =  1187559996.112759_cleaned.dat
# Candidate        =  PSR_0332+5434
# Telescope        =  AR
# Epoch_topo       =  57988.907154082859
# Epoch_bary       =  N/A
# T_sample         =  0.002
# Data Folded      =  7208960
# Data Avg         =  0.0160260265108533
# Data StdDev      =  1.0002531859239  
# Profile Bins     =  512
# Profile Avg      =  225.651456310142 
# Profile StdDev   =  118.689218626584 
# Reduced chi-sqr  =  1.368
# Prob(Noise)      <  5.57e-08   (~5.3 sigma)
# P_topo (ms)      =  714.463494021112  +/- 0.000269
# P'_topo (s/s)    =  -0                +/- 1.44e-10
# P''_topo (s/s^2) =  0                 +/- 6.49e-14
# P_bary (ms)      =  N/A
# P'_bary (s/s)    =  N/A
# P''_bary (s/s^2) =  N/A
# P_orb (s)        =  N/A
# asin(i)/c (s)    =  N/A
# eccentricity     =  N/A
# w (rad)          =  N/A
# T_peri           =  N/A
######################################################
   0  761.0944
   1  778.8749
   2  771.7047
   3  530.2471
   4  304.8454
   5  346.0946
   6  340.2762
   7  150.7071
   8  219.4481
   9  212.2419
  10  166.0518
  11  297.7696
  12  256.1243
  13  342.5432
  14  310.0527
  15  276.3626
  16  291.2209
  17  265.2513
  18  273.1425
  19  257.426
  20  225.7854
  21  207.6969
  22  128.504
  23  203.2118
  24  169.0455
  25  176.9575
  26  144.4352
  27  97.4044
  28  37.07585
  29  271.9945
  30  259.1336
  31  39.16634
  32  197.2637
  33  343.9059
  34  159.083
  35  222.7078
  36  239.4661
  37  123.2816
  38  132.6889
  39  178.7576
  40  214.8103
  41  189.4965
  42  282.704
  43  239.5257
  44  152.3138
  45  209.0877
  46  354.9331
  47  293.5512
  48  220.3486
  49  263.34
  50  184.6643
  51  113.6676
  52  68.93456
  53  51.89017
  54  94.82034
  55  104.968
  56  207.335
  57  207.4131
  58  243.9906
  59  204.1388
  60  257.4452
  61  259.6505
  62  249.6903
  63  249.4941
  64  192.7759
  65  286.5783
  66  199.3949
  67  155.7423
  68  305.9818
  69  280.4485
  70  198.9665
  71  219.6344
  72  205.1668
  73  193.941
  74  143.2465
  75  361.5669
  76  353.8125
  77  359.2281
  78  288.6473
  79  381.7246
  80  347.1533
  81  327.984
  82  217.1863
  83  144.9103
  84  263.6047
  85  248.7479
  86  241.9942
  87  176.401
  88  172.6208
  89  208.4728
  90  201.7115
  91  264.8519
  92  224.46
  93  183.1775
  94  165.69
  95  313.4318
  96  174.9342
  97  243.7373
  98  275.0793
  99  302.8161
 100  441.8232
 101  330.2409
 102  159.9354
 103  139.1736
 104  135.1938
 105  210.9966
 106  276.6684
 107  121.7993
 108  195.9354
 109  257.465
 110  279.8028
 111  170.4754
 112  168.7216
 113  246.5875
 114  232.8175
 115  208.2605
 116  171.3611
 117  193.281
 118  236.4816
 119  237.9014
 120  164.8013
 121  233.9384
 122  244.5063
 123  176.6327
 124  290.2815
 125  220.8686
 126  79.55076
 127  228.5845
 128  301.0783
 129  319.086
 130  155.2167
 131  139.0998
 132  209.1778
 133  142.8759
 134  164.9331
 135  319.5563
 136  359.6865
 137  421.4277
 138  235.6287
 139  267.8826
 140  287.5947
 141  194.9253
 142  145.0923
 143  147.852
 144  155.16
 145  218.3342
 146  164.8191
 147  160.1355
 148  95.95339
 149  196.1538
 150  186.2079
 151  252.6624
 152  275.9288
 153  293.8484
 154  183.327
 155  172.283
 156  237.254
 157  204.6944
 158  101.0131
 159  133.4141
 160  181.6313
 161  155.2796
 162  115.7413
 163  114.5063
 164  117.396
 165  219.8949
 166  93.08089
 167  142.751
 168  190.529
 169  244.7631
 170  205.9334
 171  180.5576
 172  143.3136
 173  213.2468
 174  263.6032
 175  143.829
 176  105.4222
 177  82.29554
 178  155.3473
 179  297.1207
 180  303.5889
 181  272.7916
 182  145.2256
 183  172.7266
 184  146.3384
 185  97.02955
 186  241.7948
 187  279.0337
 188  232.954
 189  230.7017
 190  240.9729
 191  220.4289
 192  260.9406
 193  177.7261
 194  233.7061
 195  363.278
 196  279.5307
 197  235.5772
 198  244.2108
 199  377.2524
 200  360.7273
 201  340.0181
 202  197.2453
 203  272.8042
 204  378.5527
 205  293.1703
 206  241.1124
 207  316.2457
 208  292.6091
 209  216.1634
 210  127.2929
 211  337.1759
 212  313.0637
 213  334.5466
 214  392.3818
 215  351.2921
 216  279.4074
 217  389.5538
 218  322.8571
 219  321.196
 220  281.0274
 221  274.7697
 222  380.219
 223  299.8255
 224  346.2126
 225  299.5616
 226  281.1006
 227  257.0086
 228  207.0699
 229  177.7142
 230  264.5934
 231  327.8504
 232  162.5072
 233  144.8843
 234  244.6217
 235  244.5009
 236  116.0351
 237  338.2975
 238  138.4108
 239  95.02638
 240  190.6898
 241  202.3522
 242  272.4143
 243  225.038
 244  178.489
 245  156.6132
 246  195.8974
 247  329.3785
 248  396.4499
 249  239.5679
 250  325.1291
 251  304.6507
 252  361.7458
 253  275.5226
 254  219.4424
 255  216.2276
 256  246.7757
 257  314.8151
 258  172.4739
 259  39.18961
 260  130.0972
 261  107.9303
 262  173.4404
 263  197.2627
 264  219.6446
 265  231.8809
 266  284.6052
 267  181.4183
 268  27.20016
 269  76.0407
 270  215.8532
 271  322.5992
 272  317.3099
 273  249.475
 274  314.4427
 275  261.9953
 276  206.7457
 277  196.4626
 278  214.3023
 279  209.1466
 280  81.56344
 281  203.1535
 282  210.3148
 283  76.87676
 284  61.01396
 285  201.9454
 286  284.126
 287  245.9913
 288  188.9966
 289  223.4205
 290  337.6204
 291  352.6151
 292  224.447
 293  188.8217
 294  213.2502
 295  196.6373
 296  169.3761
 297  114.5844
 298  96.21617
 299  66.40577
 300  19.25373
 301  85.27157
 302  218.9318
 303  146.5393
 304  192.7334
 305  176.406
 306  211.1655
 307  80.13242
 308  162.6364
 309  88.13593
 310  128.845
 311  218.2259
 312  319.8925
 313  289.4143
 314  290.4485
 315  249.0901
 316  249.7719
 317  272.2778
 318  318.8416
 319  277.5539
 320  313.5615
 321  215.363
 322  144.0868
 323  184.7801
 324  213.2711
 325  228.1062
 326  197.1812
 327  228.7587
 328  267.8629
 329  270.7193
 330  250.4168
 331  247.9279
 332  195.738
 333  212.6823
 334  94.52586
 335  246.7556
 336  248.5079
 337  286.8306
 338  390.9097
 339  361.7681
 340  228.2802
 341  178.0829
 342  213.5701
 343  176.8283
 344  82.23631
 345  61.89171
 346  214.9059
 347  278.2115
 348  207.4916
 349  212.5251
 350  211.4413
 351  235.8734
 352  201.0647
 353  266.0956
 354  254.5458
 355  186.8198
 356  219.4673
 357  230.0347
 358  272.2506
 359  223.3732
 360  163.5233
 361  88.83125
 362  108.8651
 363  307.4118
 364  315.0087
 365  253.9125
 366  158.965
 367  244.4369
 368  236.0967
 369  241.1307
 370  185.1333
 371  328.8578
 372  247.577
 373  136.948
 374  151.6379
 375  157.657
 376  53.50381
 377  121.233
 378  243.5557
 379  240.3409
 380  104.5577
 381  41.53394
 382  131.238
 383  152.8857
 384  143.9935
 385  219.7695
 386  281.2354
 387  253.0918
 388  145.4565
 389  200.353
 390  208.7796
 391  98.69146
 392  141.0468
 393  204.4508
 394  198.0149
 395  323.3709
 396  365.4849
 397  309.9959
 398  223.9854
 399  206.449
 400  237.8372
 401  203.4145
 402  198.4577
 403  159.5853
 404  45.28426
 405  170.8322
 406  268.7567
 407  265.6476
 408  264.9053
 409  167.0461
 410  207.1595
 411  232.2126
 412  201.3936
 413  219.5737
 414  149.6858
 415  327.783
 416  309.3393
 417  318.54
 418  277.1484
 419  301.9897
 420  268.2954
 421  328.252
 422  184.1658
 423  82.34942
 424  116.2474
 425  136.1343
 426  63.84485
 427  247.9613
 428  347.1661
 429  268.1468
 430  230.3083
 431  148.8839
 432  210.7879
 433  196.8491
 434  177.268
 435  112.9326
 436  135.8993
 437  118.1011
 438  156.8735
 439  181.9911
 440  222.8703
 441  138.8306
 442  191.6555
 443  123.431
 444  248.1763
 445  198.041
 446  194.2039
 447  270.652
 448  268.1833
 449  244.7619
 450  59.93904
 451  170.9806
 452  257.8859
 453  352.3911
 454  302.5746
 455  255.6103
 456  144.7028
 457  144.0154
 458  117.856
 459  82.30184
 460  45.24675
 461  157.4502
 462  171.3751
 463  267.6559
 464  101.0741
 465  25.23787
 466  230.2049
 467  158.4609
 468  70.76337
 469  -119.9434
 470  85.70758
 471  232.6082
 472  170.7868
 473  153.5608
 474  158.921
 475  196.1687
 476  272.3127
 477  184.2916
 478  168.7161
 479  290.186
 480  344.3511
 481  249.0436
 482  288.2145
 483  246.6372
 484  236.2068
 485  241.9053
 486  33.18016
 487  226.559
 488  260.2643
 489  315.9874
 490  317.3437
 491  193.828
 492  132.2625
 493  183.6603
 494  305.5622
 495  304.4474
 496  307.2994
 497  283.2882
 498  286.5334
 499  292.6797
 500  201.0185
 501  301.187
 502  351.42
 503  381.9607
 504  237.7571
 505  240.5134
 506  314.3354
 507  385.5195
 508  502.645
 509  621.4597
 510  790.0593
 511  849.9307
