# Input file       =  1187072595.109421_cleaned.dat
# Candidate        =  PSR_0332+5434
# Telescope        =  AR
# Epoch_topo       =  57983.265938766446
# Epoch_bary       =  N/A
# T_sample         =  0.002
# Data Folded      =  7340032
# Data Avg         =  0.0143408627426716
# Data StdDev      =  1.00004435282392 
# Profile Bins     =  512
# Profile Avg      =  205.63163905308  
# Profile StdDev   =  119.738346875046 
# Reduced chi-sqr  =  1.294
# Prob(Noise)      <  7.53e-06   (~4.3 sigma)
# P_topo (ms)      =  714.464544033605  +/- 0.000185
# P'_topo (s/s)    =  -0                +/- 9.77e-11
# P''_topo (s/s^2) =  0                 +/- 4.31e-14
# P_bary (ms)      =  N/A
# P'_bary (s/s)    =  N/A
# P''_bary (s/s^2) =  N/A
# P_orb (s)        =  N/A
# asin(i)/c (s)    =  N/A
# eccentricity     =  N/A
# w (rad)          =  N/A
# T_peri           =  N/A
######################################################
   0  677.8969
   1  765.5838
   2  634.1693
   3  334.7503
   4  242.1089
   5  241.9353
   6  199.007
   7  270.3236
   8  209.4442
   9  246.4594
  10  226.6204
  11  241.5817
  12  332.6291
  13  280.3181
  14  241.6165
  15  284.2216
  16  262.8443
  17  302.3211
  18  208.3422
  19  230.8871
  20  289.4124
  21  133.233
  22  241.4849
  23  342.4649
  24  331.1436
  25  321.6222
  26  197.0736
  27  168.6128
  28  190.9705
  29  9.319488
  30  99.39349
  31  80.94117
  32  162.9132
  33  199.771
  34  160.4262
  35  239.9881
  36  123.7518
  37  122.4907
  38  137.2347
  39  155.1325
  40  123.5528
  41  76.60771
  42  154.0807
  43  156.0342
  44  147.8213
  45  188.1009
  46  71.41683
  47  92.92854
  48  123.2045
  49  104.9606
  50  113.3732
  51  194.2534
  52  152.2772
  53  79.34492
  54  160.1041
  55  116.4093
  56  156.6669
  57  185.9134
  58  183.4246
  59  50.02059
  60  203.5788
  61  276.6732
  62  284.2222
  63  174.7102
  64  44.96215
  65  97.13498
  66  51.93112
  67  26.11651
  68  142.7314
  69  210.5997
  70  -36.71236
  71  68.50759
  72  216.6999
  73  83.82449
  74  -6.297706
  75  41.36991
  76  149.3506
  77  194.5261
  78  247.4956
  79  225.0003
  80  116.7587
  81  126.7111
  82  -18.96159
  83  112.5804
  84  123.4441
  85  142.2727
  86  150.2723
  87  95.28381
  88  155.963
  89  92.45393
  90  57.88466
  91  182.9573
  92  234.5615
  93  172.9253
  94  47.45642
  95  -49.19295
  96  -11.02366
  97  34.56517
  98  118.7269
  99  173.3302
 100  124.4452
 101  188.648
 102  91.53326
 103  55.07984
 104  106.7569
 105  34.89131
 106  38.24396
 107  70.74986
 108  194.8931
 109  91.9009
 110  129.4964
 111  147.3752
 112  205.1227
 113  198.8764
 114  142.3351
 115  125.9353
 116  157.6587
 117  62.23952
 118  111.83
 119  213.7526
 120  107.1978
 121  77.75682
 122  105.1546
 123  161.2466
 124  213.9636
 125  222.4188
 126  183.6495
 127  150.8571
 128  181.9309
 129  201.5988
 130  110.4251
 131  164.7864
 132  207.36
 133  196.6157
 134  86.91299
 135  10.8344
 136  91.65807
 137  287.4685
 138  228.32
 139  265.2723
 140  223.7291
 141  254.9393
 142  237.199
 143  124.5891
 144  145.0045
 145  281.17
 146  223.6235
 147  176.7967
 148  182.0453
 149  231.4967
 150  164.8786
 151  66.16996
 152  197.3773
 153  252.191
 154  181.9622
 155  247.9836
 156  396.8393
 157  284.5046
 158  105.5521
 159  164.8235
 160  260.0231
 161  326.4172
 162  329.248
 163  374.73
 164  210.5858
 165  178.398
 166  213.6057
 167  180.6747
 168  186.417
 169  271.1171
 170  275.6427
 171  369.9355
 172  315.2605
 173  200.3821
 174  154.509
 175  159.0474
 176  145.1515
 177  283.1292
 178  276.3574
 179  120.0721
 180  42.39386
 181  122.445
 182  203.7753
 183  13.16958
 184  73.43022
 185  226.9123
 186  193.7023
 187  242.0361
 188  290.2059
 189  114.4986
 190  286.2956
 191  249.9253
 192  61.01216
 193  116.5253
 194  218.409
 195  295.1509
 196  217.3859
 197  277.3624
 198  369.355
 199  159.4566
 200  118.5471
 201  153.304
 202  62.60842
 203  64.23002
 204  24.13457
 205  60.27982
 206  191.4371
 207  310.9261
 208  170.7252
 209  153.2695
 210  219.8354
 211  170.0918
 212  130.8132
 213  90.76185
 214  282.5075
 215  235.5777
 216  291.5344
 217  262.0775
 218  302.4252
 219  295.6718
 220  344.1338
 221  350.1078
 222  334.2357
 223  264.6949
 224  264.5665
 225  296.723
 226  251.7198
 227  227.0703
 228  197.7667
 229  275.7325
 230  219.7088
 231  302.0645
 232  392.8164
 233  372.3686
 234  386.7099
 235  243.8495
 236  223.5647
 237  372.4969
 238  273.5209
 239  239.7262
 240  181.7953
 241  212.3652
 242  226.4411
 243  216.6445
 244  231.1869
 245  154.2445
 246  112.7341
 247  154.3049
 248  185.9145
 249  222.0644
 250  189.2291
 251  141.2785
 252  206.8927
 253  280.5554
 254  266.1989
 255  382.9438
 256  221.9259
 257  205.6619
 258  318.4654
 259  219.9962
 260  126.691
 261  275.9503
 262  296.8036
 263  319.4971
 264  248.7238
 265  264.7324
 266  194.2657
 267  225.2629
 268  263.6455
 269  227.4791
 270  221.9022
 271  292.3488
 272  277.7886
 273  143.2486
 274  186.4072
 275  260.4354
 276  239.4642
 277  170.0871
 278  130.5286
 279  191.5015
 280  186.484
 281  336.01
 282  359.3866
 283  237.3638
 284  96.27156
 285  170.5732
 286  177.9559
 287  221.6372
 288  343.5382
 289  274.3943
 290  88.77228
 291  101.1676
 292  298.1396
 293  351.1743
 294  178.5042
 295  250.7094
 296  249.4973
 297  180.6498
 298  277.8792
 299  316.8881
 300  326.0365
 301  346.3638
 302  236.5349
 303  258.7393
 304  140.7468
 305  120.188
 306  205.658
 307  241.0644
 308  375.8634
 309  310.6121
 310  233.4566
 311  279.5494
 312  172.3792
 313  251.2501
 314  216.5813
 315  368.865
 316  425.4061
 317  309.8701
 318  135.7035
 319  152.0327
 320  152.5922
 321  149.7374
 322  176.3882
 323  272.0691
 324  109.6163
 325  45.59543
 326  276.0291
 327  125.3534
 328  62.8441
 329  98.20962
 330  76.99308
 331  116.1408
 332  208.1284
 333  327.1733
 334  310.136
 335  93.44659
 336  95.28813
 337  181.814
 338  221.0595
 339  221.1445
 340  92.1997
 341  154.9234
 342  130.9209
 343  133.2138
 344  193.0005
 345  235.7765
 346  285.8826
 347  285.6788
 348  132.0549
 349  123.4291
 350  184.1512
 351  272.0335
 352  204.5135
 353  209.943
 354  174.0343
 355  182.4789
 356  298.8422
 357  212.5162
 358  224.1955
 359  92.53822
 360  209.9061
 361  273.9189
 362  251.0384
 363  239.2112
 364  214.8592
 365  177.1362
 366  163.4396
 367  221.8062
 368  190.3316
 369  94.91722
 370  190.1378
 371  209.4476
 372  217.7883
 373  298.4596
 374  289.8341
 375  293.1284
 376  290.1226
 377  262.7953
 378  274.2802
 379  223.1633
 380  227.0921
 381  263.1547
 382  179.4077
 383  161.3234
 384  251.2633
 385  228.6134
 386  324.9796
 387  355.156
 388  378.0032
 389  166.2416
 390  143.9024
 391  282.1121
 392  327.5919
 393  272.3676
 394  177.9258
 395  161.1261
 396  155.3415
 397  182.236
 398  57.18805
 399  205.5914
 400  235.4274
 401  229.9225
 402  223.6685
 403  135.4104
 404  157.9504
 405  240.2914
 406  30.68367
 407  111.4295
 408  190.3039
 409  246.6867
 410  193.8382
 411  308.7231
 412  269.9064
 413  85.57683
 414  -73.18977
 415  24.06854
 416  208.2249
 417  242.2701
 418  131.8734
 419  72.30859
 420  126.781
 421  226.6865
 422  146.8127
 423  173.0736
 424  125.2817
 425  184.0382
 426  238.2902
 427  196.1181
 428  125.9456
 429  272.3468
 430  226.9699
 431  145.4359
 432  188.8318
 433  227.572
 434  41.02719
 435  201.8347
 436  366.1058
 437  292.4163
 438  256.6726
 439  222.5238
 440  245.6922
 441  231.7048
 442  299.2679
 443  293.6981
 444  203.4783
 445  285.0659
 446  352.4808
 447  192.4637
 448  254.1127
 449  336.0986
 450  443.3534
 451  285.9238
 452  313.5714
 453  308.2747
 454  270.3195
 455  359.5973
 456  382.7867
 457  276.1984
 458  290.6892
 459  257.235
 460  230.5963
 461  263.5587
 462  196.7144
 463  95.78364
 464  126.4996
 465  276.4136
 466  300.6518
 467  216.1244
 468  291.756
 469  285.5137
 470  227.926
 471  228.8749
 472  195.1249
 473  277.758
 474  191.4966
 475  244.115
 476  471.7115
 477  320.2751
 478  87.29729
 479  85.96184
 480  183.3202
 481  91.80264
 482  167.3684
 483  165.2496
 484  224.1998
 485  102.678
 486  145.1897
 487  204.7501
 488  176.1102
 489  98.5788
 490  42.55089
 491  258.0822
 492  191.468
 493  202.2416
 494  297.6175
 495  321.8613
 496  121.57
 497  99.11679
 498  119.3298
 499  192.8321
 500  131.8598
 501  161.1617
 502  331.1236
 503  340.5281
 504  290.8862
 505  182.4667
 506  176.197
 507  233.3295
 508  278.8673
 509  399.2443
 510  595.6396
 511  645.0574
