# Input file       =  1187503992.109945_cleaned.dat
# Candidate        =  PSR_0332+5434
# Telescope        =  AR
# Epoch_topo       =  57988.258959605846
# Epoch_bary       =  N/A
# T_sample         =  0.002
# Data Folded      =  7340032
# Data Avg         =  0.00841313800774841
# Data StdDev      =  1.00002108701649 
# Profile Bins     =  512
# Profile Avg      =  120.564776056315 
# Profile StdDev   =  119.735561189278 
# Reduced chi-sqr  =  1.412
# Prob(Noise)      <  2.14e-09   (~5.9 sigma)
# P_topo (ms)      =  714.463906253673  +/- 0.000206
# P'_topo (s/s)    =  -0                +/- 1.09e-10
# P''_topo (s/s^2) =  0                 +/- 4.8e-14
# P_bary (ms)      =  N/A
# P'_bary (s/s)    =  N/A
# P''_bary (s/s^2) =  N/A
# P_orb (s)        =  N/A
# asin(i)/c (s)    =  N/A
# eccentricity     =  N/A
# w (rad)          =  N/A
# T_peri           =  N/A
######################################################
   0  737.4496
   1  703.793
   2  601.6058
   3  414.9742
   4  173.9449
   5  -86.22792
   6  -35.05076
   7  41.23415
   8  69.80477
   9  7.893213
  10  90.02773
  11  187.6901
  12  79.74155
  13  179.7595
  14  273.1885
  15  330.7576
  16  211.177
  17  118.2306
  18  177.0457
  19  137.599
  20  130.3279
  21  56.93815
  22  13.81339
  23  135.1845
  24  235.4777
  25  204.6856
  26  200.7012
  27  230.8126
  28  79.7544
  29  163.5871
  30  186.2361
  31  142.4097
  32  158.7318
  33  140.4302
  34  -29.50625
  35  64.006
  36  79.76968
  37  89.82233
  38  120.1871
  39  75.49114
  40  100.72
  41  28.38977
  42  117.2268
  43  144.0178
  44  11.55888
  45  42.74184
  46  244.9716
  47  275.9856
  48  160.5663
  49  155.9646
  50  29.35861
  51  21.76666
  52  132.3312
  53  75.94218
  54  143.5378
  55  118.5202
  56  259.4921
  57  96.77641
  58  34.67466
  59  185.5475
  60  247.7024
  61  150.076
  62  -5.491891
  63  -37.42496
  64  64.40324
  65  88.32545
  66  137.7338
  67  133.5693
  68  8.3131
  69  -2.470397
  70  130.7126
  71  209.1631
  72  256.3017
  73  104.2957
  74  72.33257
  75  0.6650989
  76  36.99633
  77  233.6498
  78  136.5111
  79  -16.07879
  80  118.253
  81  172.8499
  82  65.7726
  83  136.4449
  84  192.3558
  85  120.0179
  86  119.2286
  87  220.2547
  88  160.5242
  89  144.7495
  90  158.904
  91  166.3424
  92  19.86001
  93  -53.0231
  94  72.73399
  95  150.5253
  96  162.2444
  97  -60.9913
  98  -20.3316
  99  7.145423
 100  139.1824
 101  201.9289
 102  110.8084
 103  58.51092
 104  72.00531
 105  3.880823
 106  1.179941
 107  8.699059
 108  91.57379
 109  161.189
 110  79.60699
 111  -43.72963
 112  16.23321
 113  218.6812
 114  416.9944
 115  214.3071
 116  98.78082
 117  146.1755
 118  77.37187
 119  21.21066
 120  -31.75784
 121  73.66502
 122  146.9574
 123  75.27763
 124  76.87308
 125  184.1396
 126  186.8177
 127  211.7705
 128  110.169
 129  180.1146
 130  174.9309
 131  104.8585
 132  126.3402
 133  165.2374
 134  68.2972
 135  45.77469
 136  60.40384
 137  -69.72062
 138  109.9131
 139  158.8377
 140  305.4388
 141  275.1768
 142  307.0887
 143  160.478
 144  44.35284
 145  58.41118
 146  80.78407
 147  186.2775
 148  220.9553
 149  -20.43177
 150  17.43934
 151  6.63087
 152  -45.24503
 153  87.36785
 154  0.1536339
 155  82.91233
 156  102.3909
 157  81.58929
 158  30.92844
 159  27.72355
 160  -48.8181
 161  85.47171
 162  26.71848
 163  37.75069
 164  111.7757
 165  -2.763914
 166  102.6522
 167  168.2455
 168  222.5752
 169  151.0472
 170  88.76373
 171  189.936
 172  230.7205
 173  215.3259
 174  202.4312
 175  270.5548
 176  192.9452
 177  66.20727
 178  48.87507
 179  111.9853
 180  233.5555
 181  157.1113
 182  121.1019
 183  219.4996
 184  175.3794
 185  154.5845
 186  171.7522
 187  194.9544
 188  122.8324
 189  311.7941
 190  312.4266
 191  225.0609
 192  194.2768
 193  154.4451
 194  173.1854
 195  257.0095
 196  284.2034
 197  145.7912
 198  30.82527
 199  85.35542
 200  170.1208
 201  91.45131
 202  75.4887
 203  33.15435
 204  2.99191
 205  5.129033
 206  113.1933
 207  81.90961
 208  56.51167
 209  116.1242
 210  115.0973
 211  74.36419
 212  63.90412
 213  27.08063
 214  20.37396
 215  59.65989
 216  143.262
 217  137.6945
 218  138.6077
 219  113.8053
 220  183.207
 221  176.0573
 222  67.47781
 223  88.87479
 224  179.7032
 225  192.8521
 226  157.7893
 227  162.367
 228  65.77634
 229  162.3145
 230  119.5501
 231  -11.72453
 232  103.7309
 233  146.7857
 234  208.004
 235  191.0503
 236  62.71968
 237  81.85559
 238  37.31461
 239  101.7074
 240  132.0005
 241  128.2936
 242  188.9489
 243  108.1144
 244  21.58785
 245  84.56038
 246  128.6392
 247  -32.51559
 248  -36.03843
 249  8.71175
 250  -40.78968
 251  9.356583
 252  111.3255
 253  53.43651
 254  96.08884
 255  202.2495
 256  263.9725
 257  46.1989
 258  -18.89284
 259  133.429
 260  220.3663
 261  183.3411
 262  79.72748
 263  -8.997768
 264  79.60931
 265  139.758
 266  117.2649
 267  79.19312
 268  13.82964
 269  113.9891
 270  136.4597
 271  60.12086
 272  91.87861
 273  148.7558
 274  140.5511
 275  49.52399
 276  50.30674
 277  157.8732
 278  150.4187
 279  154.9284
 280  177.681
 281  114.2152
 282  167.0316
 283  181.0924
 284  134.1498
 285  38.13188
 286  151.8746
 287  192.6858
 288  231.0164
 289  100.5581
 290  89.72783
 291  175.2334
 292  114.9276
 293  26.79991
 294  -113.2339
 295  -19.67524
 296  122.6992
 297  74.14082
 298  37.88493
 299  136.9019
 300  172.8127
 301  98.13362
 302  49.85269
 303  190.973
 304  73.80017
 305  -79.31049
 306  122.967
 307  131.2099
 308  95.4731
 309  96.33061
 310  99.05854
 311  57.2607
 312  142.3971
 313  129.8731
 314  2.799603
 315  36.12467
 316  114.8836
 317  94.82389
 318  60.69473
 319  150.5706
 320  149.8934
 321  88.47226
 322  108.9573
 323  95.94286
 324  121.6268
 325  112.9297
 326  10.7273
 327  97.31907
 328  95.61375
 329  31.64966
 330  -6.410085
 331  41.5957
 332  27.96023
 333  171.523
 334  63.02398
 335  44.60631
 336  21.10828
 337  -33.43278
 338  110.5647
 339  146.5015
 340  161.921
 341  102.7393
 342  -10.53244
 343  -14.79252
 344  32.61791
 345  9.71356
 346  -100.129
 347  -61.34614
 348  21.89497
 349  43.65784
 350  -9.248133
 351  149.8959
 352  159.0376
 353  73.98908
 354  18.07462
 355  -59.51887
 356  88.35989
 357  15.37063
 358  84.45959
 359  36.03674
 360  51.40878
 361  114.8336
 362  -87.06821
 363  -108.4126
 364  -21.50995
 365  94.94726
 366  270.2734
 367  12.02553
 368  43.38061
 369  48.2523
 370  79.31333
 371  34.62499
 372  111.1215
 373  87.57849
 374  158.8722
 375  153.1772
 376  107.6306
 377  90.57223
 378  141.9886
 379  179.4079
 380  49.48099
 381  101.8034
 382  83.68656
 383  165.028
 384  103.0173
 385  6.462423
 386  58.25196
 387  39.94781
 388  53.33971
 389  162.9427
 390  207.1633
 391  242.1362
 392  262.9077
 393  59.67914
 394  119.916
 395  175.7955
 396  177.4129
 397  93.35126
 398  66.11662
 399  201.5563
 400  203.2601
 401  38.69064
 402  151.3503
 403  280.5384
 404  238.3251
 405  1.758688
 406  31.9706
 407  58.93018
 408  72.7168
 409  83.71169
 410  120.17
 411  219.6363
 412  237.3762
 413  220.7467
 414  306.1782
 415  312.2779
 416  267.8755
 417  123.2086
 418  91.18932
 419  203.9129
 420  43.11933
 421  144.338
 422  102.9641
 423  108.3725
 424  216.6915
 425  122.1988
 426  92.34139
 427  80.69016
 428  -52.40637
 429  -18.86351
 430  110.7159
 431  240.946
 432  287.8087
 433  176.2053
 434  242.2124
 435  195.7799
 436  151.7181
 437  111.3241
 438  98.43448
 439  246.9152
 440  281.9597
 441  163.9863
 442  46.56044
 443  -71.75746
 444  57.56541
 445  45.46155
 446  -4.177827
 447  131.3244
 448  190.8602
 449  232.6256
 450  280.5606
 451  80.22149
 452  15.49298
 453  262.9388
 454  144.8223
 455  274.2916
 456  91.36744
 457  55.54088
 458  82.99691
 459  170.9639
 460  361.7308
 461  243.4669
 462  85.11934
 463  111.0289
 464  222.2442
 465  162.343
 466  151.9491
 467  138.4765
 468  94.66064
 469  88.91844
 470  210.922
 471  188.2192
 472  180.0003
 473  -11.91516
 474  58.98781
 475  174.7395
 476  231.3756
 477  91.74242
 478  73.21159
 479  208.4672
 480  111.9267
 481  101.1023
 482  240.312
 483  175.4653
 484  139.6205
 485  20.83374
 486  190.3912
 487  285.6421
 488  75.44109
 489  106.2741
 490  105.6159
 491  74.95783
 492  95.67376
 493  254.0819
 494  247.8744
 495  216.3267
 496  194.5721
 497  252.9121
 498  197.7544
 499  124.8758
 500  76.95842
 501  80.27837
 502  88.79684
 503  61.90734
 504  159.1183
 505  189.9867
 506  99.04963
 507  261.603
 508  360.4486
 509  469.1269
 510  596.1313
 511  697.0181
