# Input file       =  1187072595.109421_cleaned.dat
# Candidate        =  PSR_0332+5434
# Telescope        =  AR
# Epoch_topo       =  57983.265938766446
# Epoch_bary       =  N/A
# T_sample         =  0.002
# Data Folded      =  7340032
# Data Avg         =  0.0143408627426716
# Data StdDev      =  1.00004435282392 
# Profile Bins     =  512
# Profile Avg      =  205.631639052452 
# Profile StdDev   =  119.738346875046 
# Reduced chi-sqr  =  1.296
# Prob(Noise)      <  6.74e-06   (~4.4 sigma)
# P_topo (ms)      =  714.464543909844  +/- 0.000194
# P'_topo (s/s)    =  -0                +/- 1.02e-10
# P''_topo (s/s^2) =  0                 +/- 4.51e-14
# P_bary (ms)      =  N/A
# P'_bary (s/s)    =  N/A
# P''_bary (s/s^2) =  N/A
# P_orb (s)        =  N/A
# asin(i)/c (s)    =  N/A
# eccentricity     =  N/A
# w (rad)          =  N/A
# T_peri           =  N/A
######################################################
   0  743.5741
   1  724.7521
   2  473.1207
   3  246.2759
   4  252.2209
   5  216.9173
   6  228.158
   7  243.3918
   8  194.9509
   9  276.4207
  10  202.3331
  11  313.3401
  12  308.6484
  13  236.0918
  14  282.6112
  15  251.8275
  16  296.3123
  17  274.5961
  18  182.4609
  19  311.9704
  20  168.6324
  21  186.9784
  22  294.4554
  23  358.7613
  24  317.8498
  25  291.2156
  26  142.3895
  27  224.9496
  28  59.65458
  29  45.04274
  30  90.03168
  31  116.9003
  32  206.1538
  33  166.6154
  34  221.0977
  35  176.5771
  36  106.4324
  37  115.9381
  38  160.9094
  39  131.8109
  40  106.6998
  41  107.8528
  42  182.8099
  43  138.701
  44  163.6271
  45  138.6347
  46  54.78967
  47  134.4238
  48  120.3902
  49  90.70669
  50  157.3539
  51  200.0063
  52  77.96154
  53  123.926
  54  132.9771
  55  141.7263
  56  176.7266
  57  197.4778
  58  101.4001
  59  100.6775
  60  280.0704
  61  271.8415
  62  254.8518
  63  71.75283
  64  72.40816
  65  88.78914
  66  28.47708
  67  71.97279
  68  217.3017
  69  74.42259
  70  -43.88419
  71  205.8144
  72  153.1769
  73  28.42671
  74  -9.495332
  75  102.1027
  76  191.1181
  77  217.2747
  78  261.1321
  79  132.7338
  80  150.5899
  81  54.39706
  82  24.63379
  83  146.8872
  84  94.18773
  85  168.4968
  86  97.0789
  87  122.7152
  88  149.4193
  89  56.36076
  90  126.9251
  91  236.2512
  92  204.993
  93  119.7557
  94  -35.94047
  95  -39.30933
  96  4.602402
  97  85.78431
  98  173.4629
  99  138.4629
 100  149.673
 101  156.8892
 102  41.84117
 103  99.26335
 104  65.5416
 105  36.1685
 106  40.18241
 107  152.7302
 108  147.8426
 109  93.58088
 110  138.7841
 111  184.3037
 112  207.0838
 113  185.859
 114  114.4393
 115  169.849
 116  78.92919
 117  79.87135
 118  176.8999
 119  188.5924
 120  70.84593
 121  72.05988
 122  140.362
 123  171.3534
 124  252.4523
 125  195.8627
 126  170.8617
 127  158.4158
 128  199.7756
 129  159.633
 130  107.6218
 131  219.3832
 132  196.5524
 133  160.7487
 134  22.15953
 135  21.79096
 136  233.1103
 137  254.374
 138  243.3851
 139  246.9319
 140  220.0481
 141  277.9721
 142  166.1921
 143  116.627
 144  226.2476
 145  277.9686
 146  173.1856
 147  180.4928
 148  198.2028
 149  230.2796
 150  87.03526
 151  113.6346
 152  252.5516
 153  207.585
 154  198.0919
 155  345.7694
 156  368.9919
 157  147.1487
 158  131.8092
 159  216.393
 160  316.5746
 161  311.276
 162  371.5423
 163  306.1836
 164  156.6805
 165  225.1901
 166  186.1426
 167  178.5161
 168  232.6113
 169  264.1109
 170  333.7582
 171  358.4643
 172  245.5034
 173  169.7723
 174  165.3897
 175  138.6833
 176  205.6124
 177  307.474
 178  191.9403
 179  81.81821
 180  44.52465
 181  226.48
 182  66.9914
 183  25.25161
 184  156.8562
 185  241.2876
 186  180.315
 187  316.5895
 188  190.9094
 189  151.9502
 190  358.7559
 191  86.0562
 192  92.07264
 193  159.1751
 194  272.839
 195  268.2662
 196  221.1328
 197  366.065
 198  255.9341
 199  98.68233
 200  160.8721
 201  95.64011
 202  69.87837
 203  43.72846
 204  35.74083
 205  114.8573
 206  282.5084
 207  246.6793
 208  132.3714
 209  206.9854
 210  186.582
 211  166.1229
 212  67.11963
 213  207.121
 214  270.0948
 215  254.3647
 216  281.6051
 217  283.1444
 218  294.5455
 219  330.3479
 220  341.6461
 221  369.9594
 222  289.4145
 223  256.0841
 224  280.7084
 225  259.231
 226  259.2746
 227  181.0815
 228  281.5151
 229  219.5935
 230  253.0011
 231  364.2423
 232  387.3741
 233  381.8889
 234  325.2269
 235  193.687
 236  324.5309
 237  331.5609
 238  250.1008
 239  185.9782
 240  208.5555
 241  206.554
 242  253.9095
 243  202.7693
 244  222.9265
 245  84.90882
 246  153.4486
 247  153.3612
 248  215.9925
 249  221.896
 250  149.5045
 251  169.7309
 252  262.5948
 253  259.1585
 254  348.2928
 255  294.3272
 256  183.0088
 257  274.8123
 258  310.7269
 259  126.6548
 260  198.6389
 261  306.694
 262  320.4211
 263  265.5597
 264  268.5096
 265  209.8264
 266  224.801
 267  224.9722
 268  269.3984
 269  186.0419
 270  270.4213
 271  319.0457
 272  208.9172
 273  157.949
 274  221.491
 275  256.6914
 276  202.3798
 277  126.4926
 278  169.8522
 279  164.8329
 280  282.6162
 281  360.3049
 282  329.5247
 283  110.9197
 284  145.2995
 285  167.6722
 286  193.8765
 287  288.9805
 288  352.1706
 289  149.0324
 290  75.94854
 291  211.6593
 292  357.1798
 293  257.3551
 294  157.927
 295  312.2149
 296  177.9856
 297  235.878
 298  297.0767
 299  324.016
 300  351.509
 301  286.6082
 302  245.2716
 303  207.7518
 304  83.3088
 305  186.9063
 306  217.489
 307  330.0517
 308  371.8338
 309  236.1829
 310  259.7466
 311  217.4292
 312  213.5574
 313  225.5722
 314  294.9427
 315  417.6598
 316  385.4132
 317  200.9815
 318  127.7466
 319  156.9123
 320  142.7641
 321  164.1209
 322  238.6552
 323  221.1675
 324  18.57063
 325  175.6326
 326  235.642
 327  41.35151
 328  103.8605
 329  91.34395
 330  91.10221
 331  159.481
 332  275.6434
 333  343.6042
 334  187.2855
 335  65.17801
 336  153.9912
 337  205.1711
 338  236.7483
 339  145.6236
 340  126.358
 341  153.8872
 342  120.4879
 343  152.0361
 344  230.6615
 345  240.8461
 346  311.3098
 347  191.6589
 348  122.7937
 349  149.004
 350  257.7137
 351  243.0919
 352  187.687
 353  204.09
 354  141.8159
 355  276.4581
 356  252.2235
 357  207.1394
 358  154.3864
 359  124.2497
 360  292.0861
 361  254.778
 362  254.9408
 363  214.4098
 364  191.5461
 365  159.4245
 366  193.1683
 367  225.7449
 368  117.8607
 369  141.0913
 370  224.0572
 371  202.1833
 372  264.7666
 373  295.4179
 374  283.8723
 375  300.8241
 376  265.391
 377  279.5097
 378  254.1032
 379  197.6546
 380  271.3177
 381  214.1328
 382  163.6108
 383  203.5857
 384  248.4966
 385  261.1783
 386  362.2722
 387  379.1504
 388  278.4633
 389  102.7636
 390  233.4729
 391  320.6696
 392  299.9852
 393  211.7399
 394  172.6075
 395  142.2348
 396  205.0056
 397  95.20893
 398  120.965
 399  242.655
 400  220.5383
 401  225.9875
 402  189.7924
 403  108.1097
 404  265.3675
 405  117.6315
 406  31.36991
 407  153.3117
 408  236.8385
 409  218.6225
 410  251.3505
 411  318.2526
 412  171.0676
 413  -16.98803
 414  -69.60778
 415  155.5096
 416  239.8538
 417  199.1837
 418  84.73149
 419  84.54417
 420  199.6885
 421  187.5009
 422  146.2671
 423  154.791
 424  152.2878
 425  211.6411
 426  246.6226
 427  111.8994
 428  218.2074
 429  280.2652
 430  165.0912
 431  158.8304
 432  239.0973
 433  109.799
 434  85.02689
 435  320.2451
 436  343.4721
 437  265.2
 438  232.1214
 439  243.9553
 440  219.2593
 441  261.9703
 442  314.5565
 443  245.0295
 444  226.0739
 445  355.6079
 446  251.7726
 447  208.4003
 448  302.0909
 449  425.8082
 450  361.2583
 451  275.2529
 452  337.5059
 453  257.6933
 454  326.541
 455  368.6628
 456  332.9457
 457  257.4093
 458  295.5645
 459  222.6943
 460  271.7025
 461  229.7795
 462  142.684
 463  88.03481
 464  226.7232
 465  310.8724
 466  244.0374
 467  242.3361
 468  304.1179
 469  252.892
 470  213.6853
 471  201.0268
 472  241.8967
 473  257.7486
 474  172.3701
 475  404.2238
 476  420.0705
 477  190.134
 478  33.06064
 479  174.1928
 480  102.2797
 481  135.4508
 482  166.5739
 483  217.2889
 484  160.5535
 485  110.9657
 486  174.5021
 487  193.6247
 488  145.7069
 489  40.42773
 490  176.7987
 491  248.2462
 492  167.4715
 493  252.2501
 494  340.7054
 495  203.5582
 496  86.0151
 497  108.0407
 498  170.4263
 499  183.4075
 500  109.9591
 501  261.3533
 502  351.9279
 503  312.1838
 504  248.9273
 505  151.3523
 506  207.3047
 507  254.8014
 508  333.2055
 509  510.821
 510  647.6147
 511  639.426
