# Input file       =  1187417273.104428_cleaned.dat
# Candidate        =  PSR_0332+5434
# Telescope        =  AR
# Epoch_topo       =  57987.255267412365
# Epoch_bary       =  N/A
# T_sample         =  0.002
# Data Folded      =  7340032
# Data Avg         =  0.00721330404871267
# Data StdDev      =  1.00002290724655 
# Profile Bins     =  512
# Profile Avg      =  103.351451641341 
# Profile StdDev   =  119.73577913095  
# Reduced chi-sqr  =  1.769
# Prob(Noise)      <  2.84e-24   (~10.1 sigma)
# P_topo (ms)      =  714.463987347103  +/- 9.86e-05
# P'_topo (s/s)    =  -0                +/- 5.2e-11
# P''_topo (s/s^2) =  0                 +/- 2.3e-14
# P_bary (ms)      =  N/A
# P'_bary (s/s)    =  N/A
# P''_bary (s/s^2) =  N/A
# P_orb (s)        =  N/A
# asin(i)/c (s)    =  N/A
# eccentricity     =  N/A
# w (rad)          =  N/A
# T_peri           =  N/A
######################################################
   0  997.5967
   1  838.3182
   2  612.4427
   3  351.5923
   4  276.1057
   5  45.67966
   6  129.5072
   7  299.9519
   8  229.5905
   9  117.8677
  10  81.79781
  11  254.485
  12  251.4668
  13  204.1254
  14  243.2567
  15  111.0269
  16  199.008
  17  217.5032
  18  97.37016
  19  40.68829
  20  39.71674
  21  120.8776
  22  202.6017
  23  38.67929
  24  -5.518706
  25  138.561
  26  176.0748
  27  21.2695
  28  22.01595
  29  13.76879
  30  76.14577
  31  58.26765
  32  130.4744
  33  247.6552
  34  132.4154
  35  -7.497681
  36  115.697
  37  305.2374
  38  279.7387
  39  216.2047
  40  180.1946
  41  346.223
  42  155.1116
  43  66.01481
  44  147.588
  45  162.9088
  46  156.8938
  47  29.23578
  48  13.01949
  49  24.4446
  50  27.87919
  51  84.9774
  52  96.68772
  53  77.81382
  54  133.071
  55  240.8434
  56  167.9136
  57  106.7607
  58  137.7303
  59  41.28399
  60  26.23096
  61  167.6831
  62  111.726
  63  -33.08842
  64  73.46321
  65  80.56742
  66  122.9328
  67  156.4107
  68  253.4398
  69  276.9112
  70  189.1255
  71  152.8379
  72  72.68258
  73  72.86201
  74  168.7061
  75  140.7339
  76  192.3452
  77  200.4812
  78  28.58484
  79  66.00307
  80  28.05803
  81  119.9985
  82  171.5895
  83  -7.040046
  84  31.30857
  85  27.57337
  86  90.69476
  87  -7.855454
  88  -74.78874
  89  43.97765
  90  101.584
  91  96.69946
  92  117.7328
  93  25.97126
  94  85.40311
  95  173.2044
  96  174.1449
  97  125.8961
  98  -28.11367
  99  52.84902
 100  11.12916
 101  27.45052
 102  -79.18224
 103  117.7718
 104  158.6522
 105  89.99861
 106  4.747911
 107  98.05698
 108  33.71276
 109  -107.4608
 110  -75.71496
 111  -15.24006
 112  34.15354
 113  188.0958
 114  64.25914
 115  120.6066
 116  152.1633
 117  25.61691
 118  0.206753
 119  -135.2792
 120  -73.35587
 121  20.80635
 122  0.8094361
 123  139.9573
 124  196.7661
 125  113.1375
 126  -41.7688
 127  3.155421
 128  162.3748
 129  113.4803
 130  13.68967
 131  48.0248
 132  -32.17382
 133  -27.17987
 134  72.22924
 135  217.8481
 136  238.4549
 137  205.0866
 138  117.1043
 139  131.0459
 140  144.0485
 141  238.7711
 142  188.4689
 143  -13.23807
 144  -7.046949
 145  104.5764
 146  134.0087
 147  191.2724
 148  221.796
 149  220.5958
 150  12.31135
 151  42.51356
 152  88.50251
 153  46.06167
 154  40.99715
 155  9.363111
 156  39.84562
 157  281.8579
 158  86.41076
 159  102.7282
 160  55.43215
 161  150.469
 162  116.1955
 163  156.0896
 164  147.735
 165  161.6071
 166  29.09858
 167  85.79446
 168  139.6541
 169  116.3337
 170  153.2299
 171  47.7556
 172  91.54139
 173  188.0784
 174  144.3684
 175  93.87622
 176  145.7621
 177  165.0509
 178  80.32441
 179  114.1048
 180  158.1364
 181  113.1428
 182  89.30669
 183  41.56335
 184  -23.87406
 185  -11.83914
 186  89.07876
 187  104.0752
 188  15.78259
 189  61.37259
 190  127.7478
 191  248.2104
 192  179.6165
 193  146.9615
 194  178.8655
 195  178.2457
 196  101.3883
 197  36.1917
 198  59.29597
 199  234.9771
 200  144.9629
 201  76.64406
 202  124.9391
 203  212.1233
 204  255.3004
 205  81.77658
 206  67.17574
 207  243.7851
 208  136.3562
 209  70.41065
 210  135.8508
 211  95.40202
 212  15.77788
 213  93.18273
 214  152.185
 215  83.64364
 216  34.39883
 217  115.4091
 218  49.59931
 219  75.03608
 220  62.32019
 221  150.6765
 222  79.50036
 223  119.3609
 224  81.63444
 225  44.0822
 226  120.7437
 227  169.0191
 228  111.3268
 229  -64.00467
 230  91.6171
 231  182.5612
 232  163.3613
 233  81.12554
 234  141.5164
 235  127.9396
 236  217.3981
 237  86.95546
 238  26.57951
 239  25.86308
 240  -72.86146
 241  171.8914
 242  165.6777
 243  158.4819
 244  17.51868
 245  34.83529
 246  59.90783
 247  38.21704
 248  -58.0629
 249  14.20737
 250  -33.9001
 251  115.4993
 252  268.7488
 253  113.7856
 254  -67.18066
 255  -46.27316
 256  -64.22084
 257  -110.0805
 258  -33.14724
 259  63.82191
 260  167.0684
 261  136.4178
 262  9.718452
 263  -44.65119
 264  112.2726
 265  35.84465
 266  -40.43765
 267  12.82819
 268  -1.243566
 269  17.28365
 270  99.17609
 271  184.943
 272  144.332
 273  150.4857
 274  170.6798
 275  172.4994
 276  97.33419
 277  110.029
 278  49.37235
 279  30.9208
 280  102.2234
 281  94.02237
 282  93.13851
 283  85.79494
 284  16.01012
 285  53.66909
 286  32.36742
 287  -40.81235
 288  -40.95265
 289  -52.77032
 290  -57.59653
 291  4.185768
 292  120.0488
 293  84.97218
 294  155.2176
 295  157.116
 296  200.9597
 297  172.6849
 298  151.4509
 299  27.35731
 300  -2.410789
 301  51.08232
 302  -62.41491
 303  -6.857082
 304  228.3244
 305  103.0614
 306  -0.979639
 307  105.8121
 308  237.6789
 309  81.91402
 310  255.7097
 311  253.2394
 312  205.8705
 313  64.46383
 314  190.7424
 315  283.9699
 316  198.3663
 317  30.9139
 318  88.87611
 319  65.10583
 320  139.2454
 321  177.2711
 322  48.64222
 323  30.82988
 324  -5.961051
 325  98.05795
 326  88.63142
 327  54.75156
 328  109.9287
 329  -3.682373
 330  -6.934265
 331  25.40276
 332  -52.62537
 333  -27.13329
 334  -36.08373
 335  23.83266
 336  126.3692
 337  78.63654
 338  23.10643
 339  19.19572
 340  61.83932
 341  91.90831
 342  196.4719
 343  224.5788
 344  210.571
 345  13.2502
 346  107.5948
 347  157.1808
 348  169.0584
 349  141.7904
 350  145.2093
 351  179.4112
 352  81.1342
 353  137.6647
 354  158.6161
 355  143.0309
 356  254.0035
 357  117.8994
 358  38.97859
 359  96.26653
 360  51.25978
 361  7.930414
 362  144.708
 363  153.5972
 364  52.21628
 365  -60.98664
 366  18.97499
 367  94.51414
 368  56.39168
 369  39.89284
 370  216.0435
 371  185.8374
 372  71.89567
 373  89.94672
 374  79.06313
 375  -22.40161
 376  120.4164
 377  264.1766
 378  172.1237
 379  -30.10531
 380  131.737
 381  98.35703
 382  -2.560459
 383  111.1967
 384  73.78767
 385  142.9303
 386  155.5113
 387  125.554
 388  -5.948132
 389  21.72676
 390  38.58572
 391  136.7006
 392  157.5728
 393  7.180466
 394  -21.65854
 395  87.18835
 396  142.7652
 397  85.70996
 398  112.3055
 399  109.3669
 400  69.30627
 401  102.1547
 402  125.0689
 403  55.26935
 404  179.0138
 405  172.7252
 406  93.3954
 407  -125.9007
 408  -27.33596
 409  153.3184
 410  71.98549
 411  58.5485
 412  97.71578
 413  89.64441
 414  -46.92449
 415  -159.4191
 416  -100.1379
 417  66.60258
 418  73.46978
 419  165.9302
 420  51.40473
 421  188.062
 422  100.2806
 423  -64.66891
 424  34.66946
 425  148.951
 426  148.6562
 427  37.77517
 428  60.20876
 429  143.7795
 430  100.7682
 431  68.96893
 432  76.08839
 433  56.45392
 434  80.24003
 435  150.3736
 436  36.27445
 437  106.2566
 438  140.098
 439  112.4825
 440  6.830291
 441  -113.5439
 442  76.3091
 443  -13.8914
 444  -80.27069
 445  84.78178
 446  68.81261
 447  -103.6591
 448  -56.26344
 449  139.3043
 450  120.582
 451  18.58919
 452  23.10238
 453  51.02597
 454  119.7873
 455  123.225
 456  75.2593
 457  15.14957
 458  141.0038
 459  58.14013
 460  199.6299
 461  164.4431
 462  199.5717
 463  196.5983
 464  46.85368
 465  152.5413
 466  163.243
 467  49.5102
 468  111.7594
 469  -29.65773
 470  -99.02462
 471  0.7369234
 472  130.263
 473  155.9578
 474  163.2726
 475  -3.734388
 476  0.5764893
 477  33.57883
 478  207.9146
 479  159.9805
 480  -31.03405
 481  -92.87205
 482  -11.87141
 483  78.1904
 484  -63.8203
 485  -59.13361
 486  31.06732
 487  114.3265
 488  129.6669
 489  125.4712
 490  254.8946
 491  299.6676
 492  83.90627
 493  154.0611
 494  301.5413
 495  203.7491
 496  109.1925
 497  68.88799
 498  219.2866
 499  90.19829
 500  125.212
 501  289.5656
 502  338.0977
 503  187.3949
 504  309.8017
 505  343.1416
 506  291.9558
 507  277.692
 508  413.92
 509  516.3489
 510  683.5662
 511  860.0348
