# Input file       =  1187732385.107513_cleaned.dat
# Candidate        =  PSR_0332+5434
# Telescope        =  AR
# Epoch_topo       =  57990.902397077698
# Epoch_bary       =  N/A
# T_sample         =  0.002
# Data Folded      =  7143424
# Data Avg         =  0.0277053302946113
# Data StdDev      =  1.0002415078789  
# Profile Bins     =  512
# Profile Avg      =  386.52848510818  
# Profile StdDev   =  118.147111050664 
# Reduced chi-sqr  =  1.429
# Prob(Noise)      <  5.78e-10   (~6.1 sigma)
# P_topo (ms)      =  714.463378285628  +/- 0.00035
# P'_topo (s/s)    =  -0                +/- 1.9e-10
# P''_topo (s/s^2) =  0                 +/- 8.61e-14
# P_bary (ms)      =  N/A
# P'_bary (s/s)    =  N/A
# P''_bary (s/s^2) =  N/A
# P_orb (s)        =  N/A
# asin(i)/c (s)    =  N/A
# eccentricity     =  N/A
# w (rad)          =  N/A
# T_peri           =  N/A
######################################################
   0  1180.881
   1  1072.714
   2  889.2629
   3  776.5851
   4  534.1478
   5  468.7509
   6  515.3088
   7  482.2438
   8  466.4414
   9  512.268
  10  604.8945
  11  384.5733
  12  379.5283
  13  433.6898
  14  442.5575
  15  582.435
  16  552.3624
  17  497.105
  18  476.6766
  19  404.2733
  20  309.1629
  21  370.0073
  22  384.7798
  23  283.4362
  24  358.3014
  25  263.8743
  26  390.6606
  27  567.9094
  28  461.9855
  29  388.4343
  30  380.7193
  31  391.0265
  32  376.1553
  33  316.4365
  34  245.4605
  35  319.5541
  36  418.9832
  37  354.1982
  38  344.7215
  39  307.9977
  40  311.5928
  41  432.974
  42  558.8685
  43  329.0927
  44  363.5196
  45  443.4623
  46  363.3584
  47  311.4596
  48  411.4293
  49  398.8929
  50  490.6488
  51  430.1564
  52  281.2099
  53  434.8284
  54  466.8931
  55  369.6483
  56  304.2766
  57  525.0927
  58  441.2049
  59  324.3576
  60  321.6634
  61  383.1501
  62  327.9472
  63  396.164
  64  422.211
  65  386.515
  66  396.7972
  67  466.4253
  68  357.0358
  69  391.6126
  70  412.519
  71  331.0559
  72  360.9877
  73  430.8272
  74  350.5444
  75  433.9481
  76  395.2968
  77  435.6702
  78  427.0139
  79  470.9721
  80  423.5004
  81  275.0398
  82  277.1427
  83  294.1102
  84  261.8047
  85  343.2636
  86  311.1678
  87  364.7528
  88  394.9649
  89  400.8886
  90  569.239
  91  608.8095
  92  466.0573
  93  339.3854
  94  488.588
  95  394.2028
  96  404.451
  97  444.6191
  98  578.4224
  99  386.6789
 100  283.9166
 101  422.9788
 102  408.109
 103  294.8574
 104  287.8322
 105  496.9698
 106  375.0874
 107  277.1529
 108  504.0467
 109  434.5007
 110  419.4958
 111  456.7894
 112  452.2786
 113  270.3521
 114  273.4145
 115  306.5243
 116  367.2996
 117  424.3381
 118  423.9682
 119  365.7119
 120  357.8016
 121  383.1897
 122  445.1432
 123  365.1292
 124  310.8785
 125  311.0616
 126  355.8553
 127  352.2421
 128  404.2972
 129  411.5542
 130  474.2839
 131  388.5775
 132  408.5992
 133  434.5005
 134  466.0098
 135  331.769
 136  177.6381
 137  320.8143
 138  437.864
 139  482.866
 140  346.1532
 141  285.6767
 142  456.492
 143  448.0081
 144  370.6056
 145  424.8807
 146  481.9164
 147  464.6515
 148  388.0782
 149  375.6437
 150  368.3551
 151  424.8201
 152  534.6205
 153  527.2195
 154  413.6368
 155  325.6578
 156  355.8123
 157  453.1382
 158  499.6501
 159  292.0655
 160  318.8965
 161  283.7863
 162  232.6575
 163  211.0203
 164  275.4352
 165  404.0143
 166  457.1672
 167  379.235
 168  367.7756
 169  354.7487
 170  392.4284
 171  366.9335
 172  360.0236
 173  376.4957
 174  343.479
 175  390.9553
 176  348.2605
 177  309.2988
 178  345.7267
 179  521.3718
 180  526.8964
 181  447.549
 182  371.6569
 183  380.384
 184  357.6976
 185  505.8398
 186  523.6581
 187  366.067
 188  378.244
 189  420.7471
 190  454.3673
 191  433.9846
 192  368.8776
 193  315.8837
 194  294.8894
 195  364.9662
 196  382.9742
 197  305.2172
 198  306.4738
 199  324.0847
 200  313.0239
 201  302.4031
 202  299.5094
 203  302.1152
 204  283.5224
 205  307.2861
 206  264.9012
 207  243.6722
 208  230.5268
 209  333.0963
 210  291.277
 211  425.3675
 212  475.2709
 213  483.2159
 214  440.639
 215  341.1642
 216  426.0479
 217  445.3014
 218  319.1863
 219  353.5751
 220  453.044
 221  440.3924
 222  453.5139
 223  411.6885
 224  428.3662
 225  349.5305
 226  336.8407
 227  480.3508
 228  380.981
 229  325.916
 230  394.3781
 231  329.1381
 232  292.0732
 233  407.2376
 234  431.7659
 235  478.6069
 236  388.7162
 237  425.8185
 238  550.072
 239  406.821
 240  382.0579
 241  450.6521
 242  439.1458
 243  303.0662
 244  251.6321
 245  373.7896
 246  440.3879
 247  342.1024
 248  382.5338
 249  399.8591
 250  367.4765
 251  248.8613
 252  200.9897
 253  196.054
 254  365.1066
 255  428.8429
 256  327.9504
 257  406.2799
 258  398.6157
 259  431.9807
 260  471.1181
 261  450.0623
 262  390.4705
 263  447.7014
 264  437.8765
 265  476.472
 266  488.4184
 267  482.0024
 268  402.3301
 269  252.9325
 270  288.6444
 271  559.7924
 272  493.7222
 273  404.3081
 274  316.6028
 275  366.7194
 276  262.9995
 277  313.7623
 278  504.8658
 279  485.0519
 280  355.9055
 281  245.4861
 282  237.4193
 283  250.1054
 284  452.293
 285  365.8929
 286  312.3867
 287  450.466
 288  434.2292
 289  444.3745
 290  357.7206
 291  365.3633
 292  398.1983
 293  438.884
 294  527.09
 295  335.9373
 296  281.1878
 297  328.0807
 298  478.7993
 299  490.855
 300  282.5692
 301  319.2259
 302  349.8949
 303  288.6962
 304  353.5688
 305  386.9914
 306  497.6722
 307  364.0811
 308  282.3691
 309  341.7681
 310  397.4112
 311  406.3253
 312  262.6646
 313  242.1246
 314  446.9507
 315  426.1332
 316  313.6292
 317  426.9904
 318  389.41
 319  348.7089
 320  418.5359
 321  391.7
 322  380.6841
 323  348.7126
 324  299.7574
 325  372.3212
 326  449.7534
 327  454.9829
 328  491.9327
 329  295.1028
 330  234.956
 331  402.2175
 332  520.3759
 333  468.3668
 334  384.2072
 335  420.1848
 336  387.0328
 337  256.46
 338  290.0288
 339  243.628
 340  352.757
 341  399.3941
 342  245.3205
 343  273.5113
 344  448.0151
 345  430.838
 346  405.8058
 347  348.558
 348  295.937
 349  248.4423
 350  246.2845
 351  392.596
 352  351.5669
 353  331.8499
 354  407.8531
 355  459.9965
 356  412.0185
 357  368.9709
 358  333.2774
 359  368.4896
 360  427.9231
 361  422.2818
 362  315.9513
 363  386.7423
 364  413.8039
 365  501.3678
 366  470.6299
 367  385.3697
 368  390.1648
 369  269.7507
 370  180.3385
 371  259.2653
 372  384.4161
 373  332.6404
 374  197.1654
 375  297.6604
 376  412.7702
 377  515.4207
 378  458.8038
 379  373.0452
 380  268.6642
 381  316.3222
 382  461.4341
 383  460.1872
 384  432.07
 385  510.7466
 386  454.7635
 387  358.0028
 388  383.1775
 389  340.2835
 390  333.3548
 391  293.8972
 392  212.8078
 393  173.0865
 394  210.3091
 395  182.3742
 396  317.8387
 397  258.5084
 398  293.0211
 399  208.4788
 400  349.3205
 401  360.1825
 402  354.8205
 403  463.4747
 404  467.7253
 405  356.0657
 406  310.3478
 407  398.4517
 408  304.552
 409  359.6652
 410  255.1116
 411  320.3893
 412  254.6614
 413  230.762
 414  231.0437
 415  366.3438
 416  397.9669
 417  345.521
 418  388.2386
 419  415.0321
 420  462.3591
 421  400.4831
 422  387.869
 423  359.3782
 424  420.3698
 425  388.4049
 426  362.0647
 427  333.881
 428  423.3195
 429  431.4201
 430  395.3448
 431  358.1713
 432  242.3255
 433  332.24
 434  278.5195
 435  427.0909
 436  405.3783
 437  399.1563
 438  398.6129
 439  367.4419
 440  390.2897
 441  365.439
 442  446.294
 443  400.5734
 444  370.5098
 445  259.8143
 446  280.7023
 447  422.2445
 448  422.6941
 449  487.7701
 450  424.3275
 451  284.5257
 452  420.1838
 453  406.0958
 454  384.3205
 455  319.037
 456  271.5884
 457  324.7447
 458  308.6129
 459  205.9131
 460  372.8116
 461  344.1519
 462  290.0109
 463  407.2479
 464  445.3571
 465  251.8154
 466  243.1451
 467  316.8045
 468  515.2312
 469  430.9465
 470  344.8094
 471  360.9268
 472  362.238
 473  311.0816
 474  236.3255
 475  202.4538
 476  185.4059
 477  213.917
 478  351.6475
 479  430.0958
 480  390.8463
 481  360.1691
 482  454.937
 483  449.9221
 484  395.3709
 485  309.5905
 486  358.1811
 487  450.6482
 488  513.905
 489  448.0914
 490  412.3703
 491  337.771
 492  370.3549
 493  431.4014
 494  401.5613
 495  450.684
 496  443.9088
 497  565.0672
 498  377.528
 499  302.7046
 500  430.1081
 501  449.1777
 502  431.4742
 503  395.0182
 504  476.6035
 505  533.9646
 506  565.2867
 507  539.7554
 508  504.9589
 509  576.1526
 510  760.7348
 511  962.1447
