# Input file       =  1187331128.11481_cleaned.dat
# Candidate        =  PSR_0332+5434
# Telescope        =  AR
# Epoch_topo       =  57986.258218921415
# Epoch_bary       =  N/A
# T_sample         =  0.002
# Data Folded      =  7340032
# Data Avg         =  0.0135680475002288
# Data StdDev      =  1.00013348750351 
# Profile Bins     =  512
# Profile Avg      =  194.551525038851 
# Profile StdDev   =  119.74901924088  
# Reduced chi-sqr  =  1.752
# Prob(Noise)      <  1.89e-23   (~9.9 sigma)
# P_topo (ms)      =  714.464100632648  +/- 0.000248
# P'_topo (s/s)    =  -0                +/- 1.31e-10
# P''_topo (s/s^2) =  0                 +/- 5.77e-14
# P_bary (ms)      =  N/A
# P'_bary (s/s)    =  N/A
# P''_bary (s/s^2) =  N/A
# P_orb (s)        =  N/A
# asin(i)/c (s)    =  N/A
# eccentricity     =  N/A
# w (rad)          =  N/A
# T_peri           =  N/A
######################################################
   0  786.1484
   1  779.11
   2  630.8531
   3  472.2636
   4  296.2613
   5  105.8526
   6  197.0717
   7  245.5074
   8  193.757
   9  217.2085
  10  331.9395
  11  361.8713
  12  273.9724
  13  351.8675
  14  413.7376
  15  390.9834
  16  324.2809
  17  204.5725
  18  299.6217
  19  128.7133
  20  103.2552
  21  92.74209
  22  161.8499
  23  180.4221
  24  215.8524
  25  226.2333
  26  208.8741
  27  254.4324
  28  193.9588
  29  217.1677
  30  191.2595
  31  197.4759
  32  187.7206
  33  219.926
  34  230.2536
  35  189.7547
  36  258.8004
  37  268.6858
  38  287.2574
  39  146.671
  40  135.7199
  41  175.6135
  42  127.1592
  43  -16.24237
  44  34.27377
  45  225.96
  46  130.4519
  47  124.7492
  48  195.1409
  49  258.7272
  50  193.6365
  51  61.65041
  52  75.30671
  53  44.95003
  54  80.35694
  55  206.0889
  56  106.9628
  57  80.43813
  58  82.02113
  59  119.8423
  60  257.1846
  61  91.03857
  62  56.31322
  63  53.87484
  64  105.5597
  65  160.5441
  66  254.4341
  67  143.9845
  68  10.49367
  69  4.199546
  70  129.9593
  71  227.1356
  72  212.8779
  73  240.7684
  74  5.061975
  75  -12.32938
  76  77.38276
  77  105.942
  78  96.32239
  79  56.36124
  80  153.9889
  81  90.87846
  82  230.9851
  83  247.0947
  84  256.6057
  85  201.8479
  86  42.20724
  87  228.0883
  88  327.3086
  89  262.6455
  90  205.0799
  91  205.1263
  92  170.7206
  93  250.0264
  94  250.9626
  95  304.17
  96  182.8475
  97  292.5801
  98  404.6254
  99  414.731
 100  306.9616
 101  193.2744
 102  181.4026
 103  169.7689
 104  191.9944
 105  99.05042
 106  70.64909
 107  82.86323
 108  290.9792
 109  288.8934
 110  228.6571
 111  232.8114
 112  146.9266
 113  214.6882
 114  29.66781
 115  8.399294
 116  111.1333
 117  383.611
 118  260.7371
 119  104.2688
 120  26.812
 121  138.9096
 122  205.4077
 123  152.3888
 124  147.8847
 125  252.9982
 126  191.4866
 127  -13.98967
 128  -51.02321
 129  81.77548
 130  52.85317
 131  122.6682
 132  77.09625
 133  108.8791
 134  163.8026
 135  26.38723
 136  83.29557
 137  168.8275
 138  203.6087
 139  190.761
 140  270.8793
 141  230.4295
 142  289.0959
 143  255.9993
 144  199.9254
 145  84.41846
 146  48.0455
 147  76.52697
 148  216.3146
 149  155.1215
 150  57.9323
 151  111.6067
 152  113.2187
 153  139.3812
 154  189.9787
 155  292.4318
 156  378.7292
 157  320.5717
 158  282.9321
 159  294.1607
 160  203.3717
 161  115.0134
 162  240.6844
 163  188.7692
 164  88.45866
 165  143.2039
 166  185.9195
 167  165.46
 168  95.29821
 169  147.486
 170  246.0751
 171  338.5143
 172  260.5775
 173  127.63
 174  28.39497
 175  113.0139
 176  183.222
 177  93.00884
 178  -13.07051
 179  108.245
 180  186.3687
 181  121.7313
 182  145.9774
 183  234.7039
 184  204.3969
 185  77.35748
 186  76.7922
 187  119.4705
 188  95.35123
 189  40.08295
 190  142.6645
 191  182.4484
 192  224.924
 193  -24.43267
 194  -40.09914
 195  104.9361
 196  110.0612
 197  137.5788
 198  205.2921
 199  223.1151
 200  120.5625
 201  67.61857
 202  27.46823
 203  10.6153
 204  -67.25136
 205  -29.20939
 206  139.1828
 207  173.2376
 208  200.0712
 209  202.4945
 210  206.3637
 211  214.0426
 212  168.3402
 213  203.147
 214  302.7774
 215  250.8069
 216  270.0137
 217  290.9839
 218  96.90691
 219  10.9415
 220  174.7377
 221  77.68393
 222  151.6173
 223  195.2069
 224  201.9016
 225  99.20358
 226  189.0175
 227  255.1453
 228  307.8516
 229  394.4987
 230  293.581
 231  209.9552
 232  198.7071
 233  335.2455
 234  233.4268
 235  277.1027
 236  221.847
 237  175.5169
 238  203.2482
 239  310.0326
 240  249.9627
 241  293.1237
 242  165.8968
 243  39.76368
 244  318.2139
 245  287.9043
 246  77.45691
 247  158.8684
 248  178.4072
 249  242.7054
 250  293.66
 251  238.231
 252  202.1118
 253  169.2578
 254  237.6606
 255  121.6653
 256  162.1734
 257  163.5297
 258  327.4796
 259  354.1161
 260  229.1937
 261  275.104
 262  315.5819
 263  195.2842
 264  203.0532
 265  192.1886
 266  406.4357
 267  409.131
 268  242.5266
 269  280.6351
 270  131.1658
 271  192.3859
 272  152.2558
 273  308.5163
 274  155.315
 275  114.7154
 276  276.0494
 277  268.6281
 278  213.8557
 279  186.6342
 280  136.9394
 281  257.0591
 282  361.6789
 283  249.0707
 284  135.9419
 285  112.6664
 286  177.2617
 287  273.5657
 288  304.2311
 289  282.1554
 290  143.1118
 291  193.667
 292  336.6735
 293  120.0928
 294  212.4924
 295  212.0242
 296  258.3369
 297  244.569
 298  195.5169
 299  252.7944
 300  206.5155
 301  345.8963
 302  71.56405
 303  115.8355
 304  243.66
 305  240.771
 306  273.6484
 307  282.3432
 308  290.3011
 309  301.0213
 310  392.5252
 311  333.3535
 312  431.5165
 313  411.4738
 314  368.2116
 315  461.243
 316  422.4248
 317  413.0673
 318  454.3469
 319  457.1032
 320  370.9564
 321  359.6068
 322  266.1861
 323  143.3403
 324  221.3117
 325  146.1725
 326  222.6665
 327  274.9221
 328  179.8287
 329  179.1533
 330  105.9198
 331  149.7229
 332  123.1071
 333  225.1828
 334  274.0706
 335  230.6063
 336  359.9832
 337  424.4487
 338  317.05
 339  180.6319
 340  139.9665
 341  243.3094
 342  207.3612
 343  116.3561
 344  30.66587
 345  140.6765
 346  224.8839
 347  276.4768
 348  175.3703
 349  -12.7273
 350  60.97713
 351  179.6164
 352  210.7029
 353  109.4046
 354  125.7136
 355  192.6809
 356  191.9744
 357  74.15611
 358  11.7962
 359  27.12455
 360  185.733
 361  245.2584
 362  175.2576
 363  108.3389
 364  194.1586
 365  217.9026
 366  94.99646
 367  75.21933
 368  7.125991
 369  125.45
 370  165.3086
 371  204.3835
 372  138.8104
 373  231.7916
 374  271.7227
 375  216.6705
 376  187.4959
 377  158.5689
 378  140.7107
 379  192.2493
 380  174.053
 381  253.2454
 382  288.3151
 383  303.1293
 384  121.4599
 385  78.38503
 386  200.4703
 387  257.166
 388  140.7404
 389  48.24445
 390  53.22816
 391  189.2889
 392  164.8717
 393  243.8654
 394  311.7814
 395  139.2373
 396  85.00584
 397  85.42718
 398  107.4606
 399  151.7655
 400  230.1608
 401  381.6232
 402  233.3259
 403  92.82012
 404  133.2869
 405  71.93845
 406  187.4611
 407  313.4571
 408  139.4924
 409  162.4218
 410  92.42054
 411  79.70169
 412  111.9942
 413  145.1182
 414  146.7731
 415  74.45603
 416  81.21998
 417  107.6479
 418  89.92262
 419  209.8506
 420  172.921
 421  34.41735
 422  142.2356
 423  247.7625
 424  203.7708
 425  102.2617
 426  19.26705
 427  73.25649
 428  195.7108
 429  140.4384
 430  87.31739
 431  65.68069
 432  224.4995
 433  202.5954
 434  188.5426
 435  255.7483
 436  121.931
 437  142.7395
 438  101.5076
 439  207.0649
 440  199.3934
 441  230.481
 442  285.1129
 443  236.4934
 444  156.8468
 445  167.984
 446  279.9803
 447  116.964
 448  221.8962
 449  203.7355
 450  25.28513
 451  73.32288
 452  140.3922
 453  101.2099
 454  144.3168
 455  174.2263
 456  178.1883
 457  212.4999
 458  158.7321
 459  96.64999
 460  11.82645
 461  116.0074
 462  289.8423
 463  139.6074
 464  61.065
 465  219.4771
 466  267.9825
 467  111.5938
 468  114.8325
 469  148.1227
 470  151.3327
 471  66.11025
 472  93.3859
 473  272.2072
 474  335.7263
 475  317.1689
 476  158.8212
 477  272.5597
 478  234.0309
 479  170.0546
 480  73.06455
 481  94.81241
 482  131.2134
 483  172.2273
 484  182.6704
 485  226.6924
 486  87.56332
 487  98.8572
 488  262.7901
 489  124.1478
 490  141.3751
 491  269.5508
 492  382.325
 493  244.8099
 494  203.8683
 495  256.6819
 496  286.975
 497  278.7844
 498  229.6046
 499  318.4188
 500  303.7802
 501  284.6368
 502  265.0188
 503  85.83699
 504  217.7749
 505  318.6339
 506  355.5259
 507  417.1815
 508  464.6091
 509  520.317
 510  799.6445
 511  909.0713
