# Input file       =  1187761893.121302_cleaned.dat
# Candidate        =  PSR_0332+5434
# Telescope        =  AR
# Epoch_topo       =  57991.243925015071
# Epoch_bary       =  N/A
# T_sample         =  0.002
# Data Folded      =  7340032
# Data Avg         =  0.0120237123560538
# Data StdDev      =  1.00002772176841 
# Profile Bins     =  512
# Profile Avg      =  172.421077054201 
# Profile StdDev   =  119.736355588271 
# Reduced chi-sqr  =  1.406
# Prob(Noise)      <  3.39e-09   (~5.8 sigma)
# P_topo (ms)      =  714.463710765232  +/- 0.000236
# P'_topo (s/s)    =  -0                +/- 1.25e-10
# P''_topo (s/s^2) =  0                 +/- 5.5e-14
# P_bary (ms)      =  N/A
# P'_bary (s/s)    =  N/A
# P''_bary (s/s^2) =  N/A
# P_orb (s)        =  N/A
# asin(i)/c (s)    =  N/A
# eccentricity     =  N/A
# w (rad)          =  N/A
# T_peri           =  N/A
######################################################
   0  630.7909
   1  545.4658
   2  371.8703
   3  224.7433
   4  152.4939
   5  136.9186
   6  53.29143
   7  99.30391
   8  212.3599
   9  -51.61956
  10  38.09808
  11  120.0232
  12  128.0521
  13  60.24198
  14  219.3316
  15  275.6046
  16  157.1526
  17  137.8284
  18  127.1104
  19  121.3174
  20  160.5419
  21  177.7931
  22  240.3233
  23  110.5695
  24  -8.608768
  25  156.1928
  26  148.5733
  27  278.4186
  28  172.0293
  29  240.2748
  30  288.5045
  31  229.9067
  32  53.42876
  33  31.50099
  34  168.417
  35  195.2705
  36  155.5285
  37  268.295
  38  325.7851
  39  292.3089
  40  123.3848
  41  161.9312
  42  187.7729
  43  186.646
  44  149.2221
  45  222.1464
  46  243.9104
  47  244.162
  48  140.8047
  49  201.356
  50  409.948
  51  384.4706
  52  235.2536
  53  183.9307
  54  255.9951
  55  244.2147
  56  213.9781
  57  56.31297
  58  -0.4930098
  59  96.81956
  60  173.1895
  61  305.6195
  62  228.2029
  63  182.8146
  64  150.0276
  65  112.5512
  66  48.02813
  67  84.12007
  68  92.55524
  69  121.642
  70  207.578
  71  54.26016
  72  -39.39446
  73  53.42823
  74  149.3531
  75  124.6477
  76  13.30605
  77  230.2119
  78  163.6976
  79  238.1065
  80  246.6284
  81  294.639
  82  221.3324
  83  304.7162
  84  111.7229
  85  61.57194
  86  222.9176
  87  220.078
  88  148.4058
  89  240.9012
  90  224.5119
  91  77.81342
  92  158.786
  93  33.26793
  94  41.45993
  95  70.2564
  96  234.4965
  97  133.208
  98  54.62339
  99  112.9181
 100  21.89483
 101  77.40653
 102  22.02868
 103  120.9211
 104  69.53172
 105  47.9595
 106  92.03033
 107  117.5141
 108  153.6868
 109  247.2631
 110  176.15
 111  119.1345
 112  96.22411
 113  139.8662
 114  118.2997
 115  142.9736
 116  204.8732
 117  231.4959
 118  108.4688
 119  -35.98328
 120  94.9495
 121  254.4327
 122  313.613
 123  253.824
 124  218.5253
 125  263.2967
 126  154.3094
 127  245.6108
 128  257.6162
 129  48.31882
 130  168.4702
 131  337.662
 132  168.569
 133  205.2113
 134  310.7578
 135  265.3632
 136  157.1442
 137  197.253
 138  134.3319
 139  117.7509
 140  268.4222
 141  259.402
 142  257.8887
 143  247.2828
 144  198.629
 145  98.38844
 146  98.9628
 147  162.278
 148  83.77303
 149  109.2688
 150  167.1879
 151  -7.584118
 152  -22.90067
 153  126.1076
 154  72.96195
 155  73.09777
 156  165.4211
 157  241.9314
 158  114.0815
 159  -56.42633
 160  79.95753
 161  142.6348
 162  183.0825
 163  127.2121
 164  149.9111
 165  165.013
 166  -9.995317
 167  95.88962
 168  93.11289
 169  67.0467
 170  97.85876
 171  156.3923
 172  254.2276
 173  170.7119
 174  107.832
 175  117.2718
 176  181.8431
 177  171.1076
 178  258.9817
 179  118.1113
 180  96.58141
 181  125.2747
 182  171.5201
 183  126.1235
 184  115.4634
 185  256.6947
 186  329.6882
 187  207.6754
 188  117.4662
 189  140.5794
 190  117.7194
 191  181.1042
 192  207.0343
 193  312.3885
 194  218.6636
 195  168.6358
 196  34.33204
 197  180.9658
 198  158.6741
 199  242.2755
 200  110.1048
 201  262.6895
 202  333.2062
 203  315.7328
 204  367.8261
 205  304.0584
 206  246.2154
 207  243.9322
 208  225.9234
 209  297.9844
 210  359.5077
 211  260.838
 212  148.0765
 213  90.49197
 214  200.795
 215  170.8801
 216  85.88538
 217  12.40082
 218  52.2395
 219  113.9647
 220  76.233
 221  128.2563
 222  268.0749
 223  178.7516
 224  46.85843
 225  137.057
 226  135.924
 227  162.9554
 228  251.6398
 229  212.3032
 230  131.0934
 231  159.3881
 232  191.1097
 233  85.19817
 234  88.05379
 235  270.8554
 236  241.7169
 237  231.0521
 238  259.8523
 239  270.3423
 240  151.8806
 241  108.4014
 242  73.20065
 243  205.2777
 244  212.6921
 245  114.5716
 246  219.1194
 247  173.7554
 248  245.1621
 249  212.5668
 250  148.0662
 251  58.91598
 252  112.5582
 253  143.0287
 254  168.2375
 255  387.1334
 256  419.0081
 257  330.727
 258  254.4806
 259  266.2068
 260  312.9968
 261  307.0989
 262  263.1748
 263  377.6545
 264  332.9149
 265  179.5916
 266  203.7155
 267  242.1308
 268  281.7986
 269  269.9394
 270  211.1964
 271  161.3889
 272  188.0568
 273  192.4796
 274  200.935
 275  198.9297
 276  254.3217
 277  204.8243
 278  322.8444
 279  179.9202
 280  121.8695
 281  89.67538
 282  310.0129
 283  275.638
 284  60.34215
 285  104.1626
 286  345.6543
 287  167.5322
 288  271.7803
 289  362.276
 290  207.071
 291  85.55632
 292  144.2757
 293  265.1654
 294  250.9128
 295  97.2626
 296  147.296
 297  207.9291
 298  144.6601
 299  210.8913
 300  112.2737
 301  122.5873
 302  126.2721
 303  171.5265
 304  197.5406
 305  174.9836
 306  125.0347
 307  88.46178
 308  100.5405
 309  202.6006
 310  138.46
 311  127.4287
 312  59.73278
 313  137.6749
 314  110.1677
 315  97.67727
 316  23.25925
 317  96.17993
 318  -0.9183798
 319  83.6797
 320  163.7765
 321  121.7271
 322  178.1844
 323  117.2852
 324  106.2276
 325  126.0016
 326  336.4783
 327  76.17606
 328  62.15203
 329  110.1356
 330  196.0689
 331  294.8917
 332  160.1309
 333  254.9579
 334  305.7302
 335  227.0483
 336  273.7442
 337  241.6573
 338  287.6734
 339  182.2417
 340  24.84331
 341  97.90637
 342  303.4739
 343  308.3494
 344  265.7515
 345  222.9517
 346  229.6798
 347  308.3721
 348  176.5861
 349  213.4688
 350  381.4638
 351  293.7734
 352  281.4243
 353  157.3681
 354  100.3914
 355  229.0562
 356  346.4378
 357  267.1467
 358  264.9789
 359  81.59534
 360  168.823
 361  78.35832
 362  33.62059
 363  112.63
 364  166.7476
 365  195.7118
 366  178.2945
 367  119.2931
 368  113.5238
 369  157.5272
 370  46.62175
 371  99.52103
 372  81.1865
 373  58.59837
 374  204.1645
 375  223.9411
 376  96.36678
 377  38.05564
 378  116.0364
 379  -36.60801
 380  -64.75883
 381  148.0422
 382  245.909
 383  172.9535
 384  168.8473
 385  114.0895
 386  155.6061
 387  28.33372
 388  -48.63844
 389  -17.42092
 390  65.35033
 391  80.09742
 392  64.7272
 393  159.6433
 394  219.7374
 395  129.8467
 396  181.4253
 397  313.4204
 398  166.4319
 399  42.51267
 400  12.28592
 401  93.42863
 402  125.7474
 403  214.9722
 404  229.2325
 405  216.3081
 406  250.1024
 407  385.9016
 408  346.3123
 409  83.62726
 410  2.732275
 411  -1.959176
 412  36.48479
 413  63.28704
 414  212.3663
 415  221.4216
 416  220.0895
 417  104.7277
 418  90.00278
 419  232.2641
 420  208.6812
 421  212.0719
 422  204.0367
 423  76.42155
 424  104.6639
 425  181.3412
 426  179.8796
 427  161.4924
 428  235.3539
 429  148.2137
 430  155.2001
 431  257.7249
 432  251.7301
 433  87.88913
 434  91.23727
 435  118.4583
 436  126.007
 437  207.5923
 438  48.65035
 439  11.26943
 440  147.7894
 441  112.9668
 442  146.6907
 443  163.0103
 444  199.0275
 445  181.8531
 446  178.9811
 447  168.1034
 448  62.04936
 449  -19.49619
 450  219.8729
 451  265.4467
 452  154.5887
 453  102.4706
 454  103.8844
 455  195.4761
 456  127.3592
 457  44.14573
 458  129.3916
 459  7.666491
 460  2.271588
 461  92.41965
 462  97.21012
 463  62.6721
 464  147.3107
 465  103.3074
 466  199.1338
 467  90.25484
 468  -2.020021
 469  114.9462
 470  68.65419
 471  50.35472
 472  54.47357
 473  21.72762
 474  130.0488
 475  219.4356
 476  357.0327
 477  335.2745
 478  174.2678
 479  278.3908
 480  139.3167
 481  205.0797
 482  310.1584
 483  98.12726
 484  43.60717
 485  140.4018
 486  21.89651
 487  119.4433
 488  167.4095
 489  236.3244
 490  331.186
 491  336.9734
 492  337.5045
 493  274.304
 494  246.1621
 495  209.7907
 496  162.0127
 497  231.1095
 498  397.3117
 499  349.5567
 500  251.308
 501  142.1499
 502  44.09494
 503  273.3486
 504  321.4703
 505  309.7498
 506  273.2642
 507  197.3494
 508  295.6732
 509  465.4238
 510  628.3892
 511  853.2366
