# Input file       =  1187043050.110137_cleaned.dat
# Candidate        =  PSR_0332+5434
# Telescope        =  AR
# Epoch_topo       =  57982.923982756212
# Epoch_bary       =  N/A
# T_sample         =  0.002
# Data Folded      =  7208960
# Data Avg         =  0.0211783294367843
# Data StdDev      =  1.00019548589589 
# Profile Bins     =  512
# Profile Avg      =  298.190529437003 
# Profile StdDev   =  118.682371988816 
# Reduced chi-sqr  =  1.393
# Prob(Noise)      <  8.79e-09   (~5.6 sigma)
# P_topo (ms)      =  714.464259338693  +/- 0.000146
# P'_topo (s/s)    =  -0                +/- 7.85e-11
# P''_topo (s/s^2) =  0                 +/- 3.53e-14
# P_bary (ms)      =  N/A
# P'_bary (s/s)    =  N/A
# P''_bary (s/s^2) =  N/A
# P_orb (s)        =  N/A
# asin(i)/c (s)    =  N/A
# eccentricity     =  N/A
# w (rad)          =  N/A
# T_peri           =  N/A
######################################################
   0  1052.782
   1  917.0756
   2  693.5215
   3  472.3446
   4  413.3863
   5  316.5832
   6  278.0812
   7  331.3869
   8  294.6046
   9  384.3198
  10  385.149
  11  272.7415
  12  269.6666
  13  240.2967
  14  371.6082
  15  575.0305
  16  454.142
  17  387.8106
  18  167.5559
  19  222.6414
  20  350.2719
  21  232.0309
  22  368.8303
  23  380.8426
  24  488.9023
  25  280.678
  26  243.8569
  27  266.712
  28  283.6675
  29  445.602
  30  397.1999
  31  331.6919
  32  197.6334
  33  250.8774
  34  264.4744
  35  265.29
  36  366.6431
  37  278.4189
  38  372.3604
  39  292.4137
  40  316.958
  41  161.5387
  42  184.2986
  43  221.5044
  44  258.0926
  45  244.2674
  46  260.9196
  47  253.0778
  48  372.3755
  49  359.5893
  50  275.9965
  51  176.0381
  52  305.62
  53  269.26
  54  239.111
  55  327.665
  56  329.5956
  57  393.1856
  58  402.2535
  59  200.2365
  60  219.7335
  61  417.0501
  62  471.4364
  63  269.3231
  64  139.3645
  65  212.5135
  66  223.3994
  67  235.5075
  68  245.0488
  69  173.4231
  70  188.6804
  71  319.3239
  72  326.2132
  73  162.849
  74  180.9376
  75  355.8107
  76  384.3271
  77  332.7847
  78  222.8886
  79  164.5612
  80  184.7332
  81  229.0836
  82  428.2321
  83  403.467
  84  378.5913
  85  430.816
  86  297.3448
  87  196.1828
  88  318.2584
  89  350.0982
  90  326.1015
  91  300.0003
  92  313.2452
  93  411.4262
  94  289.2632
  95  341.1851
  96  419.3645
  97  321.8105
  98  321.5218
  99  222.7067
 100  220.7996
 101  278.1859
 102  242.9687
 103  193.7777
 104  282.3076
 105  255.4619
 106  272.5358
 107  258.6365
 108  227.2198
 109  284.8655
 110  227.7534
 111  251.5885
 112  287.6246
 113  233.9113
 114  249.5113
 115  330.6899
 116  297.4022
 117  129.5145
 118  152.7298
 119  295.6975
 120  380.1966
 121  219.0364
 122  159.967
 123  226.71
 124  311.2004
 125  369.883
 126  351.2595
 127  236.785
 128  229.1736
 129  389.8961
 130  374.5452
 131  236.8635
 132  317.0947
 133  319.5438
 134  369.1114
 135  365.4338
 136  381.9852
 137  320.8964
 138  312.3856
 139  308.472
 140  387.6566
 141  418.261
 142  380.3033
 143  229.1708
 144  234.1788
 145  189.7587
 146  156.3755
 147  227.3191
 148  338.8227
 149  393.8784
 150  322.7433
 151  346.4382
 152  283.9292
 153  360.9961
 154  381.2858
 155  418.4045
 156  255.0621
 157  337.6609
 158  516.3628
 159  452.4453
 160  346.3657
 161  384.9873
 162  346.941
 163  421.8678
 164  375.9642
 165  350.1592
 166  303.5235
 167  233.685
 168  270.6053
 169  226.1819
 170  227.5744
 171  210.394
 172  290.0468
 173  337.9073
 174  175.2812
 175  125.9845
 176  223.0648
 177  227.2592
 178  245.2007
 179  231.5918
 180  233.7307
 181  257.965
 182  278.2209
 183  164.4612
 184  221.4475
 185  220.871
 186  87.32394
 187  236.7052
 188  187.4222
 189  212.9187
 190  270.1589
 191  370.5493
 192  325.1761
 193  215.7123
 194  226.2051
 195  190.6892
 196  193.5864
 197  196.9462
 198  269.9678
 199  246.5914
 200  288.9784
 201  314.4818
 202  396.4503
 203  379.4234
 204  212.6108
 205  227.6511
 206  298.3498
 207  375.0306
 208  467.3589
 209  416.6235
 210  262.871
 211  216.3723
 212  260.0217
 213  177.582
 214  283.5478
 215  220.3796
 216  177.3251
 217  213.3476
 218  367.324
 219  351.7671
 220  157.1163
 221  147.1741
 222  202.5598
 223  250.7813
 224  203.0478
 225  215.3777
 226  155.2089
 227  290.9214
 228  320.798
 229  243.0703
 230  276.3554
 231  284.037
 232  274.0369
 233  264.6295
 234  351.5899
 235  185.4768
 236  185.9881
 237  263.0308
 238  351.4239
 239  307.5213
 240  334.1756
 241  385.8283
 242  497.0046
 243  364.0696
 244  246.1518
 245  300.7931
 246  299.941
 247  302.4174
 248  292.4319
 249  196.9477
 250  228.8928
 251  310.7904
 252  385.7068
 253  285.5012
 254  401.7482
 255  375.0811
 256  303.7269
 257  232.4361
 258  151.3752
 259  165.3792
 260  246.1531
 261  333.2753
 262  361.2796
 263  371.1803
 264  258.987
 265  145.9438
 266  306.6388
 267  374.0255
 268  309.2826
 269  277.7309
 270  435.4112
 271  371.7168
 272  283.8717
 273  308.0691
 274  261.5299
 275  261.1692
 276  243.3239
 277  325.0107
 278  292.0706
 279  187.1122
 280  212.6291
 281  348.7249
 282  411.955
 283  335.8447
 284  247.9177
 285  220.3079
 286  251.9815
 287  241.8116
 288  249.3353
 289  255.8454
 290  199.6946
 291  144.7738
 292  237.2926
 293  250.6125
 294  306.3187
 295  400.7447
 296  401.6406
 297  329.2644
 298  231.7117
 299  297.8716
 300  431.8547
 301  331.2693
 302  175.9962
 303  158.5129
 304  202.3482
 305  281.3354
 306  286.9843
 307  246.2423
 308  336.2856
 309  519.8019
 310  503.894
 311  456.7512
 312  307.2875
 313  233.3733
 314  328.1328
 315  277.4107
 316  361.4137
 317  312.32
 318  263.867
 319  298.0998
 320  417.1698
 321  418.1471
 322  356.1032
 323  317.8945
 324  326.7084
 325  298.2002
 326  305.0443
 327  236.5313
 328  265.6829
 329  322.9963
 330  220.6114
 331  100.2084
 332  123.3566
 333  226.327
 334  295.3879
 335  365.8919
 336  292.6108
 337  335.1277
 338  345.7726
 339  283.2615
 340  277.5305
 341  324.5816
 342  267.8022
 343  353.9735
 344  409.6183
 345  208.365
 346  79.49438
 347  257.2444
 348  356.8242
 349  286.221
 350  207.922
 351  172.6079
 352  211.9805
 353  300.9005
 354  187.0824
 355  286.4646
 356  323.5658
 357  324.4147
 358  339.1503
 359  440.2772
 360  431.6027
 361  340.7636
 362  347.8648
 363  411.1005
 364  288.8945
 365  334.8814
 366  285.9741
 367  262.2451
 368  362.213
 369  432.2587
 370  308.5414
 371  285.9753
 372  317.1998
 373  277.8018
 374  253.4423
 375  220.2106
 376  250.9191
 377  279.5611
 378  64.99329
 379  118.2601
 380  298.7194
 381  340.6003
 382  246.8217
 383  169.9979
 384  180.4948
 385  105.2076
 386  237.5477
 387  280.7329
 388  321.4455
 389  348.9762
 390  264.0829
 391  303.0621
 392  433.7074
 393  305.4499
 394  281.4461
 395  325.2085
 396  267.5649
 397  179.8292
 398  188.9373
 399  253.8568
 400  219.2478
 401  207.6507
 402  209.9061
 403  214.8675
 404  226.7466
 405  459.2426
 406  339.4939
 407  246.6924
 408  289.6821
 409  221.0724
 410  332.1351
 411  227.1799
 412  192.5945
 413  282.386
 414  312.2291
 415  273.364
 416  180.4386
 417  428.6028
 418  152.9558
 419  80.15929
 420  308.684
 421  315.9641
 422  214.7853
 423  360.8957
 424  332.4713
 425  356.7135
 426  236.5291
 427  151.9011
 428  283.2731
 429  362.2484
 430  395.5846
 431  239.6082
 432  254.2821
 433  324.1552
 434  341.9103
 435  403.6611
 436  397.7234
 437  203.6075
 438  231.4132
 439  211.125
 440  261.0486
 441  305.8644
 442  233.3117
 443  277.1028
 444  308.1729
 445  396.6108
 446  328.538
 447  283.9982
 448  274.8286
 449  180.2236
 450  196.8299
 451  335.8524
 452  270.5803
 453  239.7948
 454  344.337
 455  321.8201
 456  219.0385
 457  350.196
 458  320.8316
 459  276.7159
 460  308.3455
 461  348.4694
 462  309.5877
 463  271.5464
 464  262.7937
 465  174.5661
 466  251.7961
 467  177.9111
 468  338.76
 469  368.8739
 470  296.7023
 471  294.0518
 472  328.9456
 473  297.6545
 474  298.4233
 475  278.5282
 476  352.5156
 477  365.2041
 478  337.6981
 479  289.0354
 480  158.9494
 481  294.2022
 482  259.8146
 483  244.7765
 484  332.4497
 485  378.7414
 486  242.2798
 487  440.1996
 488  310.0778
 489  218.7822
 490  290.2671
 491  342.0504
 492  516.0591
 493  461.0509
 494  381.534
 495  317.4724
 496  274.7067
 497  439.8226
 498  378.938
 499  378.3016
 500  317.8068
 501  336.8489
 502  325.0602
 503  379.196
 504  414.0312
 505  497.6488
 506  290.8171
 507  382.3957
 508  474.7474
 509  650.8123
 510  840.4286
 511  899.0375
