# Input file       =  1187301600.114617_cleaned.dat
# Candidate        =  PSR_0332+5434
# Telescope        =  AR
# Epoch_topo       =  57985.916459659922
# Epoch_bary       =  N/A
# T_sample         =  0.002
# Data Folded      =  7208960
# Data Avg         =  0.0172882219099056
# Data StdDev      =  1.00011313522312 
# Profile Bins     =  512
# Profile Avg      =  243.427831227229 
# Profile StdDev   =  118.672600325859 
# Reduced chi-sqr  =  1.592
# Prob(Noise)      <  3.35e-16   (~8.1 sigma)
# P_topo (ms)      =  714.463796465782  +/- 0.000311
# P'_topo (s/s)    =  -0                +/- 1.67e-10
# P''_topo (s/s^2) =  0                 +/- 7.51e-14
# P_bary (ms)      =  N/A
# P'_bary (s/s)    =  N/A
# P''_bary (s/s^2) =  N/A
# P_orb (s)        =  N/A
# asin(i)/c (s)    =  N/A
# eccentricity     =  N/A
# w (rad)          =  N/A
# T_peri           =  N/A
######################################################
   0  954.3698
   1  911.5071
   2  747.1537
   3  397.8037
   4  252.9292
   5  347.3514
   6  298.1561
   7  287.0958
   8  300.4062
   9  246.1981
  10  353.8557
  11  289.3806
  12  244.477
  13  230.8616
  14  285.1427
  15  307.6368
  16  70.02594
  17  148.6031
  18  217.4109
  19  187.9185
  20  142.1949
  21  175.6401
  22  228.2776
  23  194.5884
  24  166.7054
  25  321.3427
  26  370.8129
  27  173.8381
  28  118.5944
  29  205.3923
  30  310.7822
  31  182.5349
  32  168.4505
  33  258.8047
  34  390.8581
  35  309.96
  36  267.5598
  37  165.8437
  38  253.9826
  39  229.3488
  40  91.40537
  41  108.0714
  42  94.58202
  43  148.3955
  44  99.49569
  45  97.75195
  46  248.9977
  47  276.1766
  48  239.5511
  49  221.2872
  50  138.7356
  51  91.07792
  52  215.6982
  53  277.471
  54  283.8494
  55  259.1612
  56  251.7717
  57  169.2052
  58  263.7419
  59  330.2674
  60  250.4797
  61  131.2653
  62  114.9268
  63  276.1702
  64  315.2807
  65  258.9522
  66  226.6076
  67  221.7808
  68  322.3627
  69  294.362
  70  219.2129
  71  177.7943
  72  130.1463
  73  106.3659
  74  141.3509
  75  84.28548
  76  -28.40292
  77  183.5967
  78  199.746
  79  206.3291
  80  177.6974
  81  255.0787
  82  305.0257
  83  319.8909
  84  323.7816
  85  289.5546
  86  34.04855
  87  210.4299
  88  382.4554
  89  326.4164
  90  247.5403
  91  305.2173
  92  322.5986
  93  209.6358
  94  282.3945
  95  266.8654
  96  290.3571
  97  289.4017
  98  323.1459
  99  162.4152
 100  140.9777
 101  200.1239
 102  287.5192
 103  129.3116
 104  235.5234
 105  312.0251
 106  331.9306
 107  355.8304
 108  326.5078
 109  241.8168
 110  202.3639
 111  147.3099
 112  185.9384
 113  178.4149
 114  208.7489
 115  360.5547
 116  203.4834
 117  158.5169
 118  214.5748
 119  180.657
 120  87.11551
 121  208.217
 122  196.2087
 123  150.9337
 124  159.1017
 125  267.5448
 126  282.3779
 127  334.1025
 128  299.5759
 129  118.1792
 130  139.7723
 131  209.199
 132  287.9203
 133  322.5659
 134  271.6612
 135  332.3449
 136  225.7627
 137  312.5478
 138  311.3783
 139  149.5562
 140  166.897
 141  232.4532
 142  184.6039
 143  162.9621
 144  184.7136
 145  170.1511
 146  165.5723
 147  200.2525
 148  192.9251
 149  153.4149
 150  155.3686
 151  220.0231
 152  312.6611
 153  218.7258
 154  181.198
 155  338.3555
 156  422.6984
 157  295.4223
 158  284.3356
 159  341.7391
 160  161.5101
 161  201.5069
 162  325.6418
 163  269.0304
 164  27.06882
 165  -87.64342
 166  159.5183
 167  176.2188
 168  312.3404
 169  265.486
 170  215.5976
 171  137.0885
 172  131.6861
 173  301.7144
 174  272.9787
 175  231.1812
 176  277.9411
 177  279.4758
 178  286.8179
 179  282.0466
 180  151.3014
 181  220.8461
 182  81.23876
 183  95.48149
 184  228.0359
 185  317.8027
 186  274.9709
 187  172.524
 188  280.1828
 189  293.0515
 190  215.7812
 191  175.33
 192  269.1449
 193  260.3511
 194  301.8852
 195  254.9683
 196  437.2617
 197  395.8241
 198  301.1336
 199  285.3733
 200  241.5093
 201  184.3128
 202  195.0424
 203  270.7491
 204  330.0946
 205  315.8346
 206  97.27071
 207  259.7047
 208  262.3059
 209  287.8846
 210  313.1103
 211  245.3161
 212  294.2671
 213  304.5005
 214  219.9051
 215  328.2104
 216  350.201
 217  294.4227
 218  296.7794
 219  271.8192
 220  219.7741
 221  214.1631
 222  207.8436
 223  264.4462
 224  357.18
 225  290.3905
 226  298.7509
 227  327.1457
 228  281.5423
 229  192.5735
 230  166.4536
 231  178.3976
 232  165.3042
 233  180.0975
 234  154.4208
 235  203.4781
 236  131.489
 237  136.8448
 238  232.3067
 239  227.4679
 240  276.5639
 241  238.0485
 242  273.3484
 243  215.0834
 244  123.8529
 245  153.7363
 246  157.5121
 247  174.106
 248  145.5008
 249  245.8948
 250  267.942
 251  172.6087
 252  188.0588
 253  139.03
 254  166.8252
 255  273.323
 256  198.7061
 257  268.4933
 258  268.5715
 259  231.4708
 260  255.6802
 261  154.8563
 262  200.2554
 263  320.3907
 264  277.4877
 265  102.0683
 266  207.6906
 267  189.3501
 268  146.9714
 269  91.37096
 270  171.9452
 271  260.176
 272  339.2227
 273  349.4224
 274  308.5173
 275  257.239
 276  251.9043
 277  219.2011
 278  224.3499
 279  281.0944
 280  240.8156
 281  265.2809
 282  358.432
 283  331.0287
 284  133.8867
 285  248.9533
 286  200.7248
 287  288.3706
 288  221.6518
 289  278.5085
 290  268.8513
 291  159.3871
 292  248.7537
 293  230.5156
 294  240.2534
 295  132.298
 296  130.0197
 297  209.5301
 298  318.3848
 299  360.4848
 300  173.9611
 301  142.5414
 302  214.9901
 303  521.1227
 304  449.4448
 305  421.8916
 306  237.8961
 307  348.2187
 308  243.308
 309  246.3523
 310  304.2477
 311  305.9633
 312  299.3386
 313  99.87759
 314  33.98856
 315  161.7639
 316  124.1717
 317  31.56217
 318  172.6405
 319  159.5331
 320  121.3256
 321  231.8758
 322  264.435
 323  232.1301
 324  79.53164
 325  228.2446
 326  259.9179
 327  207.6349
 328  222.8225
 329  329.7782
 330  276.3713
 331  271.9161
 332  115.4524
 333  281.5591
 334  353.9627
 335  188.3885
 336  285.645
 337  429.9368
 338  418.3806
 339  368.1765
 340  299.9998
 341  142.6023
 342  148.3144
 343  271.8618
 344  312.1065
 345  384.6907
 346  353.511
 347  308.4646
 348  234.741
 349  218.699
 350  184.4978
 351  251.5096
 352  170.2114
 353  172.6159
 354  160.1993
 355  199.7764
 356  181.006
 357  204.5602
 358  272.6106
 359  261.0718
 360  210.9188
 361  194.0566
 362  185.4451
 363  182.4375
 364  294.2245
 365  357.082
 366  430.0616
 367  279.6964
 368  213.2416
 369  221.4969
 370  218.091
 371  177.1413
 372  283.6478
 373  155.8416
 374  339.8536
 375  351.748
 376  298.5589
 377  344.6876
 378  240.1847
 379  321.2685
 380  283.9578
 381  207.6703
 382  235.8779
 383  237.127
 384  201.4022
 385  172.3319
 386  193.0087
 387  207.0777
 388  292.4644
 389  249.5016
 390  264.7259
 391  285.3214
 392  439.103
 393  307.1669
 394  206.7471
 395  301.9406
 396  265.0418
 397  119.3091
 398  139.1986
 399  238.2283
 400  226.0774
 401  106.5919
 402  144.9716
 403  299.4202
 404  221.1185
 405  344.4714
 406  258.8969
 407  289.9434
 408  293.2173
 409  193.3542
 410  241.1445
 411  252.7697
 412  116.4614
 413  43.71337
 414  195.8253
 415  142.2873
 416  180.5064
 417  208.0945
 418  288.6452
 419  282.4278
 420  249.1717
 421  236.5
 422  252.1469
 423  127.132
 424  72.07033
 425  157.6828
 426  251.7204
 427  260.6909
 428  297.6111
 429  284.2242
 430  225.5043
 431  228.2408
 432  205.2554
 433  241.5996
 434  143.2389
 435  193.49
 436  219.5473
 437  189.7445
 438  300.4703
 439  193.2793
 440  63.96378
 441  -1.660159
 442  87.30825
 443  251.029
 444  271.2704
 445  199.4265
 446  238.6496
 447  313.998
 448  218.6192
 449  48.97352
 450  164.9185
 451  316.7527
 452  414.3973
 453  326.8085
 454  259.1421
 455  313.9453
 456  468.1898
 457  367.7103
 458  430.1258
 459  411.6908
 460  303.2172
 461  184.1956
 462  293.9798
 463  393.2436
 464  326.3881
 465  368.0623
 466  341.6231
 467  271.963
 468  103.834
 469  207.4198
 470  288.6615
 471  181.1693
 472  278.438
 473  306.9666
 474  221.0766
 475  178.6316
 476  195.4749
 477  254.2957
 478  281.1554
 479  312.0608
 480  182.7137
 481  176.9334
 482  262.762
 483  192.4853
 484  159.2567
 485  26.68418
 486  21.8392
 487  115.6443
 488  207.836
 489  219.6456
 490  214.7074
 491  261.9
 492  198.2422
 493  269.8483
 494  296.2728
 495  264.6013
 496  305.3814
 497  180.9507
 498  209.0327
 499  259.7148
 500  144.8722
 501  127.7889
 502  86.80434
 503  322.6329
 504  429.9814
 505  406.5989
 506  407.778
 507  430.7932
 508  552.6268
 509  697.2464
 510  832.6218
 511  995.5135
