# Input file       =  1187387774.104203_cleaned.dat
# Candidate        =  PSR_0332+5434
# Telescope        =  AR
# Epoch_topo       =  57986.913843798648
# Epoch_bary       =  N/A
# T_sample         =  0.002
# Data Folded      =  7143424
# Data Avg         =  0.020052694261897
# Data StdDev      =  1.00006486734809 
# Profile Bins     =  512
# Profile Avg      =  279.761556246116 
# Profile StdDev   =  118.126246521202 
# Reduced chi-sqr  =  1.281
# Prob(Noise)      <  1.65e-05   (~4.2 sigma)
# P_topo (ms)      =  714.463677219263  +/- 0.00021
# P'_topo (s/s)    =  -0                +/- 1.14e-10
# P''_topo (s/s^2) =  0                 +/- 5.17e-14
# P_bary (ms)      =  N/A
# P'_bary (s/s)    =  N/A
# P''_bary (s/s^2) =  N/A
# P_orb (s)        =  N/A
# asin(i)/c (s)    =  N/A
# eccentricity     =  N/A
# w (rad)          =  N/A
# T_peri           =  N/A
######################################################
   0  853.0298
   1  759.4351
   2  588.6616
   3  463.5018
   4  399.1151
   5  181.6791
   6  361.5469
   7  393.9704
   8  285.5569
   9  265.5785
  10  329.9275
  11  316.6423
  12  307.893
  13  332.0764
  14  326.1503
  15  290.9172
  16  422.3842
  17  401.7364
  18  390.0224
  19  370.9895
  20  319.8869
  21  212.5635
  22  190.8772
  23  196.9531
  24  231.7932
  25  412.9654
  26  278.09
  27  336.977
  28  323.7874
  29  302.0623
  30  360.2374
  31  301.6151
  32  290.4801
  33  476.4198
  34  268.2851
  35  237.4626
  36  335.0495
  37  278.4381
  38  198.5638
  39  180.2538
  40  233.2437
  41  267.9967
  42  257.185
  43  206.9967
  44  170.475
  45  127.8406
  46  192.4951
  47  189.1515
  48  149.1839
  49  260.6079
  50  212.9974
  51  295.5317
  52  262.0402
  53  223.4641
  54  259.1326
  55  251.0299
  56  315.2206
  57  297.1649
  58  347.396
  59  217.6063
  60  362.0629
  61  400.3575
  62  349.6256
  63  287.8484
  64  328.1482
  65  380.6053
  66  256.6978
  67  245.2543
  68  121.5474
  69  190.7694
  70  231.4818
  71  295.3008
  72  146.2545
  73  202.7016
  74  231.7955
  75  233.5722
  76  280.5424
  77  301.6246
  78  258.3922
  79  221.0085
  80  253.1245
  81  243.9463
  82  111.23
  83  147.6915
  84  207.1035
  85  195.2477
  86  159.6453
  87  238.0667
  88  286.9024
  89  259.0582
  90  259.5347
  91  300.5164
  92  293.8246
  93  455.6865
  94  367.0462
  95  293.502
  96  242.1069
  97  193.5167
  98  224.966
  99  258.0978
 100  344.8622
 101  293.7742
 102  245.2608
 103  199.7956
 104  135.3316
 105  168.0716
 106  217.6031
 107  275.4973
 108  248.4809
 109  228.5119
 110  276.7777
 111  323.0466
 112  368.4074
 113  337.7485
 114  218.8037
 115  214.5575
 116  163.6316
 117  248.2356
 118  266.903
 119  352.4896
 120  297.8711
 121  292.5593
 122  315.4842
 123  296.9803
 124  263.4236
 125  298.7915
 126  325.3253
 127  205.5895
 128  272.288
 129  295.2958
 130  325.1995
 131  303.5883
 132  304.2702
 133  313.4849
 134  253.6754
 135  297.8705
 136  329.5761
 137  354.513
 138  401.7853
 139  305.1045
 140  267.5936
 141  341.751
 142  237.0278
 143  293.9797
 144  255.5358
 145  281.5451
 146  212.8962
 147  189.2059
 148  253.9834
 149  299.2145
 150  289.8239
 151  272.0742
 152  303.2843
 153  273.2792
 154  190.6468
 155  188.2807
 156  277.2395
 157  325.7265
 158  348.5525
 159  193.165
 160  266.0801
 161  289.3827
 162  225.9274
 163  270.1107
 164  320.9194
 165  230.6705
 166  111.3405
 167  247.696
 168  324.9763
 169  215.2286
 170  263.6794
 171  191.5236
 172  284.4608
 173  252.3673
 174  229.1845
 175  255.0224
 176  90.74928
 177  148.728
 178  266.7688
 179  222.7751
 180  291.6179
 181  244.8981
 182  226.4926
 183  239.4251
 184  292.9993
 185  328.7913
 186  274.4104
 187  52.27506
 188  62.02589
 189  275.4893
 190  314.3783
 191  153.0139
 192  213.1578
 193  391.4811
 194  394.0908
 195  244.8848
 196  332.3854
 197  330.6084
 198  248.3829
 199  326.2271
 200  181.2101
 201  175.0322
 202  302.4941
 203  340.5871
 204  240.8658
 205  108.7574
 206  43.66125
 207  122.0661
 208  155.6472
 209  291.4106
 210  249.6078
 211  350.4593
 212  334.233
 213  284.3088
 214  207.7001
 215  179.8939
 216  229.5937
 217  181.2067
 218  274.5528
 219  210.6101
 220  215.9675
 221  282.656
 222  317.8346
 223  260.5481
 224  187.1646
 225  215.5187
 226  209.5253
 227  232.2949
 228  331.8683
 229  294.4625
 230  284.1659
 231  196.5276
 232  258.7877
 233  222.1412
 234  241.819
 235  301.9315
 236  268.8245
 237  233.073
 238  125.438
 239  214.0917
 240  160.0182
 241  154.472
 242  87.63616
 243  226.2982
 244  302.4346
 245  221.5758
 246  360.4712
 247  375.851
 248  257.7104
 249  270.2571
 250  220.1077
 251  342.5871
 252  361.9713
 253  329.0977
 254  294.5094
 255  170.066
 256  130.0837
 257  346.9066
 258  431.8784
 259  391.6623
 260  306.0134
 261  135.0908
 262  218.2249
 263  228.8528
 264  178.6511
 265  140.7508
 266  122.1775
 267  111.4126
 268  237.7176
 269  302.4238
 270  409.1686
 271  266.6172
 272  86.8521
 273  156.1783
 274  342.501
 275  360.5086
 276  350.3645
 277  336.6262
 278  348.9697
 279  305.361
 280  245.9179
 281  126.2061
 282  166.6382
 283  426.9619
 284  344.4572
 285  244.6051
 286  285.7826
 287  331.1358
 288  290.6822
 289  378.5493
 290  360.4982
 291  324.7818
 292  241.3584
 293  310.4033
 294  232.5375
 295  208.5277
 296  342.4772
 297  428.5632
 298  291.3014
 299  185.1338
 300  207.3206
 301  174.0302
 302  183.8923
 303  172.612
 304  243.4654
 305  308.314
 306  304.677
 307  273.176
 308  191.8606
 309  213.2989
 310  266.6573
 311  105.1121
 312  215.4837
 313  273.0132
 314  361.4798
 315  168.6516
 316  64.42222
 317  215.4798
 318  249.8614
 319  354.6457
 320  472.9874
 321  280.8709
 322  242.4651
 323  246.4541
 324  337.3497
 325  288.578
 326  242.4137
 327  210.0818
 328  250.5021
 329  301.1016
 330  306.0744
 331  245.5682
 332  186.8535
 333  236.378
 334  252.2115
 335  273.6584
 336  235.1634
 337  231.5203
 338  339.8264
 339  401.8702
 340  251.4835
 341  37.34713
 342  76.87673
 343  214.293
 344  433.3946
 345  362.1613
 346  266.875
 347  266.0694
 348  258.5565
 349  48.94016
 350  104.7265
 351  113.6944
 352  239.8315
 353  331.101
 354  270.5593
 355  189.4542
 356  104.4169
 357  175.0165
 358  256.9997
 359  321.3359
 360  413.292
 361  509.4367
 362  423.8241
 363  276.8549
 364  370.034
 365  398.8946
 366  344.1031
 367  283.0212
 368  217.3441
 369  271.4291
 370  328.0827
 371  316.3643
 372  460.0645
 373  349.6124
 374  333.1132
 375  244.5915
 376  152.6652
 377  309.3444
 378  268.087
 379  140.8316
 380  69.14776
 381  125.6014
 382  282.1389
 383  311.5292
 384  360.1353
 385  269.621
 386  272.2934
 387  451.5642
 388  375.3156
 389  295.0561
 390  290.5627
 391  429.9532
 392  254.3948
 393  281.3636
 394  333.0798
 395  245.6754
 396  212.6171
 397  256.7625
 398  260.1422
 399  190.1011
 400  168.3002
 401  239.2785
 402  391.0399
 403  372.8578
 404  177.6003
 405  243.3043
 406  177.225
 407  277.7928
 408  247.224
 409  217.4263
 410  308.6406
 411  263.7336
 412  237.2689
 413  281.8923
 414  292.8208
 415  271.6854
 416  194.1189
 417  242.8226
 418  286.8482
 419  358.8049
 420  318.7695
 421  354.374
 422  372.6295
 423  303.03
 424  265.7931
 425  317.5074
 426  342.9464
 427  210.5444
 428  272.213
 429  379.3757
 430  390.8993
 431  323.5081
 432  265.6555
 433  237.9883
 434  423.9795
 435  350.9119
 436  223.8957
 437  248.0131
 438  306.0071
 439  257.9548
 440  182.7312
 441  268.7481
 442  289.4464
 443  186.7699
 444  226.3592
 445  379.2637
 446  351.0778
 447  359.6604
 448  350.5057
 449  314.8224
 450  371.6167
 451  349.2854
 452  404.0468
 453  273.3823
 454  220.2074
 455  250.6637
 456  350.1966
 457  387.2252
 458  318.388
 459  196.4353
 460  311.3274
 461  268.6116
 462  235.6897
 463  406.5822
 464  381.6185
 465  269.9827
 466  329.9304
 467  333.4806
 468  312.5
 469  336.5594
 470  343.6165
 471  331.7529
 472  328.1613
 473  233.195
 474  306.1529
 475  358.3535
 476  285.2655
 477  345.6475
 478  322.206
 479  360.028
 480  295.8239
 481  352.5424
 482  311.872
 483  384.8132
 484  262.4044
 485  327.2483
 486  485.9386
 487  403.2423
 488  309.9875
 489  454.8115
 490  474.3205
 491  284.6601
 492  176.4371
 493  252.3001
 494  312.8519
 495  300.9906
 496  262.5355
 497  289.9847
 498  115.4676
 499  344.3556
 500  424.9199
 501  317.368
 502  353.0683
 503  457.1044
 504  367.9738
 505  329.2896
 506  391.1012
 507  475.7937
 508  328.8728
 509  672.8133
 510  811.62
 511  874.9141
