# Input file       =  1187143878.108323_cleaned.dat
# Candidate        =  PSR_0332+5434
# Telescope        =  AR
# Epoch_topo       =  57984.090973475963
# Epoch_bary       =  N/A
# T_sample         =  0.002
# Data Folded      =  7340032
# Data Avg         =  0.00898073258492638
# Data StdDev      =  1.00008468810936 
# Profile Bins     =  512
# Profile Avg      =  128.637383288829 
# Profile StdDev   =  119.743176341245 
# Reduced chi-sqr  =  1.456
# Prob(Noise)      <  6.64e-11   (~6.4 sigma)
# P_topo (ms)      =  714.464072599626  +/- 0.000157
# P'_topo (s/s)    =  -0                +/- 8.3e-11
# P''_topo (s/s^2) =  0                 +/- 3.66e-14
# P_bary (ms)      =  N/A
# P'_bary (s/s)    =  N/A
# P''_bary (s/s^2) =  N/A
# P_orb (s)        =  N/A
# asin(i)/c (s)    =  N/A
# eccentricity     =  N/A
# w (rad)          =  N/A
# T_peri           =  N/A
######################################################
   0  782.951
   1  587.3569
   2  435.4504
   3  347.203
   4  337.9881
   5  243.7683
   6  127.0227
   7  249.8794
   8  175.2208
   9  84.45241
  10  68.32235
  11  115.7775
  12  88.49112
  13  124.5652
  14  163.5777
  15  81.7997
  16  116.0025
  17  218.0336
  18  222.7059
  19  133.1028
  20  -31.74335
  21  -94.04768
  22  113.9241
  23  161.931
  24  72.73931
  25  -54.24957
  26  -25.90634
  27  37.94466
  28  164.9029
  29  247.5526
  30  248.8291
  31  191.8008
  32  120.1107
  33  166.0965
  34  211.4556
  35  209.8065
  36  162.7165
  37  185.8267
  38  84.97472
  39  17.21894
  40  41.48252
  41  149.8664
  42  273.2231
  43  194.7134
  44  199.5251
  45  249.327
  46  105.4198
  47  94.59057
  48  70.84074
  49  108.9501
  50  68.66125
  51  101.239
  52  -0.8233185
  53  141.5994
  54  109.5553
  55  215.7965
  56  104.0594
  57  -51.72214
  58  42.69786
  59  135.5246
  60  263.7357
  61  112.4063
  62  118.8105
  63  234.7491
  64  162.9639
  65  179.8015
  66  223.0339
  67  271.4241
  68  261.5781
  69  26.79719
  70  -17.85588
  71  53.87339
  72  119.9083
  73  59.94756
  74  110.58
  75  239.8576
  76  212.8662
  77  178.7782
  78  174.5997
  79  202.8923
  80  185.2375
  81  216.9263
  82  108.573
  83  -39.54439
  84  -66.12782
  85  109.7907
  86  213.8087
  87  146.2197
  88  197.1708
  89  283.4809
  90  223.8238
  91  138.8974
  92  159.6016
  93  179.8994
  94  71.82891
  95  69.24483
  96  97.4789
  97  285.005
  98  320.1184
  99  247.0054
 100  273.3877
 101  181.6127
 102  86.25049
 103  91.67197
 104  53.99525
 105  48.85323
 106  41.01914
 107  51.972
 108  171.8254
 109  259.0268
 110  274.827
 111  132.1005
 112  112.5956
 113  48.22313
 114  101.3743
 115  183.3657
 116  218.6709
 117  287.7529
 118  55.25858
 119  166.8241
 120  330.1226
 121  278.5011
 122  201.9437
 123  114.7797
 124  184.6559
 125  156.1102
 126  83.11669
 127  27.61245
 128  28.41712
 129  -27.61529
 130  111.1589
 131  115.2552
 132  118.1655
 133  111.123
 134  155.1183
 135  116.318
 136  -45.15835
 137  -128.3466
 138  -34.96287
 139  38.99766
 140  147.1515
 141  172.2742
 142  152.6958
 143  38.6801
 144  -62.28951
 145  63.04087
 146  102.9854
 147  66.17892
 148  154.9541
 149  214.8931
 150  79.83608
 151  91.02903
 152  154.0107
 153  172.2235
 154  60.97652
 155  22.94316
 156  98.77153
 157  173.914
 158  169.7904
 159  79.16489
 160  59.16198
 161  194.826
 162  220.1585
 163  159.8329
 164  59.59811
 165  103.5066
 166  285.8645
 167  172.5603
 168  143.6365
 169  275.9128
 170  306.356
 171  235.0192
 172  62.37403
 173  46.4298
 174  119.5122
 175  173.4454
 176  153.9886
 177  237.9023
 178  -7.279795
 179  39.77174
 180  64.74081
 181  50.12975
 182  55.54918
 183  97.97226
 184  112.0266
 185  94.13583
 186  172.2898
 187  100.0194
 188  158.2463
 189  111.1668
 190  26.12028
 191  59.69945
 192  -17.22558
 193  -2.108402
 194  157.1799
 195  225.2945
 196  165.0135
 197  111.6178
 198  66.18977
 199  96.32984
 200  75.19476
 201  61.42544
 202  -39.72884
 203  -158.1699
 204  7.450185
 205  236.4291
 206  159.3985
 207  32.08712
 208  -28.39167
 209  251.9856
 210  73.23444
 211  57.93586
 212  120.4912
 213  123.4678
 214  204.0913
 215  125.6656
 216  99.26785
 217  98.04977
 218  85.84598
 219  147.5732
 220  199.6297
 221  229.9386
 222  72.15768
 223  -31.9122
 224  -10.96434
 225  -64.60291
 226  65.50348
 227  130.0869
 228  180.7652
 229  65.59792
 230  -66.96651
 231  -88.56525
 232  0.7278652
 233  -15.61026
 234  61.61527
 235  72.41726
 236  75.12447
 237  144.8444
 238  36.98935
 239  127.0189
 240  61.96309
 241  64.09196
 242  156.2907
 243  0.7867525
 244  27.2995
 245  20.7203
 246  143.5929
 247  125.8447
 248  60.83958
 249  168.8634
 250  147.976
 251  140.0407
 252  226.5142
 253  75.32586
 254  65.92471
 255  68.19564
 256  115.1145
 257  172.9955
 258  136.5196
 259  246.56
 260  239.2255
 261  153.3637
 262  164.2602
 263  209.8557
 264  138.6177
 265  148.4311
 266  161.0354
 267  225.6834
 268  155.9304
 269  87.84179
 270  31.82866
 271  46.63459
 272  53.25554
 273  130.0977
 274  131.9412
 275  61.34954
 276  110.8642
 277  92.29894
 278  131.4461
 279  95.77196
 280  48.50796
 281  46.6868
 282  57.07303
 283  51.42989
 284  78.94682
 285  70.56885
 286  174.2756
 287  159.9449
 288  199.2684
 289  123.2218
 290  -29.10428
 291  164.2822
 292  212.2787
 293  86.55225
 294  164.5328
 295  164.9805
 296  158.9366
 297  119.3281
 298  170.4944
 299  52.37615
 300  42.92496
 301  104.3991
 302  133.4579
 303  215.2263
 304  210.6365
 305  81.02162
 306  -26.02297
 307  -73.55724
 308  19.86293
 309  70.75115
 310  92.80685
 311  -1.968549
 312  178.861
 313  229.8064
 314  211.9279
 315  71.23828
 316  51.90447
 317  206.3823
 318  178.2668
 319  172.3197
 320  218.1232
 321  17.06013
 322  173.4926
 323  94.24444
 324  51.60417
 325  5.193524
 326  33.73061
 327  190.4342
 328  214.2454
 329  212.1851
 330  73.76114
 331  -4.775478
 332  27.44346
 333  14.47117
 334  88.41786
 335  254.7114
 336  239.218
 337  147.1087
 338  162.527
 339  119.6405
 340  202.4953
 341  291.9644
 342  332.144
 343  263.7708
 344  43.05082
 345  66.98113
 346  125.3544
 347  28.16743
 348  112.1511
 349  92.50354
 350  183.6915
 351  92.01005
 352  -49.00548
 353  44.08137
 354  214.5058
 355  157.322
 356  129.579
 357  104.7285
 358  47.69159
 359  65.16866
 360  -52.61409
 361  99.45594
 362  274.9391
 363  227.387
 364  121.443
 365  69.54919
 366  81.12316
 367  0.2911266
 368  62.57145
 369  163.843
 370  -60.318
 371  -24.33826
 372  66.84064
 373  172.659
 374  218.1258
 375  173.2997
 376  78.49002
 377  -36.06523
 378  89.42057
 379  78.62227
 380  34.75931
 381  31.22365
 382  -3.197825
 383  97.98646
 384  127.2312
 385  160.8663
 386  165.0116
 387  115.974
 388  72.66698
 389  99.74001
 390  59.19335
 391  -31.65006
 392  165.798
 393  96.98748
 394  153.1141
 395  122.7695
 396  146.5188
 397  45.62721
 398  81.47295
 399  70.01498
 400  97.0662
 401  156.7829
 402  137.4307
 403  163.2108
 404  315.9934
 405  272.8211
 406  66.5611
 407  176.2312
 408  114.4532
 409  33.16535
 410  24.33247
 411  68.18069
 412  206.1987
 413  220.3197
 414  122.7679
 415  42.6642
 416  66.93446
 417  214.4126
 418  138.3871
 419  142.5604
 420  330.6389
 421  257.0234
 422  94.12647
 423  43.84516
 424  85.82307
 425  165.6154
 426  169.1729
 427  214.3833
 428  222.6919
 429  116.2666
 430  105.6814
 431  185.6053
 432  195.1593
 433  114.5953
 434  107.4291
 435  183.3779
 436  229.2256
 437  268.1601
 438  186.7023
 439  107.6629
 440  159.3952
 441  120.2507
 442  99.24852
 443  46.5721
 444  166.9341
 445  168.5963
 446  224.3648
 447  143.9073
 448  230.9966
 449  300.8573
 450  13.02813
 451  -20.16645
 452  13.86402
 453  2.58642
 454  -0.2823414
 455  105.8534
 456  216.3893
 457  236.868
 458  240.9105
 459  131.3458
 460  148.8029
 461  118.2433
 462  47.66961
 463  98.50392
 464  173.3799
 465  275.4342
 466  232.0023
 467  227.6308
 468  247.3387
 469  190.1043
 470  168.4376
 471  117.87
 472  158.7016
 473  14.82944
 474  145.1151
 475  -20.73116
 476  12.98726
 477  35.23504
 478  97.83626
 479  95.73209
 480  149.9652
 481  264.8921
 482  205.015
 483  233.561
 484  88.37815
 485  74.18144
 486  164.9097
 487  162.3058
 488  137.9581
 489  183.5122
 490  52.22357
 491  87.33512
 492  29.44207
 493  96.00063
 494  -0.2986471
 495  57.28649
 496  149.1603
 497  9.38811
 498  148.4586
 499  211.0977
 500  189.2275
 501  148.3911
 502  131.053
 503  93.1132
 504  98.69675
 505  208.2948
 506  174.4927
 507  296.9294
 508  371.573
 509  652.8265
 510  756.0604
 511  766.0822
