# Input file       =  1187143878.108323_cleaned.dat
# Candidate        =  PSR_0332+5434
# Telescope        =  AR
# Epoch_topo       =  57984.090973475963
# Epoch_bary       =  N/A
# T_sample         =  0.002
# Data Folded      =  7340032
# Data Avg         =  0.00898073258492638
# Data StdDev      =  1.00008468810936 
# Profile Bins     =  512
# Profile Avg      =  128.637383288577 
# Profile StdDev   =  119.743176341245 
# Reduced chi-sqr  =  1.458
# Prob(Noise)      <  5.78e-11   (~6.4 sigma)
# P_topo (ms)      =  714.46407234546   +/- 0.000156
# P'_topo (s/s)    =  -0                +/- 8.24e-11
# P''_topo (s/s^2) =  0                 +/- 3.64e-14
# P_bary (ms)      =  N/A
# P'_bary (s/s)    =  N/A
# P''_bary (s/s^2) =  N/A
# P_orb (s)        =  N/A
# asin(i)/c (s)    =  N/A
# eccentricity     =  N/A
# w (rad)          =  N/A
# T_peri           =  N/A
######################################################
   0  801.2965
   1  713.9423
   2  499.0771
   3  397.6823
   4  319.6096
   5  319.2018
   6  159.1688
   7  178.0064
   8  255.1687
   9  132.899
  10  50.33985
  11  116.6025
  12  81.78038
  13  105.7758
  14  138.7369
  15  149.3855
  16  62.77499
  17  169.7452
  18  227.0162
  19  198.4764
  20  71.94683
  21  -95.77077
  22  -14.47552
  23  156.8358
  24  145.0173
  25  -9.748807
  26  -34.692
  27  -14.47843
  28  99.11454
  29  217.9449
  30  236.0098
  31  256.87
  32  129.1678
  33  143.4986
  34  185.4872
  35  226.9115
  36  185.2549
  37  172.0364
  38  143.5366
  39  40.31877
  40  26.99557
  41  71.76534
  42  228.6214
  43  258.9323
  44  157.002
  45  259.8197
  46  182.3862
  47  101.9569
  48  59.2288
  49  103.214
  50  83.13717
  51  94.83299
  52  60.28691
  53  23.12928
  54  150.3689
  55  135.1847
  56  219.0494
  57  10.62426
  58  -38.06729
  59  84.07815
  60  207.2041
  61  234.8494
  62  69.79287
  63  183.0235
  64  222.5325
  65  137.0011
  66  224.238
  67  228.6899
  68  296.0993
  69  167.6618
  70  -46.91937
  71  21.08016
  72  79.13642
  73  119.7833
  74  59.44543
  75  177.3988
  76  251.6009
  77  180.2919
  78  174.0312
  79  187.5879
  80  203.762
  81  189.4641
  82  192.543
  83  32.11219
  84  -78.34854
  85  2.744259
  86  173.5685
  87  204.5351
  88  153.1324
  89  255.5487
  90  253.1914
  91  185.0191
  92  108.8068
  93  214.9548
  94  95.74438
  95  98.57627
  96  42.02575
  97  194.5982
  98  305.8837
  99  285.7654
 100  251.5226
 101  266.2092
 102  127.6297
 103  83.08423
 104  87.52956
 105  39.24146
 106  43.46601
 107  23.25753
 108  113.6456
 109  212.3983
 110  297.8194
 111  199.3801
 112  102.9338
 113  123.8434
 114  30.99774
 115  176.5175
 116  160.7388
 117  281.5331
 118  183.8422
 119  55.93425
 120  275.2249
 121  301.7724
 122  267.4087
 123  138.9881
 124  159.7272
 125  162.9662
 126  145.0907
 127  18.22548
 128  63.52266
 129  -19.34714
 130  29.97236
 131  135.3208
 132  102.5496
 133  121.8762
 134  113.9093
 135  171.661
 136  56.9502
 137  -104.5689
 138  -95.82544
 139  -11.17515
 140  94.97157
 141  158.9499
 142  158.1172
 143  119.987
 144  -25.25853
 145  -8.091262
 146  96.48094
 147  84.24266
 148  80.16129
 149  212.4709
 150  165.1836
 151  48.50279
 152  134.8988
 153  162.2978
 154  135.0442
 155  17.76489
 156  55.78627
 157  142.0063
 158  183.6228
 159  136.6872
 160  49.21858
 161  112.5604
 162  222.4698
 163  203.5146
 164  105.7515
 165  58.65624
 166  181.1774
 167  273.907
 168  121.4738
 169  220.3002
 170  308.8944
 171  278.1481
 172  166.8723
 173  10.75408
 174  86.33019
 175  154.8808
 176  143.9355
 177  228.8571
 178  121.3694
 179  -19.05663
 180  61.39009
 181  55.92416
 182  51.61437
 183  78.83949
 184  129.9691
 185  73.68595
 186  143.6722
 187  122.5213
 188  124.9926
 189  159.078
 190  62.97132
 191  41.62102
 192  32.96046
 193  -39.9286
 194  66.63208
 195  211.6057
 196  210.6096
 197  138.1817
 198  80.2367
 199  75.70101
 200  100.6583
 201  62.68929
 202  37.83072
 203  -99.22847
 204  -138.9142
 205  146.7899
 206  208.1819
 207  120.6564
 208  -33.85372
 209  104.6279
 210  220.8979
 211  7.866543
 212  106.5097
 213  114.962
 214  171.6196
 215  191.7212
 216  85.25087
 217  110.2557
 218  93.12531
 219  103.4888
 220  173.9318
 221  198.8283
 222  188.8354
 223  -20.62029
 224  6.836289
 225  -59.46159
 226  2.369529
 227  96.41803
 228  175.2502
 229  145.7793
 230  -11.50639
 231  -89.04032
 232  -52.10775
 233  14.63298
 234  -0.1938559
 235  80.52875
 236  57.71581
 237  101.5548
 238  115.3864
 239  48.48687
 240  143.8951
 241  15.90386
 242  144.4587
 243  79.16031
 244  9.143998
 245  15.84598
 246  68.33384
 247  163.3273
 248  69.41361
 249  109.9776
 250  186.7925
 251  119.7288
 252  188.277
 253  173.6402
 254  29.94607
 255  97.45452
 256  62.96468
 257  166.0446
 258  145.0985
 259  172.0264
 260  265.9074
 261  191.2072
 262  135.115
 263  206.2897
 264  169.8691
 265  145.3462
 266  144.3543
 267  220.8955
 268  191.7597
 269  121.564
 270  61.02
 271  32.93083
 272  55.14257
 273  77.45489
 274  138.6368
 275  100.3267
 276  73.8458
 277  113.5695
 278  106.1246
 279  110.8519
 280  90.88324
 281  28.32423
 282  68.62429
 283  42.03149
 284  80.42654
 285  46.38187
 286  141.6259
 287  158.8413
 288  200.0784
 289  175.0635
 290  27.03411
 291  19.22202
 292  234.4781
 293  135.2142
 294  130.3743
 295  166.8379
 296  180.9468
 297  119.7367
 298  148.3934
 299  129.7246
 300  26.10946
 301  82.76179
 302  89.78133
 303  192.3788
 304  217.1145
 305  176.6658
 306  4.225956
 307  -59.88489
 308  -41.52241
 309  41.35335
 310  102.7382
 311  38.4549
 312  69.71199
 313  218.5106
 314  241.3239
 315  150.2741
 316  35.73399
 317  113.3534
 318  224.5049
 319  137.9148
 320  238.2519
 321  105.4726
 322  65.51621
 323  182.7948
 324  37.62835
 325  57.88898
 326  -24.69946
 327  128.012
 328  196.4451
 329  234.2489
 330  157.2626
 331  28.91557
 332  0.9795131
 333  26.6552
 334  34.85784
 335  147.2906
 336  295.2979
 337  178.0655
 338  144.7271
 339  167.9114
 340  116.4851
 341  272.6425
 342  301.7266
 343  323.9645
 344  180.0135
 345  -6.246511
 346  144.1024
 347  53.53144
 348  67.45664
 349  114.1532
 350  117.7911
 351  166.5453
 352  9.328821
 353  -42.96646
 354  145.2422
 355  206.3992
 356  133.1383
 357  135.927
 358  73.08744
 359  59.35343
 360  7.998241
 361  -32.34627
 362  207.2116
 363  291.7997
 364  172.0847
 365  91.94833
 366  65.99968
 367  48.11273
 368  4.110035
 369  135.5444
 370  83.85539
 371  -93.73825
 372  31.75521
 373  101.9838
 374  213.2657
 375  203.1782
 376  149.5775
 377  -2.912244
 378  -6.308056
 379  120.6902
 380  48.28555
 381  42.2396
 382  10.30025
 383  17.12785
 384  144.395
 385  116.2151
 386  189.7351
 387  125.7526
 388  107.6166
 389  64.70177
 390  116.6307
 391  -13.80623
 392  50.17648
 393  168.0869
 394  85.71304
 395  165.5776
 396  132.051
 397  111.7633
 398  48.90357
 399  79.20233
 400  77.47893
 401  120.38
 402  156.3767
 403  123.3991
 404  231.5511
 405  331.9222
 406  196.3421
 407  61.8924
 408  209.4756
 409  36.81803
 410  56.59443
 411  13.60377
 412  136.8219
 413  230.7489
 414  163.2658
 415  106.4556
 416  9.986406
 417  139.7063
 418  215.0136
 419  85.86639
 420  261.3529
 421  316.705
 422  185.1501
 423  50.08201
 424  61.86039
 425  108.4366
 426  176.435
 427  174.8905
 428  251.8248
 429  173.8661
 430  107.4659
 431  113.6926
 432  220.4097
 433  140.2579
 434  107.8614
 435  132.8179
 436  214.8797
 437  254.7166
 438  237.1187
 439  140.637
 440  117.1998
 441  172.9436
 442  108.4576
 443  71.26562
 444  72.553
 445  195.7409
 446  183.8923
 447  208.0018
 448  141.2277
 449  323.567
 450  172.6475
 451  -37.89387
 452  -4.383465
 453  18.17573
 454  -0.2000703
 455  29.97406
 456  168.4624
 457  209.397
 458  266.8137
 459  179.6991
 460  136.5583
 461  148.3906
 462  86.8876
 463  50.28168
 464  137.7295
 465  206.8919
 466  274.6306
 467  235.1832
 468  224.1857
 469  235.1361
 470  170.3981
 471  149.7922
 472  147.69
 473  83.03902
 474  69.53329
 475  103.5326
 476  -56.71105
 477  33.67268
 478  63.69325
 479  110.3275
 480  96.6156
 481  218.2915
 482  244.1448
 483  213.0219
 484  184.8512
 485  40.95388
 486  126.1662
 487  157.3294
 488  153.7497
 489  162.9355
 490  136.1798
 491  59.89149
 492  79.14266
 493  51.96523
 494  75.96008
 495  -28.50053
 496  153.2506
 497  61.46824
 498  58.25117
 499  188.1228
 500  212.353
 501  167.0361
 502  135.0231
 503  134.963
 504  55.15966
 505  176.0472
 506  178.9744
 507  228.6353
 508  310.4135
 509  477.2733
 510  746.2123
 511  746.0164
