# Input file       =  1187402369.104908_cleaned.dat
# Candidate        =  PSR_0332+5434
# Telescope        =  AR
# Epoch_topo       =  57987.082767417916
# Epoch_bary       =  N/A
# T_sample         =  0.002
# Data Folded      =  7340032
# Data Avg         =  0.0105548691835965
# Data StdDev      =  1.0002549286715  
# Profile Bins     =  512
# Profile Avg      =  151.314603291813 
# Profile StdDev   =  119.763559760664 
# Reduced chi-sqr  =  1.268
# Prob(Noise)      <  3.55e-05   (~4.0 sigma)
# P_topo (ms)      =  714.463671684283  +/- 0.00019
# P'_topo (s/s)    =  -0                +/- 1e-10
# P''_topo (s/s^2) =  0                 +/- 4.43e-14
# P_bary (ms)      =  N/A
# P'_bary (s/s)    =  N/A
# P''_bary (s/s^2) =  N/A
# P_orb (s)        =  N/A
# asin(i)/c (s)    =  N/A
# eccentricity     =  N/A
# w (rad)          =  N/A
# T_peri           =  N/A
######################################################
   0  730.4052
   1  755.72
   2  658.4749
   3  385.3685
   4  142.2802
   5  200.0847
   6  189.7799
   7  294.13
   8  294.6158
   9  191.2532
  10  240.258
  11  199.6881
  12  114.2351
  13  202.2067
  14  211.4122
  15  176.1301
  16  214.5981
  17  180.0888
  18  87.3843
  19  120.2883
  20  43.36472
  21  -7.47718
  22  150.4119
  23  205.5801
  24  219.0027
  25  157.4841
  26  96.99883
  27  212.9013
  28  198.1953
  29  226.996
  30  49.11971
  31  93.7983
  32  184.875
  33  205.8441
  34  206.6273
  35  81.01487
  36  42.74062
  37  147.3473
  38  107.3009
  39  -2.583502
  40  87.75239
  41  170.7881
  42  103.8244
  43  255.5813
  44  193.0585
  45  152.098
  46  171.4126
  47  198.1885
  48  204.9261
  49  242.7851
  50  88.8689
  51  -37.29007
  52  -107.6441
  53  -31.69623
  54  169.3763
  55  294.0628
  56  117.9577
  57  87.65252
  58  9.624664
  59  3.482348
  60  126.4858
  61  186.3809
  62  180.0518
  63  174.9427
  64  79.88262
  65  221.3286
  66  137.3044
  67  162.4542
  68  208.7112
  69  163.2964
  70  174.8792
  71  237.8712
  72  350.9849
  73  175.4254
  74  146.6377
  75  116.8346
  76  131.3025
  77  -4.652581
  78  61.49129
  79  78.46952
  80  -2.854777
  81  28.9054
  82  120.2489
  83  86.50436
  84  168.8727
  85  18.04917
  86  -4.727148
  87  85.31506
  88  -35.16253
  89  0.09580356
  90  117.5644
  91  148.9395
  92  334.1031
  93  153.1826
  94  -35.03774
  95  9.25835
  96  139.7154
  97  48.50874
  98  109.8161
  99  225.725
 100  292.1703
 101  212.149
 102  206.3195
 103  100.729
 104  58.8961
 105  94.15034
 106  193.9635
 107  228.5586
 108  138.2516
 109  178.1145
 110  155.5677
 111  234.172
 112  254.5474
 113  133.6967
 114  100.9295
 115  260.8667
 116  224.4652
 117  202.9351
 118  143.7471
 119  67.89658
 120  163.2448
 121  162.6006
 122  125.9188
 123  241.1873
 124  139.364
 125  155.7045
 126  277.4386
 127  234.7348
 128  266.7619
 129  221.5122
 130  165.4628
 131  265.9225
 132  231.5497
 133  236.4105
 134  74.92199
 135  155.6662
 136  270.7445
 137  243.6088
 138  123.9614
 139  64.52357
 140  136.4605
 141  281.2223
 142  338.4092
 143  315.3137
 144  161.2233
 145  138.0953
 146  22.90504
 147  42.84496
 148  185.3018
 149  234.2713
 150  310.3908
 151  218.8214
 152  134.2428
 153  22.35522
 154  229.1417
 155  153.4469
 156  141.5762
 157  22.63224
 158  84.61437
 159  186.4727
 160  156.81
 161  -15.61197
 162  9.158731
 163  123.3162
 164  133.6477
 165  150.6425
 166  24.34937
 167  211.5798
 168  159.3359
 169  119.3576
 170  227.4716
 171  122.618
 172  180.5602
 173  257.8894
 174  216.6137
 175  106.2897
 176  146.7924
 177  188.9431
 178  154.2512
 179  95.37508
 180  -34.68255
 181  4.296757
 182  98.34111
 183  201.3813
 184  158.925
 185  204.0592
 186  310.733
 187  111.3129
 188  117.7462
 189  82.31582
 190  168.5949
 191  137.0694
 192  48.32046
 193  67.97447
 194  119.5032
 195  178.4429
 196  188.8251
 197  98.91658
 198  303.9047
 199  216.0119
 200  174.4886
 201  199.7859
 202  211.8102
 203  108.4836
 204  107.9681
 205  88.7718
 206  126.7456
 207  145.4189
 208  193.1191
 209  118.8969
 210  195.0274
 211  211.414
 212  145.472
 213  191.366
 214  146.5064
 215  208.8702
 216  50.82706
 217  180.3311
 218  250.4045
 219  137.0951
 220  81.38582
 221  76.00599
 222  155.8918
 223  129.1048
 224  174.7282
 225  99.78366
 226  111.0886
 227  131.0782
 228  96.77205
 229  29.2181
 230  76.8565
 231  307.4536
 232  274.1289
 233  114.2911
 234  101.6146
 235  171.6857
 236  196.9777
 237  195.5541
 238  317.3804
 239  190.1825
 240  166.3876
 241  240.074
 242  181.9987
 243  134.1118
 244  52.92928
 245  15.51323
 246  46.27512
 247  -29.64733
 248  26.79984
 249  67.3184
 250  136.6476
 251  115.614
 252  105.1372
 253  2.479803
 254  99.30766
 255  180.8324
 256  194.8269
 257  172.9951
 258  196.8036
 259  25.36505
 260  33.02387
 261  22.91311
 262  36.82616
 263  180.1408
 264  202.6241
 265  203.4366
 266  208.002
 267  259.0925
 268  298.1794
 269  118.9866
 270  116.7717
 271  32.77341
 272  144.5947
 273  114.0506
 274  152.6915
 275  217.513
 276  227.7897
 277  152.6046
 278  151.6045
 279  26.25125
 280  24.43665
 281  122.5164
 282  89.11494
 283  263.3224
 284  151.5603
 285  193.1379
 286  209.2318
 287  78.81629
 288  57.42463
 289  -29.91616
 290  8.539109
 291  191.6543
 292  246.4059
 293  186.8444
 294  89.88146
 295  158.2482
 296  196.583
 297  91.30424
 298  152.0134
 299  230.0541
 300  154.594
 301  156.6062
 302  151.1258
 303  94.69815
 304  233.5932
 305  264.293
 306  62.71428
 307  33.44637
 308  132.7299
 309  103.6853
 310  16.17142
 311  85.61252
 312  69.9015
 313  176.7209
 314  154.6995
 315  142.4144
 316  203.6109
 317  298.5456
 318  278.2256
 319  29.60131
 320  65.98449
 321  69.07121
 322  158.6731
 323  114.2045
 324  61.4936
 325  145.6797
 326  216.7318
 327  95.03413
 328  -41.12746
 329  -68.04167
 330  -27.75941
 331  105.784
 332  126.7525
 333  124.8684
 334  89.00754
 335  210.2861
 336  109.0682
 337  34.67988
 338  -9.198411
 339  162.4834
 340  129.0883
 341  81.47363
 342  173.51
 343  116.176
 344  282.8581
 345  177.6234
 346  234.9356
 347  243.1026
 348  126.6694
 349  178.2645
 350  311.1717
 351  232.4064
 352  167.2849
 353  163.2503
 354  91.80932
 355  172.7454
 356  117.7327
 357  81.94912
 358  121.1995
 359  28.23465
 360  42.65659
 361  153.0383
 362  218.6688
 363  -34.76751
 364  -35.75555
 365  148.5224
 366  216.7395
 367  128.1962
 368  177.6247
 369  188.9099
 370  72.57648
 371  78.05925
 372  166.4824
 373  161.0344
 374  126.3712
 375  218.5853
 376  166.8465
 377  290.6428
 378  201.1518
 379  261.9434
 380  157.5959
 381  158.9643
 382  331.0357
 383  314.3333
 384  198.7771
 385  117.5504
 386  132.7287
 387  140.8733
 388  78.06013
 389  74.39685
 390  110.4359
 391  259.6203
 392  196.2559
 393  190.9495
 394  131.7865
 395  -3.554873
 396  35.38427
 397  114.3456
 398  195.3364
 399  23.62225
 400  62.80801
 401  302.6917
 402  257.6595
 403  203.4009
 404  93.31446
 405  -19.68706
 406  199.9977
 407  105.6415
 408  104.6311
 409  9.533917
 410  81.09326
 411  113.2005
 412  121.2852
 413  221.2139
 414  369.7274
 415  237.9064
 416  292.6326
 417  314.3156
 418  186.7704
 419  170.0837
 420  183.1262
 421  226.3508
 422  163.8086
 423  221.9677
 424  25.65629
 425  110.5107
 426  86.34118
 427  74.28996
 428  124.6725
 429  6.205566
 430  69.58121
 431  135.1201
 432  28.83653
 433  142.3043
 434  197.2626
 435  89.66896
 436  58.25192
 437  149.727
 438  123.5871
 439  210.3361
 440  131.1226
 441  113.8265
 442  94.23492
 443  62.19525
 444  26.41311
 445  156.259
 446  172.8646
 447  375.1329
 448  219.7072
 449  170.0582
 450  158.4883
 451  66.45632
 452  87.38147
 453  63.93544
 454  52.65707
 455  28.66288
 456  108.2318
 457  101.8262
 458  97.11178
 459  42.7305
 460  51.95777
 461  107.9949
 462  139.3195
 463  270.727
 464  317.5207
 465  337.5108
 466  219.1224
 467  95.82708
 468  98.9608
 469  190.3375
 470  298.5781
 471  149.7739
 472  51.11127
 473  226.6649
 474  218.8519
 475  203.3719
 476  204.8012
 477  237.912
 478  97.69347
 479  61.00657
 480  229.8676
 481  170.5773
 482  190.4051
 483  195.7506
 484  147.7442
 485  204.2723
 486  111.3253
 487  80.46166
 488  116.1089
 489  135.2971
 490  233.7716
 491  165.4412
 492  5.058767
 493  59.5116
 494  240.8315
 495  328.5653
 496  220.687
 497  93.82442
 498  85.29123
 499  204.2495
 500  156.9576
 501  121.5685
 502  57.28997
 503  199.2139
 504  404.6012
 505  254.8422
 506  225.6511
 507  246.5844
 508  215.2221
 509  217.2673
 510  475.9667
 511  599.3813
