# Input file       =  1187057703.117304_cleaned.dat
# Candidate        =  PSR_0332+5434
# Telescope        =  AR
# Epoch_topo       =  57983.093577746578
# Epoch_bary       =  N/A
# T_sample         =  0.002
# Data Folded      =  7340032
# Data Avg         =  0.0108400030691017
# Data StdDev      =  1.0001280049338  
# Profile Bins     =  512
# Profile Avg      =  155.375374603466 
# Profile StdDev   =  119.748362796161 
# Reduced chi-sqr  =  1.525
# Prob(Noise)      <  1.67e-13   (~7.3 sigma)
# P_topo (ms)      =  714.46424063396   +/- 0.000247
# P'_topo (s/s)    =  -0                +/- 1.3e-10
# P''_topo (s/s^2) =  0                 +/- 5.75e-14
# P_bary (ms)      =  N/A
# P'_bary (s/s)    =  N/A
# P''_bary (s/s^2) =  N/A
# P_orb (s)        =  N/A
# asin(i)/c (s)    =  N/A
# eccentricity     =  N/A
# w (rad)          =  N/A
# T_peri           =  N/A
######################################################
   0  902.1284
   1  704.3928
   2  527.1514
   3  331.3697
   4  207.4049
   5  227.9175
   6  268.5292
   7  331.8809
   8  316.6107
   9  119.051
  10  94.33413
  11  160.975
  12  322.1829
  13  252.6827
  14  231.1692
  15  315.9029
  16  373.4728
  17  327.8418
  18  270.191
  19  186.1679
  20  253.5726
  21  238.9791
  22  218.0729
  23  204.151
  24  263.7469
  25  152.6585
  26  139.7985
  27  350.4361
  28  353.0126
  29  240.348
  30  186.3537
  31  331.8625
  32  290.5464
  33  174.6432
  34  141.2675
  35  249.8655
  36  77.37299
  37  71.35949
  38  79.78526
  39  97.94047
  40  76.54665
  41  285.6971
  42  255.3151
  43  4.019145
  44  36.34068
  45  126.3487
  46  119.7678
  47  90.46758
  48  3.601392
  49  151.2724
  50  63.0549
  51  62.60057
  52  112.8863
  53  125.5046
  54  65.01488
  55  74.46111
  56  191.3344
  57  239.8706
  58  166.5904
  59  274.9505
  60  160.9704
  61  -92.4838
  62  162.1943
  63  338.7034
  64  215.9092
  65  190.1574
  66  251.5744
  67  250.5002
  68  153.3611
  69  219.841
  70  102.676
  71  118.4713
  72  71.55405
  73  103.2682
  74  13.33211
  75  -20.5845
  76  -4.452399
  77  147.7184
  78  106.4339
  79  20.76513
  80  260.5081
  81  318.4897
  82  205.9713
  83  78.58493
  84  137.0567
  85  228.9688
  86  185.1229
  87  224.9911
  88  96.06702
  89  89.40495
  90  53.17962
  91  143.0931
  92  174.3166
  93  290.0789
  94  259.3943
  95  145.7473
  96  148.0646
  97  132.1468
  98  72.981
  99  176.3494
 100  -12.89422
 101  89.68858
 102  153.2314
 103  226.129
 104  130.2822
 105  126.4672
 106  128.1569
 107  167.5526
 108  253.9931
 109  227.6816
 110  112.6435
 111  83.77369
 112  111.2197
 113  29.4763
 114  51.8836
 115  59.03826
 116  117.8362
 117  245.5457
 118  96.91464
 119  -60.33859
 120  -26.40035
 121  57.62964
 122  150.827
 123  273.2689
 124  267.2891
 125  168.0037
 126  245.4147
 127  368.9709
 128  237.7771
 129  180.3653
 130  176.955
 131  228.2333
 132  170.1405
 133  96.32874
 134  45.76083
 135  10.41046
 136  54.98646
 137  135.7972
 138  201.3528
 139  85.85166
 140  130.8149
 141  103.1336
 142  57.20994
 143  50.05252
 144  49.11017
 145  134.7114
 146  39.70292
 147  55.57259
 148  175.2111
 149  212.4517
 150  78.20182
 151  140.4886
 152  228.8239
 153  221.2252
 154  47.32437
 155  36.966
 156  159.9186
 157  101.8093
 158  135.7538
 159  164.2614
 160  121.8462
 161  19.16845
 162  25.08793
 163  107.9025
 164  11.51401
 165  -50.39904
 166  90.61058
 167  122.0013
 168  58.03433
 169  67.45898
 170  143.5104
 171  94.25618
 172  13.18327
 173  138.3443
 174  137.7346
 175  121.7268
 176  14.72373
 177  111.6981
 178  142.5374
 179  132.1661
 180  240.1723
 181  292.3347
 182  134.2915
 183  51.57306
 184  69.97696
 185  163.1334
 186  174.2307
 187  18.17189
 188  44.18924
 189  89.116
 190  129.1453
 191  118.3632
 192  -10.18264
 193  9.58987
 194  158.0851
 195  120.2072
 196  78.73274
 197  66.31543
 198  131.4183
 199  8.616624
 200  -59.28936
 201  44.43567
 202  63.59275
 203  126.9151
 204  185.2031
 205  186.5712
 206  103.8507
 207  154.5524
 208  160.9822
 209  125.0619
 210  39.18689
 211  29.01228
 212  212.4381
 213  152.6383
 214  124.8851
 215  272.0066
 216  320.6742
 217  298.218
 218  275.9284
 219  199.5455
 220  244.0722
 221  318.2915
 222  250.384
 223  159.0942
 224  11.10931
 225  70.35822
 226  55.98646
 227  80.26224
 228  190.9546
 229  154.8232
 230  104.3058
 231  277.3487
 232  154.1001
 233  266.9245
 234  143.6827
 235  5.586884
 236  108.1581
 237  224.9393
 238  239.0858
 239  143.4101
 240  141.42
 241  187.7241
 242  236.6656
 243  263.6117
 244  165.8919
 245  110.7847
 246  207.0036
 247  301.2346
 248  144.0448
 249  -18.91899
 250  160.0077
 251  201.2151
 252  150.4499
 253  34.86023
 254  76.23283
 255  -13.07157
 256  21.75651
 257  -32.10677
 258  -84.53581
 259  63.20407
 260  208.8099
 261  314.6743
 262  111.6966
 263  136.3592
 264  199.3483
 265  40.00785
 266  47.99665
 267  303.3937
 268  180.8055
 269  186.96
 270  88.71219
 271  131.7446
 272  181.4114
 273  130.753
 274  165.9997
 275  158.3173
 276  134.9797
 277  102.4592
 278  49.44849
 279  -16.66052
 280  125.2574
 281  191.4553
 282  182.0135
 283  27.51379
 284  -67.36058
 285  251.4168
 286  138.982
 287  51.08968
 288  70.23233
 289  178.0518
 290  83.07203
 291  53.54186
 292  125.4401
 293  129.4655
 294  131.7524
 295  109.9319
 296  225.4321
 297  112.4337
 298  155.0976
 299  303.8036
 300  162.8793
 301  117.2207
 302  144.7134
 303  259.3343
 304  203.3113
 305  164.9598
 306  77.63111
 307  107.0354
 308  158.6252
 309  73.82854
 310  111.0692
 311  165.3402
 312  138.1675
 313  194.8205
 314  243.9044
 315  39.3535
 316  39.17029
 317  92.06935
 318  209.5017
 319  187.9358
 320  160.6915
 321  162.2976
 322  198.2058
 323  169.7361
 324  182.1244
 325  212.5776
 326  95.93449
 327  45.32782
 328  61.46535
 329  181.9243
 330  158.1695
 331  153.7955
 332  159.1297
 333  197.9677
 334  171.9443
 335  98.90712
 336  273.6869
 337  241.6992
 338  122.7492
 339  138.1931
 340  232.8291
 341  267.8766
 342  186.5493
 343  38.34865
 344  10.81535
 345  135.4337
 346  34.93534
 347  95.94308
 348  29.24545
 349  127.9559
 350  193.3515
 351  104.3376
 352  128.9898
 353  336.0291
 354  284.8081
 355  135.1827
 356  254.6987
 357  190.8918
 358  158.8528
 359  152.0868
 360  174.863
 361  63.86523
 362  124.4767
 363  83.94653
 364  92.30904
 365  83.01362
 366  27.1719
 367  35.59367
 368  244.9184
 369  255.0164
 370  251.6584
 371  296.5258
 372  175.535
 373  110.9622
 374  96.10948
 375  207.0434
 376  157.6429
 377  339.0645
 378  214.6056
 379  127.3511
 380  273.0619
 381  369.107
 382  346.6376
 383  359.2056
 384  283.5906
 385  283.8646
 386  229.0365
 387  230.6946
 388  124.0164
 389  189.1979
 390  174.5368
 391  164.7347
 392  170.0132
 393  65.95329
 394  170.0067
 395  157.0735
 396  139.3499
 397  132.1674
 398  -42.67764
 399  11.16156
 400  280.9719
 401  142.236
 402  157.4533
 403  160.3944
 404  87.98661
 405  115.1665
 406  187.1623
 407  205.6863
 408  152.7199
 409  122.7641
 410  47.71892
 411  95.65713
 412  150.2081
 413  211.9783
 414  121.917
 415  102.6989
 416  70.22063
 417  52.70819
 418  80.46783
 419  150.9794
 420  45.76715
 421  144.4506
 422  288.9871
 423  163.3488
 424  63.25506
 425  79.80191
 426  25.20203
 427  162.4251
 428  158.5142
 429  110.3075
 430  72.982
 431  112.8516
 432  206.6516
 433  172.0473
 434  211.2623
 435  196.648
 436  207.5043
 437  357.2532
 438  192.8309
 439  192.6649
 440  143.3368
 441  178.6099
 442  169.4932
 443  168.1776
 444  198.7242
 445  65.745
 446  86.72829
 447  103.3333
 448  35.19666
 449  63.03955
 450  -38.3479
 451  157.1904
 452  287.0414
 453  189.2175
 454  171.2258
 455  198.8056
 456  203.9573
 457  243.4869
 458  230.133
 459  166.0187
 460  204.0079
 461  345.2342
 462  251.7168
 463  224.2502
 464  118.7052
 465  63.98747
 466  10.01191
 467  114.0875
 468  261.9129
 469  280.2546
 470  134.6749
 471  43.70589
 472  105.0774
 473  142.9743
 474  129.2617
 475  195.9761
 476  86.67887
 477  112.5585
 478  101.7366
 479  168.21
 480  251.5367
 481  98.40944
 482  69.99577
 483  0.9936609
 484  188.6429
 485  248.1487
 486  302.5538
 487  230.9413
 488  108.486
 489  3.371937
 490  23.73343
 491  -40.8623
 492  52.7869
 493  151.4436
 494  234.695
 495  166.7427
 496  113.8952
 497  111.7433
 498  247.3208
 499  306.3174
 500  149.2155
 501  194.3975
 502  206.5824
 503  173.2511
 504  204.3562
 505  222.2023
 506  198.2352
 507  273.1884
 508  401.9562
 509  487.0147
 510  649.9527
 511  857.6126
