# Input file       =  1187919303.11137_cleaned.dat
# Candidate        =  PSR_0332+5434
# Telescope        =  AR
# Epoch_topo       =  57993.065799900120
# Epoch_bary       =  N/A
# T_sample         =  0.002
# Data Folded      =  7340032
# Data Avg         =  0.0056126169796453
# Data StdDev      =  1.00003540494257 
# Profile Bins     =  512
# Profile Avg      =  80.544603652331  
# Profile StdDev   =  119.737275518043 
# Reduced chi-sqr  =  1.774
# Prob(Noise)      <  1.65e-24   (~10.2 sigma)
# P_topo (ms)      =  714.463343051065  +/- 0.000154
# P'_topo (s/s)    =  -0                +/- 8.13e-11
# P''_topo (s/s^2) =  0                 +/- 3.59e-14
# P_bary (ms)      =  N/A
# P'_bary (s/s)    =  N/A
# P''_bary (s/s^2) =  N/A
# P_orb (s)        =  N/A
# asin(i)/c (s)    =  N/A
# eccentricity     =  N/A
# w (rad)          =  N/A
# T_peri           =  N/A
######################################################
   0  847.1188
   1  757.4929
   2  787.1643
   3  441.2199
   4  -18.29359
   5  -136.8124
   6  44.6322
   7  191.0409
   8  -18.16914
   9  -11.65085
  10  -17.84357
  11  109.6933
  12  212.0901
  13  219.4791
  14  143.6055
  15  93.27839
  16  90.88345
  17  244.9477
  18  203.6624
  19  144.2716
  20  -47.21171
  21  -150.0757
  22  -120.7911
  23  -46.0043
  24  63.64577
  25  221.6628
  26  101.0055
  27  62.75056
  28  127.4038
  29  145.3073
  30  52.5194
  31  111.0159
  32  131.0336
  33  216.6096
  34  221.4194
  35  122.9506
  36  -8.460545
  37  -17.90372
  38  185.5667
  39  241.7663
  40  96.28123
  41  110.8447
  42  115.2262
  43  22.26789
  44  69.40856
  45  95.38347
  46  17.99549
  47  -69.89384
  48  -53.21637
  49  119.8311
  50  128.0397
  51  84.43397
  52  174.2076
  53  73.48052
  54  117.8229
  55  37.22111
  56  -35.81912
  57  -3.041566
  58  -73.66949
  59  177.7985
  60  209.296
  61  72.97644
  62  159.5569
  63  37.23982
  64  -105.3215
  65  -112.971
  66  36.07556
  67  227.9285
  68  50.88942
  69  34.71389
  70  36.73939
  71  3.6164
  72  3.207766
  73  94.9961
  74  69.93627
  75  -43.93338
  76  -95.83563
  77  48.81132
  78  165.3842
  79  99.35436
  80  170.6287
  81  122.627
  82  58.2146
  83  174.3754
  84  229.3885
  85  244.3603
  86  153.1688
  87  126.5213
  88  26.75975
  89  96.65672
  90  231.1318
  91  56.73132
  92  60.11946
  93  -31.23493
  94  -37.59899
  95  82.39796
  96  68.43784
  97  67.28432
  98  89.76181
  99  82.94415
 100  89.84538
 101  27.5894
 102  -5.332355
 103  61.39241
 104  95.45747
 105  189.0123
 106  26.63188
 107  118.0766
 108  180.6758
 109  -9.430766
 110  94.98729
 111  187.5537
 112  74.78481
 113  68.29041
 114  32.94281
 115  139.0822
 116  30.20788
 117  108.2911
 118  269.5004
 119  124.5855
 120  99.81216
 121  20.17485
 122  58.52343
 123  139.7008
 124  -23.73336
 125  -23.77009
 126  75.66246
 127  136.3832
 128  99.72542
 129  -21.14755
 130  -64.89015
 131  -2.065805
 132  14.04891
 133  -25.78238
 134  59.60741
 135  -31.87389
 136  60.54994
 137  41.26905
 138  138.7225
 139  115.3721
 140  75.06911
 141  -3.317778
 142  44.76349
 143  31.31327
 144  -45.60352
 145  -31.12449
 146  132.1765
 147  68.07597
 148  73.15105
 149  24.21185
 150  110.023
 151  -60.76872
 152  -30.11064
 153  44.49211
 154  235.2914
 155  210.6566
 156  66.91998
 157  -19.95914
 158  9.36324
 159  120.8365
 160  155.9209
 161  -28.61339
 162  106.87
 163  26.36293
 164  -15.84845
 165  99.01172
 166  136.2984
 167  170.9652
 168  222.9684
 169  102.372
 170  65.33965
 171  79.89688
 172  78.79544
 173  183.6099
 174  -41.74306
 175  -0.08746333
 176  101.791
 177  94.94578
 178  178.1426
 179  7.904285
 180  50.07175
 181  57.10839
 182  -27.61347
 183  45.96512
 184  53.95264
 185  89.16019
 186  9.824329
 187  210.8759
 188  125.0271
 189  62.02623
 190  42.30656
 191  74.41174
 192  31.69875
 193  28.00945
 194  88.74532
 195  32.85669
 196  49.19439
 197  70.71718
 198  52.98284
 199  -19.08861
 200  17.58077
 201  -3.464196
 202  57.43941
 203  73.94725
 204  60.69931
 205  42.3109
 206  93.22394
 207  -50.0695
 208  30.16462
 209  68.80561
 210  -31.38296
 211  -134.6604
 212  -51.27436
 213  158.1298
 214  201.9382
 215  30.32444
 216  -25.36406
 217  133.2444
 218  207.2741
 219  187.9434
 220  72.84
 221  107.0774
 222  70.74179
 223  37.95664
 224  128.0607
 225  153.4778
 226  -13.33806
 227  -116.8325
 228  -74.62129
 229  42.48793
 230  121.9647
 231  47.71316
 232  -23.38425
 233  -37.7132
 234  102.5111
 235  26.23872
 236  80.99564
 237  57.32498
 238  27.35763
 239  -3.753779
 240  22.72858
 241  44.19576
 242  156.7312
 243  8.653534
 244  11.82963
 245  35.25235
 246  124.351
 247  26.01993
 248  85.15984
 249  152.5575
 250  100.2806
 251  76.49429
 252  173.4817
 253  111.4364
 254  -53.33339
 255  136.7684
 256  51.20345
 257  158.0564
 258  68.29057
 259  137.9493
 260  129.9797
 261  125.8607
 262  71.65299
 263  -148.749
 264  -116.1732
 265  4.149381
 266  34.2415
 267  32.0159
 268  236.401
 269  216.1282
 270  61.51061
 271  -125.8056
 272  -112.5072
 273  35.90562
 274  4.969935
 275  32.24778
 276  208.9834
 277  173.6364
 278  73.45409
 279  25.01673
 280  -14.84141
 281  -141.3439
 282  72.62979
 283  186.296
 284  144.1858
 285  -9.832334
 286  -74.20174
 287  -53.68766
 288  -45.89569
 289  113.663
 290  130.679
 291  -50.30388
 292  -16.0291
 293  -17.21691
 294  -54.09617
 295  42.87147
 296  44.86403
 297  62.78439
 298  79.37718
 299  88.10963
 300  94.18403
 301  137.6181
 302  124.7446
 303  41.81599
 304  -10.53245
 305  26.11452
 306  168.3987
 307  187.6149
 308  62.65466
 309  -25.65217
 310  24.4933
 311  159.0995
 312  74.08979
 313  190.8068
 314  91.76484
 315  -71.87192
 316  25.89993
 317  77.74312
 318  181.5358
 319  153.4621
 320  62.10026
 321  53.34125
 322  26.3583
 323  94.55869
 324  28.19691
 325  24.1472
 326  80.94833
 327  136.2504
 328  59.07251
 329  -45.62246
 330  -13.0921
 331  208.1553
 332  77.15009
 333  -44.05207
 334  35.18846
 335  97.52974
 336  137.9728
 337  137.3852
 338  44.77008
 339  -60.16008
 340  -69.24924
 341  41.80654
 342  34.31269
 343  72.97472
 344  32.36413
 345  -57.84999
 346  -166.6245
 347  -26.56419
 348  68.11788
 349  120.4076
 350  115.3568
 351  77.27461
 352  209.1449
 353  132.5543
 354  110.1224
 355  119.6108
 356  107.0003
 357  -10.17267
 358  20.51334
 359  89.10387
 360  98.55375
 361  161.7872
 362  -39.7499
 363  34.26889
 364  16.79135
 365  120.9719
 366  -57.1964
 367  -46.26821
 368  61.77806
 369  43.58601
 370  -28.83909
 371  170.4788
 372  164.3248
 373  78.02414
 374  75.24163
 375  187.9701
 376  138.1433
 377  283.5027
 378  253.9501
 379  160.0724
 380  172.581
 381  176.0662
 382  41.55136
 383  144.875
 384  83.67551
 385  131.518
 386  95.36032
 387  40.84386
 388  137.351
 389  -67.92725
 390  102.1128
 391  165.2697
 392  136.8213
 393  96.68292
 394  20.54037
 395  39.11066
 396  100.4734
 397  71.76882
 398  149.0594
 399  -7.201107
 400  -99.73492
 401  -62.93977
 402  9.517055
 403  -13.42783
 404  95.85004
 405  -52.40993
 406  -64.05737
 407  87.81699
 408  207.0934
 409  118.1007
 410  -75.54007
 411  60.71194
 412  161.7383
 413  -40.93102
 414  -56.89395
 415  4.297209
 416  83.46715
 417  81.00586
 418  70.45577
 419  141.6738
 420  168.0706
 421  167.2072
 422  106.4015
 423  104.0613
 424  144.7944
 425  137.2225
 426  189.7382
 427  274.6758
 428  158.3489
 429  -18.39014
 430  -42.93114
 431  78.05304
 432  -5.825423
 433  91.86504
 434  50.34186
 435  262.8884
 436  192.4092
 437  121.9146
 438  80.06887
 439  133.4553
 440  117.2516
 441  114.6706
 442  -4.567192
 443  116.2094
 444  42.42028
 445  -7.982326
 446  91.87605
 447  210.7117
 448  151.3618
 449  61.35519
 450  54.4123
 451  159.6436
 452  42.58491
 453  253.8571
 454  202.7903
 455  43.29446
 456  -2.073161
 457  -13.84721
 458  184.8087
 459  163.2201
 460  59.40322
 461  11.48815
 462  17.38391
 463  101.4135
 464  80.11555
 465  244.6127
 466  260.4998
 467  57.97894
 468  144.8117
 469  158.8159
 470  61.41735
 471  90.10827
 472  30.58166
 473  110.6143
 474  -3.904345
 475  4.792255
 476  106.2874
 477  14.64327
 478  -48.15166
 479  4.933249
 480  164.2569
 481  242.7901
 482  164.4757
 483  87.57837
 484  112.5272
 485  73.41922
 486  39.51328
 487  -32.70705
 488  0.2234169
 489  -33.85168
 490  -55.86764
 491  28.9481
 492  162.7706
 493  -32.56318
 494  -40.44258
 495  87.84879
 496  46.67164
 497  27.95734
 498  79.50466
 499  95.02376
 500  177.4489
 501  285.3517
 502  121.0498
 503  116.2394
 504  252.4784
 505  267.5959
 506  138.3513
 507  141.9887
 508  294.693
 509  566.7655
 510  763.4515
 511  929.0858
