# Input file       =  1187473945.116488_cleaned.dat
# Candidate        =  PSR_0332+5434
# Telescope        =  AR
# Epoch_topo       =  57987.911193477870
# Epoch_bary       =  N/A
# T_sample         =  0.002
# Data Folded      =  7471104
# Data Avg         =  0.0194775180030043
# Data StdDev      =  1.00015676095512 
# Profile Bins     =  512
# Profile Avg      =  284.284035904187 
# Profile StdDev   =  120.816287272445 
# Reduced chi-sqr  =  1.650
# Prob(Noise)      <  1.09e-18   (~8.7 sigma)
# P_topo (ms)      =  714.463576073236  +/- 0.000282
# P'_topo (s/s)    =  -0                +/- 1.46e-10
# P''_topo (s/s^2) =  0                 +/- 6.34e-14
# P_bary (ms)      =  N/A
# P'_bary (s/s)    =  N/A
# P''_bary (s/s^2) =  N/A
# P_orb (s)        =  N/A
# asin(i)/c (s)    =  N/A
# eccentricity     =  N/A
# w (rad)          =  N/A
# T_peri           =  N/A
######################################################
   0  971.7209
   1  1110.604
   2  1090.154
   3  845.7928
   4  553.4081
   5  492.6365
   6  526.4423
   7  445.3855
   8  349.0204
   9  184.3936
  10  210.4917
  11  372.1684
  12  383.1166
  13  372.7173
  14  201.5106
  15  299.5136
  16  256.7776
  17  349.1832
  18  330.8761
  19  352.0075
  20  279.8622
  21  374.4082
  22  408.3532
  23  414.1512
  24  320.1254
  25  347.9537
  26  365.3112
  27  258.861
  28  220.331
  29  297.3005
  30  248.3336
  31  336.649
  32  328.2902
  33  312.5103
  34  312.9075
  35  381.5989
  36  352.5387
  37  292.4393
  38  238.5278
  39  300.3267
  40  317.6516
  41  200.3658
  42  164.6492
  43  97.04424
  44  150.6548
  45  237.6221
  46  312.8186
  47  340.2059
  48  340.0021
  49  229.9641
  50  194.7444
  51  233.9729
  52  125.2071
  53  156.9677
  54  250.1867
  55  208.7921
  56  125.6847
  57  61.58656
  58  277.5052
  59  229.9401
  60  162.3239
  61  296.8162
  62  260.915
  63  219.9384
  64  189.2897
  65  155.5013
  66  215.9525
  67  319.8735
  68  354.7088
  69  316.7971
  70  351.1143
  71  270.2231
  72  324.1691
  73  255.9182
  74  172.3813
  75  239.9052
  76  373.1544
  77  422.4185
  78  331.9077
  79  224.0505
  80  209.9382
  81  193.7241
  82  330.8824
  83  394.9075
  84  394.8355
  85  309.1103
  86  416.7802
  87  349.0072
  88  372.0394
  89  438.9471
  90  393.4191
  91  273.5428
  92  348.1213
  93  293.9169
  94  340.4039
  95  201.5343
  96  221.7863
  97  89.71934
  98  250.1152
  99  319.5479
 100  369.3847
 101  256.2771
 102  388.0436
 103  366.2569
 104  192.2583
 105  179.4852
 106  269.7502
 107  362.4142
 108  405.3207
 109  219.789
 110  161.6319
 111  384.4819
 112  287.8561
 113  205.14
 114  244.4717
 115  415.2726
 116  500.8135
 117  334.5905
 118  256.6967
 119  96.81384
 120  112.0739
 121  246.1569
 122  253.3452
 123  260.8926
 124  239.6216
 125  213.8412
 126  244.8735
 127  270.9829
 128  48.23402
 129  209.7116
 130  212.3047
 131  71.53472
 132  147.3693
 133  235.3398
 134  218.0556
 135  255.1933
 136  180.4215
 137  187.2267
 138  190.8044
 139  189.0721
 140  243.6693
 141  259.5209
 142  296.3935
 143  264.4325
 144  264.2017
 145  208.8167
 146  103.8022
 147  311.7107
 148  249.8979
 149  157.8755
 150  309.8092
 151  398.5873
 152  306.4159
 153  208.1634
 154  164.4966
 155  284.2451
 156  173.5517
 157  339.8653
 158  421.6491
 159  363.2886
 160  265.4576
 161  180.8403
 162  187.6516
 163  294.9548
 164  376.5118
 165  395.0285
 166  307.2893
 167  264.0537
 168  328.8074
 169  427.9912
 170  401.5846
 171  359.7724
 172  258.8354
 173  207.6531
 174  155.5997
 175  235.1881
 176  205.7733
 177  160.2599
 178  184.096
 179  283.6819
 180  286.4927
 181  264.9745
 182  289.9439
 183  319.0338
 184  393.0782
 185  335.0294
 186  351.2621
 187  393.1234
 188  378.7048
 189  315.3157
 190  264.165
 191  176.7209
 192  4.396492
 193  149.9968
 194  319.1996
 195  290.2133
 196  250.0217
 197  315.8777
 198  427.2861
 199  370.7754
 200  253.9273
 201  124.0585
 202  130.1261
 203  261.5615
 204  239.4463
 205  322.6356
 206  230.5929
 207  91.86301
 208  108.9973
 209  255.6621
 210  342.2209
 211  332.1174
 212  291.2358
 213  411.0288
 214  285.5603
 215  114.6144
 216  119.6289
 217  254.9519
 218  434.1274
 219  289.0999
 220  132.54
 221  62.2627
 222  130.6895
 223  227.4649
 224  162.4622
 225  162.6667
 226  195.2213
 227  180.024
 228  141.2611
 229  139.3804
 230  322.1722
 231  191.7671
 232  104.0312
 233  227.8052
 234  276.3193
 235  65.57473
 236  128.0954
 237  80.35087
 238  260.175
 239  244.3671
 240  190.0318
 241  97.62315
 242  232.8927
 243  203.4103
 244  233.2823
 245  233.8951
 246  251.7735
 247  200.0378
 248  202.6237
 249  325.9413
 250  296.2556
 251  249.1562
 252  170.666
 253  281.1833
 254  297.9643
 255  171.1324
 256  272.8579
 257  277.9565
 258  259.6586
 259  178.7144
 260  247.9295
 261  114.9429
 262  204.7107
 263  207.1882
 264  262.0941
 265  399.6424
 266  217.5959
 267  128.6084
 268  266.9883
 269  266.154
 270  131.6416
 271  205.3293
 272  174.7044
 273  319.0634
 274  296.089
 275  261.8213
 276  186.0124
 277  256.9346
 278  272.3961
 279  209.4673
 280  164.9726
 281  194.1028
 282  239.8905
 283  324.1872
 284  344.8678
 285  246.1286
 286  250.5956
 287  248.2587
 288  222.0856
 289  291.4259
 290  347.586
 291  290.9442
 292  187.7843
 293  183.1512
 294  291.4343
 295  394.3496
 296  416.5389
 297  266.0305
 298  204.817
 299  324.0296
 300  292.449
 301  325.2753
 302  236.2562
 303  235.9319
 304  279.8963
 305  238.085
 306  274.1064
 307  252.9986
 308  314.8364
 309  405.4987
 310  367.8734
 311  401.2346
 312  323.1454
 313  259.2295
 314  295.3519
 315  369.4989
 316  433.4206
 317  340.3229
 318  311.9478
 319  324.104
 320  235.7128
 321  148.8114
 322  198.019
 323  309.5496
 324  303.9952
 325  373.5854
 326  383.8993
 327  468.0414
 328  465.974
 329  278.9326
 330  199.8091
 331  226.6562
 332  264.0577
 333  296.9179
 334  300.1859
 335  300.4213
 336  287.9091
 337  349.9728
 338  347.9926
 339  300.4816
 340  366.8487
 341  326.1639
 342  232.2025
 343  169.5774
 344  208.3867
 345  344.8089
 346  343.5539
 347  395.5162
 348  330.511
 349  379.3968
 350  362.8247
 351  391.0624
 352  368.0904
 353  350.336
 354  423.2154
 355  288.1694
 356  324.6486
 357  362.4742
 358  383.8674
 359  308.2326
 360  282.0088
 361  291.2537
 362  204.3319
 363  250.536
 364  258.8078
 365  242.1667
 366  266.5832
 367  239.0286
 368  276.1364
 369  121.5007
 370  126.4226
 371  222.3991
 372  296.9582
 373  299.2521
 374  201.2881
 375  191.6002
 376  346.6607
 377  302.5359
 378  255.2627
 379  245.2615
 380  310.8421
 381  313.1774
 382  321.11
 383  214.63
 384  190.0513
 385  339.1154
 386  296.683
 387  204.0332
 388  158.6682
 389  295.3911
 390  268.9641
 391  227.8062
 392  380.3685
 393  313.2845
 394  344.653
 395  317.6476
 396  108.9701
 397  356.5119
 398  377.888
 399  408.6519
 400  403.7063
 401  364.6959
 402  239.7663
 403  247.9444
 404  328.4435
 405  286.9351
 406  222.3424
 407  250.7528
 408  281.3797
 409  206.8972
 410  268.7695
 411  274.8934
 412  247.815
 413  271.2337
 414  369.4999
 415  332.7405
 416  413.4571
 417  377.4402
 418  341.8358
 419  314.5919
 420  283.0892
 421  157.2844
 422  253.2909
 423  297.0585
 424  227.023
 425  299.3196
 426  454.1827
 427  448.9198
 428  360.9274
 429  277.4561
 430  264.8908
 431  174.0683
 432  208.5965
 433  299.3046
 434  330.2752
 435  423.0993
 436  249.6846
 437  330.1577
 438  296.5432
 439  256.6997
 440  176.8004
 441  309.197
 442  371.9726
 443  361.6718
 444  261.0802
 445  215.8211
 446  368.9851
 447  297.5054
 448  244.131
 449  334.2585
 450  343.4619
 451  400.5471
 452  360.0265
 453  237.36
 454  160.0217
 455  189.1311
 456  344.8877
 457  376.6824
 458  271.17
 459  223.2587
 460  234.1039
 461  345.8923
 462  368.671
 463  326.532
 464  213.7644
 465  275.3169
 466  294.0053
 467  300.8766
 468  374.0722
 469  384.0035
 470  288.7513
 471  371.8127
 472  279.2888
 473  294.5354
 474  327.8509
 475  332.6796
 476  217.6533
 477  94.9557
 478  189.0734
 479  197.4844
 480  247.3444
 481  172.4323
 482  225.1335
 483  273.2971
 484  205.1795
 485  237.3971
 486  239.9916
 487  264.9845
 488  221.5579
 489  219.3392
 490  335.5779
 491  260.2149
 492  366.6379
 493  297.1162
 494  358.9352
 495  395.313
 496  410.9648
 497  267.832
 498  313.6721
 499  287.3919
 500  193.9165
 501  398.5106
 502  373.1257
 503  262.6965
 504  283.0935
 505  373.1648
 506  277.1837
 507  476.2365
 508  508.504
 509  557.4659
 510  699.7665
 511  850.0441
