# Input file       =  1187675783.136082_cleaned.dat
# Candidate        =  PSR_0332+5434
# Telescope        =  AR
# Epoch_topo       =  57990.247281667616
# Epoch_bary       =  N/A
# T_sample         =  0.002
# Data Folded      =  7340032
# Data Avg         =  0.010202107072473
# Data StdDev      =  1.00003643217868 
# Profile Bins     =  512
# Profile Avg      =  146.153995863426 
# Profile StdDev   =  119.737398512142 
# Reduced chi-sqr  =  1.306
# Prob(Noise)      <  3.56e-06   (~4.5 sigma)
# P_topo (ms)      =  714.463755012372  +/- 0.000441
# P'_topo (s/s)    =  -0                +/- 2.33e-10
# P''_topo (s/s^2) =  0                 +/- 1.03e-13
# P_bary (ms)      =  N/A
# P'_bary (s/s)    =  N/A
# P''_bary (s/s^2) =  N/A
# P_orb (s)        =  N/A
# asin(i)/c (s)    =  N/A
# eccentricity     =  N/A
# w (rad)          =  N/A
# T_peri           =  N/A
######################################################
   0  751.856
   1  656.5323
   2  433.299
   3  255.1154
   4  287.0945
   5  236.293
   6  216.7336
   7  268.8739
   8  263.3689
   9  90.48047
  10  28.05605
  11  103.6083
  12  102.7253
  13  173.6816
  14  129.7265
  15  70.61457
  16  212.1592
  17  153.1262
  18  77.73028
  19  80.49759
  20  18.69924
  21  55.83714
  22  61.66054
  23  118.054
  24  219.3579
  25  81.66124
  26  50.996
  27  21.7869
  28  117.4693
  29  98.54305
  30  14.28647
  31  120.9432
  32  199.8462
  33  108.1139
  34  45.03087
  35  173.995
  36  87.28275
  37  136.8951
  38  123.7109
  39  106.1717
  40  145.7294
  41  94.88189
  42  141.9722
  43  236.4279
  44  173
  45  141.5182
  46  64.16331
  47  219.1745
  48  34.66302
  49  -84.34305
  50  97.98006
  51  212.5565
  52  100.0166
  53  90.04956
  54  162.4994
  55  92.25943
  56  121.867
  57  136.3535
  58  251.812
  59  240.9306
  60  182.9367
  61  203.9568
  62  235.4081
  63  268.0782
  64  266.7607
  65  198.4433
  66  256.4469
  67  267.9498
  68  250.3112
  69  139.4903
  70  80.66582
  71  163.772
  72  139.0023
  73  91.59842
  74  189.1741
  75  127.6089
  76  167.6929
  77  107.8088
  78  13.53594
  79  123.3038
  80  220.374
  81  174.5436
  82  7.759251
  83  34.14557
  84  26.4733
  85  -70.08667
  86  55.19526
  87  -88.8016
  88  -43.91499
  89  152.3483
  90  107.1002
  91  -128.1275
  92  -29.1416
  93  52.67743
  94  128.9769
  95  262.7572
  96  172.1417
  97  -66.97482
  98  40.81652
  99  23.91869
 100  49.67619
 101  34.48757
 102  -10.90238
 103  129.1593
 104  137.4316
 105  107.4694
 106  28.86922
 107  167.5184
 108  202.0416
 109  130.1626
 110  116.1516
 111  128.3396
 112  145.8766
 113  75.02647
 114  79.78489
 115  116.249
 116  169.8503
 117  243.6692
 118  169.5104
 119  55.77842
 120  228.7754
 121  100.5272
 122  77.47252
 123  269.8311
 124  215.5247
 125  278.0054
 126  173.6911
 127  110.7394
 128  142.7247
 129  101.1547
 130  59.98182
 131  33.76324
 132  64.20529
 133  103.4049
 134  112.9933
 135  142.9851
 136  203.5949
 137  241.1885
 138  120.6998
 139  76.17725
 140  83.70635
 141  127.7104
 142  -12.99975
 143  38.06613
 144  202.6201
 145  111.0573
 146  50.18922
 147  101.0736
 148  118.1947
 149  251.3999
 150  253.8025
 151  227.4684
 152  -9.540619
 153  43.68144
 154  92.82442
 155  195.9398
 156  202.7703
 157  82.88678
 158  144.9711
 159  197.7803
 160  95.19109
 161  51.95763
 162  138.835
 163  117.6576
 164  75.97314
 165  -0.597178
 166  45.45099
 167  116.6432
 168  15.33039
 169  54.46972
 170  98.10812
 171  115.8886
 172  138.1782
 173  -0.5511861
 174  150.6069
 175  113.0721
 176  101.3942
 177  56.76187
 178  127.064
 179  184.9112
 180  72.82362
 181  13.05773
 182  132.1943
 183  27.71456
 184  53.79763
 185  126.5798
 186  22.15873
 187  38.88904
 188  64.76847
 189  56.21809
 190  145.5426
 191  266.0396
 192  244.4023
 193  184.8319
 194  190.9536
 195  93.14382
 196  73.64043
 197  155.763
 198  158.5016
 199  134.6631
 200  135.9229
 201  54.20413
 202  -8.98768
 203  63.83298
 204  96.8601
 205  85.87156
 206  183.5546
 207  172.6602
 208  108.9539
 209  241.1514
 210  404.6512
 211  405.7383
 212  176.8795
 213  142.1732
 214  187.8717
 215  281.1657
 216  192.9738
 217  60.68531
 218  24.32708
 219  184.1115
 220  148.13
 221  6.861569
 222  74.9611
 223  205.0295
 224  271.9146
 225  95.30008
 226  148.8122
 227  194.4196
 228  119.6518
 229  75.06704
 230  104.8235
 231  37.92361
 232  53.56339
 233  95.29309
 234  44.99341
 235  16.48835
 236  15.14211
 237  109.2093
 238  -11.57354
 239  85.89848
 240  216.161
 241  245.3824
 242  77.87
 243  71.68357
 244  127.4243
 245  111.2786
 246  137.1407
 247  215.3454
 248  315.0639
 249  140.216
 250  44.45804
 251  197.8336
 252  100.2316
 253  79.94733
 254  177.1178
 255  168.6501
 256  172.1546
 257  84.9257
 258  15.85112
 259  136.6102
 260  109.2588
 261  -85.90412
 262  -37.53608
 263  -19.78726
 264  116.6588
 265  141.3379
 266  222.6774
 267  254.0083
 268  218.2467
 269  270.9424
 270  125.5909
 271  166.4518
 272  272.7824
 273  239.9992
 274  271.292
 275  227.1969
 276  247.0642
 277  184.2356
 278  139.4544
 279  185.1704
 280  127.3546
 281  114.6897
 282  256.4517
 283  283.1376
 284  103.1673
 285  114.2574
 286  96.58826
 287  120.5283
 288  96.65108
 289  81.13039
 290  282.8727
 291  296.2278
 292  131.0965
 293  9.901198
 294  139.1777
 295  229.6084
 296  248.4679
 297  244.535
 298  156.3979
 299  164.1882
 300  286.3413
 301  310.5183
 302  184.9844
 303  139.1907
 304  92.94116
 305  44.43985
 306  5.648221
 307  77.5627
 308  176.9373
 309  124.85
 310  176.5301
 311  128.3652
 312  162.8138
 313  242.5453
 314  222.5315
 315  179.9627
 316  70.0202
 317  158.2809
 318  165.3359
 319  155.1645
 320  66.5365
 321  12.84796
 322  27.29524
 323  13.0177
 324  21.6339
 325  35.04431
 326  122.8392
 327  222.0253
 328  197.3534
 329  35.30164
 330  104.7155
 331  85.06174
 332  175.8143
 333  203.3468
 334  191.659
 335  260.4554
 336  224.6189
 337  130.4731
 338  168.8418
 339  75.1918
 340  153.1099
 341  110.0266
 342  201.9732
 343  153.8571
 344  259.2799
 345  315.3048
 346  300.6248
 347  157.4592
 348  219.6653
 349  135.4412
 350  29.87663
 351  134.3297
 352  174.3998
 353  231.098
 354  134.3619
 355  187.6147
 356  100.5714
 357  -1.044886
 358  95.16454
 359  152.0324
 360  137.9278
 361  195.0212
 362  55.57991
 363  32.68144
 364  124.4063
 365  193.9046
 366  132.0871
 367  53.90522
 368  272.1694
 369  244.6932
 370  91.17812
 371  176.3844
 372  113.5704
 373  -25.09656
 374  84.85552
 375  107.3915
 376  285.0204
 377  141.9689
 378  188.2304
 379  253.8092
 380  204.747
 381  150.6142
 382  81.87627
 383  37.73756
 384  163.3694
 385  165.7281
 386  195.5452
 387  222.3647
 388  139.654
 389  155.1073
 390  203.5452
 391  168.949
 392  154.2538
 393  143.3571
 394  132.315
 395  59.29683
 396  122.8254
 397  84.12728
 398  34.75617
 399  169.6096
 400  136.3287
 401  62.50732
 402  154.1108
 403  156.5298
 404  263.9412
 405  125.5599
 406  142.83
 407  158.3848
 408  95.99236
 409  154.5776
 410  245.6134
 411  240.6228
 412  196.796
 413  110.651
 414  188.1896
 415  288.6231
 416  132.758
 417  53.37436
 418  112.7844
 419  120.279
 420  177.6427
 421  138.2864
 422  65.08654
 423  182.5948
 424  320.3411
 425  294.3103
 426  101.013
 427  160.068
 428  285.3499
 429  98.0058
 430  135.9139
 431  233.4969
 432  237.1013
 433  210.2357
 434  165.2043
 435  62.66131
 436  188.5359
 437  226.6834
 438  172.4251
 439  126.94
 440  232.6564
 441  230.9555
 442  189.7939
 443  75.53395
 444  -17.47319
 445  101.9327
 446  206.029
 447  281.6952
 448  164.8889
 449  74.61416
 450  74.02535
 451  120.9384
 452  193.1317
 453  193.2146
 454  153.467
 455  111.4514
 456  143.8509
 457  219.0723
 458  121.807
 459  164.8862
 460  224.8856
 461  249.5255
 462  229.3971
 463  196.9158
 464  160.2902
 465  14.81499
 466  16.037
 467  17.48842
 468  192.3849
 469  210.658
 470  117.4069
 471  147.4831
 472  99.85092
 473  74.12759
 474  193.9231
 475  215.6589
 476  148.8952
 477  38.36571
 478  106.4624
 479  146.5241
 480  28.2805
 481  -38.00202
 482  58.73187
 483  116.4123
 484  86.14732
 485  67.88
 486  150.1241
 487  186.4922
 488  254.9367
 489  206.9176
 490  213.5761
 491  124.8809
 492  262.7755
 493  336.4123
 494  252.5495
 495  216.508
 496  165.2555
 497  274.1247
 498  327.2251
 499  276.077
 500  163.7508
 501  173.9755
 502  371.8537
 503  363.512
 504  298.755
 505  283.3306
 506  310.7961
 507  314.9517
 508  428.4837
 509  405.563
 510  578.5798
 511  748.2195
