# Input file       =  1187746985.105509_cleaned.dat
# Candidate        =  PSR_0332+5434
# Telescope        =  AR
# Epoch_topo       =  57991.071378535984
# Epoch_bary       =  N/A
# T_sample         =  0.002
# Data Folded      =  7340032
# Data Avg         =  0.0118960256844747
# Data StdDev      =  1.00001569146874 
# Profile Bins     =  512
# Profile Avg      =  170.553709337657 
# Profile StdDev   =  119.734915163963 
# Reduced chi-sqr  =  1.575
# Prob(Noise)      <  1.63e-15   (~7.9 sigma)
# P_topo (ms)      =  714.463383379593  +/- 0.000251
# P'_topo (s/s)    =  -0                +/- 1.32e-10
# P''_topo (s/s^2) =  0                 +/- 5.85e-14
# P_bary (ms)      =  N/A
# P'_bary (s/s)    =  N/A
# P''_bary (s/s^2) =  N/A
# P_orb (s)        =  N/A
# asin(i)/c (s)    =  N/A
# eccentricity     =  N/A
# w (rad)          =  N/A
# T_peri           =  N/A
######################################################
   0  850.3527
   1  747.7861
   2  681.6785
   3  463.6327
   4  215.1525
   5  175.0215
   6  328.77
   7  294.4852
   8  242.6955
   9  170.8373
  10  311.7948
  11  297.741
  12  199.2691
  13  131.6621
  14  163.3592
  15  261.8999
  16  321.7704
  17  255.3868
  18  206.6071
  19  18.57327
  20  240.7019
  21  344.0936
  22  303.0329
  23  275.089
  24  167.2955
  25  147.5772
  26  177.3345
  27  173.4149
  28  55.2707
  29  95.10735
  30  262.0134
  31  235.8304
  32  115.6794
  33  78.99414
  34  52.82024
  35  114.3333
  36  196.3893
  37  297.3254
  38  230.5986
  39  117.2536
  40  116.3425
  41  222.9646
  42  262.2866
  43  247.9404
  44  187.6031
  45  115.6686
  46  195.0639
  47  163.5512
  48  59.6979
  49  -46.22699
  50  71.66113
  51  -27.97781
  52  -21.11064
  53  208.3025
  54  159.6616
  55  189.9225
  56  296.9449
  57  178.5857
  58  22.76551
  59  110.8849
  60  171.6238
  61  255.5174
  62  185.8796
  63  210.3116
  64  154.6014
  65  144.4646
  66  151.168
  67  155.4254
  68  143.6024
  69  151.3331
  70  210.6588
  71  235.726
  72  148.7155
  73  220.5611
  74  202.3702
  75  141.1809
  76  82.41508
  77  133.7138
  78  170.8101
  79  149.6779
  80  94.25282
  81  150.5238
  82  156.4764
  83  177.1123
  84  100.9042
  85  108.8131
  86  217.9176
  87  251.6026
  88  166.6722
  89  225.7948
  90  123.2898
  91  159.5176
  92  256.7449
  93  167.7996
  94  190.2319
  95  154.065
  96  263.1385
  97  349.3431
  98  353.9253
  99  233.7585
 100  181.9856
 101  188.9962
 102  192.2528
 103  307.2888
 104  233.4021
 105  303.7527
 106  277.0174
 107  71.92198
 108  23.82082
 109  68.08401
 110  116.6424
 111  134.3125
 112  135.7217
 113  150.8678
 114  331.9563
 115  215.9849
 116  168.8358
 117  93.18024
 118  217.4623
 119  302.2225
 120  199.8881
 121  145.1927
 122  199.9398
 123  246.8248
 124  191.2038
 125  172.0985
 126  34.82843
 127  -65.62356
 128  33.4595
 129  -42.31154
 130  23.56032
 131  13.80141
 132  129.1583
 133  140.9378
 134  72.14883
 135  104.2283
 136  217.122
 137  218.3228
 138  138.3994
 139  155.4167
 140  180.0503
 141  239.9837
 142  186.4054
 143  104.2838
 144  171.4571
 145  79.32092
 146  201.0387
 147  242.4026
 148  312.6073
 149  263.9944
 150  153.3036
 151  86.4026
 152  186.8055
 153  277.5996
 154  260.6666
 155  49.88089
 156  32.14461
 157  54.92589
 158  215.4459
 159  327.4673
 160  160.793
 161  163.201
 162  246.6862
 163  275.9093
 164  239.8845
 165  260.8459
 166  277.3423
 167  183.025
 168  104.6584
 169  68.95098
 170  138.9709
 171  286.6687
 172  217.7424
 173  188.8723
 174  91.58176
 175  118.3964
 176  302.366
 177  202.0524
 178  90.53198
 179  151.5237
 180  139.5103
 181  184.0529
 182  185.9132
 183  107.2165
 184  73.71174
 185  174.3718
 186  172.0409
 187  136.9072
 188  215.8381
 189  103.5711
 190  114.9215
 191  190.6639
 192  245.302
 193  150.1257
 194  71.30132
 195  188.551
 196  196.7208
 197  140.1209
 198  63.79242
 199  92.52608
 200  208.1064
 201  201.7798
 202  232.5851
 203  132.7591
 204  32.84809
 205  4.236833
 206  -57.17238
 207  85.57903
 208  23.26126
 209  147.786
 210  254.0695
 211  211.1762
 212  96.29063
 213  140.3112
 214  126.1125
 215  223.0582
 216  195.9912
 217  278.2131
 218  268.4252
 219  180.0906
 220  115.9811
 221  189.2529
 222  240.4718
 223  159.81
 224  164.1538
 225  28.23183
 226  95.54649
 227  172.7979
 228  229.9859
 229  108.0004
 230  -5.703966
 231  101.2263
 232  195.34
 233  166.3365
 234  40.06629
 235  184.2098
 236  199.9151
 237  201.6326
 238  156.3937
 239  181.793
 240  236.2888
 241  165.6824
 242  97.42271
 243  171.9734
 244  175.2841
 245  54.40973
 246  93.87172
 247  179.2031
 248  122.1029
 249  192.6459
 250  220.2659
 251  248.8313
 252  225.49
 253  225.1432
 254  166.6059
 255  82.62366
 256  123.1171
 257  114.947
 258  78.95137
 259  88.24155
 260  159.3571
 261  87.15683
 262  105.7776
 263  81.59516
 264  52.64026
 265  122.4409
 266  47.52663
 267  87.19855
 268  132.5158
 269  148.3982
 270  220.7029
 271  14.35407
 272  79.70812
 273  23.16724
 274  67.59006
 275  71.45786
 276  56.45285
 277  90.65192
 278  72.19541
 279  0.4294353
 280  32.88583
 281  13.75601
 282  -27.29689
 283  32.73671
 284  174.6628
 285  203.5734
 286  223.0454
 287  144.624
 288  87.1645
 289  202.796
 290  114.6133
 291  34.69718
 292  104.1274
 293  238.8223
 294  186.604
 295  132.0652
 296  137.5394
 297  96.42123
 298  72.66039
 299  50.86252
 300  157.3241
 301  303.7356
 302  250.9634
 303  258.9794
 304  203.7084
 305  85.76627
 306  107.8281
 307  118.8493
 308  31.60485
 309  106.9291
 310  120.5841
 311  58.95807
 312  96.09357
 313  31.32623
 314  155.5839
 315  226.2853
 316  129.4755
 317  184.1373
 318  59.91693
 319  48.64016
 320  167.3774
 321  275.9764
 322  238.6109
 323  123.3113
 324  67.94694
 325  352.6937
 326  264.7427
 327  47.73274
 328  132.5144
 329  78.05224
 330  107.0241
 331  52.88694
 332  -11.85383
 333  210.8138
 334  331.4385
 335  216.007
 336  168.822
 337  177.5448
 338  87.09319
 339  23.77913
 340  194.8471
 341  246.5992
 342  187.5987
 343  173.0927
 344  153.8931
 345  68.03104
 346  43.55103
 347  164.3
 348  181.9528
 349  108.958
 350  38.28814
 351  73.33858
 352  89.55711
 353  88.6126
 354  166.6317
 355  178.9209
 356  63.20233
 357  0.4813901
 358  79.4277
 359  171.3237
 360  82.49641
 361  38.31733
 362  122.206
 363  106.5137
 364  5.256464
 365  47.85136
 366  145.911
 367  266.1157
 368  217.1999
 369  63.90192
 370  118.372
 371  162.1363
 372  85.89655
 373  148.4262
 374  102.9173
 375  69.26331
 376  178.3452
 377  218.4064
 378  252.7112
 379  220.739
 380  174.5801
 381  123.3226
 382  229.552
 383  250.4585
 384  195.404
 385  292.7821
 386  282.7983
 387  221.7003
 388  197.327
 389  154.0648
 390  72.83862
 391  131.1779
 392  273.5198
 393  333.3958
 394  391.5517
 395  202.4496
 396  -53.87292
 397  51.87422
 398  175.4861
 399  169.7067
 400  132.1552
 401  -28.20966
 402  77.7162
 403  37.56636
 404  145.5864
 405  143.3572
 406  211.796
 407  202.5928
 408  237.014
 409  50.70878
 410  132.5654
 411  267.4957
 412  216.7166
 413  250.8331
 414  270.6033
 415  154.0804
 416  140.9536
 417  189.448
 418  142.9741
 419  314.8525
 420  352.3619
 421  281.6706
 422  237.9152
 423  145.4914
 424  89.64889
 425  78.83517
 426  91.71361
 427  154.1253
 428  294.0501
 429  188.0652
 430  158.4014
 431  186.5929
 432  217.1717
 433  220.3327
 434  108.4743
 435  174.8533
 436  258.6332
 437  147.5108
 438  181.5479
 439  117.4001
 440  72.89914
 441  320.452
 442  315.9936
 443  236.0304
 444  251.4472
 445  108.2917
 446  130.8794
 447  188.274
 448  233.7379
 449  263.7543
 450  271.3802
 451  70.32259
 452  82.53973
 453  27.65725
 454  108.5067
 455  180.0913
 456  201.6029
 457  164.167
 458  96.13609
 459  159.1075
 460  241.7977
 461  143.6351
 462  144.8219
 463  227.315
 464  155.4932
 465  97.22483
 466  57.93787
 467  202.3475
 468  117.9202
 469  241.8203
 470  240.0286
 471  217.3889
 472  192.2875
 473  211.1926
 474  270.636
 475  316.0082
 476  399.7332
 477  324.6919
 478  366.3246
 479  205.6493
 480  187.1011
 481  108.4565
 482  57.04817
 483  163.7432
 484  129.0857
 485  208.793
 486  275.1437
 487  292.2092
 488  211.4781
 489  195.8912
 490  145.8003
 491  166.6982
 492  298.9525
 493  368.3473
 494  352.4936
 495  316.132
 496  179.5802
 497  113.0742
 498  73.13409
 499  59.71552
 500  222.922
 501  196.9355
 502  28.59131
 503  135.7668
 504  229.8025
 505  221.0588
 506  178.8081
 507  292.4502
 508  466.9398
 509  630.7132
 510  891.611
 511  852.7958
