# Input file       =  1187990819.111274_cleaned.dat
# Candidate        =  PSR_0332+5434
# Telescope        =  AR
# Epoch_topo       =  57993.893531380483
# Epoch_bary       =  N/A
# T_sample         =  0.002
# Data Folded      =  7208960
# Data Avg         =  0.0158737349474588
# Data StdDev      =  1.00018404536248 
# Profile Bins     =  512
# Profile Avg      =  223.495696124251 
# Profile StdDev   =  118.681014464551 
# Reduced chi-sqr  =  1.830
# Prob(Noise)      <  2.62e-27   (~10.8 sigma)
# P_topo (ms)      =  714.463335210279  +/- 0.000175
# P'_topo (s/s)    =  -0                +/- 9.41e-11
# P''_topo (s/s^2) =  0                 +/- 4.23e-14
# P_bary (ms)      =  N/A
# P'_bary (s/s)    =  N/A
# P''_bary (s/s^2) =  N/A
# P_orb (s)        =  N/A
# asin(i)/c (s)    =  N/A
# eccentricity     =  N/A
# w (rad)          =  N/A
# T_peri           =  N/A
######################################################
   0  973.9348
   1  1010.827
   2  927.4259
   3  854.8132
   4  585.3666
   5  371.2603
   6  303.7637
   7  114.0214
   8  332.3619
   9  372.1315
  10  355.1068
  11  261.6879
  12  213.4365
  13  317.2498
  14  319.134
  15  314.9467
  16  374.2301
  17  265.2964
  18  116.8195
  19  254.3038
  20  297.2461
  21  130.3705
  22  60.76979
  23  209.7657
  24  230.5698
  25  222.7852
  26  115.6894
  27  86.25935
  28  220.0349
  29  218.3085
  30  147.3196
  31  140.6195
  32  260.2974
  33  203.6061
  34  102.925
  35  148.3924
  36  176.6372
  37  97.07429
  38  108.7868
  39  151.1205
  40  132.2722
  41  179.0053
  42  226.7295
  43  105.7004
  44  157.1564
  45  221.4922
  46  236.2644
  47  325.174
  48  254.5524
  49  207.3924
  50  236.332
  51  281.815
  52  290.2981
  53  188.0077
  54  276.1644
  55  290.9411
  56  155.2683
  57  285.3617
  58  248.2916
  59  169.0009
  60  253.7924
  61  239.592
  62  198.4811
  63  78.87115
  64  200.2226
  65  171.6126
  66  325.1928
  67  219.2115
  68  73.86068
  69  109.8394
  70  182.4534
  71  121.1433
  72  143.1435
  73  45.28407
  74  107.5498
  75  147.126
  76  252.3191
  77  327.1356
  78  171.9433
  79  177.5048
  80  161.7717
  81  173.0174
  82  193.8696
  83  229.1959
  84  253.3309
  85  271.7612
  86  257.8225
  87  230.2908
  88  216.2987
  89  237.0517
  90  254.503
  91  257.5518
  92  176.0966
  93  206.5376
  94  169.4616
  95  303.2353
  96  314.7784
  97  129.2767
  98  72.31322
  99  298.5805
 100  449.4256
 101  227.3303
 102  203.6299
 103  300.8817
 104  407.4751
 105  293.0982
 106  237.5599
 107  175.7036
 108  217.776
 109  166.7103
 110  206.5347
 111  284.4764
 112  213.6298
 113  190.4674
 114  148.7574
 115  198.9775
 116  194.654
 117  196.2657
 118  189.1042
 119  79.92365
 120  252.9564
 121  361.72
 122  194.6535
 123  295.2905
 124  126.1729
 125  48.82212
 126  130.5654
 127  33.44944
 128  130.7674
 129  134.8123
 130  162.5582
 131  160.8367
 132  100.9701
 133  197.1195
 134  234.2054
 135  91.29949
 136  123.3406
 137  127.8971
 138  134.1881
 139  146.1829
 140  159.9209
 141  228.8786
 142  266.4255
 143  139.5915
 144  82.98946
 145  143.8143
 146  170.7986
 147  239.3508
 148  333.9706
 149  392.1934
 150  309.3648
 151  274.8748
 152  218.687
 153  137.539
 154  64.04972
 155  143.8569
 156  193.3779
 157  150.3345
 158  43.27131
 159  73.51236
 160  173.365
 161  213.6635
 162  219.2065
 163  124.0091
 164  197.782
 165  142.5085
 166  123.4
 167  140.9693
 168  157.3011
 169  190.3633
 170  159.401
 171  188.7013
 172  117.783
 173  83.17665
 174  116.6416
 175  203.68
 176  173.1225
 177  140.3823
 178  76.6513
 179  114.6978
 180  218.0134
 181  207.6991
 182  222.9483
 183  230.5417
 184  222.6614
 185  51.57797
 186  37.37809
 187  143.4539
 188  210.1738
 189  242.7253
 190  320.0304
 191  202.4047
 192  107.0056
 193  184.186
 194  228.4122
 195  115.6739
 196  122.5598
 197  243.4388
 198  394.7936
 199  215.4098
 200  301.0312
 201  431.9144
 202  221.8188
 203  11.71794
 204  153.5669
 205  283.0661
 206  168.4881
 207  42.60004
 208  47.00492
 209  104.895
 210  61.73943
 211  121.152
 212  126.5045
 213  64.42281
 214  111.8031
 215  310.3137
 216  298.0437
 217  125.5797
 218  9.768791
 219  -36.4164
 220  171.0387
 221  169.8951
 222  198.3715
 223  308.4917
 224  369.9806
 225  266.9631
 226  162.5877
 227  179.7701
 228  197.9083
 229  141.5745
 230  241.4099
 231  335.778
 232  256.6901
 233  253.1323
 234  63.53267
 235  62.57472
 236  255.4229
 237  343.9142
 238  378.8092
 239  324.6153
 240  220.135
 241  77.90451
 242  101.8226
 243  230.851
 244  253.1872
 245  215.085
 246  142.0473
 247  246.0294
 248  183.1128
 249  123.2196
 250  199.9917
 251  132.0601
 252  79.91786
 253  77.28732
 254  86.93764
 255  185.3906
 256  133.6358
 257  167.8121
 258  137.7503
 259  141.5409
 260  95.38545
 261  35.6955
 262  224.6998
 263  269.5295
 264  195.7352
 265  194.2207
 266  111.4223
 267  77.80858
 268  112.5195
 269  128.4504
 270  334.7298
 271  288.5479
 272  60.2829
 273  104.1326
 274  158.0068
 275  56.52246
 276  73.23572
 277  106.9952
 278  234.8562
 279  274.2631
 280  200.8497
 281  230.3668
 282  242.6499
 283  207.2596
 284  171.971
 285  195.5576
 286  180.2376
 287  318.9668
 288  255.932
 289  193.2872
 290  151.8938
 291  243.5079
 292  114.6621
 293  205.725
 294  240.6535
 295  253.1734
 296  148.622
 297  183.7799
 298  243.9206
 299  285.9509
 300  300.2296
 301  260.3585
 302  121.5213
 303  131.4558
 304  304.2486
 305  314.316
 306  343.1415
 307  215.5978
 308  99.93954
 309  171.0687
 310  280.5341
 311  118.6418
 312  109.4061
 313  69.06638
 314  122.6786
 315  228.4081
 316  159.2829
 317  55.36715
 318  -34.28933
 319  135.2931
 320  263.865
 321  249.1733
 322  355.8121
 323  369.7625
 324  310.88
 325  249.2451
 326  218.1222
 327  316.5306
 328  359.9412
 329  186.2463
 330  286.3592
 331  232.0118
 332  256.5014
 333  197.244
 334  133.9771
 335  164.2934
 336  195.6916
 337  251.1025
 338  283.0696
 339  316.3805
 340  327.2543
 341  138.4199
 342  189.8027
 343  184.1685
 344  157.2645
 345  243.0307
 346  375.9152
 347  259.2613
 348  251.552
 349  104.7707
 350  170.4885
 351  339.0731
 352  374.9425
 353  297.4705
 354  205.508
 355  276.4602
 356  343.5789
 357  303.4979
 358  366.7817
 359  359.1912
 360  191.6913
 361  170.4345
 362  242.2225
 363  337.82
 364  386.5831
 365  353.512
 366  158.4118
 367  254.2959
 368  368.3404
 369  297.4677
 370  179.5491
 371  194.0127
 372  248.6911
 373  162.4827
 374  188.9245
 375  205.3656
 376  209.5153
 377  243.6679
 378  81.83144
 379  117.0656
 380  305.4554
 381  460.9467
 382  357.126
 383  146.6993
 384  85.51131
 385  286.4721
 386  270.694
 387  168.3788
 388  274.0073
 389  355.9626
 390  288.5138
 391  312.7292
 392  257.8295
 393  212.708
 394  244.5659
 395  335.9865
 396  315.7261
 397  316.5547
 398  203.3074
 399  199.2808
 400  114.1476
 401  261.203
 402  256.0482
 403  229.1194
 404  196.9917
 405  257.7902
 406  281.6638
 407  281.0499
 408  302.2184
 409  211.3452
 410  146.6264
 411  238.5035
 412  225.7272
 413  207.8379
 414  344.6412
 415  354.0694
 416  347.976
 417  164.4757
 418  99.47116
 419  182.3788
 420  211.9006
 421  251.2305
 422  280.8996
 423  162.9661
 424  193.481
 425  236.5505
 426  337.4958
 427  252.786
 428  255.4777
 429  110.3764
 430  151.2834
 431  266.3016
 432  232.8883
 433  196.2925
 434  287.9072
 435  271.5769
 436  336.1572
 437  179.6146
 438  260.9708
 439  306.2482
 440  223.6388
 441  198.9327
 442  156.5652
 443  187.06
 444  435.9548
 445  359.5701
 446  189.2518
 447  159.4235
 448  232.6874
 449  211.5255
 450  280.5468
 451  236.1223
 452  257.7648
 453  295.0411
 454  359.624
 455  342.933
 456  372.4681
 457  292.5333
 458  225.1602
 459  159.6247
 460  225.5026
 461  204.5509
 462  102.6008
 463  130.8497
 464  68.0555
 465  101.9094
 466  315.867
 467  403.4163
 468  353.6913
 469  282.4284
 470  275.6531
 471  210.74
 472  208.3761
 473  184.2339
 474  172.2641
 475  186.0636
 476  199.8227
 477  196.4222
 478  189.9472
 479  241.1185
 480  385.5892
 481  268.9008
 482  164.2904
 483  292.6296
 484  375.5816
 485  394.6
 486  257.2428
 487  296.3159
 488  255.2133
 489  84.99797
 490  168.2797
 491  335.4606
 492  225.2264
 493  140.8873
 494  207.7091
 495  332.998
 496  228.1904
 497  257.8302
 498  306.5581
 499  216.06
 500  222.169
 501  303.4455
 502  321.1084
 503  350.8703
 504  366.4335
 505  334.3037
 506  357.8236
 507  399.0797
 508  541.6362
 509  591.301
 510  637.7141
 511  847.4438
