# Input file       =  1187387774.104203_cleaned.dat
# Candidate        =  PSR_0332+5434
# Telescope        =  AR
# Epoch_topo       =  57986.913843798648
# Epoch_bary       =  N/A
# T_sample         =  0.002
# Data Folded      =  7143424
# Data Avg         =  0.020052694261897
# Data StdDev      =  1.00006486734809 
# Profile Bins     =  512
# Profile Avg      =  279.761556332924 
# Profile StdDev   =  118.126246521202 
# Reduced chi-sqr  =  1.281
# Prob(Noise)      <  1.69e-05   (~4.1 sigma)
# P_topo (ms)      =  714.463677373299  +/- 0.000211
# P'_topo (s/s)    =  -0                +/- 1.14e-10
# P''_topo (s/s^2) =  0                 +/- 5.18e-14
# P_bary (ms)      =  N/A
# P'_bary (s/s)    =  N/A
# P''_bary (s/s^2) =  N/A
# P_orb (s)        =  N/A
# asin(i)/c (s)    =  N/A
# eccentricity     =  N/A
# w (rad)          =  N/A
# T_peri           =  N/A
######################################################
   0  886.1855
   1  813.3416
   2  670.4464
   3  539.302
   4  443.033
   5  293.4298
   6  215.3381
   7  415.9496
   8  355.0725
   9  254.0083
  10  302.4744
  11  324.014
  12  317.0697
  13  311.4355
  14  342.17
  15  287.9473
  16  345.6887
  17  430.8608
  18  402.4197
  19  369.4655
  20  373.2827
  21  252.5216
  22  191.0331
  23  181.876
  24  190.7122
  25  350.7197
  26  366.2901
  27  290.0816
  28  347.8384
  29  303.9729
  30  329.0394
  31  349.2832
  32  247.5947
  33  407.7334
  34  397.192
  35  236.7186
  36  266.3159
  37  350.7534
  38  215.3077
  39  191.9013
  40  191.4197
  41  248.2784
  42  278.5895
  43  230.2911
  44  195.8145
  45  136.6823
  46  153.4614
  47  227.8898
  48  142.1642
  49  219.5712
  50  225.5404
  51  236.3193
  52  293.6719
  53  226.4735
  54  250.3434
  55  237.0068
  56  308.7209
  57  272.5843
  58  366.6615
  59  265.4763
  60  255.2502
  61  437.1642
  62  357.8652
  63  343.8558
  64  258.8321
  65  389.2827
  66  319.7299
  67  250.5829
  68  185.261
  69  159.3785
  70  181.9498
  71  290.4929
  72  206.1253
  73  165.8163
  74  231.8409
  75  235.3254
  76  249.0103
  77  288.9294
  78  280.3042
  79  251.7454
  80  221.5003
  81  293.1807
  82  157.0808
  83  114.5241
  84  172.8325
  85  217.3339
  86  167.2495
  87  187.9783
  88  274.7421
  89  278.3606
  90  257.1399
  91  273.0233
  92  280.2235
  93  366.4298
  94  447.4245
  95  316.4792
  96  278.5508
  97  192.0911
  98  237.3153
  99  218.153
 100  314.0341
 101  316.0202
 102  277.7346
 103  220.5325
 104  184.6447
 105  121.0003
 106  211.9831
 107  224.3877
 108  283.4073
 109  212.9873
 110  263.3441
 111  294.0062
 112  339.2838
 113  360.9416
 114  288.504
 115  217.3949
 116  186.7809
 117  215.0018
 118  234.0984
 119  316.6542
 120  336.3963
 121  283.2143
 122  312.36
 123  299.1504
 124  286.9696
 125  257.5668
 126  356.266
 127  245.3249
 128  236.6552
 129  274.5837
 130  317.66
 131  321.4949
 132  282.8856
 133  336.0789
 134  270.3396
 135  267.4822
 136  328.0463
 137  321.6337
 138  392.8936
 139  361.2668
 140  279.5502
 141  314.438
 142  306.06
 143  231.6671
 144  291.0575
 145  252.42
 146  275.114
 147  169.8028
 148  223.4704
 149  279.0286
 150  312.1171
 151  263.8901
 152  287.6698
 153  307.1298
 154  241.3757
 155  166.0686
 156  227.875
 157  286.519
 158  371.5515
 159  270.2831
 160  231.8663
 161  266.8113
 162  286.0378
 163  196.1802
 164  331.0493
 165  275.573
 166  163.231
 167  136.3107
 168  331.126
 169  257.7097
 170  253.1419
 171  229.9332
 172  218.9583
 173  284.5285
 174  224.0905
 175  266.3722
 176  190.6217
 177  73.72207
 178  220.0425
 179  242.5436
 180  237.2429
 181  306.2094
 182  211.1621
 183  249.7574
 184  249.0566
 185  319.0973
 186  326.2046
 187  176.7413
 188  13.00687
 189  149.3396
 190  340.1867
 191  245.0051
 192  140.6102
 193  291.7382
 194  422.2354
 195  324.6262
 196  271.8085
 197  345.9623
 198  282.4579
 199  272.6132
 200  304.2069
 201  129.2948
 202  238.1538
 203  335.8218
 204  301.9293
 205  182.2297
 206  57.33711
 207  77.6425
 208  141.082
 209  218.4436
 210  290.6509
 211  270.501
 212  367.3338
 213  316.8743
 214  237.9335
 215  189.8025
 216  201.7429
 217  206.0865
 218  229.8452
 219  241.2948
 220  210.1776
 221  230.4268
 222  320.3614
 223  296.5616
 224  218.0209
 225  192.8098
 226  233.3385
 227  205.5001
 228  284.151
 229  303.8878
 230  315.7197
 231  216.1791
 232  238.3148
 233  215.4072
 234  250.2964
 235  255.6575
 236  307.7081
 237  254.9786
 238  172.0319
 239  163.5579
 240  205.129
 241  153.3205
 242  129.1442
 243  115.8399
 244  296.661
 245  270.2091
 246  257.4901
 247  419.1078
 248  285.1617
 249  284.3969
 250  221.8591
 251  277.1884
 252  356.5946
 253  346.0524
 254  320.9628
 255  237.099
 256  119.8439
 257  204.5476
 258  442.2787
 259  403.4539
 260  384.6476
 261  214.1568
 262  139.6585
 263  244.4231
 264  193.4166
 265  161.8577
 266  150.9767
 267  84.56064
 268  188.0125
 269  245.6568
 270  378.5598
 271  368.9793
 272  172.1084
 273  96.58717
 274  235.1169
 275  379.5518
 276  331.8496
 277  358.5858
 278  344.0499
 279  329.4366
 280  290.0721
 281  179.1404
 282  114.8163
 283  291.51
 284  425.2906
 285  292.8058
 286  232.2168
 287  343.4068
 288  272.7334
 289  346.4104
 290  355.9868
 291  363.2585
 292  281.1396
 293  267.9492
 294  314.5519
 295  165.829
 296  282.3264
 297  409.3734
 298  387.0661
 299  215.2677
 300  172.4083
 301  197.4459
 302  195.644
 303  177.1694
 304  212.7884
 305  257.8147
 306  313.4395
 307  278.564
 308  252.4854
 309  181.817
 310  258.2699
 311  193.6122
 312  110.5718
 313  269.9954
 314  300.0073
 315  321.7443
 316  79.30933
 317  115.7607
 318  271.1485
 319  253.3292
 320  454.4837
 321  402.9245
 322  213.9687
 323  262.6462
 324  272.6436
 325  361.9658
 326  248.1529
 327  234.3543
 328  208.2869
 329  270.7133
 330  315.0704
 331  289.7041
 332  210.4388
 333  205.3618
 334  229.2395
 335  280.0144
 336  246.7557
 337  241.089
 338  262.4682
 339  386.2946
 340  356.7312
 341  126.8738
 342  37.52292
 343  127.7135
 344  325.4551
 345  444.1179
 346  300.2912
 347  271.8257
 348  263.6179
 349  168.8694
 350  29.12262
 351  135.0906
 352  131.4071
 353  318.4596
 354  302.9861
 355  244.2472
 356  149.6613
 357  112.9467
 358  223.7563
 359  273.77
 360  353.3235
 361  453.3316
 362  511.948
 363  329.3238
 364  328.6031
 365  387.6655
 366  398.3529
 367  297.673
 368  253.9729
 369  229.4373
 370  303.0479
 371  331.119
 372  356.0404
 373  454.9266
 374  312.0675
 375  333.0547
 376  177.3528
 377  200.3296
 378  335.832
 379  213.3834
 380  74.06607
 381  93.33512
 382  172.5318
 383  330.3939
 384  320.3201
 385  353.4637
 386  225.0338
 387  348.8979
 388  441.9059
 389  339.7449
 390  262.9337
 391  387.7237
 392  351.6342
 393  252.4686
 394  300.3859
 395  327.5494
 396  192.6824
 397  245.9402
 398  271.3172
 399  218.8111
 400  167.2523
 401  192.1402
 402  311.2068
 403  433.0634
 404  258.6222
 405  182.9659
 406  229.3831
 407  200.6403
 408  300.5911
 409  205.5303
 410  258.1803
 411  312.0197
 412  224.9634
 413  279.9105
 414  268.4427
 415  307.1846
 416  207.789
 417  222.6754
 418  249.4657
 419  342.4646
 420  343.3015
 421  315.5617
 422  376.2002
 423  332.9872
 424  311.7925
 425  267.3188
 426  355.4664
 427  277.8694
 428  206.6855
 429  333.8071
 430  374.6505
 431  374.0943
 432  293.1539
 433  248.4429
 434  309.113
 435  432.4453
 436  280.1662
 437  224.7458
 438  284.4859
 439  270.5302
 440  232.1682
 441  196.0301
 442  327.5785
 443  215.7107
 444  181.7805
 445  311.7097
 446  377.1763
 447  361.6411
 448  342.2383
 449  331.9853
 450  341.5116
 451  356.7958
 452  389.6331
 453  356.8969
 454  223.096
 455  238.8541
 456  280.2678
 457  386.0017
 458  383.4617
 459  230.6661
 460  238.7675
 461  318.6709
 462  227.4997
 463  303.1659
 464  434.4029
 465  320.6625
 466  285.9757
 467  346.9835
 468  306.7177
 469  332.5492
 470  330.7481
 471  346.8309
 472  333.9319
 473  293.8485
 474  216.9277
 475  377.6311
 476  292.2387
 477  330.3289
 478  327.5306
 479  342.9246
 480  343.8236
 481  313.3619
 482  352.0984
 483  332.359
 484  348.6007
 485  243.328
 486  408.7169
 487  486.2026
 488  333.7183
 489  374.2445
 490  487.3014
 491  411.6496
 492  194.4818
 493  204.1673
 494  277.9689
 495  329.5398
 496  274.2725
 497  288.7089
 498  199.6251
 499  167.0294
 500  448.3015
 501  371.7196
 502  292.4189
 503  425.6148
 504  412.0888
 505  350.9665
 506  323.9803
 507  477.1186
 508  390.6425
 509  442.8697
 510  792.2442
 511  828.4855
