# Input file       =  1187489097.112756_cleaned.dat
# Candidate        =  PSR_0332+5434
# Telescope        =  AR
# Epoch_topo       =  57988.086563805045
# Epoch_bary       =  N/A
# T_sample         =  0.002
# Data Folded      =  7340032
# Data Avg         =  0.0104982649557409
# Data StdDev      =  1.00030517353187 
# Profile Bins     =  512
# Profile Avg      =  150.332857007885 
# Profile StdDev   =  119.769575730358 
# Reduced chi-sqr  =  1.771
# Prob(Noise)      <  2.42e-24   (~10.1 sigma)
# P_topo (ms)      =  714.463580940057  +/- 0.000157
# P'_topo (s/s)    =  -0                +/- 8.31e-11
# P''_topo (s/s^2) =  0                 +/- 3.67e-14
# P_bary (ms)      =  N/A
# P'_bary (s/s)    =  N/A
# P''_bary (s/s^2) =  N/A
# P_orb (s)        =  N/A
# asin(i)/c (s)    =  N/A
# eccentricity     =  N/A
# w (rad)          =  N/A
# T_peri           =  N/A
######################################################
   0  861.826
   1  961.3284
   2  857.4511
   3  571.7604
   4  433.4767
   5  262.1039
   6  132.6178
   7  228.4669
   8  221.2378
   9  230.5905
  10  261.8352
  11  105.159
  12  183.9956
  13  271.1561
  14  179.4201
  15  149.0467
  16  159.1147
  17  144.2223
  18  304.8838
  19  232.5067
  20  176.8819
  21  135.9687
  22  69.00257
  23  92.09959
  24  -52.92157
  25  -92.04915
  26  77.09464
  27  164.14
  28  249.9559
  29  55.09811
  30  31.71927
  31  210.6386
  32  250.9647
  33  220.9893
  34  60.04684
  35  156.9968
  36  -29.29749
  37  93.95773
  38  245.4481
  39  196.2593
  40  174.3118
  41  114.2882
  42  -1.399124
  43  -89.62679
  44  -11.69729
  45  168.1846
  46  207.4483
  47  171.158
  48  130.5084
  49  -3.979626
  50  11.29151
  51  155.2323
  52  75.33286
  53  8.158328
  54  9.985421
  55  26.85221
  56  25.6972
  57  101.3508
  58  124.4844
  59  -28.27808
  60  72.30536
  61  97.94492
  62  206.6726
  63  55.93644
  64  144.4794
  65  199.9395
  66  138.7209
  67  78.06673
  68  70.68763
  69  172.0995
  70  120.9968
  71  184.885
  72  209.8233
  73  124.8431
  74  86.47024
  75  250.5013
  76  422.742
  77  300.6744
  78  131.2009
  79  175.5594
  80  223.454
  81  237.8228
  82  66.7552
  83  71.10362
  84  197.4902
  85  205.3439
  86  107.1261
  87  64.36182
  88  -5.497628
  89  16.08343
  90  82.80916
  91  300.9563
  92  303.796
  93  192.463
  94  89.23874
  95  147.5253
  96  128.4111
  97  66.5564
  98  201.054
  99  233.3244
 100  198.6721
 101  89.77288
 102  116.9404
 103  149.116
 104  167.1504
 105  136.7663
 106  130.883
 107  135.9413
 108  174.6571
 109  173.5096
 110  240.3037
 111  153.2898
 112  106.8028
 113  215.7198
 114  213.4096
 115  100.2711
 116  81.25183
 117  132.7958
 118  183.4457
 119  114.0419
 120  253.7448
 121  324.58
 122  167.4152
 123  271.7055
 124  117.0324
 125  95.56494
 126  222.8615
 127  143.1998
 128  200.2767
 129  153.6098
 130  192.7145
 131  228.3418
 132  173.1018
 133  124.3996
 134  258.666
 135  156.104
 136  75.9708
 137  275.6954
 138  226.8389
 139  158.1665
 140  64.20917
 141  41.17855
 142  204.3141
 143  100.2779
 144  -18.09918
 145  -14.31269
 146  21.2968
 147  64.18452
 148  68.1511
 149  138.4164
 150  119.2879
 151  52.12094
 152  166.525
 153  138.6915
 154  95.59577
 155  61.97647
 156  99.99794
 157  98.4226
 158  15.77768
 159  145.3566
 160  187.7794
 161  238.0524
 162  95.65696
 163  -36.62576
 164  -33.02813
 165  63.17507
 166  176.6478
 167  208.4222
 168  103.3242
 169  -70.02511
 170  6.128808
 171  318.5433
 172  232.802
 173  172.735
 174  294.0239
 175  301.445
 176  83.91694
 177  80.90687
 178  173.394
 179  146.1981
 180  81.4911
 181  115.3283
 182  133.5377
 183  72.79853
 184  157.3576
 185  262.3171
 186  217.1344
 187  43.38754
 188  175.4244
 189  191.7419
 190  203.0145
 191  173.0332
 192  81.32731
 193  61.36637
 194  173.2958
 195  207.5297
 196  177.5826
 197  66.5107
 198  131.2029
 199  98.3651
 200  222.1576
 201  118.0381
 202  133.753
 203  55.2474
 204  119.1237
 205  194.9824
 206  137.6671
 207  27.18112
 208  143.1022
 209  214.6632
 210  -1.822886
 211  -3.980119
 212  58.64182
 213  100.8857
 214  41.88239
 215  23.42549
 216  36.18136
 217  132.7315
 218  100.6881
 219  70.84399
 220  -25.09132
 221  -68.2002
 222  70.01046
 223  77.97567
 224  54.95336
 225  -10.73767
 226  79.62576
 227  92.187
 228  5.935629
 229  147.424
 230  104.0962
 231  226.752
 232  43.5999
 233  39.47472
 234  98.89886
 235  -12.81417
 236  42.69225
 237  27.01855
 238  -24.33726
 239  24.62245
 240  55.37095
 241  4.122765
 242  -22.26463
 243  8.761758
 244  33.38482
 245  51.10316
 246  139.9042
 247  81.11533
 248  -90.52288
 249  -2.877808
 250  -25.24425
 251  26.55923
 252  102.0242
 253  138.8116
 254  182.9456
 255  226.2005
 256  34.34134
 257  26.68455
 258  201.2297
 259  101.2563
 260  56.2236
 261  114.5277
 262  258.1148
 263  112.5431
 264  34.66374
 265  78.9603
 266  250.0335
 267  297.5668
 268  172.1832
 269  175.2093
 270  225.9937
 271  291.2386
 272  139.0943
 273  -44.49017
 274  189.831
 275  49.01927
 276  84.65489
 277  135.2829
 278  125.9566
 279  114.1072
 280  215.2046
 281  303.9786
 282  115.4176
 283  73.50382
 284  163.2493
 285  237.9878
 286  269.4053
 287  333.9785
 288  333.3427
 289  271.9577
 290  225.4944
 291  141.9282
 292  167.4479
 293  196.4028
 294  177.7475
 295  251.0508
 296  297.8953
 297  260.3493
 298  106.4436
 299  271.4759
 300  282.7463
 301  325.901
 302  227.6612
 303  114.2473
 304  20.03325
 305  128.4588
 306  150.2543
 307  225.895
 308  163.3549
 309  106.1514
 310  196.2254
 311  166.3609
 312  116.0006
 313  230.006
 314  265.3625
 315  271.2626
 316  180.7569
 317  128.8892
 318  201.999
 319  186.8913
 320  261.3743
 321  184.2743
 322  290.9105
 323  283.9785
 324  248.5587
 325  188.6786
 326  231.0638
 327  280.7387
 328  208.4744
 329  187.3994
 330  71.94938
 331  -25.32881
 332  13.36644
 333  28.80922
 334  136.6945
 335  189.5041
 336  189.4569
 337  230.536
 338  256.4781
 339  240.0608
 340  148.0142
 341  102.983
 342  115.8215
 343  224.4581
 344  211.7568
 345  254.8851
 346  295.6125
 347  287.8491
 348  332.4914
 349  184.8657
 350  146.8254
 351  222.357
 352  183.6038
 353  125.2121
 354  119.1393
 355  185.2631
 356  191.0277
 357  249.0975
 358  271.3983
 359  167.7126
 360  266.7946
 361  239.5484
 362  105.7218
 363  98.40451
 364  185.0685
 365  219.215
 366  161.2352
 367  328.1528
 368  258.698
 369  166.5859
 370  240.2714
 371  206.0398
 372  208.6067
 373  268.2591
 374  335.9284
 375  270.8507
 376  203.7428
 377  281.3427
 378  247.1123
 379  153.2086
 380  92.46499
 381  220.6972
 382  199.3997
 383  89.84748
 384  139.6886
 385  183.1275
 386  287.554
 387  291.5774
 388  161.3239
 389  239.3889
 390  183.4996
 391  65.36755
 392  10.7099
 393  187.4825
 394  188.8932
 395  204.2126
 396  276.4928
 397  261.337
 398  134.4171
 399  141.6298
 400  199.0304
 401  269.3656
 402  308.8411
 403  207.0922
 404  120.8914
 405  138.0487
 406  -11.31399
 407  54.37827
 408  209.048
 409  133.4914
 410  73.09996
 411  65.00915
 412  -27.45835
 413  -9.540269
 414  48.19049
 415  158.224
 416  163.1573
 417  157.2236
 418  177.3448
 419  119.0289
 420  64.95396
 421  65.22742
 422  39.68496
 423  25.4241
 424  74.32949
 425  107.9805
 426  152.6352
 427  233.0611
 428  204.7575
 429  125.3896
 430  179.8984
 431  153.2
 432  136.7775
 433  174.9292
 434  233.3339
 435  181.6019
 436  173.5429
 437  202.0788
 438  243.3423
 439  211.4555
 440  137.0945
 441  98.94456
 442  28.55749
 443  220.3764
 444  170.5587
 445  49.00089
 446  65.12333
 447  52.3074
 448  151.0331
 449  31.59756
 450  1.754705
 451  88.86062
 452  179.1029
 453  217.393
 454  56.00106
 455  -36.4431
 456  -45.14062
 457  54.31818
 458  59.91712
 459  152.265
 460  136.6407
 461  104.853
 462  66.72836
 463  38.32276
 464  162.9696
 465  93.98479
 466  44.32695
 467  -44.7525
 468  22.39979
 469  64.67049
 470  102.6712
 471  183.4123
 472  227.1128
 473  225.184
 474  264.6064
 475  255.351
 476  255.8019
 477  199.826
 478  109.8177
 479  26.99161
 480  190.5829
 481  192.8846
 482  96.05956
 483  41.56092
 484  150.5603
 485  67.83387
 486  -44.50428
 487  44.88534
 488  97.9149
 489  89.42841
 490  50.62914
 491  156.7258
 492  165.9402
 493  165.2045
 494  216.565
 495  246.5313
 496  168.0643
 497  125.3441
 498  48.53271
 499  -63.70142
 500  0.1512972
 501  169.9642
 502  189.6334
 503  179.0365
 504  110.1367
 505  133.1267
 506  190.4272
 507  221.8038
 508  254.1264
 509  507.3916
 510  706.6501
 511  739.0198
