# Input file       =  1188694860.115103_cleaned.dat
# Candidate        =  PSR_0332+5434
# Telescope        =  AR
# Epoch_topo       =  58002.042154109986
# Epoch_bary       =  N/A
# T_sample         =  0.002
# Data Folded      =  7340032
# Data Avg         =  0.0108180071264574
# Data StdDev      =  1.00002551237225 
# Profile Bins     =  512
# Profile Avg      =  154.988634455413 
# Profile StdDev   =  119.73609105056  
# Reduced chi-sqr  =  1.081
# Prob(Noise)      <  0.101   (~1.3 sigma)
# P_topo (ms)      =  714.463974860253  +/- 0.000167
# P'_topo (s/s)    =  -0                +/- 8.83e-11
# P''_topo (s/s^2) =  0                 +/- 3.9e-14
# P_bary (ms)      =  N/A
# P'_bary (s/s)    =  N/A
# P''_bary (s/s^2) =  N/A
# P_orb (s)        =  N/A
# asin(i)/c (s)    =  N/A
# eccentricity     =  N/A
# w (rad)          =  N/A
# T_peri           =  N/A
######################################################
   0  701.8414
   1  588.7226
   2  445.0636
   3  285.6246
   4  202.0885
   5  84.58173
   6  85.65466
   7  205.9827
   8  305.3799
   9  157.703
  10  218.6571
  11  290.931
  12  191.8581
  13  222.6474
  14  209.1826
  15  286.9499
  16  148.894
  17  170.4716
  18  108.9504
  19  233.1365
  20  134.1546
  21  89.48078
  22  244.6006
  23  208.552
  24  171.3975
  25  199.8671
  26  326.9818
  27  243.1817
  28  120.4205
  29  137.3169
  30  51.92775
  31  68.40652
  32  113.7574
  33  133.7162
  34  289.8913
  35  98.35931
  36  75.26743
  37  134.5181
  38  118.4949
  39  150.6805
  40  172.237
  41  131.6522
  42  155.9904
  43  102.9498
  44  105.9809
  45  62.84065
  46  74.71113
  47  135.7393
  48  147.0221
  49  333.3746
  50  254.199
  51  234.1329
  52  193.7796
  53  216.385
  54  248.6339
  55  343.0702
  56  312.5109
  57  284.2812
  58  229.2979
  59  170.0126
  60  -15.63115
  61  46.51284
  62  71.76436
  63  86.30748
  64  236.4008
  65  154.4859
  66  85.45582
  67  251.0513
  68  240.5089
  69  193.0943
  70  201.5693
  71  155.5945
  72  122.7809
  73  135.8067
  74  171.1554
  75  173.2035
  76  258.4195
  77  242.5485
  78  171.8976
  79  163.542
  80  116.5972
  81  84.00587
  82  203.8001
  83  176.6284
  84  49.23298
  85  38.4278
  86  166.104
  87  126.8445
  88  138.8839
  89  173.0451
  90  179.0648
  91  114.6143
  92  156.371
  93  241.4057
  94  160.3451
  95  81.68378
  96  46.64935
  97  165.9763
  98  196.2697
  99  120.1388
 100  156.6199
 101  155.0037
 102  61.06229
 103  165.8555
 104  305.3922
 105  152.1634
 106  100.7023
 107  250.4408
 108  270.0379
 109  232.7752
 110  130.7657
 111  144.9976
 112  145.3342
 113  188.7262
 114  -3.029107
 115  116.9781
 116  261.4215
 117  149.2663
 118  113.0456
 119  82.62992
 120  111.7887
 121  143.9559
 122  131.4492
 123  13.25881
 124  -54.50925
 125  68.78788
 126  115.8158
 127  150.1897
 128  228.0266
 129  262.1365
 130  106.5291
 131  188.4355
 132  238.6704
 133  135.9259
 134  146.2357
 135  41.68133
 136  35.6723
 137  79.3175
 138  50.50696
 139  115.5439
 140  78.37178
 141  145.0148
 142  202.9671
 143  84.85114
 144  124.5599
 145  229.2247
 146  136.8256
 147  35.1139
 148  167.7221
 149  147.0684
 150  -65.99458
 151  67.67878
 152  130.8659
 153  161.8298
 154  216.4702
 155  272.3672
 156  226.913
 157  181.7747
 158  185.7208
 159  270.5027
 160  220.3646
 161  152.896
 162  224.6538
 163  137.7314
 164  119.29
 165  82.45458
 166  225.4566
 167  119.661
 168  266.2054
 169  224.9661
 170  48.38507
 171  83.55932
 172  84.52101
 173  83.85635
 174  138.2328
 175  289.3269
 176  170.4242
 177  117.749
 178  119.7255
 179  183.0303
 180  166.3028
 181  216.8681
 182  136.7561
 183  190.8093
 184  150.4033
 185  70.22027
 186  -26.38288
 187  33.42262
 188  149.6339
 189  22.56986
 190  90.43114
 191  51.32101
 192  133.0313
 193  195.4244
 194  254.9735
 195  195.576
 196  224.929
 197  277.3099
 198  241.6644
 199  140.1421
 200  321.5046
 201  247.1779
 202  145.1788
 203  227.5342
 204  180.0031
 205  154.2741
 206  180.8111
 207  218.2595
 208  160.6787
 209  40.44125
 210  47.76311
 211  100.3263
 212  90.40287
 213  -81.7834
 214  -0.4632951
 215  84.38627
 216  166.0012
 217  84.43796
 218  40.55624
 219  55.47911
 220  54.24108
 221  179.0428
 222  212.7938
 223  167.5596
 224  132.3035
 225  299.6077
 226  250.9318
 227  213.721
 228  109.3622
 229  105.3018
 230  124.1464
 231  102.0028
 232  52.94186
 233  116.4403
 234  129.8344
 235  115.8749
 236  116.1787
 237  31.57423
 238  32.47453
 239  36.41521
 240  122.0941
 241  191.7941
 242  176.8929
 243  148.194
 244  150.3476
 245  172.4929
 246  53.14289
 247  79.35057
 248  270.1123
 249  276.8778
 250  116.1583
 251  114.6552
 252  11.80766
 253  39.30386
 254  99.45722
 255  84.86519
 256  104.3366
 257  103.1505
 258  188.7748
 259  139.3534
 260  47.98926
 261  83.55474
 262  92.32294
 263  140.2481
 264  162.0742
 265  109.7329
 266  83.06198
 267  209.6045
 268  296.1092
 269  197.1193
 270  135.886
 271  155.9364
 272  286.74
 273  364.3965
 274  137.1499
 275  -17.53483
 276  0.6596204
 277  223.3653
 278  222.3038
 279  173.8309
 280  133.4884
 281  127.4247
 282  291.8779
 283  180.9293
 284  186.1881
 285  72.55199
 286  78.71893
 287  246.8035
 288  232.9562
 289  127.9634
 290  244.1072
 291  201.2543
 292  86.5004
 293  210.6347
 294  188.4503
 295  212.965
 296  144.2374
 297  219.7246
 298  194.3128
 299  182.864
 300  164.3288
 301  178.1358
 302  279.0694
 303  276.6812
 304  129.6547
 305  95.86817
 306  131.9699
 307  184.7799
 308  176.6234
 309  197.851
 310  246.567
 311  264.1207
 312  283.7437
 313  172.4024
 314  41.34623
 315  112.1358
 316  70.51105
 317  198.4844
 318  129.5681
 319  74.15392
 320  88.07082
 321  105.8031
 322  17.83025
 323  189.1681
 324  143.9057
 325  135.0143
 326  57.40679
 327  12.79549
 328  107.5298
 329  79.37556
 330  45.75463
 331  174.3805
 332  139.0846
 333  90.85963
 334  129.956
 335  95.57574
 336  149.2779
 337  84.9382
 338  136.2968
 339  67.09549
 340  42.4903
 341  85.25517
 342  201.0704
 343  127.4763
 344  147.2831
 345  63.54691
 346  123.4705
 347  293.761
 348  288.9612
 349  253.1928
 350  121.8121
 351  89.04723
 352  2.121159
 353  43.96357
 354  173.7047
 355  131.0581
 356  227.7125
 357  303.867
 358  199.325
 359  116.7335
 360  -20.35252
 361  33.78714
 362  21.8597
 363  58.50272
 364  105.1796
 365  200.3995
 366  185.2425
 367  69.19525
 368  96.0277
 369  127.6665
 370  76.10021
 371  -11.54216
 372  84.75404
 373  182.9555
 374  238.8235
 375  143.9233
 376  7.059577
 377  157.559
 378  223.2589
 379  116.8507
 380  169.0759
 381  169.9099
 382  265.8193
 383  202.4631
 384  119.2189
 385  154.0754
 386  160.2957
 387  154.2243
 388  101.4638
 389  58.72167
 390  145.7007
 391  174.8231
 392  176.4544
 393  147.2612
 394  142.1803
 395  203.9283
 396  262.4086
 397  142.2759
 398  66.72358
 399  46.31627
 400  107.0981
 401  177.3207
 402  164.8248
 403  26.86099
 404  33.1137
 405  59.11248
 406  168.1241
 407  198.6646
 408  144.1937
 409  184.1716
 410  -0.8218166
 411  -20.58999
 412  243.2492
 413  388.2416
 414  290.8338
 415  291.8584
 416  292.7298
 417  242.7791
 418  106.0091
 419  135.2618
 420  66.45526
 421  167.8518
 422  244.7431
 423  173.7235
 424  208.3511
 425  224.7078
 426  150.3376
 427  211.6125
 428  156.4163
 429  -16.11717
 430  97.88222
 431  168.7184
 432  229.7086
 433  185.5845
 434  112.6446
 435  142.56
 436  59.58934
 437  96.86222
 438  296.4906
 439  189.2616
 440  80.86179
 441  66.04932
 442  114.1855
 443  72.2513
 444  14.26413
 445  142.6252
 446  87.45572
 447  -5.08647
 448  162.1903
 449  227.7449
 450  187.592
 451  227.2242
 452  90.56424
 453  189.6672
 454  214.9054
 455  171.1396
 456  4.437602
 457  126.3408
 458  137.2597
 459  143.0387
 460  42.67866
 461  53.6349
 462  310.2911
 463  194.9746
 464  78.10181
 465  246.7651
 466  246.0973
 467  193.7114
 468  153.8923
 469  142.2561
 470  -16.0593
 471  54.86393
 472  62.50869
 473  78.96454
 474  281.7896
 475  254.0788
 476  160.8258
 477  168.9057
 478  138.7567
 479  253.8296
 480  215.7157
 481  242.3996
 482  211.2364
 483  66.09156
 484  154.4936
 485  147.1951
 486  140.875
 487  153.1184
 488  270.3513
 489  114.2152
 490  15.6869
 491  -17.25749
 492  134.4785
 493  195.2023
 494  207.8386
 495  254.1076
 496  223.5488
 497  254.2931
 498  215.545
 499  160.0159
 500  188.2472
 501  175.6275
 502  39.74212
 503  285.8641
 504  226.5805
 505  228.1936
 506  289.1839
 507  321.5876
 508  287.7511
 509  278.0583
 510  533.9933
 511  628.255
