# Input file       =  1188005499.110864_cleaned.dat
# Candidate        =  PSR_0332+5434
# Telescope        =  AR
# Epoch_topo       =  57994.063438783145
# Epoch_bary       =  N/A
# T_sample         =  0.002
# Data Folded      =  7340032
# Data Avg         =  0.0106793320711224
# Data StdDev      =  1.00001962246095 
# Profile Bins     =  512
# Profile Avg      =  153.145100586493 
# Profile StdDev   =  119.735385833597 
# Reduced chi-sqr  =  1.366
# Prob(Noise)      <  6.42e-08   (~5.3 sigma)
# P_topo (ms)      =  714.463348498932  +/- 0.000336
# P'_topo (s/s)    =  -0                +/- 1.77e-10
# P''_topo (s/s^2) =  0                 +/- 7.82e-14
# P_bary (ms)      =  N/A
# P'_bary (s/s)    =  N/A
# P''_bary (s/s^2) =  N/A
# P_orb (s)        =  N/A
# asin(i)/c (s)    =  N/A
# eccentricity     =  N/A
# w (rad)          =  N/A
# T_peri           =  N/A
######################################################
   0  829.5309
   1  744.3675
   2  548.2017
   3  336.5693
   4  281.5789
   5  238.3869
   6  132.4707
   7  144.8121
   8  37.55979
   9  101.3478
  10  186.2166
  11  223.2778
  12  257.8801
  13  153.153
  14  128.2542
  15  238.5181
  16  81.20585
  17  -99.56828
  18  98.51579
  19  273.7965
  20  157.9233
  21  203.1677
  22  132.2308
  23  58.88688
  24  151.0436
  25  152.8268
  26  105.1635
  27  129.8345
  28  160.7339
  29  119.296
  30  226.3398
  31  207.3298
  32  306.7159
  33  197.703
  34  109.1992
  35  182.3255
  36  186.9087
  37  302.5072
  38  196.4975
  39  178.803
  40  87.54955
  41  189.5291
  42  210.3067
  43  196.694
  44  207.932
  45  37.96478
  46  59.37365
  47  124.7953
  48  232.9132
  49  234.4421
  50  76.67134
  51  201.6917
  52  190.4721
  53  148.3205
  54  77.22926
  55  202.6915
  56  103.5387
  57  114.3968
  58  139.0505
  59  104.3225
  60  28.41178
  61  169.5144
  62  178.4213
  63  193.6199
  64  354.0937
  65  170.7111
  66  -4.573853
  67  74.54672
  68  209.7081
  69  227.7797
  70  88.40098
  71  87.91971
  72  227.5354
  73  150.8279
  74  89.24398
  75  160.4279
  76  84.78413
  77  169.3624
  78  100.5876
  79  -52.26257
  80  129.8423
  81  175.0348
  82  134.8675
  83  192.3394
  84  280.6257
  85  331.0464
  86  154.9434
  87  0.7698763
  88  89.8271
  89  257.8248
  90  169.7085
  91  243.9659
  92  254.9447
  93  151.5299
  94  146.5528
  95  126.7015
  96  167.3287
  97  159.41
  98  173.0344
  99  336.4615
 100  247.9236
 101  221.3651
 102  136.177
 103  135.5637
 104  146.6499
 105  150.0855
 106  326.639
 107  220.4753
 108  63.32482
 109  164.9714
 110  180.3068
 111  223.9426
 112  264.0027
 113  354.2824
 114  290.8367
 115  164.0361
 116  178.8363
 117  145.5651
 118  220.2153
 119  124.4511
 120  189.1505
 121  226.5666
 122  195.9355
 123  300.043
 124  218.2493
 125  95.91518
 126  71.28288
 127  37.85082
 128  176.926
 129  125.0003
 130  132.0133
 131  195.139
 132  164.9763
 133  183.7791
 134  140.6702
 135  151.9447
 136  133.9635
 137  246.4602
 138  174.9479
 139  167.4771
 140  9.153088
 141  29.54174
 142  98.53435
 143  208.5044
 144  224.4463
 145  81.18089
 146  124.3867
 147  13.26854
 148  -50.68643
 149  56.92802
 150  107.5191
 151  179.817
 152  154.6396
 153  191.8332
 154  236.962
 155  179.6483
 156  168.1794
 157  225.9467
 158  196.1443
 159  163.4893
 160  241.301
 161  332.9822
 162  208.7801
 163  223.9247
 164  -43.82906
 165  137.2531
 166  256.4532
 167  177.074
 168  79.08752
 169  -15.96987
 170  6.506567
 171  21.53607
 172  201.8341
 173  217.6734
 174  234.1916
 175  150.7514
 176  24.49543
 177  190.6982
 178  251.6349
 179  151.0773
 180  69.35249
 181  -39.21415
 182  117.3207
 183  198.2149
 184  156.8067
 185  67.29729
 186  -55.45652
 187  7.873481
 188  195.6992
 189  297.2794
 190  171.2789
 191  21.89204
 192  54.22218
 193  275.1351
 194  117.6831
 195  51.63176
 196  7.369169
 197  93.22232
 198  141.7244
 199  103.4036
 200  124.7128
 201  157.959
 202  77.70284
 203  59.18574
 204  133.2033
 205  184.6027
 206  36.15793
 207  139.7637
 208  145.7743
 209  77.43482
 210  55.1124
 211  199.0448
 212  188.2331
 213  78.14198
 214  76.57457
 215  114.5754
 216  151.3479
 217  61.1686
 218  58.59523
 219  13.04873
 220  122.5475
 221  123.6535
 222  115.5744
 223  72.43726
 224  79.57661
 225  123.9127
 226  -58.12789
 227  -10.56609
 228  109.0619
 229  95.89062
 230  144.8249
 231  177.7965
 232  66.01315
 233  -6.509987
 234  -1.6737
 235  107.2076
 236  7.798863
 237  49.06562
 238  -55.56053
 239  -31.51415
 240  37.07957
 241  -95.93567
 242  31.85917
 243  95.82716
 244  225.0624
 245  197.0623
 246  70.96925
 247  154.4625
 248  155.2473
 249  86.73848
 250  138.1824
 251  143.3238
 252  172.3676
 253  201.7014
 254  220.5826
 255  174.9353
 256  195.0158
 257  135.2747
 258  -0.7758716
 259  112.3512
 260  237.7053
 261  217.2187
 262  138.6518
 263  7.723527
 264  117.4893
 265  192.9579
 266  182.4546
 267  233.1187
 268  245.5891
 269  241.4295
 270  227.8548
 271  126.1058
 272  173.3317
 273  258.7518
 274  74.98529
 275  43.96629
 276  104.9405
 277  11.09986
 278  57.71643
 279  179.9358
 280  180.6862
 281  78.03301
 282  -50.40246
 283  40.10065
 284  88.52533
 285  90.49334
 286  235.2992
 287  291.2799
 288  167.5492
 289  169.4498
 290  173.2563
 291  46.06173
 292  18.47881
 293  85.64744
 294  143.9568
 295  61.74485
 296  29.97121
 297  210.5435
 298  106.6592
 299  103.6319
 300  118.2523
 301  249.445
 302  228.883
 303  323.983
 304  302.4533
 305  123.7938
 306  102.8155
 307  146.4831
 308  121.6549
 309  55.90781
 310  145.4064
 311  308.86
 312  265.9054
 313  133.0078
 314  24.7541
 315  66.82033
 316  153.4092
 317  54.43674
 318  6.938963
 319  45.38844
 320  89.33027
 321  116.8546
 322  133.5614
 323  100.9349
 324  242.4223
 325  193.8808
 326  99.03566
 327  159.0838
 328  7.532394
 329  155.382
 330  94.65559
 331  83.23725
 332  288.213
 333  165.4627
 334  209.5219
 335  106.2144
 336  66.79018
 337  178.1293
 338  240.5693
 339  262.7932
 340  50.09727
 341  146.8335
 342  180.9553
 343  112.8556
 344  149.7423
 345  186.8298
 346  192.4403
 347  299.4417
 348  178.5672
 349  132.9726
 350  65.10178
 351  143.8623
 352  84.38931
 353  113.0548
 354  -13.52929
 355  10.84254
 356  106.4008
 357  1.812566
 358  22.91997
 359  175.4495
 360  126.9654
 361  174.4802
 362  250.7683
 363  69.41773
 364  132.826
 365  114.2809
 366  177.6328
 367  124.2415
 368  153.2172
 369  192.578
 370  229.6231
 371  91.22962
 372  70.70425
 373  154.8456
 374  164.4648
 375  162.2721
 376  117.8289
 377  -38.11959
 378  126.7143
 379  139.593
 380  225.6466
 381  218.5271
 382  106.8476
 383  189.9029
 384  275.4991
 385  176.9348
 386  78.8459
 387  30.07967
 388  154.7993
 389  90.41278
 390  149.6298
 391  230.6053
 392  251.841
 393  139.8275
 394  193.2725
 395  164.9958
 396  50.37603
 397  40.62676
 398  233.4576
 399  294.2305
 400  128.6781
 401  -4.94821
 402  174.4014
 403  231.6796
 404  173.4043
 405  91.58495
 406  174.4389
 407  198.7161
 408  264.4062
 409  218.2929
 410  141.8529
 411  166.0471
 412  179.2315
 413  267.3481
 414  273.5053
 415  79.53604
 416  130.3276
 417  274.2639
 418  41.26307
 419  8.794636
 420  131.9482
 421  69.83376
 422  100.5537
 423  81.28708
 424  143.5803
 425  49.87893
 426  -13.78606
 427  204.5999
 428  258.1884
 429  173.6851
 430  106.4222
 431  136.1074
 432  152.6277
 433  93.1898
 434  191.1139
 435  113.0517
 436  318.1915
 437  246.9645
 438  159.2032
 439  121.8884
 440  196.8191
 441  301.5669
 442  153.9985
 443  202.4007
 444  236.4811
 445  101.3366
 446  78.17504
 447  87.69865
 448  151.1448
 449  146.7808
 450  121.1245
 451  101.5187
 452  89.19672
 453  150.6057
 454  234.0448
 455  283.9453
 456  248.1473
 457  208.2006
 458  140.5613
 459  113.5317
 460  174.2825
 461  152.3855
 462  87.28146
 463  168.365
 464  87.62583
 465  124.6818
 466  52.39884
 467  157.6981
 468  255.6147
 469  176.117
 470  213.4293
 471  86.71641
 472  83.00623
 473  96.93813
 474  236.0472
 475  184.3029
 476  130.2484
 477  173.7646
 478  198.5053
 479  306.8395
 480  345.4122
 481  224.2628
 482  284.5623
 483  127.5874
 484  71.95027
 485  121.8413
 486  176.4564
 487  183.0519
 488  138.4983
 489  305.3312
 490  259.4518
 491  166.3823
 492  133.4996
 493  193.8
 494  171.8062
 495  105.7402
 496  -54.85801
 497  32.48696
 498  154.1219
 499  167.9328
 500  67.21842
 501  140.5999
 502  197.1421
 503  290.2979
 504  354.7857
 505  262.5729
 506  377.8449
 507  408.0942
 508  457.0494
 509  499.0765
 510  578.2106
 511  704.1738
