# Input file       =  1188278963.107433_cleaned.dat
# Candidate        =  PSR_0332+5434
# Telescope        =  AR
# Epoch_topo       =  57997.228531336033
# Epoch_bary       =  N/A
# T_sample         =  0.002
# Data Folded      =  7340032
# Data Avg         =  0.0101110358241669
# Data StdDev      =  1.00003406284783 
# Profile Bins     =  512
# Profile Avg      =  144.998286692589 
# Profile StdDev   =  119.737114824964 
# Reduced chi-sqr  =  1.273
# Prob(Noise)      <  2.67e-05   (~4.0 sigma)
# P_topo (ms)      =  714.46380937666   +/- 0.000127
# P'_topo (s/s)    =  -0                +/- 6.71e-11
# P''_topo (s/s^2) =  0                 +/- 2.96e-14
# P_bary (ms)      =  N/A
# P'_bary (s/s)    =  N/A
# P''_bary (s/s^2) =  N/A
# P_orb (s)        =  N/A
# asin(i)/c (s)    =  N/A
# eccentricity     =  N/A
# w (rad)          =  N/A
# T_peri           =  N/A
######################################################
   0  546.9087
   1  643.7122
   2  539.4502
   3  351.6453
   4  235.1499
   5  94.08957
   6  14.21666
   7  138.461
   8  150.3327
   9  176.564
  10  241.8148
  11  222.383
  12  217.5215
  13  219.3808
  14  278.9145
  15  135.3804
  16  268.1502
  17  183.2184
  18  75.98202
  19  228.2497
  20  258.8607
  21  198.3373
  22  136.496
  23  112.6758
  24  81.99953
  25  35.45205
  26  181.2359
  27  144.0973
  28  84.23076
  29  3.404932
  30  128.431
  31  165.5194
  32  129.2937
  33  194.3551
  34  198.5071
  35  200.8005
  36  252.4373
  37  72.48804
  38  109.9182
  39  198.9858
  40  238.6665
  41  295.3089
  42  180.9857
  43  143.1495
  44  92.32712
  45  199.4813
  46  144.5167
  47  139.7536
  48  112.8121
  49  51.32943
  50  179.9786
  51  288.8933
  52  278.544
  53  125.3345
  54  40.94726
  55  130.0766
  56  16.15801
  57  75.19956
  58  67.1991
  59  118.4447
  60  40.62992
  61  -55.88194
  62  23.6269
  63  6.59653
  64  69.81626
  65  -18.25329
  66  -53.83026
  67  50.24726
  68  45.3508
  69  -24.04807
  70  7.602131
  71  195.6759
  72  124.5114
  73  108.8722
  74  238.7528
  75  166.8234
  76  98.50505
  77  52.66213
  78  72.41061
  79  122.1003
  80  38.32232
  81  132.617
  82  -3.572405
  83  57.75836
  84  19.09071
  85  -53.46068
  86  37.27668
  87  52.88026
  88  84.4728
  89  18.13875
  90  93.90202
  91  166.7868
  92  139.1876
  93  212.7954
  94  215.9121
  95  166.6623
  96  162.9975
  97  9.976398
  98  94.47521
  99  191.3194
 100  183.6838
 101  153.3843
 102  31.26806
 103  -48.47992
 104  113.3687
 105  137.274
 106  208.9519
 107  176.6145
 108  84.52482
 109  227.2668
 110  176.4389
 111  15.85914
 112  148.6339
 113  178.6913
 114  165.2883
 115  129.9988
 116  312.7925
 117  310.3053
 118  261.1869
 119  182.4161
 120  15.55669
 121  223.1908
 122  232.3273
 123  99.23849
 124  251.3546
 125  233.5706
 126  222.5154
 127  139.0097
 128  133.6343
 129  143.9935
 130  66.42768
 131  -37.10178
 132  68.24133
 133  49.90081
 134  73.91746
 135  0.668953
 136  -43.02504
 137  98.53056
 138  82.69447
 139  56.88638
 140  72.64053
 141  66.18732
 142  7.574778
 143  62.10299
 144  69.25182
 145  127.2423
 146  262.6249
 147  166.2308
 148  126.9187
 149  127.1138
 150  146.2235
 151  125.3238
 152  37.48238
 153  89.09387
 154  225.3156
 155  150.324
 156  113.9066
 157  135.7588
 158  12.39116
 159  -30.1197
 160  50.46904
 161  57.26814
 162  43.70717
 163  65.9119
 164  -36.79286
 165  -18.48219
 166  41.71048
 167  129.5908
 168  198.4025
 169  106.8774
 170  125.777
 171  87.75214
 172  5.711177
 173  123.9806
 174  74.77268
 175  103.2876
 176  206.6465
 177  168.4055
 178  38.40423
 179  249.9981
 180  332.2881
 181  246.4761
 182  100.9143
 183  95.11263
 184  36.63807
 185  -51.59799
 186  144.9801
 187  204.4506
 188  168.9266
 189  228.8821
 190  232.5927
 191  121.7734
 192  81.46299
 193  148.2495
 194  215.1793
 195  122.7546
 196  -65.30556
 197  15.64848
 198  171.6567
 199  102.3704
 200  102.9278
 201  65.6766
 202  85.05207
 203  76.82549
 204  2.04113
 205  124.6967
 206  175.1799
 207  89.16766
 208  99.68024
 209  157.2673
 210  79.57625
 211  48.53394
 212  -64.31295
 213  -159.9015
 214  27.31661
 215  98.34966
 216  263.7849
 217  112.6985
 218  0.5321834
 219  41.35329
 220  76.26628
 221  178.8062
 222  229.5605
 223  212.7383
 224  96.47176
 225  141.2839
 226  133.9792
 227  96.24334
 228  75.78577
 229  86.76728
 230  166.8237
 231  240.9131
 232  316.5249
 233  114.5344
 234  53.50673
 235  -11.57585
 236  55.03627
 237  86.73611
 238  152.0506
 239  -1.653417
 240  5.102305
 241  146.0251
 242  54.79012
 243  80.49906
 244  85.39811
 245  -4.23178
 246  21.37615
 247  52.87528
 248  144.9866
 249  135.8431
 250  217.1118
 251  305.1649
 252  125.3787
 253  22.24178
 254  188.03
 255  281.4948
 256  208.8805
 257  117.4223
 258  248.9289
 259  267.0601
 260  217.2058
 261  134.9928
 262  52.74089
 263  144.5715
 264  214.7889
 265  240.1418
 266  231.5728
 267  99.79202
 268  -20.52725
 269  55.07916
 270  230.1746
 271  282.0232
 272  242.0917
 273  201.0888
 274  260.951
 275  158.4218
 276  139.8831
 277  100.2839
 278  155.1254
 279  142.6644
 280  185.3441
 281  148.4618
 282  88.39929
 283  133.3923
 284  164.1559
 285  169.8812
 286  -20.15002
 287  -9.393951
 288  107.4976
 289  117.5585
 290  25.26617
 291  29.338
 292  145.9118
 293  188.4215
 294  290.1831
 295  2.535236
 296  -54.39958
 297  47.53256
 298  178.0361
 299  119.822
 300  59.43
 301  56.24593
 302  50.91159
 303  49.26681
 304  187.8276
 305  133.5692
 306  80.66008
 307  73.15318
 308  91.96701
 309  -58.5281
 310  47.6217
 311  143.7544
 312  150.3905
 313  181.9562
 314  130.3025
 315  81.57806
 316  47.31026
 317  89.93935
 318  197.6086
 319  146.6896
 320  143.8307
 321  134.3833
 322  61.10374
 323  83.66177
 324  61.39509
 325  216.1992
 326  337.1522
 327  272.8116
 328  209.9302
 329  214.8812
 330  171.705
 331  113.5864
 332  43.52051
 333  202.3433
 334  103.6032
 335  159.9804
 336  138.4561
 337  198.6698
 338  138.3533
 339  219.7922
 340  311.3903
 341  291.1189
 342  163.4612
 343  125.9587
 344  187.591
 345  147.7755
 346  85.71229
 347  184.6486
 348  149.7312
 349  245.4856
 350  271.7978
 351  81.19717
 352  90.63202
 353  110.8086
 354  224.8369
 355  230.8106
 356  257.8729
 357  160.5041
 358  92.67848
 359  73.04952
 360  136.1366
 361  139.1712
 362  248.7052
 363  222.2059
 364  246.6063
 365  139.6291
 366  158.6448
 367  262.3625
 368  83.35227
 369  -14.69313
 370  5.777506
 371  87.95943
 372  329.28
 373  244.8348
 374  281.9971
 375  397.3252
 376  262.9624
 377  78.61347
 378  119.6283
 379  191.6203
 380  166.2145
 381  82.20847
 382  173.3302
 383  81.09988
 384  185.7746
 385  188.9327
 386  121.6735
 387  182.1409
 388  275.82
 389  238.498
 390  383.044
 391  319.1501
 392  159.7904
 393  150.6737
 394  336.6031
 395  138.1788
 396  154.3551
 397  149.8167
 398  59.6647
 399  176.8133
 400  296.1569
 401  157.6993
 402  114.7145
 403  264.6633
 404  262.8993
 405  132.1286
 406  90.56834
 407  82.05913
 408  292.0182
 409  215.4836
 410  165.3497
 411  202.2815
 412  97.9577
 413  116.4463
 414  131.7619
 415  255.8585
 416  147.6569
 417  248.8429
 418  211.2109
 419  111.7514
 420  148.3926
 421  260.1583
 422  202.0924
 423  111.0417
 424  144.4699
 425  8.877749
 426  78.84814
 427  57.08907
 428  247.1746
 429  269.0365
 430  101.6923
 431  48.28876
 432  89.32801
 433  113.438
 434  190.2448
 435  146.7735
 436  98.27964
 437  175.8637
 438  156.0362
 439  226.0165
 440  184.7271
 441  222.8493
 442  213.6174
 443  180.2641
 444  183.7909
 445  175.8728
 446  192.8828
 447  98.51773
 448  3.045709
 449  226.2183
 450  400.3304
 451  241.5809
 452  141.2935
 453  179.6405
 454  129.5208
 455  136.6364
 456  161.2892
 457  255.9566
 458  179.3726
 459  169.8552
 460  192.5742
 461  183.6345
 462  293.2979
 463  178.7823
 464  172.8063
 465  78.95259
 466  153.1784
 467  239.2114
 468  64.68258
 469  -46.72926
 470  102.7445
 471  215.6006
 472  119.9568
 473  206.1072
 474  406.2782
 475  305.3445
 476  156.0018
 477  197.3243
 478  185.5856
 479  202.9846
 480  289.7293
 481  270.1535
 482  290.8875
 483  252.7701
 484  141.8737
 485  161.0937
 486  125.3202
 487  194.2573
 488  216.1848
 489  306.1275
 490  279.1219
 491  244.973
 492  378.5265
 493  328.1157
 494  72.13385
 495  16.25858
 496  86.22429
 497  154.6866
 498  162.446
 499  95.42989
 500  99.54746
 501  178.9605
 502  198.7776
 503  258.1787
 504  221.4963
 505  152.6293
 506  181.4791
 507  102.4511
 508  131.4782
 509  186.1357
 510  433.9311
 511  589.745
