# Input file       =  1188507916.120346_cleaned.dat
# Candidate        =  PSR_0332+5434
# Telescope        =  AR
# Epoch_topo       =  57999.878450466967
# Epoch_bary       =  N/A
# T_sample         =  0.002
# Data Folded      =  7143424
# Data Avg         =  0.0240088451033072
# Data StdDev      =  1.00005690095658 
# Profile Bins     =  512
# Profile Avg      =  334.981619440985 
# Profile StdDev   =  118.125305542314 
# Reduced chi-sqr  =  1.490
# Prob(Noise)      <  3.9e-12   (~6.8 sigma)
# P_topo (ms)      =  714.463691340977  +/- 0.000202
# P'_topo (s/s)    =  -0                +/- 1.09e-10
# P''_topo (s/s^2) =  0                 +/- 4.96e-14
# P_bary (ms)      =  N/A
# P'_bary (s/s)    =  N/A
# P''_bary (s/s^2) =  N/A
# P_orb (s)        =  N/A
# asin(i)/c (s)    =  N/A
# eccentricity     =  N/A
# w (rad)          =  N/A
# T_peri           =  N/A
######################################################
   0  975.995
   1  845.9001
   2  667.8248
   3  567.414
   4  491.5883
   5  442.3395
   6  294.8679
   7  318.9208
   8  287.629
   9  182.5478
  10  115.1816
  11  179.3587
  12  250.8866
  13  350.1575
  14  331.2788
  15  323.6263
  16  273.7131
  17  266.3086
  18  219.4124
  19  157.9992
  20  307.0798
  21  406.2966
  22  302.3659
  23  96.72375
  24  126.0782
  25  241.0745
  26  261.0818
  27  195.0766
  28  104.62
  29  161.575
  30  231.8562
  31  266.8325
  32  302.0884
  33  429.2234
  34  372.7874
  35  246.8413
  36  220.531
  37  315.8875
  38  299.1488
  39  256.3191
  40  356.5149
  41  221.367
  42  232.4207
  43  151.1518
  44  192.5101
  45  241.2945
  46  221.3938
  47  364.6597
  48  240.4401
  49  188.7139
  50  303.9115
  51  432.042
  52  413.7927
  53  286.2792
  54  270.2377
  55  429.2366
  56  539.8893
  57  395.8683
  58  470.1021
  59  509.173
  60  434.374
  61  369.84
  62  436.4251
  63  264.8045
  64  170.5974
  65  363.5066
  66  378.2178
  67  256.9193
  68  271.9082
  69  305.966
  70  446.2046
  71  443.6978
  72  352.0584
  73  368.3087
  74  312.085
  75  310.8923
  76  339.1295
  77  294.862
  78  414.9863
  79  362.1713
  80  266.1018
  81  259.5258
  82  386.6021
  83  250.0364
  84  359.7313
  85  164.3665
  86  300.4998
  87  277.2953
  88  155.9928
  89  293.405
  90  246.3481
  91  386.5584
  92  406.5386
  93  353.7059
  94  312.1146
  95  338.7206
  96  306.6034
  97  272.8418
  98  318.8597
  99  262.5744
 100  325.9293
 101  316.7222
 102  334.215
 103  384.3501
 104  362.5179
 105  358.2779
 106  359.4584
 107  242.968
 108  380.249
 109  414.0422
 110  516.9985
 111  342.6476
 112  251.637
 113  262.5952
 114  308.2327
 115  285.2569
 116  423.3573
 117  286.0115
 118  297.0627
 119  293.9848
 120  533.4383
 121  420.92
 122  391.8564
 123  274.4282
 124  382.6483
 125  296.389
 126  325.8633
 127  314.3731
 128  152.1521
 129  134.7852
 130  265.0531
 131  385.5211
 132  373.175
 133  397.1857
 134  477.6436
 135  466.0795
 136  393.9954
 137  371.9578
 138  304.6241
 139  213.7822
 140  318.2004
 141  488.7331
 142  460.3235
 143  447.6842
 144  497.4513
 145  496.4535
 146  371.7556
 147  244.2149
 148  268.3908
 149  387.7183
 150  459.0277
 151  483.2611
 152  344.3989
 153  428.3448
 154  380.0186
 155  329.7804
 156  400.2328
 157  358.8859
 158  310.8206
 159  293.8855
 160  238.6385
 161  278.7062
 162  445.9435
 163  556.2268
 164  426.1318
 165  530.6075
 166  410.4527
 167  411.5622
 168  327.1656
 169  337.1612
 170  314.7349
 171  277.6932
 172  258.6651
 173  211.2914
 174  251.3882
 175  399.4211
 176  367.0082
 177  434.941
 178  408.1259
 179  487.1423
 180  642.2938
 181  289.3909
 182  249.7824
 183  516.3091
 184  574.9648
 185  317.5786
 186  297.9351
 187  448.3951
 188  390.3956
 189  513.2465
 190  386.1996
 191  292.6591
 192  279.1807
 193  360.9454
 194  419.975
 195  376.7001
 196  306.8895
 197  292.4533
 198  302.2337
 199  363.7546
 200  323.2769
 201  223.6646
 202  332.7398
 203  381.8367
 204  191.9062
 205  291.5594
 206  263.5615
 207  342.4585
 208  178.8967
 209  204.3243
 210  251.3281
 211  366.7661
 212  353.4618
 213  366.2485
 214  453.453
 215  382.4884
 216  346.5431
 217  296.5488
 218  323.1189
 219  373.1964
 220  336.5568
 221  387.0084
 222  229.0957
 223  300.4529
 224  312.5246
 225  269.3035
 226  254.085
 227  293.504
 228  241.8262
 229  300.8106
 230  393.2783
 231  369.4155
 232  339.0496
 233  248.0695
 234  220.5683
 235  326.0329
 236  416.6245
 237  491.6281
 238  439.097
 239  350.6463
 240  293.8453
 241  270.2179
 242  351.948
 243  328.5381
 244  254.1026
 245  270.716
 246  231.6592
 247  343.2851
 248  390.5256
 249  445.2486
 250  381.1221
 251  390.8798
 252  414.9745
 253  370.2391
 254  359.327
 255  364.063
 256  345.2003
 257  344.5172
 258  313.2086
 259  264.0342
 260  273.1818
 261  300.5176
 262  406.1899
 263  346.4918
 264  317.8188
 265  263.7953
 266  348.8615
 267  417.169
 268  386.6848
 269  406.9762
 270  352.7939
 271  254.8724
 272  262.1713
 273  337.7847
 274  405.4503
 275  349.4059
 276  291.7148
 277  286.2028
 278  370.4583
 279  375.8971
 280  384.3447
 281  484.916
 282  342.1752
 283  309.9389
 284  179.0204
 285  225.9412
 286  298.8457
 287  292.7907
 288  430.8401
 289  304.6482
 290  293.1425
 291  358.5592
 292  245.4964
 293  224.0197
 294  275.6488
 295  336.5842
 296  256.0207
 297  404.3219
 298  490.3156
 299  301.2019
 300  393.4411
 301  462.2372
 302  398.1578
 303  357.9252
 304  304.5406
 305  349.6585
 306  275.2953
 307  300.4251
 308  366.4143
 309  342.1176
 310  311.1955
 311  349.0914
 312  313.1771
 313  383.3685
 314  368.8098
 315  269.6841
 316  367.1626
 317  371.6625
 318  322.0108
 319  306.7105
 320  257.0815
 321  309.4249
 322  239.8769
 323  329.5422
 324  267.4469
 325  274.4846
 326  247.1888
 327  267.8878
 328  250.2213
 329  221.1319
 330  362.4365
 331  412.1402
 332  404.7278
 333  348.2838
 334  384.1834
 335  420.6912
 336  399.4335
 337  247.8514
 338  226.7013
 339  247.6679
 340  398.9921
 341  443.5195
 342  419.1679
 343  555.5614
 344  331.5311
 345  143.043
 346  216.4348
 347  330.4946
 348  414.937
 349  438.3093
 350  472.1382
 351  386.7564
 352  282.5474
 353  350.1891
 354  280.2677
 355  176.2829
 356  244.9481
 357  223.0935
 358  290.4601
 359  363.1968
 360  387.5056
 361  278.2118
 362  304.785
 363  336.7971
 364  252.6059
 365  221.262
 366  143.0371
 367  245.4145
 368  264.2867
 369  288.401
 370  240.9851
 371  347.404
 372  393.3878
 373  282.2733
 374  370.9645
 375  343.1028
 376  256.1342
 377  290.1471
 378  319.9926
 379  374.3596
 380  273.4332
 381  287.7108
 382  342.483
 383  314.0229
 384  251.8187
 385  118.0609
 386  257.501
 387  354.9691
 388  187.6049
 389  234.2239
 390  326.1311
 391  290.351
 392  343.5172
 393  340.8599
 394  209.6812
 395  284.683
 396  297.2748
 397  238.771
 398  212.4058
 399  395.4531
 400  315.1406
 401  259.2735
 402  256.9556
 403  280.1487
 404  305.6894
 405  234.8202
 406  304.4963
 407  207.1243
 408  234.9769
 409  326.8801
 410  224.2827
 411  145.0105
 412  331.4129
 413  304.1538
 414  342.1528
 415  357.4539
 416  191.9189
 417  228.7258
 418  304.4407
 419  340.4166
 420  305.0533
 421  237.1712
 422  351.8214
 423  351.0638
 424  307.7745
 425  390.8126
 426  384.3524
 427  219.0449
 428  221.7401
 429  206.3636
 430  328.4753
 431  303.8788
 432  375.26
 433  408.5325
 434  254.4324
 435  386.6485
 436  351.9125
 437  304.8347
 438  378.6822
 439  490.5037
 440  397.1352
 441  276.2496
 442  293.3076
 443  292.9468
 444  258.7165
 445  398.9252
 446  411.7407
 447  400.1656
 448  392.5139
 449  388.109
 450  433.4264
 451  271.6292
 452  192.2964
 453  325.486
 454  254.2992
 455  225.953
 456  372.7734
 457  412.787
 458  308.2127
 459  379.2502
 460  322.7849
 461  230.8944
 462  192.6311
 463  403.4557
 464  381.8787
 465  367.9802
 466  398.595
 467  347.7257
 468  251.0322
 469  329.1339
 470  388.7844
 471  365.5252
 472  320.1909
 473  317.4674
 474  203.4657
 475  417.2443
 476  506.6891
 477  422.0586
 478  371.0135
 479  399.6843
 480  241.8636
 481  171.2019
 482  195.2225
 483  381.5927
 484  371.3329
 485  224.6544
 486  297.4493
 487  350.6647
 488  372.8129
 489  430.219
 490  405.3116
 491  275.9937
 492  225.9647
 493  362.2746
 494  285.14
 495  344.8689
 496  453.7443
 497  393.6286
 498  483.4254
 499  576.3694
 500  261.4021
 501  264.218
 502  411.7162
 503  435.3021
 504  529.3253
 505  646.4183
 506  492.793
 507  415.0081
 508  537.473
 509  837.4847
 510  918.1661
 511  907.2928
