# Input file       =  1188968228.122402_cleaned.dat
# Candidate        =  PSR_0332+5434
# Telescope        =  AR
# Epoch_topo       =  58005.206135675951
# Epoch_bary       =  N/A
# T_sample         =  0.002
# Data Folded      =  7340032
# Data Avg         =  0.0109521009666155
# Data StdDev      =  1.00002919081504 
# Profile Bins     =  512
# Profile Avg      =  156.956811188492 
# Profile StdDev   =  119.736531481686 
# Reduced chi-sqr  =  1.170
# Prob(Noise)      <  0.00471   (~2.6 sigma)
# P_topo (ms)      =  714.46483398736   +/- 0.000114
# P'_topo (s/s)    =  -0                +/- 6.04e-11
# P''_topo (s/s^2) =  0                 +/- 2.67e-14
# P_bary (ms)      =  N/A
# P'_bary (s/s)    =  N/A
# P''_bary (s/s^2) =  N/A
# P_orb (s)        =  N/A
# asin(i)/c (s)    =  N/A
# eccentricity     =  N/A
# w (rad)          =  N/A
# T_peri           =  N/A
######################################################
   0  528.1409
   1  420.6879
   2  359.3451
   3  399.3809
   4  273.0742
   5  197.6781
   6  136.4237
   7  230.2915
   8  180.1718
   9  10.80798
  10  129.5715
  11  221.7657
  12  146.7592
  13  224.8761
  14  207.7964
  15  193.5555
  16  318.0644
  17  211.3582
  18  268.1004
  19  166.0876
  20  107.3293
  21  77.6235
  22  58.72158
  23  129.5479
  24  -8.421074
  25  -144.866
  26  84.59447
  27  50.85172
  28  11.059
  29  31.02817
  30  209.0079
  31  76.51788
  32  202.6107
  33  218.2447
  34  180.472
  35  113.8089
  36  80.80692
  37  80.78941
  38  241.5623
  39  15.04008
  40  7.244222
  41  173.0387
  42  222.4325
  43  211.9087
  44  273.7698
  45  109.7864
  46  89.98789
  47  61.32827
  48  39.54902
  49  17.05157
  50  -28.5217
  51  52.74506
  52  13.94994
  53  214.4286
  54  136.3867
  55  57.75017
  56  29.60452
  57  202.891
  58  94.7706
  59  -25.07969
  60  -129.7477
  61  62.66936
  62  222.6235
  63  172.7393
  64  130.3461
  65  93.69848
  66  176.2528
  67  224.6927
  68  251.1489
  69  222.8407
  70  113.0233
  71  122.4153
  72  39.46351
  73  34.12757
  74  101.5062
  75  165.8454
  76  147.9069
  77  128.1442
  78  58.2678
  79  53.33693
  80  207.8905
  81  26.87296
  82  175.8624
  83  139.2089
  84  76.98885
  85  192.7707
  86  79.38736
  87  65.76429
  88  210.6958
  89  117.2923
  90  156.3179
  91  86.73904
  92  196.8656
  93  238.844
  94  200.9086
  95  183.2272
  96  160.5346
  97  47.56993
  98  174.9763
  99  177.2187
 100  160.7134
 101  147.5134
 102  207.2093
 103  218.8219
 104  175.6747
 105  133.9308
 106  56.91267
 107  251.9794
 108  344.6362
 109  305.5156
 110  322.7136
 111  124.4607
 112  -70.04965
 113  205.8577
 114  266.2562
 115  285.6548
 116  77.65587
 117  30.37075
 118  144.7332
 119  194.838
 120  103.438
 121  15.89727
 122  38.31489
 123  156.9298
 124  206.1572
 125  160.7799
 126  191.9511
 127  159.2262
 128  116.2258
 129  112.8116
 130  44.05996
 131  53.37795
 132  84.96159
 133  181.1177
 134  268.0844
 135  192.6449
 136  232.3321
 137  104.8289
 138  125.9266
 139  109.8585
 140  139.0901
 141  103.5242
 142  159.7678
 143  202.6839
 144  173.6258
 145  53.90152
 146  123.9666
 147  147.5318
 148  154.8035
 149  142.9838
 150  96.93016
 151  204.7156
 152  196.4034
 153  97.87886
 154  101.8017
 155  144.1969
 156  189.8846
 157  323.4363
 158  158.8421
 159  179.7076
 160  72.46656
 161  109.7076
 162  224.3663
 163  130.5048
 164  100.3187
 165  5.071686
 166  71.45702
 167  29.02842
 168  -64.59911
 169  46.18381
 170  182.7062
 171  110.2505
 172  99.21991
 173  202.9765
 174  153.983
 175  227.3018
 176  145.9695
 177  30.02863
 178  218.1426
 179  289.9989
 180  152.4026
 181  127.4584
 182  86.84834
 183  217.65
 184  258.0351
 185  79.85587
 186  37.97542
 187  137.7551
 188  189.0419
 189  140.5229
 190  123.8436
 191  218.8699
 192  281.341
 193  107.6411
 194  200.3542
 195  219.6014
 196  104.0203
 197  205.9809
 198  206.8743
 199  216.3421
 200  178.7114
 201  122.1866
 202  129.2506
 203  13.86837
 204  59.62424
 205  117.0786
 206  316.9843
 207  265.9676
 208  138.7507
 209  106.5347
 210  166.2011
 211  223.7551
 212  303.9743
 213  254.2719
 214  301.7186
 215  228.5385
 216  125.8157
 217  182.6066
 218  209.1548
 219  271.2108
 220  180.1531
 221  148.0646
 222  275.5609
 223  172.0611
 224  204.0724
 225  245.407
 226  357.5653
 227  209.4366
 228  327.1068
 229  288.2109
 230  163.3734
 231  99.90613
 232  97.80566
 233  157.7363
 234  329.0366
 235  145.2002
 236  -14.71734
 237  100.4652
 238  208.0171
 239  186.1911
 240  140.8654
 241  233.1712
 242  365.1509
 243  382.107
 244  299.1722
 245  234.5028
 246  143.0902
 247  50.97593
 248  91.68086
 249  242.0945
 250  323.3205
 251  318.7448
 252  125.7368
 253  151.5322
 254  166.1573
 255  99.57841
 256  151.1494
 257  255.0251
 258  323.8903
 259  363.1631
 260  173.702
 261  111.4231
 262  187.3109
 263  86.87658
 264  231.9652
 265  192.23
 266  237.7852
 267  265.3316
 268  280.8618
 269  156.6133
 270  75.56333
 271  131.8767
 272  181.3147
 273  179.1901
 274  95.9277
 275  30.59382
 276  188.2647
 277  174.2839
 278  107.7959
 279  77.01061
 280  77.38258
 281  126.7941
 282  102.5403
 283  161.8406
 284  293.166
 285  172.6432
 286  50.67561
 287  131.1098
 288  111.1459
 289  107.9453
 290  82.98851
 291  237.6374
 292  167.1949
 293  113.1281
 294  168.0094
 295  241.9375
 296  130.5642
 297  189.8609
 298  166.3956
 299  199.0947
 300  213.6828
 301  272.2519
 302  207.7222
 303  132.5303
 304  61.76457
 305  64.6399
 306  268.9073
 307  206.7784
 308  -0.8440901
 309  148.1054
 310  121.3394
 311  61.03684
 312  24.77867
 313  117.851
 314  144.3855
 315  212.9091
 316  49.77823
 317  137.1532
 318  50.55106
 319  35.26163
 320  193.7894
 321  276.3037
 322  179.9388
 323  205.5415
 324  192.8042
 325  58.41176
 326  90.22363
 327  74.26101
 328  189.4661
 329  235.5317
 330  237.3458
 331  21.39984
 332  149.7944
 333  150.0485
 334  163.9189
 335  211.4579
 336  235.8005
 337  134.6043
 338  74.26287
 339  66.63211
 340  22.8514
 341  90.18907
 342  256.7027
 343  62.8248
 344  70.59856
 345  168.5294
 346  83.78395
 347  -0.6298172
 348  241.1069
 349  181.3402
 350  185.7379
 351  141.0561
 352  269.6236
 353  236.1789
 354  249.6149
 355  226.5735
 356  156.1539
 357  135.0899
 358  68.66177
 359  121.672
 360  157.314
 361  112.8633
 362  242.7858
 363  227.5543
 364  34.70224
 365  42.12738
 366  19.5666
 367  179.5963
 368  117.4202
 369  2.285214
 370  97.65886
 371  87.40464
 372  13.94498
 373  45.1015
 374  -27.2998
 375  91.31945
 376  -42.41758
 377  28.54369
 378  165.6697
 379  196.5473
 380  182.6585
 381  98.90628
 382  36.31642
 383  121.6357
 384  184.4508
 385  241.4312
 386  103.3622
 387  123.8675
 388  215.5019
 389  97.9167
 390  157.261
 391  111.9148
 392  54.81622
 393  115.5303
 394  244.143
 395  217.0693
 396  -29.55214
 397  53.94875
 398  380.8947
 399  335.2407
 400  254.947
 401  56.31374
 402  128.791
 403  169.6911
 404  232.7215
 405  191.5085
 406  357.2325
 407  324.0764
 408  176.076
 409  187.4277
 410  258.089
 411  315.1895
 412  111.9652
 413  136.2336
 414  370.5833
 415  263.1855
 416  126.0191
 417  53.51861
 418  213.9919
 419  122.8426
 420  161.9747
 421  88.88899
 422  277.5984
 423  215.8845
 424  72.75121
 425  62.36464
 426  138.9122
 427  117.8921
 428  213.6322
 429  325.5411
 430  342.1435
 431  188.6241
 432  153.2321
 433  111.7649
 434  124.9416
 435  139.2535
 436  197.9191
 437  205.0208
 438  158.1635
 439  136.1649
 440  258.2166
 441  275.3481
 442  154.8098
 443  117.5805
 444  357.5641
 445  292.395
 446  111.0696
 447  105.2176
 448  149.5068
 449  124.7331
 450  141.8445
 451  114.6666
 452  88.13831
 453  114.1408
 454  261.4016
 455  338.0027
 456  236.8452
 457  20.21728
 458  4.169929
 459  72.6251
 460  20.06256
 461  -75.54328
 462  68.36302
 463  196.0142
 464  62.43796
 465  88.15665
 466  240.316
 467  199.905
 468  11.97654
 469  34.34857
 470  134.1959
 471  140.6691
 472  116.1663
 473  133.8928
 474  211.1131
 475  233.4744
 476  205.3948
 477  61.62094
 478  -12.74288
 479  323.7043
 480  358.0029
 481  189.9799
 482  78.187
 483  -15.47435
 484  47.49526
 485  174.1948
 486  172.6091
 487  195.4676
 488  181.2557
 489  157.0183
 490  236.2214
 491  87.40506
 492  96.63073
 493  162.8274
 494  153.5894
 495  62.97624
 496  138.3491
 497  258.6092
 498  289.1072
 499  189.0833
 500  232.6596
 501  134.8791
 502  151.5534
 503  222.9553
 504  203.4707
 505  222.4828
 506  166.9328
 507  224.1894
 508  336.0365
 509  440.0376
 510  437.5607
 511  484.7567
