# Input file       =  1188264049.1201_cleaned.dat
# Candidate        =  PSR_0332+5434
# Telescope        =  AR
# Epoch_topo       =  57997.055915741897
# Epoch_bary       =  N/A
# T_sample         =  0.002
# Data Folded      =  7340032
# Data Avg         =  0.00704742080760123
# Data StdDev      =  1.00002511538854 
# Profile Bins     =  512
# Profile Avg      =  101.027665987168 
# Profile StdDev   =  119.736043518496 
# Reduced chi-sqr  =  1.507
# Prob(Noise)      <  8.83e-13   (~7.1 sigma)
# P_topo (ms)      =  714.4634637248    +/- 0.00014
# P'_topo (s/s)    =  -0                +/- 7.39e-11
# P''_topo (s/s^2) =  0                 +/- 3.26e-14
# P_bary (ms)      =  N/A
# P'_bary (s/s)    =  N/A
# P''_bary (s/s^2) =  N/A
# P_orb (s)        =  N/A
# asin(i)/c (s)    =  N/A
# eccentricity     =  N/A
# w (rad)          =  N/A
# T_peri           =  N/A
######################################################
   0  837.4965
   1  766.1684
   2  586.3094
   3  326.0349
   4  134.1149
   5  149.5442
   6  230.2413
   7  158.6378
   8  -77.30987
   9  62.75242
  10  179.7518
  11  258.0334
  12  248.7467
  13  129.3109
  14  151.7723
  15  270.875
  16  229.6267
  17  225.5885
  18  191.6128
  19  264.7994
  20  211.2877
  21  70.70542
  22  20.8499
  23  172.5897
  24  126.6852
  25  169.7459
  26  143.866
  27  86.5251
  28  76.12659
  29  -16.25787
  30  109.7495
  31  142.2675
  32  103.1266
  33  -68.90753
  34  -50.29245
  35  73.90723
  36  21.92036
  37  -61.41185
  38  72.84008
  39  187.7617
  40  149.485
  41  209.5746
  42  138.2019
  43  119.4596
  44  -14.49427
  45  -43.14554
  46  80.95983
  47  104.3073
  48  146.3512
  49  66.05027
  50  151.4351
  51  123.4421
  52  186.706
  53  154.854
  54  247.4349
  55  97.81869
  56  -22.91352
  57  221.8256
  58  157.4779
  59  65.8863
  60  161.5017
  61  260.0927
  62  119.6882
  63  -62.11373
  64  45.22767
  65  76.48067
  66  5.023549
  67  131.8166
  68  84.94057
  69  81.00165
  70  97.28499
  71  188.188
  72  43.68305
  73  59.47324
  74  192.0593
  75  124.3791
  76  21.11659
  77  31.12014
  78  143.6857
  79  201.9881
  80  266.0862
  81  267.6411
  82  177.9986
  83  146.5976
  84  84.18079
  85  107.9635
  86  88.35332
  87  8.598743
  88  48.73073
  89  90.91449
  90  98.46021
  91  205.415
  92  99.03671
  93  2.694096
  94  -6.701361
  95  -2.256413
  96  89.09553
  97  324.8054
  98  119.2159
  99  1.064788
 100  11.42061
 101  -61.69395
 102  -21.37878
 103  93.81455
 104  219.4991
 105  154.5042
 106  -102.6626
 107  -134.883
 108  -114.0895
 109  67.68458
 110  199.2307
 111  179.0913
 112  104.1751
 113  8.793935
 114  67.09814
 115  120.4943
 116  -9.415668
 117  52.93729
 118  87.56517
 119  198.9465
 120  83.70762
 121  -118.7053
 122  -37.05646
 123  27.54768
 124  25.64321
 125  139.9499
 126  -32.15829
 127  38.34148
 128  50.38083
 129  88.84826
 130  109.8751
 131  115.2183
 132  175.8398
 133  40.36415
 134  -22.39435
 135  -48.60911
 136  66.19514
 137  89.55772
 138  204.1736
 139  86.87035
 140  103.2483
 141  210.0394
 142  74.00426
 143  -4.357756
 144  171.61
 145  152.2399
 146  109.8324
 147  148.2282
 148  106.7952
 149  136.8935
 150  83.16316
 151  137.8746
 152  249.8271
 153  97.65411
 154  175.136
 155  142.0745
 156  60.52161
 157  151.8044
 158  124.9745
 159  151.2637
 160  71.27323
 161  -14.85835
 162  41.84079
 163  205.5618
 164  45.55756
 165  34.55848
 166  31.80433
 167  79.3919
 168  148.7769
 169  196.2367
 170  23.14951
 171  33.98589
 172  113.5313
 173  192.2646
 174  67.4856
 175  -44.73536
 176  -67.27632
 177  79.0413
 178  50.15484
 179  14.41395
 180  95.83332
 181  228.0331
 182  195.0237
 183  -25.14992
 184  -63.4366
 185  -34.70988
 186  13.77624
 187  163.0735
 188  138.6872
 189  -50.75417
 190  21.17369
 191  128.4326
 192  89.56244
 193  -15.07568
 194  -76.75145
 195  113.9458
 196  60.59725
 197  -17.14
 198  21.64986
 199  121.7101
 200  174.2219
 201  96.85479
 202  -70.67528
 203  -122.4061
 204  1.111625
 205  177.3593
 206  235.1748
 207  65.29962
 208  137.7543
 209  120.9208
 210  80.99825
 211  133.462
 212  108.624
 213  36.33248
 214  -27.00693
 215  -55.66117
 216  19.68978
 217  -17.13404
 218  55.54015
 219  130.6017
 220  66.79996
 221  208.1563
 222  213.9796
 223  113.3125
 224  106.8072
 225  2.656288
 226  45.9118
 227  175.1512
 228  128.6633
 229  260.4898
 230  254.712
 231  128.7297
 232  222.6095
 233  47.14314
 234  85.89235
 235  8.63223
 236  171.3006
 237  114.9139
 238  61.70348
 239  98.00578
 240  177.8859
 241  53.33838
 242  25.02385
 243  175.4356
 244  57.49624
 245  50.03027
 246  129.8939
 247  64.48267
 248  49.52474
 249  -44.7366
 250  -1.499143
 251  107.9676
 252  85.93154
 253  17.38044
 254  57.01295
 255  24.06274
 256  148.9004
 257  213.8416
 258  111.3625
 259  84.64403
 260  82.19771
 261  130.8852
 262  141.0824
 263  112.2282
 264  6.743578
 265  68.45921
 266  121.3549
 267  64.22912
 268  152.9706
 269  -2.297708
 270  12.68054
 271  180.5033
 272  208.2332
 273  34.23196
 274  3.01878
 275  46.06674
 276  -121.893
 277  -120.7991
 278  -61.45718
 279  6.471848
 280  270.8741
 281  228.0343
 282  66.87637
 283  41.21602
 284  -3.116488
 285  -7.421695
 286  -12.05684
 287  85.87597
 288  -61.03806
 289  -4.824593
 290  137.7961
 291  69.03349
 292  87.10423
 293  84.73388
 294  166.4088
 295  153.5263
 296  10.90361
 297  70.88074
 298  -84.09317
 299  -31.70736
 300  61.95404
 301  87.82175
 302  156.8752
 303  205.0118
 304  92.25329
 305  60.79123
 306  103.3296
 307  222.4396
 308  181.8761
 309  58.06251
 310  -23.61474
 311  -2.720861
 312  66.72857
 313  57.9189
 314  132.5514
 315  115.2368
 316  226.3362
 317  194.4128
 318  135.5942
 319  96.17248
 320  80.33396
 321  -176.3766
 322  12.96777
 323  155.3866
 324  128.4059
 325  120.7908
 326  82.24406
 327  77.22882
 328  76.34439
 329  206.0651
 330  215.3617
 331  122.4443
 332  195.0087
 333  193.0494
 334  60.00477
 335  -113.1032
 336  49.56983
 337  21.13426
 338  192.7192
 339  1.596227
 340  78.17861
 341  202.207
 342  76.78177
 343  91.72145
 344  238.9463
 345  62.71156
 346  71.53929
 347  79.63332
 348  43.4256
 349  127.2392
 350  141.1901
 351  76.16359
 352  -6.135635
 353  -19.09587
 354  -84.19111
 355  50.04277
 356  163.5066
 357  99.2781
 358  43.14674
 359  99.79559
 360  101.8096
 361  157.9985
 362  235.1325
 363  212.5931
 364  168.9897
 365  41.172
 366  136.1841
 367  184.6123
 368  196.3878
 369  159.476
 370  86.9566
 371  -8.373306
 372  -79.26242
 373  117.5093
 374  199.1621
 375  61.50986
 376  129.6056
 377  42.2016
 378  31.9428
 379  61.85624
 380  117.1957
 381  188.6929
 382  183.0023
 383  252.2602
 384  119.0239
 385  165.6368
 386  266.0974
 387  180.3308
 388  136.2066
 389  35.0285
 390  35.34959
 391  -14.29016
 392  158.6149
 393  287.755
 394  142.7692
 395  142.0692
 396  187.898
 397  165.9685
 398  59.07279
 399  -166.5914
 400  11.04376
 401  104.2177
 402  49.40841
 403  203.5948
 404  152.9499
 405  137.7257
 406  38.20158
 407  81.13149
 408  210.5668
 409  174.0581
 410  -6.623895
 411  2.867326
 412  74.57549
 413  195.9953
 414  128.9841
 415  109.6762
 416  137.3614
 417  -81.7141
 418  -103.469
 419  106.3286
 420  119.6049
 421  19.50893
 422  63.40481
 423  23.34149
 424  36.81955
 425  109.5116
 426  50.03883
 427  11.27373
 428  -3.076413
 429  -8.735018
 430  160.9015
 431  201.6331
 432  211.4022
 433  282.6105
 434  179.4001
 435  219.8842
 436  107.9624
 437  58.0478
 438  172.8316
 439  268.1966
 440  221.9628
 441  86.83852
 442  7.141606
 443  -3.537658
 444  95.83434
 445  162.7575
 446  119.1899
 447  94.66453
 448  133.0564
 449  161.6423
 450  166.7904
 451  64.9862
 452  135.4145
 453  185.3928
 454  163.2126
 455  181.2046
 456  121.069
 457  17.95309
 458  -23.22301
 459  40.84952
 460  137.6135
 461  140.102
 462  67.37206
 463  21.93298
 464  80.61288
 465  100.6579
 466  171.0793
 467  77.15129
 468  146.8118
 469  184.6493
 470  116.8083
 471  36.03194
 472  94.704
 473  110.1716
 474  113.2566
 475  99.7342
 476  120.8768
 477  145.5113
 478  -25.25474
 479  227.2338
 480  99.20363
 481  -42.22321
 482  110.9164
 483  77.96967
 484  -0.3975872
 485  -60.55439
 486  56.26204
 487  250.8496
 488  288.518
 489  33.05636
 490  67.84759
 491  244.4202
 492  196.4728
 493  193.74
 494  65.19194
 495  145.9315
 496  73.9679
 497  67.84778
 498  146.7472
 499  66.97624
 500  90.80137
 501  96.48449
 502  47.00686
 503  22.81733
 504  158.0539
 505  164.5834
 506  42.23253
 507  6.741219
 508  184.048
 509  380.0768
 510  479.2078
 511  814.6636
