# Input file       =  1188249402.122966_cleaned.dat
# Candidate        =  PSR_0332+5434
# Telescope        =  AR
# Epoch_topo       =  57996.886390312109
# Epoch_bary       =  N/A
# T_sample         =  0.002
# Data Folded      =  7208960
# Data Avg         =  0.0176717251004717
# Data StdDev      =  1.00006696877252 
# Profile Bins     =  512
# Profile Avg      =  248.823312982145 
# Profile StdDev   =  118.667122252881 
# Reduced chi-sqr  =  1.323
# Prob(Noise)      <  1.24e-06   (~4.7 sigma)
# P_topo (ms)      =  714.463440296457  +/- 0.00025
# P'_topo (s/s)    =  -0                +/- 1.34e-10
# P''_topo (s/s^2) =  0                 +/- 6.03e-14
# P_bary (ms)      =  N/A
# P'_bary (s/s)    =  N/A
# P''_bary (s/s^2) =  N/A
# P_orb (s)        =  N/A
# asin(i)/c (s)    =  N/A
# eccentricity     =  N/A
# w (rad)          =  N/A
# T_peri           =  N/A
######################################################
   0  802.7537
   1  803.736
   2  780.7577
   3  561.0135
   4  319.1123
   5  199.8503
   6  186.8027
   7  228.1408
   8  195.975
   9  145.0244
  10  277.2284
  11  370.1844
  12  230.7915
  13  189.6023
  14  230.4097
  15  268.5395
  16  431.8966
  17  355.8946
  18  197.4019
  19  253.7887
  20  279.7148
  21  234.7005
  22  242.2847
  23  239.0578
  24  271.3387
  25  230.2582
  26  312.4741
  27  169.1018
  28  80.70079
  29  127.5649
  30  275.6833
  31  320.5983
  32  267.7553
  33  300.8297
  34  253.4993
  35  135.6358
  36  354.6952
  37  258.1252
  38  151.4886
  39  179.3617
  40  297.1758
  41  225.2897
  42  125.1225
  43  208.8699
  44  325.1667
  45  212.9249
  46  199.0173
  47  285.6097
  48  238.1595
  49  146.8923
  50  158.9912
  51  202.7683
  52  222.1084
  53  180.2957
  54  336.6737
  55  322.8574
  56  330.2487
  57  327.5192
  58  274.1909
  59  262.2878
  60  373.2065
  61  217.0417
  62  114.1721
  63  291.1494
  64  351.9314
  65  290.911
  66  203.5522
  67  36.81533
  68  53.26266
  69  170.1099
  70  245.0392
  71  390.7725
  72  226.0328
  73  191.9348
  74  181.709
  75  236.9783
  76  284.454
  77  209.8396
  78  104.9383
  79  116.6642
  80  248.4001
  81  205.7308
  82  307.5924
  83  352.0041
  84  310.2751
  85  250.7127
  86  231.7529
  87  268.8718
  88  291.9715
  89  222.0011
  90  234.0315
  91  210.9951
  92  346.0058
  93  348.8036
  94  317.9476
  95  331.155
  96  412.3268
  97  275.0342
  98  158.1777
  99  227.982
 100  274.8561
 101  316.132
 102  373.0693
 103  204.5817
 104  185.6978
 105  364.0642
 106  243.3293
 107  294.6992
 108  372.105
 109  418.7709
 110  333.7975
 111  197.7741
 112  214.5488
 113  125.6912
 114  116.1347
 115  167.6616
 116  87.3462
 117  233.9961
 118  339.0356
 119  198.8303
 120  293.1634
 121  493.0609
 122  336.6392
 123  302.3645
 124  307.4414
 125  249.386
 126  230.4614
 127  200.4368
 128  300.0229
 129  267.203
 130  259.7643
 131  347.2231
 132  267.465
 133  176.4329
 134  201.6372
 135  132.4625
 136  226.7471
 137  212.9572
 138  297.4218
 139  184.4448
 140  223.9191
 141  250.7862
 142  219.3172
 143  300.3908
 144  288.7427
 145  323.8444
 146  285.7053
 147  140.701
 148  65.96623
 149  176.302
 150  267.301
 151  261.8996
 152  255.4992
 153  319.4341
 154  272.9926
 155  242.739
 156  249.6662
 157  346.7997
 158  256.0745
 159  273.5144
 160  401.0952
 161  208.3153
 162  209.0532
 163  278.3541
 164  380.4833
 165  328.1164
 166  331.3997
 167  383.7335
 168  261.11
 169  223.64
 170  274.3386
 171  282.8453
 172  359.1608
 173  243.3104
 174  259.7448
 175  214.0118
 176  56.49739
 177  212.6077
 178  297.8511
 179  387.7547
 180  345.0029
 181  366.4244
 182  295.6638
 183  351.2705
 184  374.7562
 185  304.3988
 186  240.9974
 187  208.8363
 188  189.486
 189  257.8306
 190  230.8049
 191  310.8309
 192  366.0452
 193  173.3647
 194  62.14509
 195  311.7675
 196  431.0096
 197  327.9013
 198  184.3244
 199  235.2178
 200  384.6649
 201  241.0218
 202  98.37922
 203  180.466
 204  360.6616
 205  394.3375
 206  241.4957
 207  173.1738
 208  196.0131
 209  106.1737
 210  230.9862
 211  198.4558
 212  259.709
 213  235.996
 214  244.2563
 215  231.6001
 216  233.4608
 217  366.11
 218  253.3506
 219  211.3803
 220  354.5023
 221  395.0409
 222  306.2218
 223  290.5774
 224  192.5237
 225  237.5968
 226  195.9025
 227  193.7834
 228  250.5506
 229  272.5136
 230  303.0309
 231  295.5326
 232  218.5477
 233  89.27383
 234  191.9394
 235  319.0623
 236  263.4215
 237  186.1162
 238  115.639
 239  135.0851
 240  200.8642
 241  304.7646
 242  206.5368
 243  272.1465
 244  328.6281
 245  306.3192
 246  327.5149
 247  358.8859
 248  177.7134
 249  285.6626
 250  374.0973
 251  226.9495
 252  236.5223
 253  324.26
 254  224.9468
 255  320.7785
 256  231.9111
 257  208.6326
 258  266.1684
 259  309.3381
 260  228.2735
 261  270.293
 262  228.9875
 263  167.2465
 264  72.98723
 265  193.5723
 266  343.3605
 267  269.4124
 268  217.7085
 269  137.7352
 270  103.5578
 271  70.83722
 272  219.8157
 273  189.2961
 274  85.09092
 275  141.1706
 276  187.334
 277  101.4625
 278  137.8537
 279  240.6134
 280  163.5105
 281  155.5106
 282  205.0336
 283  197.9659
 284  216.8615
 285  217.6132
 286  165.0948
 287  197.2815
 288  303.2234
 289  209.9639
 290  218.2736
 291  286.2002
 292  301.794
 293  162.7807
 294  157.0872
 295  153.5336
 296  254.4191
 297  211.3042
 298  157.358
 299  197.8744
 300  248.9498
 301  127.3972
 302  179.9227
 303  265.1192
 304  245.7215
 305  277.4845
 306  290.4686
 307  347.2795
 308  421.1707
 309  396.9133
 310  321.3829
 311  191.3136
 312  256.342
 313  330.1421
 314  287.5912
 315  303.9156
 316  155.3488
 317  288.0791
 318  372.1005
 319  243.0618
 320  217.3735
 321  224.2691
 322  166.093
 323  98.77155
 324  -3.11727
 325  82.88891
 326  257.4149
 327  327.7237
 328  271.8728
 329  229.2101
 330  289.7233
 331  142.9034
 332  149.085
 333  289.0472
 334  254.6109
 335  208.6644
 336  201.3502
 337  130.3425
 338  99.34097
 339  111.2253
 340  200.7386
 341  367.1382
 342  282.2239
 343  197.2393
 344  208.802
 345  252.8405
 346  249.1871
 347  210.613
 348  276.1255
 349  247.5616
 350  166.3104
 351  225.308
 352  312.8051
 353  332.7003
 354  277.2298
 355  175.4574
 356  221.496
 357  330.6599
 358  257.0869
 359  168.1014
 360  171.1196
 361  195.528
 362  113.8554
 363  54.43314
 364  180.3698
 365  261.3835
 366  232.4138
 367  187.176
 368  118.8928
 369  14.59317
 370  185.8977
 371  250.477
 372  131.2709
 373  114.5068
 374  152.3201
 375  96.12151
 376  9.017694
 377  183.2268
 378  379.4555
 379  392.1419
 380  454.4008
 381  339.1544
 382  215.718
 383  200.4046
 384  170.0096
 385  166.014
 386  156.3907
 387  155.5711
 388  274.5771
 389  316.5181
 390  238.207
 391  275.2537
 392  89.50673
 393  275.6163
 394  161.1139
 395  102.8205
 396  250.746
 397  184.3023
 398  112.2793
 399  177.2786
 400  202.0723
 401  185.7146
 402  161.3339
 403  250.0741
 404  239.393
 405  173.7359
 406  121.6546
 407  208.4332
 408  210.5808
 409  181.9828
 410  235.9881
 411  303.976
 412  344.0324
 413  113.57
 414  141.1868
 415  323.7831
 416  194.9605
 417  177.9183
 418  277.2951
 419  276.3347
 420  292.717
 421  257.5195
 422  249.7844
 423  194.6948
 424  150.1397
 425  201.8709
 426  355.7247
 427  296.7593
 428  226.6339
 429  295.1092
 430  311.4734
 431  325.7367
 432  133.564
 433  129.7378
 434  189.4634
 435  245.4852
 436  292.5623
 437  258.8672
 438  188.6622
 439  112.7785
 440  210.4787
 441  290.1684
 442  172.0192
 443  274.4519
 444  282.4307
 445  160.9207
 446  295.9602
 447  419.9675
 448  255.9922
 449  236.2905
 450  249.9619
 451  227.7042
 452  255.5849
 453  168.1524
 454  225.4479
 455  319.4478
 456  257.4612
 457  214.7253
 458  390.5767
 459  319.746
 460  273.0476
 461  206.6233
 462  121.5157
 463  142.5627
 464  200.4832
 465  196.5928
 466  139.6854
 467  246.4711
 468  296.4726
 469  182.2888
 470  157.5956
 471  212.7307
 472  360.2354
 473  355.1077
 474  290.9926
 475  286.2317
 476  291.9898
 477  290.0736
 478  336.7004
 479  369.5867
 480  263.0551
 481  191.0091
 482  197.9927
 483  137.3948
 484  170.5653
 485  193.0447
 486  255.1571
 487  273.6459
 488  191.739
 489  359.0303
 490  353.2097
 491  420.2878
 492  457.9567
 493  461.8338
 494  366.2376
 495  259.5001
 496  294.7227
 497  317.6354
 498  262.2273
 499  183.1374
 500  123.3981
 501  206.6208
 502  141.8804
 503  320.6444
 504  306.6281
 505  388.0498
 506  489.4481
 507  436.4581
 508  414.2437
 509  456.2019
 510  603.7792
 511  834.144
