# Input file       =  1188594055.109037_cleaned.dat
# Candidate        =  PSR_0332+5434
# Telescope        =  AR
# Epoch_topo       =  58000.875429502739
# Epoch_bary       =  N/A
# T_sample         =  0.002
# Data Folded      =  7143424
# Data Avg         =  0.0166890080788949
# Data StdDev      =  1.00005032520406 
# Profile Bins     =  512
# Profile Avg      =  232.792741268164 
# Profile StdDev   =  118.124528823735 
# Reduced chi-sqr  =  1.478
# Prob(Noise)      <  1.06e-11   (~6.7 sigma)
# P_topo (ms)      =  714.463807021103  +/- 0.000204
# P'_topo (s/s)    =  -0                +/- 1.11e-10
# P''_topo (s/s^2) =  0                 +/- 5.02e-14
# P_bary (ms)      =  N/A
# P'_bary (s/s)    =  N/A
# P''_bary (s/s^2) =  N/A
# P_orb (s)        =  N/A
# asin(i)/c (s)    =  N/A
# eccentricity     =  N/A
# w (rad)          =  N/A
# T_peri           =  N/A
######################################################
   0  885.4665
   1  962.1229
   2  781.5444
   3  564.4213
   4  427.3715
   5  455.4594
   6  463
   7  357.3603
   8  280.9829
   9  277.123
  10  271.129
  11  300.4028
  12  423.6675
  13  313.6034
  14  134.1107
  15  255.1198
  16  246.8912
  17  184.7233
  18  264.7785
  19  195.3889
  20  167.2871
  21  261.3941
  22  220.9132
  23  184.1733
  24  165.0242
  25  146.0184
  26  116.297
  27  254.5832
  28  308.9894
  29  177.07
  30  137.2847
  31  142.4769
  32  383.1594
  33  394.3684
  34  294.3349
  35  278.8137
  36  230.125
  37  291.886
  38  265.9722
  39  237.4454
  40  276.4467
  41  276.1486
  42  291.1602
  43  248.9285
  44  230.7924
  45  209.6272
  46  152.6621
  47  109.2515
  48  59.83147
  49  133.4942
  50  211.9331
  51  191.578
  52  259.6416
  53  225.3772
  54  192.5247
  55  249.3784
  56  224.5897
  57  178.9531
  58  98.71528
  59  126.1204
  60  124.0229
  61  135.7271
  62  232.7126
  63  338.7518
  64  293.6615
  65  221.6873
  66  240.7065
  67  292.2181
  68  350.7095
  69  231.6379
  70  212.2686
  71  162.4661
  72  168.4266
  73  117.9435
  74  229.7736
  75  275.3474
  76  192.4315
  77  287.4248
  78  235.5035
  79  136.2033
  80  148.0119
  81  251.272
  82  166.2451
  83  176.4167
  84  178.8669
  85  258.2242
  86  217.7521
  87  -1.440336
  88  63.04364
  89  285.4792
  90  219.2487
  91  205.1366
  92  169.7813
  93  202.2668
  94  253.9341
  95  269.9938
  96  334.5474
  97  176.8683
  98  129.3284
  99  228.049
 100  276.5543
 101  295.838
 102  234.4928
 103  290.5352
 104  203.8295
 105  19.11887
 106  166.291
 107  191.6913
 108  233.5353
 109  214.6987
 110  235.5839
 111  180.0562
 112  284.0072
 113  317.9706
 114  286.4005
 115  239.4117
 116  226.3712
 117  184.0319
 118  75.01047
 119  192.1324
 120  202.2607
 121  185.2186
 122  151.0719
 123  203.8296
 124  289.7368
 125  230.0379
 126  185.3098
 127  142.5071
 128  132.606
 129  66.2313
 130  246.4187
 131  365.4835
 132  215.3297
 133  279.2168
 134  186.3615
 135  198.6172
 136  186.8036
 137  104.1068
 138  219.5426
 139  162.9306
 140  301.9962
 141  308.0137
 142  252.8287
 143  310.909
 144  482.3332
 145  277.0884
 146  182.5352
 147  203.3003
 148  251.1028
 149  202.1528
 150  64.5801
 151  167.9307
 152  373.0049
 153  393.4311
 154  300.5757
 155  194.3388
 156  147.0432
 157  134.76
 158  194.4801
 159  156.5593
 160  119.1503
 161  118.1551
 162  5.063042
 163  241.9064
 164  136.8978
 165  154.0594
 166  237.1738
 167  217.7025
 168  276.8903
 169  262.405
 170  130.3569
 171  173.8993
 172  216.6559
 173  368.4278
 174  381.4396
 175  290.5276
 176  250.3254
 177  357.1309
 178  309.0386
 179  291.1355
 180  324.1931
 181  172.9068
 182  179.4205
 183  221.587
 184  208.1073
 185  234.5829
 186  261.7641
 187  212.3846
 188  223.0326
 189  190.9229
 190  191.4292
 191  134.27
 192  184.6355
 193  251.0046
 194  288.7408
 195  268.4834
 196  148.5958
 197  206.7434
 198  165.4235
 199  187.3814
 200  182.4573
 201  247.4748
 202  235.263
 203  158.6632
 204  177.9984
 205  206.6536
 206  259.2186
 207  258.5117
 208  246.4237
 209  125.6075
 210  255.8623
 211  229.3212
 212  55.45299
 213  151.6897
 214  252.5033
 215  317.8825
 216  300.3674
 217  374.6069
 218  413.6729
 219  242.269
 220  114.5289
 221  218.102
 222  279.34
 223  239.7129
 224  319.2241
 225  332.3971
 226  203.2326
 227  183.2653
 228  229.9199
 229  216.1437
 230  116.7449
 231  51.44093
 232  146.4328
 233  292.1571
 234  228.6385
 235  244.8181
 236  264.7235
 237  156.5368
 238  186.4094
 239  170.8039
 240  189.6133
 241  178.8843
 242  249.9478
 243  306.7663
 244  316.2165
 245  201.4336
 246  185.6981
 247  180.9249
 248  224.8117
 249  287.5685
 250  259.4627
 251  247.4684
 252  141.2927
 253  215.4949
 254  234.0843
 255  229.6533
 256  275.4793
 257  320.8636
 258  221.7906
 259  170.8136
 260  236.4058
 261  203.6276
 262  303.1188
 263  309.0584
 264  223.0426
 265  262.4013
 266  190.481
 267  141.6247
 268  130.8182
 269  223.811
 270  158.9686
 271  197.5086
 272  161.5828
 273  361.1913
 274  300.1404
 275  270.8077
 276  286.9164
 277  235.095
 278  181.976
 279  249.9599
 280  224.964
 281  167.7033
 282  237.3742
 283  349.3559
 284  289.8236
 285  347.1901
 286  374.9657
 287  232.767
 288  294.9709
 289  386.8885
 290  283.0508
 291  193.5574
 292  292.9764
 293  264.6404
 294  123.568
 295  113.3101
 296  288.1532
 297  339.4874
 298  282.5175
 299  372.295
 300  359.6495
 301  337.1587
 302  171.1198
 303  272.0211
 304  244.3564
 305  222.4613
 306  283.2655
 307  329.4229
 308  417.5385
 309  408.0431
 310  398.4223
 311  286.8489
 312  152.1489
 313  148.1498
 314  158.9231
 315  263.3568
 316  277.0896
 317  186.7888
 318  189.7137
 319  260.988
 320  244.8799
 321  217.997
 322  156.0255
 323  150.7432
 324  247.9403
 325  169.5474
 326  303.813
 327  201.9232
 328  336.7526
 329  368.8324
 330  224.6699
 331  258.4391
 332  254.6635
 333  228.429
 334  225.4151
 335  152.2684
 336  153.7808
 337  158.3311
 338  111.1114
 339  267.6051
 340  139.8385
 341  117.2019
 342  110.7605
 343  64.2398
 344  132.7863
 345  110.5831
 346  103.0337
 347  148.1724
 348  208.1882
 349  339.388
 350  333.17
 351  339.0034
 352  275.6606
 353  230.235
 354  174.2176
 355  270.636
 356  210.7684
 357  140.805
 358  226.765
 359  142.2883
 360  47.41983
 361  200.7424
 362  106.8892
 363  65.41182
 364  77.09087
 365  293.0935
 366  246.8257
 367  142.2522
 368  90.57721
 369  209.5931
 370  201.5861
 371  264.013
 372  255.914
 373  185.2118
 374  278.7515
 375  257.2186
 376  334.249
 377  408.2432
 378  200.3128
 379  17.39777
 380  127.1458
 381  152.9964
 382  99.61295
 383  153.7631
 384  230.3015
 385  499.5473
 386  355.6978
 387  382.4132
 388  220.6141
 389  192.0733
 390  293.5589
 391  373.9064
 392  318.3942
 393  271.7993
 394  287.6625
 395  254.8754
 396  226.1618
 397  229.1151
 398  305.7351
 399  368.4824
 400  337.2858
 401  298.7374
 402  235.1939
 403  114.215
 404  118.3854
 405  159.0108
 406  13.29487
 407  158.757
 408  220.4004
 409  234.7651
 410  101.165
 411  11.12195
 412  311.2328
 413  364.3036
 414  351.1646
 415  232.2648
 416  266.8661
 417  273.0528
 418  391.4877
 419  283.7416
 420  239.9299
 421  152.4327
 422  198.9304
 423  191.3608
 424  270.7841
 425  266.4668
 426  249.7144
 427  262.4707
 428  167.6611
 429  124.9831
 430  184.3445
 431  151.515
 432  204.1362
 433  249.4805
 434  299.9731
 435  316.6965
 436  153.5957
 437  118.8416
 438  241.25
 439  294.0558
 440  289.0859
 441  292.4606
 442  345.2306
 443  237.6734
 444  140.5486
 445  135.2846
 446  216.7744
 447  176.0588
 448  208.7502
 449  206.2632
 450  276.0464
 451  274.3996
 452  241.9379
 453  296.9333
 454  240.8512
 455  126.1234
 456  182.9215
 457  236.0023
 458  155.3638
 459  126.8944
 460  333.6298
 461  360.2175
 462  264.9679
 463  239.4969
 464  231.5279
 465  183.6152
 466  55.94935
 467  147.7739
 468  74.46602
 469  166.4867
 470  239.4067
 471  153.4319
 472  79.35249
 473  24.45585
 474  75.43462
 475  163.2712
 476  195.5876
 477  197.055
 478  185.1142
 479  104.7729
 480  153.738
 481  218.0613
 482  302.3888
 483  236.4075
 484  277.733
 485  291.7168
 486  287.7881
 487  82.91454
 488  163.9857
 489  327.4849
 490  251.3122
 491  247.7003
 492  185.015
 493  220.5039
 494  165.3884
 495  234.6744
 496  230.2374
 497  223.3394
 498  230.3351
 499  188.6084
 500  185.1999
 501  301.7806
 502  332.4067
 503  233.9882
 504  110.9493
 505  125.6287
 506  117.4914
 507  407.9984
 508  602.8086
 509  578.861
 510  754.0728
 511  708.6294
