# Input file       =  1188106604.102703_cleaned.dat
# Candidate        =  PSR_0332+5434
# Telescope        =  AR
# Epoch_topo       =  57995.233635447956
# Epoch_bary       =  N/A
# T_sample         =  0.002
# Data Folded      =  7340032
# Data Avg         =  0.00752520081001176
# Data StdDev      =  1.00003396741376 
# Profile Bins     =  512
# Profile Avg      =  107.931484412751 
# Profile StdDev   =  119.737103398353 
# Reduced chi-sqr  =  1.516
# Prob(Noise)      <  3.76e-13   (~7.2 sigma)
# P_topo (ms)      =  714.463710297759  +/- 7.43e-05
# P'_topo (s/s)    =  -0                +/- 3.92e-11
# P''_topo (s/s^2) =  0                 +/- 1.73e-14
# P_bary (ms)      =  N/A
# P'_bary (s/s)    =  N/A
# P''_bary (s/s^2) =  N/A
# P_orb (s)        =  N/A
# asin(i)/c (s)    =  N/A
# eccentricity     =  N/A
# w (rad)          =  N/A
# T_peri           =  N/A
######################################################
   0  615.0572
   1  590.8042
   2  513.3444
   3  417.488
   4  263.1062
   5  238.5602
   6  76.04427
   7  113.6715
   8  197.1847
   9  71.01706
  10  41.3326
  11  6.113092
  12  -106.4671
  13  39.17779
  14  26.8487
  15  -120.8703
  16  -2.988974
  17  -71.6603
  18  -29.70028
  19  -56.41961
  20  -35.77911
  21  -82.26351
  22  41.36264
  23  107.654
  24  -27.38266
  25  -131.2651
  26  -38.67792
  27  67.71302
  28  142.5043
  29  153.5353
  30  133.5634
  31  208.9646
  32  83.43082
  33  147.5965
  34  137.2774
  35  62.27015
  36  -12.57438
  37  81.04806
  38  90.62674
  39  0.08583443
  40  54.88345
  41  62.01731
  42  -6.226904
  43  74.15385
  44  180.2499
  45  294.8796
  46  171.7761
  47  119.7041
  48  65.72828
  49  91.25986
  50  115.0317
  51  128.4534
  52  111.8611
  53  126.1138
  54  130.0517
  55  232.27
  56  312.4426
  57  163.9504
  58  92.58734
  59  273.0947
  60  246.7823
  61  323.7599
  62  277.8449
  63  135.7381
  64  94.3983
  65  124.2681
  66  83.92199
  67  186.0523
  68  105.9583
  69  138.516
  70  130.6411
  71  229.0322
  72  260.0381
  73  196.9625
  74  215.4001
  75  120.8213
  76  101.761
  77  53.63976
  78  67.91269
  79  122.2463
  80  63.27129
  81  104.1885
  82  121.1514
  83  24.10347
  84  27.42001
  85  117.7058
  86  137.0352
  87  95.60357
  88  -12.70342
  89  12.19443
  90  102.7782
  91  65.39244
  92  1.148503
  93  -63.5745
  94  107.3675
  95  76.68844
  96  45.76846
  97  114.1609
  98  110.8126
  99  22.13879
 100  41.01005
 101  126.6933
 102  85.0426
 103  183.5983
 104  63.07687
 105  -46.08482
 106  55.30966
 107  35.33974
 108  44.52859
 109  -6.839539
 110  133.8067
 111  165.5694
 112  154.6546
 113  105.7161
 114  206.0884
 115  187.4581
 116  139.9736
 117  232.5706
 118  202.445
 119  119.2105
 120  117.0015
 121  95.22532
 122  200.7813
 123  230.7533
 124  33.34318
 125  140.21
 126  4.231788
 127  90.12614
 128  106.6294
 129  104.3706
 130  60.02739
 131  -55.79514
 132  33.82414
 133  113.1191
 134  118.5323
 135  82.39648
 136  50.37323
 137  256.0369
 138  226.1228
 139  127.5716
 140  58.62668
 141  248.2642
 142  245.031
 143  317.9275
 144  39.80923
 145  0.1682033
 146  160.4109
 147  171.5651
 148  231.1707
 149  178.6938
 150  157.2157
 151  204.6953
 152  212.4368
 153  143.2969
 154  3.357886
 155  64.55126
 156  169.1753
 157  84.612
 158  67.19472
 159  46.73521
 160  -63.95403
 161  35.27649
 162  185.2323
 163  128.6208
 164  -28.57273
 165  16.29702
 166  81.23343
 167  228.6111
 168  138.0058
 169  74.1818
 170  102.0752
 171  15.68953
 172  -39.92894
 173  -53.23528
 174  6.781037
 175  -94.4262
 176  -5.797678
 177  3.142011
 178  38.5003
 179  122.579
 180  65.02336
 181  81.2209
 182  102.7459
 183  125.3259
 184  149.5166
 185  247.247
 186  262.543
 187  126.5691
 188  -25.58901
 189  84.26924
 190  87.07758
 191  145.2448
 192  49.74128
 193  -35.20077
 194  -25.21941
 195  141.5164
 196  240.1618
 197  126.9422
 198  9.960756
 199  95.51793
 200  223.4957
 201  137.6393
 202  132.3082
 203  112.3213
 204  275.1804
 205  271.5923
 206  320.3756
 207  165.2365
 208  71.38844
 209  322.895
 210  286.1589
 211  176.7352
 212  204.2685
 213  261.8422
 214  236.9073
 215  260.973
 216  225.9473
 217  167.6186
 218  125.0571
 219  254.9171
 220  294.9398
 221  68.96198
 222  83.08955
 223  307.9393
 224  246.6877
 225  217.0693
 226  109.4199
 227  123.1507
 228  15.88529
 229  138.0135
 230  -29.05311
 231  36.18731
 232  32.26072
 233  12.60677
 234  112.0936
 235  39.47608
 236  90.16666
 237  86.81503
 238  -23.77499
 239  31.41237
 240  60.71955
 241  -69.59812
 242  94.52219
 243  184.3768
 244  33.79936
 245  32.74957
 246  71.82664
 247  230.7424
 248  132.8098
 249  61.99646
 250  86.43791
 251  21.68217
 252  -9.009288
 253  -65.931
 254  -80.13684
 255  73.08208
 256  222.2345
 257  153.3183
 258  198.3542
 259  80.82523
 260  114.1284
 261  51.4684
 262  109.6931
 263  151.2015
 264  70.99522
 265  33.68678
 266  156.0601
 267  36.99619
 268  53.76424
 269  7.350227
 270  49.09956
 271  210.7365
 272  146.3244
 273  36.8263
 274  163.2645
 275  74.80537
 276  156.9423
 277  231.2321
 278  322.4268
 279  325.0174
 280  355.6631
 281  399.5834
 282  255.0336
 283  183.9188
 284  133.4855
 285  160.8886
 286  240.1608
 287  242.566
 288  83.78522
 289  40.4196
 290  277.6381
 291  397.6339
 292  158.0014
 293  -60.93517
 294  23.16925
 295  303.5507
 296  303.8015
 297  79.72992
 298  -46.1365
 299  0.03564527
 300  101.0344
 301  81.71542
 302  150.8837
 303  130.6581
 304  -54.3469
 305  38.93331
 306  127.4105
 307  137.4943
 308  63.87365
 309  182.9279
 310  55.00525
 311  113.4798
 312  40.34781
 313  103.5544
 314  85.34333
 315  121.0095
 316  -4.863175
 317  -82.33277
 318  -157.8012
 319  -68.28535
 320  80.69566
 321  46.63489
 322  -74.50232
 323  25.40106
 324  37.94623
 325  71.92733
 326  54.44675
 327  61.72947
 328  90.54043
 329  227.4649
 330  244.673
 331  190.1432
 332  -10.62405
 333  78.86546
 334  197.9225
 335  66.49793
 336  181.4286
 337  142.3509
 338  200.5855
 339  133.4884
 340  139.674
 341  80.2311
 342  114.2335
 343  79.63161
 344  101.0588
 345  73.04175
 346  165.3075
 347  21.85946
 348  119.9062
 349  10.07771
 350  70.93407
 351  183.2038
 352  178.9345
 353  37.12066
 354  91.83253
 355  89.27885
 356  73.26624
 357  14.7306
 358  109.544
 359  130.5246
 360  -23.38767
 361  93.06333
 362  115.7109
 363  214.653
 364  182.2911
 365  65.78951
 366  -46.6653
 367  68.17355
 368  100.718
 369  132.3187
 370  50.42539
 371  11.16174
 372  -15.1461
 373  7.199876
 374  -73.90208
 375  -54.78521
 376  49.5842
 377  51.41306
 378  72.75838
 379  51.91887
 380  34.79773
 381  37.94879
 382  43.95758
 383  118.8196
 384  141.9055
 385  102.8744
 386  106.1019
 387  143.5933
 388  57.58598
 389  -43.9701
 390  -15.28051
 391  197.394
 392  144.9424
 393  0.8934935
 394  -47.48078
 395  13.28183
 396  -10.15565
 397  -79.24781
 398  27.18455
 399  48.93047
 400  58.74284
 401  97.96967
 402  26.27802
 403  99.16525
 404  44.26762
 405  27.71209
 406  123.7914
 407  185.3199
 408  99.18247
 409  83.40575
 410  35.01894
 411  21.65729
 412  102.533
 413  81.65226
 414  54.45949
 415  87.69087
 416  9.145875
 417  5.738832
 418  174.8945
 419  299.7288
 420  231.4264
 421  179.8805
 422  179.8943
 423  214.9817
 424  140.6513
 425  153.7189
 426  134.9283
 427  125.2539
 428  193.7106
 429  204.9803
 430  379.4053
 431  161.4295
 432  32.02149
 433  287.9237
 434  234.3071
 435  158.2918
 436  95.1373
 437  100.5409
 438  172.6325
 439  77.70415
 440  86.33541
 441  42.97714
 442  39.98669
 443  99.8071
 444  53.22485
 445  121.2516
 446  -10.8643
 447  -98.77186
 448  42.71054
 449  100.5762
 450  -52.64915
 451  32.68785
 452  156.6225
 453  103.3618
 454  66.31301
 455  63.98965
 456  33.36826
 457  165.6353
 458  54.84016
 459  -152.13
 460  -176.7603
 461  -0.423685
 462  76.48956
 463  139.4185
 464  179.2968
 465  136.2814
 466  -85.33797
 467  -65.71978
 468  2.342285
 469  -19.95875
 470  -76.10776
 471  107.8573
 472  -35.9979
 473  88.2109
 474  13.14744
 475  -36.3318
 476  -45.77591
 477  42.29391
 478  22.62134
 479  -27.3921
 480  -82.21927
 481  186.0705
 482  168.9739
 483  189.5025
 484  132.2476
 485  104.3594
 486  195.8893
 487  198.3575
 488  112.9202
 489  149.53
 490  90.25096
 491  169.8715
 492  226.3025
 493  140.8289
 494  119.2726
 495  188.1173
 496  210.3684
 497  190.3319
 498  206.618
 499  272.4596
 500  365.1778
 501  220.41
 502  180.2103
 503  186.7264
 504  267.0287
 505  351.1188
 506  350.7519
 507  242.7229
 508  287.2478
 509  216.6995
 510  307.6835
 511  452.1728
