# Input file       =  1188867141.111164_cleaned.dat
# Candidate        =  PSR_0332+5434
# Telescope        =  AR
# Epoch_topo       =  58004.036147119958
# Epoch_bary       =  N/A
# T_sample         =  0.002
# Data Folded      =  7340032
# Data Avg         =  0.0107456780496385
# Data StdDev      =  1.00004401298125 
# Profile Bins     =  512
# Profile Avg      =  154.091136316405 
# Profile StdDev   =  119.738306184652 
# Reduced chi-sqr  =  1.236
# Prob(Noise)      <  0.000207   (~3.5 sigma)
# P_topo (ms)      =  714.46428727779   +/- 0.000136
# P'_topo (s/s)    =  -0                +/- 7.16e-11
# P''_topo (s/s^2) =  0                 +/- 3.16e-14
# P_bary (ms)      =  N/A
# P'_bary (s/s)    =  N/A
# P''_bary (s/s^2) =  N/A
# P_orb (s)        =  N/A
# asin(i)/c (s)    =  N/A
# eccentricity     =  N/A
# w (rad)          =  N/A
# T_peri           =  N/A
######################################################
   0  610.8227
   1  460.6165
   2  522.3701
   3  485.1664
   4  172.8018
   5  133.8847
   6  221.5847
   7  252.6102
   8  159.8128
   9  78.42558
  10  84.56302
  11  66.22202
  12  177.7814
  13  287.6767
  14  147.6826
  15  62.40443
  16  113.7993
  17  128.0889
  18  45.30316
  19  -24.19549
  20  61.73451
  21  134.2145
  22  89.35969
  23  79.32233
  24  71.89826
  25  279.3817
  26  197.4939
  27  49.52523
  28  125.2028
  29  168.1359
  30  207.9244
  31  173.6045
  32  132.9577
  33  118.4552
  34  165.2176
  35  84.09818
  36  86.24538
  37  66.33517
  38  152.7364
  39  190.8646
  40  124.86
  41  184.1665
  42  43.44378
  43  158.4837
  44  208.886
  45  215.6828
  46  277.7664
  47  203.5107
  48  125.3851
  49  39.9365
  50  183.7955
  51  245.3025
  52  175.9945
  53  179.7036
  54  163.8663
  55  -36.55812
  56  184.9591
  57  293.8902
  58  227.4618
  59  207.4013
  60  81.23486
  61  -50.87135
  62  -76.80221
  63  -1.944536
  64  11.07856
  65  127.5232
  66  173.3915
  67  114.6802
  68  112.92
  69  69.51371
  70  84.20434
  71  175.3193
  72  128.0834
  73  60.77271
  74  302.785
  75  270.2958
  76  130.3737
  77  210.5175
  78  215.9495
  79  26.29719
  80  114.2911
  81  72.72214
  82  51.4811
  83  147.6016
  84  137.5128
  85  126.3376
  86  1.188823
  87  -5.091025
  88  199.0844
  89  187.2341
  90  290.0045
  91  160.1886
  92  218.8356
  93  284.0894
  94  94.28415
  95  68.00758
  96  126.513
  97  164.997
  98  171.8444
  99  158.3919
 100  151.7147
 101  118.1772
 102  80.61754
 103  189.9087
 104  215.9742
 105  147.7968
 106  163.2005
 107  199.4628
 108  209.2587
 109  124.197
 110  183.7403
 111  237.3848
 112  272.0841
 113  209.0658
 114  192.4732
 115  288.1876
 116  282.9355
 117  230.8993
 118  185.0267
 119  244.833
 120  229.0121
 121  208.0094
 122  109.6539
 123  121.947
 124  53.93922
 125  71.47556
 126  59.95441
 127  25.29084
 128  33.86031
 129  78.65971
 130  35.9036
 131  101.1161
 132  99.08662
 133  -30.40233
 134  81.41341
 135  145.4867
 136  260.9182
 137  172.6418
 138  214.0226
 139  350.0145
 140  214.0655
 141  61.90127
 142  -21.36449
 143  96.59528
 144  113.2844
 145  195.8708
 146  134.8849
 147  197.718
 148  237.4068
 149  246.8139
 150  106.5712
 151  133.1797
 152  68.09581
 153  116.7522
 154  211.5599
 155  246.9007
 156  238.922
 157  212.1942
 158  142.5338
 159  163.7893
 160  133.5797
 161  101.3946
 162  75.55935
 163  74.84049
 164  205.4693
 165  313.209
 166  111.2034
 167  133.4999
 168  253.5541
 169  133.0115
 170  94.51879
 171  168.2105
 172  385.8481
 173  335.3166
 174  278.0629
 175  203.4251
 176  30.02077
 177  76.21695
 178  147.4368
 179  30.26148
 180  142.4863
 181  241.7587
 182  226.2728
 183  131.0077
 184  227.6272
 185  281.9062
 186  206.0655
 187  156.8574
 188  121.7114
 189  226.722
 190  344.3056
 191  255.1814
 192  103.763
 193  91.12933
 194  44.7705
 195  146.1717
 196  203.5184
 197  181.5156
 198  80.78397
 199  141.468
 200  297.4361
 201  82.58749
 202  -9.711543
 203  69.60907
 204  15.40379
 205  148.2971
 206  144.0458
 207  173.6738
 208  36.03976
 209  -21.99938
 210  76.85403
 211  -61.08316
 212  -20.31974
 213  106.0099
 214  179.9339
 215  156.6346
 216  119.3923
 217  126.224
 218  90.30808
 219  -11.43893
 220  43.66774
 221  94.15233
 222  98.21169
 223  157.7285
 224  286.6011
 225  255.5645
 226  275.122
 227  280.7991
 228  138.2468
 229  56.14236
 230  60.8438
 231  111.8267
 232  99.52048
 233  226.1114
 234  207.7732
 235  130.2519
 236  174.6219
 237  122.6108
 238  136.7346
 239  134.3128
 240  162.1707
 241  273.3367
 242  259.0956
 243  168.7109
 244  213.2064
 245  257.512
 246  189.8746
 247  280.2262
 248  133.2282
 249  100.8682
 250  151.2263
 251  211.5761
 252  181.7331
 253  157.6802
 254  56.7598
 255  43.16397
 256  205.3101
 257  312.5582
 258  211.6431
 259  197.7479
 260  306.9424
 261  275.7812
 262  217.7971
 263  116.9097
 264  209.3895
 265  262.1375
 266  222.4866
 267  253.6317
 268  210.6438
 269  337.7008
 270  332.2312
 271  230.3606
 272  171.1443
 273  167.1118
 274  299.0518
 275  202.0466
 276  169.3515
 277  156.0883
 278  64.91895
 279  19.88879
 280  306.0015
 281  315.7638
 282  219.6904
 283  191.519
 284  208.5865
 285  203.5642
 286  165.732
 287  110.0394
 288  262.0984
 289  317.4279
 290  258.2403
 291  192.9936
 292  173.7018
 293  269.0747
 294  106.0166
 295  51.06078
 296  89.6759
 297  119.1059
 298  82.41566
 299  67.93755
 300  96.71096
 301  150.3228
 302  94.79968
 303  95.10778
 304  251.9246
 305  224.4413
 306  218.6321
 307  219.2713
 308  191.5363
 309  218.1836
 310  136.8614
 311  52.17282
 312  159.7818
 313  196.3922
 314  164.4908
 315  107.5339
 316  -11.33035
 317  161.0479
 318  52.23575
 319  163.3715
 320  164.6793
 321  146.4749
 322  37.6494
 323  -35.66459
 324  6.269416
 325  45.31515
 326  174.7959
 327  143.4386
 328  61.43492
 329  41.61921
 330  31.01443
 331  52.83095
 332  -2.662899
 333  154.9504
 334  186.2592
 335  230.1303
 336  163.139
 337  246.1089
 338  156.1179
 339  0.8057821
 340  9.867648
 341  42.02486
 342  -3.682945
 343  167.1711
 344  276.5367
 345  318.5285
 346  190.6043
 347  128.9434
 348  28.00395
 349  166.3598
 350  85.27356
 351  175.0868
 352  316.3175
 353  316.2663
 354  336.5339
 355  197.0401
 356  182.8008
 357  165.7482
 358  185.419
 359  133.6559
 360  93.19428
 361  120.456
 362  71.717
 363  113.94
 364  83.75453
 365  88.32587
 366  336.4883
 367  203.4071
 368  138.2522
 369  146.7296
 370  124.8086
 371  129.8322
 372  148.4848
 373  160.8923
 374  186.0176
 375  31.24897
 376  -106.4352
 377  -54.33475
 378  69.96313
 379  93.26133
 380  145.2082
 381  157.8851
 382  270.3166
 383  209.4586
 384  201
 385  168.8273
 386  41.05926
 387  148.5348
 388  123.568
 389  124.9603
 390  55.24517
 391  88.94772
 392  136.8863
 393  195.4333
 394  130.2254
 395  118.0928
 396  27.85573
 397  218.9072
 398  315.8508
 399  303.9357
 400  88.08759
 401  25.21573
 402  29.36085
 403  120.8241
 404  224.2609
 405  145.853
 406  178.9623
 407  168.4357
 408  263.3286
 409  115.6225
 410  83.67388
 411  13.94407
 412  -0.7389285
 413  79.95044
 414  -1.990378
 415  -141.5004
 416  -27.93552
 417  140.312
 418  100.3647
 419  112.6903
 420  237.2073
 421  133.0439
 422  216.7087
 423  173.1311
 424  160.1556
 425  118.5121
 426  154.5843
 427  207.8656
 428  60.97344
 429  75.21815
 430  38.94224
 431  103.0371
 432  101.9397
 433  244.2392
 434  201.3701
 435  133.1038
 436  185.537
 437  165.276
 438  127.7724
 439  36.87943
 440  68.66833
 441  254.4049
 442  208.4958
 443  138.9934
 444  80.85928
 445  69.15932
 446  16.02721
 447  131.9218
 448  154.4272
 449  102.782
 450  29.20746
 451  246.3722
 452  166.5115
 453  115.4781
 454  138.6791
 455  100.0222
 456  194.2168
 457  176.3188
 458  150.4261
 459  164.9013
 460  280.9043
 461  229.2678
 462  94.94514
 463  63.23853
 464  186.1496
 465  117.745
 466  24.25879
 467  11.5517
 468  137.9386
 469  163.1716
 470  215.0599
 471  164.7596
 472  186.301
 473  99.28062
 474  43.12432
 475  105.3873
 476  164.4958
 477  193.3419
 478  125.9241
 479  157.6896
 480  238.0831
 481  64.26093
 482  44.76265
 483  31.91787
 484  198.686
 485  97.42859
 486  147.7123
 487  242.0023
 488  243.7811
 489  153.9476
 490  115.9293
 491  153.6416
 492  273.9841
 493  151.0406
 494  286.3661
 495  354.0777
 496  220.9893
 497  230.3605
 498  182.889
 499  123.4228
 500  39.34696
 501  59.7978
 502  257.3111
 503  303.6563
 504  267.0714
 505  232.7811
 506  321.4709
 507  304.4216
 508  254.7689
 509  334.5663
 510  554.488
 511  650.3571
