# Input file       =  1188436404.113469_cleaned.dat
# Candidate        =  PSR_0332+5434
# Telescope        =  AR
# Epoch_topo       =  57999.050765202184
# Epoch_bary       =  N/A
# T_sample         =  0.002
# Data Folded      =  7340032
# Data Avg         =  0.00833958614784623
# Data StdDev      =  1.0000177789811  
# Profile Bins     =  512
# Profile Avg      =  119.542469515159 
# Profile StdDev   =  119.735165108157 
# Reduced chi-sqr  =  1.186
# Prob(Noise)      <  0.00233   (~2.8 sigma)
# P_topo (ms)      =  714.463621175623  +/- 0.000143
# P'_topo (s/s)    =  -0                +/- 7.53e-11
# P''_topo (s/s^2) =  0                 +/- 3.32e-14
# P_bary (ms)      =  N/A
# P'_bary (s/s)    =  N/A
# P''_bary (s/s^2) =  N/A
# P_orb (s)        =  N/A
# asin(i)/c (s)    =  N/A
# eccentricity     =  N/A
# w (rad)          =  N/A
# T_peri           =  N/A
######################################################
   0  664.2045
   1  666.9056
   2  373.2147
   3  204.6156
   4  203.9735
   5  155.1075
   6  151.1948
   7  44.37437
   8  6.746614
   9  120.0696
  10  12.79473
  11  59.2471
  12  184.1643
  13  256.0693
  14  254.2681
  15  201.1987
  16  101.0415
  17  158.4099
  18  167.1894
  19  200.1226
  20  266.9122
  21  201.7284
  22  143.3751
  23  145.1948
  24  75.17637
  25  186.7846
  26  247.9412
  27  97.80592
  28  57.46428
  29  -29.48261
  30  -63.0426
  31  18.80688
  32  56.21276
  33  264.0769
  34  86.59018
  35  31.64502
  36  50.66697
  37  141.2902
  38  166.7948
  39  245.878
  40  191.9394
  41  88.17045
  42  183.2405
  43  255.1841
  44  169.8794
  45  63.55282
  46  25.12968
  47  56.75464
  48  163.5287
  49  368.2678
  50  321.819
  51  234.9869
  52  129.7786
  53  56.1211
  54  57.14505
  55  139.4521
  56  159.5898
  57  260.045
  58  195.4115
  59  159.2013
  60  242.3111
  61  335.2972
  62  391.7992
  63  206.5823
  64  77.43066
  65  -35.30247
  66  56.89928
  67  128.55
  68  151.6174
  69  187.1172
  70  57.50785
  71  127.2834
  72  84.22334
  73  4.981355
  74  109.4102
  75  213.4538
  76  58.38646
  77  57.1345
  78  152.6657
  79  33.80451
  80  98.18568
  81  87.47801
  82  24.13865
  83  216.7268
  84  255.6065
  85  70.53825
  86  -33.63905
  87  81.0713
  88  38.97299
  89  82.1214
  90  28.25455
  91  64.85819
  92  136.3422
  93  67.39085
  94  -29.69142
  95  -17.66322
  96  129.7456
  97  170.9226
  98  -23.42717
  99  -82.41586
 100  28.08939
 101  89.59212
 102  112.8574
 103  91.08681
 104  188.7832
 105  101.6839
 106  26.11904
 107  69.37828
 108  77.93308
 109  147.258
 110  176.2586
 111  72.93017
 112  1.08523
 113  -34.26224
 114  142.3041
 115  82.98037
 116  34.0739
 117  155.5207
 118  179.2087
 119  56.54891
 120  -7.670339
 121  101.0091
 122  209.7154
 123  217.2901
 124  153.3486
 125  110.8084
 126  75.07494
 127  65.63531
 128  150.6744
 129  124.838
 130  -34.8477
 131  107.9315
 132  197.2446
 133  118.7079
 134  201.4562
 135  280.8307
 136  217.1707
 137  163.3319
 138  79.40369
 139  139.4223
 140  135.3689
 141  116.0653
 142  93.03556
 143  -16.65572
 144  -52.41998
 145  41.84135
 146  -0.4166527
 147  -38.49918
 148  60.6965
 149  94.51128
 150  165.8907
 151  96.8839
 152  148.526
 153  63.50035
 154  64.97375
 155  130.8058
 156  198.1376
 157  296.9713
 158  227.5903
 159  60.57759
 160  108.3724
 161  129.5972
 162  260.7957
 163  233.9363
 164  168.2164
 165  190.483
 166  26.66415
 167  -34.79554
 168  97.80594
 169  31.60415
 170  -48.99036
 171  57.46301
 172  135.9809
 173  112.1301
 174  55.90335
 175  229.3582
 176  237.1487
 177  106.04
 178  39.09382
 179  124.9276
 180  157.825
 181  114.9221
 182  -0.6257812
 183  6.432168
 184  101.1684
 185  131.1251
 186  278.0572
 187  120.1358
 188  42.45377
 189  157.8679
 190  206.0814
 191  167.738
 192  326.4185
 193  177.841
 194  -33.44105
 195  62.55509
 196  195.2402
 197  180.3162
 198  88.05772
 199  175.0596
 200  114.7631
 201  13.01303
 202  130.744
 203  255.0705
 204  219.3172
 205  143.5534
 206  38.40751
 207  103.5826
 208  136.2455
 209  83.62718
 210  15.54905
 211  84.3177
 212  109.7903
 213  101.8322
 214  98.07304
 215  21.00088
 216  68.91492
 217  5.738209
 218  80.28618
 219  85.15406
 220  46.1118
 221  7.022754
 222  140.9542
 223  114.9057
 224  200.1991
 225  290.1997
 226  195.7373
 227  -36.11572
 228  158.1346
 229  312.9727
 230  212.1213
 231  121.2151
 232  187.3025
 233  92.01324
 234  97.03876
 235  95.90356
 236  75.65223
 237  203.1917
 238  216.5018
 239  185.8783
 240  100.0227
 241  29.60536
 242  84.19356
 243  150.9354
 244  64.25602
 245  185.1332
 246  235.596
 247  184.404
 248  82.78004
 249  174.7061
 250  -4.078013
 251  -3.245542
 252  75.0174
 253  72.58521
 254  32.757
 255  82.81963
 256  74.87195
 257  108.881
 258  120.4991
 259  112.5597
 260  17.9112
 261  -41.22039
 262  58.93019
 263  164.0166
 264  243.819
 265  175.7046
 266  7.651669
 267  96.62736
 268  130.0482
 269  161.784
 270  115.7447
 271  71.78679
 272  57.48283
 273  56.29973
 274  73.34999
 275  45.99297
 276  89.22205
 277  12.46161
 278  -61.22259
 279  70.71166
 280  86.917
 281  248.3285
 282  110.7031
 283  85.28734
 284  11.74478
 285  143.1551
 286  79.9056
 287  -24.25223
 288  -20.57576
 289  47.03644
 290  70.11806
 291  16.08856
 292  137.0049
 293  176.471
 294  110.7342
 295  -73.19991
 296  -75.47457
 297  131.2313
 298  143.1401
 299  85.35529
 300  110.5066
 301  167.2956
 302  117.9948
 303  80.07473
 304  33.58811
 305  102.0925
 306  91.07119
 307  181.8875
 308  187.8904
 309  99.03027
 310  78.80093
 311  -12.09399
 312  100.585
 313  213.823
 314  59.89199
 315  65.88217
 316  35.45031
 317  43.91411
 318  -18.10681
 319  197.1293
 320  256.9984
 321  155.8814
 322  228.963
 323  181.2433
 324  172.4673
 325  24.56906
 326  52.22977
 327  66.65281
 328  38.86343
 329  120.5442
 330  157.8705
 331  44.05217
 332  44.85924
 333  97.86451
 334  27.35347
 335  -4.4105
 336  26.54459
 337  181.6615
 338  121.0416
 339  -30.68448
 340  -50.16952
 341  70.36324
 342  72.39618
 343  104.962
 344  129.3596
 345  226.3801
 346  160.7825
 347  109.1303
 348  47.66676
 349  85.10945
 350  67.50183
 351  10.53683
 352  34.63287
 353  184.0834
 354  204.9767
 355  107.9047
 356  140.5772
 357  137.2133
 358  151.6515
 359  104.3391
 360  155.1044
 361  237.4627
 362  123.287
 363  85.34563
 364  94.26827
 365  91.87256
 366  66.25655
 367  80.50105
 368  144.0672
 369  136.3463
 370  244.8918
 371  217.441
 372  175.5819
 373  165.6409
 374  287.7283
 375  162.9064
 376  25.18549
 377  -12.52924
 378  176.204
 379  225.7798
 380  202.8168
 381  26.43035
 382  99.65775
 383  241.9907
 384  252.79
 385  235.2878
 386  250.4513
 387  208.3296
 388  83.91185
 389  61.45284
 390  154.4411
 391  180.9956
 392  148.1599
 393  225.3106
 394  117.1141
 395  228.996
 396  355.6425
 397  310.9444
 398  238.711
 399  220.7634
 400  204.4909
 401  190.5229
 402  40.16324
 403  55.4126
 404  141.6238
 405  123.3617
 406  148.7464
 407  215.7731
 408  -2.403287
 409  9.664177
 410  139.496
 411  120.7849
 412  254.672
 413  254.8563
 414  123.4522
 415  23.8838
 416  111.0884
 417  190.9691
 418  56.05152
 419  148.3706
 420  92.54986
 421  -43.70916
 422  102.5285
 423  168.5903
 424  136.8398
 425  20.34508
 426  57.04712
 427  123.6128
 428  106.8947
 429  46.53683
 430  166.4533
 431  136.7716
 432  76.9607
 433  16.2118
 434  122.0478
 435  166.1737
 436  104.4384
 437  167.0408
 438  177.0683
 439  169.1172
 440  114.6691
 441  81.73558
 442  225.2822
 443  168.8338
 444  109.8244
 445  220.6758
 446  22.01871
 447  60.30671
 448  110.2013
 449  2.182246
 450  78.7509
 451  138.3111
 452  320.0443
 453  302.9989
 454  144.6285
 455  122.8551
 456  90.61375
 457  77.26508
 458  39.15088
 459  30.67653
 460  142.4555
 461  161.7453
 462  103.3014
 463  103.0409
 464  77.14793
 465  153.5624
 466  177.695
 467  117.1894
 468  16.1197
 469  153.251
 470  142.8833
 471  56.2444
 472  167.7239
 473  23.64865
 474  26.2414
 475  16.21358
 476  110.5677
 477  185.6761
 478  98.72952
 479  127.0037
 480  55.24454
 481  -60.97016
 482  37.22857
 483  80.70997
 484  89.69815
 485  166.6923
 486  120.175
 487  105.4921
 488  0.7457946
 489  24.46737
 490  0.09596483
 491  59.27861
 492  138.3604
 493  176.0448
 494  26.2608
 495  -15.28504
 496  218.6066
 497  158.7444
 498  172.5208
 499  47.11036
 500  87.45012
 501  124.0825
 502  135.1586
 503  53.82591
 504  -55.23211
 505  39.55156
 506  258.9099
 507  284.2525
 508  315.5142
 509  414.9236
 510  372.8366
 511  594.2785
