# Input file       =  1188680202.123785_cleaned.dat
# Candidate        =  PSR_0332+5434
# Telescope        =  AR
# Epoch_topo       =  58001.872501432699
# Epoch_bary       =  N/A
# T_sample         =  0.002
# Data Folded      =  7208960
# Data Avg         =  0.00327467744560646
# Data StdDev      =  1.00017584411032 
# Profile Bins     =  512
# Profile Avg      =  46.1145119996099 
# Profile StdDev   =  118.680041310729 
# Reduced chi-sqr  =  1.415
# Prob(Noise)      <  1.75e-09   (~5.9 sigma)
# P_topo (ms)      =  714.463938080887  +/- 0.000216
# P'_topo (s/s)    =  -0                +/- 1.16e-10
# P''_topo (s/s^2) =  0                 +/- 5.22e-14
# P_bary (ms)      =  N/A
# P'_bary (s/s)    =  N/A
# P''_bary (s/s^2) =  N/A
# P_orb (s)        =  N/A
# asin(i)/c (s)    =  N/A
# eccentricity     =  N/A
# w (rad)          =  N/A
# T_peri           =  N/A
######################################################
   0  642.3643
   1  632.4561
   2  609.6543
   3  234.0378
   4  92.82925
   5  59.18111
   6  240.0613
   7  130.5786
   8  5.972629
   9  13.87642
  10  31.74112
  11  125.2216
  12  6.685353
  13  8.893045
  14  52.41142
  15  8.111541
  16  33.52171
  17  -0.6064609
  18  16.07859
  19  30.01543
  20  -37.32062
  21  -77.32516
  22  61.05059
  23  157.0691
  24  177.6478
  25  241.3057
  26  64.11087
  27  52.44982
  28  141.5143
  29  -61.41055
  30  27.49789
  31  54.50163
  32  -29.15875
  33  90.81289
  34  127.3486
  35  85.44825
  36  207.9144
  37  215.4265
  38  109.0716
  39  -57.20659
  40  -73.18764
  41  1.595572
  42  122.7542
  43  -174.2199
  44  -183.7955
  45  -113.1948
  46  115.8603
  47  180.5418
  48  61.35437
  49  46.40338
  50  25.28813
  51  0.7834256
  52  34.84134
  53  60.23774
  54  72.64669
  55  215.4506
  56  89.75012
  57  10.29974
  58  145.383
  59  67.22449
  60  -42.23602
  61  98.58746
  62  69.82796
  63  -4.981155
  64  96.23551
  65  155.8514
  66  27.27925
  67  45.24208
  68  41.47883
  69  8.269397
  70  17.33783
  71  109.131
  72  44.0126
  73  128.3405
  74  118.2854
  75  31.81061
  76  -170.0602
  77  -19.11357
  78  87.41653
  79  -30.01872
  80  18.28271
  81  36.34838
  82  44.05515
  83  -62.91933
  84  -98.09552
  85  13.98544
  86  26.45928
  87  209.2809
  88  168.4184
  89  -26.3904
  90  -62.13598
  91  -12.99652
  92  -50.77994
  93  -75.21978
  94  78.12587
  95  80.52847
  96  -54.67959
  97  -38.26049
  98  32.85706
  99  103.9991
 100  13.65206
 101  -27.37133
 102  -44.28445
 103  86.29176
 104  58.16199
 105  -38.12527
 106  -29.82903
 107  -81.05244
 108  -137.5459
 109  -43.30675
 110  152.7371
 111  218.1475
 112  325.8908
 113  271.064
 114  187.1709
 115  68.74193
 116  57.6532
 117  99.44835
 118  27.15096
 119  8.442836
 120  -1.874739
 121  18.09266
 122  7.162052
 123  40.20327
 124  184.5247
 125  59.4556
 126  77.90423
 127  131.4734
 128  128.7398
 129  -120.1462
 130  -9.967132
 131  23.70362
 132  100.6621
 133  83.77995
 134  71.27638
 135  23.14329
 136  -13.14027
 137  -98.08058
 138  -44.11548
 139  -73.21876
 140  -129.5816
 141  62.36278
 142  162.6603
 143  126.477
 144  -190.5889
 145  -96.88746
 146  -109.2224
 147  -101.2364
 148  -22.35094
 149  -11.64058
 150  61.83618
 151  -36.41454
 152  -29.64334
 153  64.35906
 154  -10.48503
 155  -109.6616
 156  9.57023
 157  -56.17444
 158  -44.20279
 159  8.289485
 160  -14.29362
 161  8.129386
 162  -76.59961
 163  -62.87503
 164  -45.47223
 165  -36.45678
 166  114.1937
 167  73.04239
 168  3.835189
 169  41.26707
 170  38.54495
 171  -32.38039
 172  88.09881
 173  36.06867
 174  44.20559
 175  104.0044
 176  196.0511
 177  210.9034
 178  117.6644
 179  110.7081
 180  187.4113
 181  16.97833
 182  25.5823
 183  49.63542
 184  18.40386
 185  105.598
 186  59.18629
 187  -91.67801
 188  20.94838
 189  64.31766
 190  128.1125
 191  181.5478
 192  254.4634
 193  211.0456
 194  121.6227
 195  137.129
 196  73.27653
 197  -41.31699
 198  -18.49938
 199  19.25727
 200  116.1354
 201  131.9773
 202  -62.034
 203  -31.63067
 204  -55.78965
 205  85.92911
 206  30.52999
 207  0.6269012
 208  80.09426
 209  4.784531
 210  53.41572
 211  -7.724443
 212  4.917524
 213  -6.706998
 214  151.9141
 215  254.0659
 216  153.3057
 217  168.4701
 218  102.5156
 219  126.6851
 220  160.0003
 221  150.4426
 222  174.7236
 223  -12.645
 224  -104.563
 225  151.0708
 226  59.74477
 227  -39.26049
 228  -80.30267
 229  -20.86007
 230  82.88143
 231  103.716
 232  77.92355
 233  76.18097
 234  75.42255
 235  2.367544
 236  29.94974
 237  108.3121
 238  86.4679
 239  -20.44814
 240  -2.644819
 241  18.57783
 242  -63.95444
 243  -4.62704
 244  23.64175
 245  104.2319
 246  100.573
 247  57.87332
 248  57.59166
 249  27.47252
 250  140.9339
 251  186.7953
 252  128.3222
 253  82.55802
 254  16.66001
 255  -23.45186
 256  -76.07157
 257  -22.76056
 258  96.8283
 259  173.071
 260  96.69372
 261  92.92937
 262  103.5081
 263  89.03304
 264  59.03207
 265  37.87363
 266  -45.27791
 267  69.38044
 268  108.7483
 269  9.534866
 270  25.26228
 271  82.2785
 272  88.4884
 273  26.48982
 274  35.92757
 275  -28.65768
 276  -24.99241
 277  -26.91404
 278  -94.41747
 279  -78.6152
 280  140.1555
 281  65.1871
 282  -53.8746
 283  100.8863
 284  70.43958
 285  65.95207
 286  35.80636
 287  -32.91645
 288  -3.813738
 289  15.20593
 290  85.38736
 291  115.2992
 292  71.9921
 293  123.0657
 294  147.7978
 295  159.4046
 296  113.1116
 297  -64.77765
 298  85.72035
 299  50.16466
 300  63.25166
 301  178.9527
 302  77.44991
 303  -23.41244
 304  -82.14538
 305  -30.64423
 306  -93.9783
 307  -9.585785
 308  26.65223
 309  80.68246
 310  -23.44364
 311  137.0703
 312  35.70338
 313  32.19137
 314  73.15787
 315  66.63416
 316  21.01912
 317  148.5719
 318  152.7854
 319  36.58949
 320  -97.67195
 321  -46.86959
 322  11.04
 323  -10.55967
 324  28.81312
 325  115.4327
 326  202.44
 327  126.9187
 328  63.31209
 329  126.622
 330  83.94949
 331  83.66261
 332  26.60346
 333  113.9554
 334  -15.99348
 335  40.46178
 336  95.10325
 337  99.67902
 338  85.60358
 339  58.76251
 340  231.0929
 341  156.2712
 342  20.87412
 343  -64.58738
 344  -32.30296
 345  54.40795
 346  65.78702
 347  -11.82309
 348  -3.630009
 349  -20.66675
 350  -89.0698
 351  -49.36872
 352  111.8876
 353  -16.62671
 354  -68.078
 355  -97.40403
 356  -20.75671
 357  -102.755
 358  -131.4846
 359  190.8945
 360  61.94968
 361  74.6388
 362  43.30196
 363  103.8675
 364  18.49988
 365  -7.63061
 366  57.41622
 367  18.33088
 368  8.110168
 369  21.51768
 370  17.64563
 371  -35.90154
 372  -32.48565
 373  -37.17016
 374  63.83089
 375  44.74641
 376  100.7416
 377  176.5997
 378  4.622231
 379  -77.77897
 380  -67.83421
 381  88.21264
 382  50.82413
 383  41.31868
 384  34.75106
 385  -7.562133
 386  -1.862375
 387  -54.38247
 388  34.57256
 389  -22.66814
 390  66.30564
 391  163.3928
 392  149.859
 393  163.9385
 394  61.91146
 395  97.77646
 396  152.6093
 397  32.48777
 398  -39.6892
 399  51.3211
 400  58.8947
 401  160.9553
 402  126.1759
 403  123.2292
 404  44.60893
 405  26.61519
 406  -13.70009
 407  20.87177
 408  27.45658
 409  -3.771456
 410  -20.28501
 411  -96.82734
 412  -130.1875
 413  -108.2901
 414  -17.85538
 415  5.507965
 416  -26.52198
 417  46.59143
 418  121.9001
 419  39.37277
 420  -114.485
 421  -44.69196
 422  23.44221
 423  146.3349
 424  119.7107
 425  -7.303498
 426  12.70148
 427  54.48899
 428  44.19385
 429  9.452574
 430  121.4271
 431  -39.2345
 432  -126.3552
 433  -25.97734
 434  26.50104
 435  85.11517
 436  118.7675
 437  -12.96189
 438  25.11708
 439  -69.97305
 440  -83.82886
 441  170.3368
 442  217.5811
 443  84.22674
 444  115.9979
 445  160.8035
 446  34.82725
 447  -80.32791
 448  43.06106
 449  98.77396
 450  -80.27029
 451  11.37229
 452  11.33696
 453  -117.6797
 454  34.1748
 455  105.4079
 456  180.3851
 457  238.8963
 458  -12.20898
 459  41.08165
 460  136.4923
 461  34.24262
 462  16.51186
 463  80.54797
 464  203.6441
 465  77.14215
 466  98.02911
 467  8.876967
 468  -57.86617
 469  -70.38485
 470  19.24998
 471  -106.7356
 472  -44.50151
 473  -37.1969
 474  -98.99181
 475  -58.36289
 476  22.84048
 477  24.96628
 478  23.03934
 479  -69.24022
 480  -16.31499
 481  27.59325
 482  96.61472
 483  62.90854
 484  -10.25187
 485  41.68821
 486  -113.0022
 487  -9.105532
 488  184.1744
 489  73.13721
 490  -58.9784
 491  -13.63645
 492  106.9527
 493  -24.45016
 494  -140.8055
 495  34.21595
 496  -65.78963
 497  -61.04039
 498  -55.57708
 499  73.48848
 500  120.9092
 501  69.48544
 502  -87.95653
 503  -69.38757
 504  47.59473
 505  59.71648
 506  83.24444
 507  163.3035
 508  260.1666
 509  304.7853
 510  529.8052
 511  662.4382
