# Input file       =  1188594055.109037_cleaned.dat
# Candidate        =  PSR_0332+5434
# Telescope        =  AR
# Epoch_topo       =  58000.875429502739
# Epoch_bary       =  N/A
# T_sample         =  0.002
# Data Folded      =  7143424
# Data Avg         =  0.0166890080788949
# Data StdDev      =  1.00005032520406 
# Profile Bins     =  512
# Profile Avg      =  232.792741284866 
# Profile StdDev   =  118.124528823735 
# Reduced chi-sqr  =  1.476
# Prob(Noise)      <  1.27e-11   (~6.7 sigma)
# P_topo (ms)      =  714.463807124161  +/- 0.0002
# P'_topo (s/s)    =  -0                +/- 1.08e-10
# P''_topo (s/s^2) =  0                 +/- 4.91e-14
# P_bary (ms)      =  N/A
# P'_bary (s/s)    =  N/A
# P''_bary (s/s^2) =  N/A
# P_orb (s)        =  N/A
# asin(i)/c (s)    =  N/A
# eccentricity     =  N/A
# w (rad)          =  N/A
# T_peri           =  N/A
######################################################
   0  739.9429
   1  974.8758
   2  891.6119
   3  678.3887
   4  483.9478
   5  421.5545
   6  479.4844
   7  419.9276
   8  313.8492
   9  276.1705
  10  283.5119
  11  264.5971
  12  361.3227
  13  410.7225
  14  212.9125
  15  148.0195
  16  302.462
  17  199.6333
  18  231.5446
  19  255.6422
  20  139.7337
  21  225.2479
  22  241.3098
  23  212.632
  24  181.4025
  25  167.2145
  26  118.6128
  27  135.9582
  28  322.2621
  29  242.3695
  30  174.7426
  31  97.91691
  32  272.4886
  33  404.7145
  34  356.3716
  35  272.2386
  36  245.5497
  37  249.1059
  38  287.8378
  39  250.1906
  40  262.2819
  41  253.4863
  42  298.7747
  43  266.1689
  44  251.2652
  45  219.2738
  46  183.1136
  47  144.9301
  48  82.2354
  49  80.11887
  50  174.3404
  51  207.2704
  52  222.9209
  53  264.4476
  54  200.9287
  55  196.0413
  56  260.6535
  57  204.1691
  58  138.0849
  59  103.1356
  60  116.0384
  61  139.3855
  62  161.4987
  63  281.0948
  64  344.991
  65  243.8665
  66  242.8714
  67  227.1608
  68  353.5887
  69  296.4659
  70  228.8055
  71  187.6848
  72  148.0498
  73  149.0555
  74  151.6287
  75  286.5258
  76  247.8682
  77  207.9384
  78  318.7
  79  144.3072
  80  145.8468
  81  176.1957
  82  238.1054
  83  154.0833
  84  183.9465
  85  204.0684
  86  278.9613
  87  122.8811
  88  -23.08312
  89  169.5936
  90  252.8187
  91  216.6091
  92  184.8624
  93  196.0141
  94  209.4793
  95  260.9152
  96  324.0435
  97  283.33
  98  120.5937
  99  163.5966
 100  255.4077
 101  300.0889
 102  273.9271
 103  245.6714
 104  297.0607
 105  84.24339
 106  76.40063
 107  193.2818
 108  209.8322
 109  209.4182
 110  227.3097
 111  192.8344
 112  230.2628
 113  325.4792
 114  296.5381
 115  282.3208
 116  213.9637
 117  229.9446
 118  114.9438
 119  101.4757
 120  225.94
 121  180.0724
 122  194.4626
 123  152.6476
 124  258.212
 125  247.4763
 126  214.2285
 127  166.3928
 128  146.0977
 129  69.44758
 130  130.4814
 131  338.6215
 132  321.2892
 133  221.2537
 134  273.0682
 135  150.8719
 136  232.2723
 137  113.635
 138  166.4804
 139  195.0222
 140  203.5874
 141  340.1016
 142  264.321
 143  256.2822
 144  409.8741
 145  426.2555
 146  189.7688
 147  193.4957
 148  217.9648
 149  267.7567
 150  114.894
 151  78.11668
 152  272.7665
 153  407.2194
 154  358.3639
 155  252.2753
 156  159.5751
 157  150.4024
 158  143.1757
 159  205.0042
 160  125.7895
 161  146.3159
 162  37.13493
 163  86.74561
 164  248.5162
 165  96.39018
 166  211.4494
 167  236.6161
 168  210.8913
 169  326.8118
 170  177.1312
 171  152.9506
 172  168.4059
 173  288.8713
 174  387.94
 175  370.3605
 176  231.3541
 177  304.3516
 178  343.3539
 179  283.0829
 180  343.2436
 181  263.2954
 182  165.8505
 183  177.655
 184  229.1523
 185  184.9918
 186  279.4894
 187  222.6741
 188  222.2098
 189  205.3845
 190  215.5759
 191  169.6122
 192  133.2688
 193  209.6226
 194  266.389
 195  308.3469
 196  205.2001
 197  158.3515
 198  202.4814
 199  147.9415
 200  209.9124
 201  182.8779
 202  283.9261
 203  167.5742
 204  164.9523
 205  191.5225
 206  244.908
 207  262.4602
 208  271.5936
 209  177.0483
 210  157.9075
 211  292.9392
 212  123.2305
 213  73.70145
 214  205.2589
 215  288.5244
 216  321.2243
 217  318.1901
 218  409.6053
 219  362.5646
 220  167.6647
 221  150.4085
 222  268.7417
 223  236.7826
 224  284.394
 225  330.7979
 226  297.3992
 227  153.4443
 228  208.7286
 229  241.6963
 230  159.0243
 231  91.29348
 232  41.48246
 233  260.7961
 234  262.0598
 235  225.2802
 236  265.5573
 237  223.304
 238  149.0896
 239  200.4024
 240  154.892
 241  210.887
 242  183.0574
 243  277.2628
 244  341.5988
 245  245.6414
 246  201.1637
 247  165.2581
 248  194.4506
 249  256.8293
 250  275.8078
 251  272.6665
 252  205.9265
 253  156.4493
 254  235.142
 255  232.5315
 256  228.1741
 257  327.6703
 258  270.4778
 259  174.6176
 260  211.9585
 261  207.5397
 262  260.2933
 263  320.3882
 264  259.1193
 265  242.9935
 266  232.1267
 267  185.9342
 268  103.5784
 269  194.4344
 270  181.0518
 271  193.1902
 272  168.899
 273  243.9802
 274  352.3579
 275  276.5075
 276  271.1299
 277  273.1989
 278  193.8638
 279  220.2521
 280  256.4634
 281  196.5438
 282  157.6885
 283  326.8174
 284  315.5325
 285  287.0894
 286  405.9749
 287  289.6742
 288  266.1389
 289  325.7352
 290  373.5016
 291  206.212
 292  233.9877
 293  313.4544
 294  197.308
 295  94.19031
 296  173.5624
 297  340.7671
 298  310.2384
 299  305.5512
 300  379.3444
 301  354.727
 302  267.6977
 303  207.3992
 304  279.2321
 305  208.4051
 306  248.9048
 307  305.8556
 308  381.5708
 309  409.9901
 310  416.8322
 311  367.2878
 312  219.1388
 313  122.7709
 314  145.8784
 315  197.7249
 316  306.5399
 317  235.8461
 318  174.295
 319  228.8477
 320  255.872
 321  231.0801
 322  194.8231
 323  137.8879
 324  208.8112
 325  202.9856
 326  221.6302
 327  282.0587
 328  203.6193
 329  421.3105
 330  278.3766
 331  228.6489
 332  271.2478
 333  217.3186
 334  258.9486
 335  177.1426
 336  148.8286
 337  173.7568
 338  127.4284
 339  169.8463
 340  240.2182
 341  88.35555
 342  131.2489
 343  86.7923
 344  76.11024
 345  155.0696
 346  92.08651
 347  133.3556
 348  168.5558
 349  274.1722
 350  332.477
 351  347.6182
 352  299.7762
 353  281.7484
 354  178.5823
 355  212.7124
 356  265.8797
 357  150.2071
 358  188.8268
 359  224.864
 360  60.76634
 361  121.8435
 362  167.6679
 363  82.50027
 364  33.01653
 365  185.6684
 366  303.7928
 367  209.9421
 368  101.0612
 369  143.8932
 370  206.3209
 371  220.6441
 372  274.2112
 373  215.4584
 374  224.8694
 375  303.4004
 376  260.9526
 377  393.5688
 378  339.9536
 379  69.15968
 380  60.69705
 381  152.524
 382  124.565
 383  110.1636
 384  166.377
 385  374.5396
 386  471.3754
 387  347.4126
 388  330.9945
 389  169.7896
 390  225.5066
 391  343.064
 392  363.1172
 393  289.7835
 394  272.8703
 395  297.4912
 396  236.7102
 397  230.2625
 398  242.1326
 399  342.9462
 400  356.8017
 401  315.1074
 402  285.5422
 403  175.2075
 404  91.17225
 405  161.9141
 406  90.71741
 407  50.7964
 408  208.0801
 409  235.6532
 410  196.4704
 411  26.47595
 412  118.8965
 413  375.0599
 414  373.1744
 415  277.5024
 416  260.9375
 417  222.1078
 418  352.8106
 419  340.9987
 420  283.7978
 421  182.1503
 422  189.8964
 423  169.5535
 424  242.9203
 425  267.6371
 426  262.0258
 427  251.7332
 428  238.0144
 429  127.7464
 430  157.6828
 431  175.2866
 432  150.8722
 433  234.806
 434  252.6104
 435  345.73
 436  244.6575
 437  115.8631
 438  159.0229
 439  295.5169
 440  287.0937
 441  285.0517
 442  309.9253
 443  322.1068
 444  180.3517
 445  131.5404
 446  172.181
 447  204.4536
 448  185.7584
 449  212.3714
 450  207.9688
 451  303.99
 452  238.7562
 453  279.1457
 454  296.1632
 455  187.0562
 456  110.0715
 457  247.51
 458  199.4462
 459  126.8523
 460  198.9922
 461  378.7441
 462  315.948
 463  258.2064
 464  218.8673
 465  239.6403
 466  102.0919
 467  105.9652
 468  108.9853
 469  91.03614
 470  223.4285
 471  221.1898
 472  96.86909
 473  56.83103
 474  21.73394
 475  134.7137
 476  173.5614
 477  200.8357
 478  197.0456
 479  152.8022
 480  112.708
 481  179.9543
 482  263.4906
 483  285.6651
 484  240.2272
 485  290.8778
 486  295.9152
 487  209.1535
 488  72.54848
 489  268.5863
 490  302.4569
 491  233.0108
 492  233.4482
 493  178.3714
 494  212.1444
 495  169.3392
 496  264.9819
 497  196.9643
 498  243.884
 499  208.0651
 500  184.3036
 501  232.3057
 502  340.1433
 503  286.7263
 504  167.0536
 505  121.3684
 506  96.50544
 507  231.8106
 508  529.5699
 509  598.3587
 510  646.9097
 511  750.3918
