# Input file       =  1188106604.102703_cleaned.dat
# Candidate        =  PSR_0332+5434
# Telescope        =  AR
# Epoch_topo       =  57995.233635447956
# Epoch_bary       =  N/A
# T_sample         =  0.002
# Data Folded      =  7340032
# Data Avg         =  0.00752520081001176
# Data StdDev      =  1.00003396741376 
# Profile Bins     =  512
# Profile Avg      =  107.931484436049 
# Profile StdDev   =  119.737103398353 
# Reduced chi-sqr  =  1.516
# Prob(Noise)      <  3.85e-13   (~7.2 sigma)
# P_topo (ms)      =  714.463710306225  +/- 7.36e-05
# P'_topo (s/s)    =  -0                +/- 3.88e-11
# P''_topo (s/s^2) =  0                 +/- 1.71e-14
# P_bary (ms)      =  N/A
# P'_bary (s/s)    =  N/A
# P''_bary (s/s^2) =  N/A
# P_orb (s)        =  N/A
# asin(i)/c (s)    =  N/A
# eccentricity     =  N/A
# w (rad)          =  N/A
# T_peri           =  N/A
######################################################
   0  617.9507
   1  556.7299
   2  458.2584
   3  334.3362
   4  243.4338
   5  141.6825
   6  67.41486
   7  186.4989
   8  153.7693
   9  23.59424
  10  52.0509
  11  -83.17052
  12  -45.45866
  13  90.22166
  14  -111.4288
  15  -39.16548
  16  -51.19491
  17  -40.26294
  18  -44.08891
  19  -40.52935
  20  -48.0515
  21  -43.7474
  22  105.7373
  23  21.8025
  24  -86.23535
  25  -115.6516
  26  56.19316
  27  92.25587
  28  193.1895
  29  88.809
  30  220.8438
  31  117.5482
  32  136.5737
  33  127.6962
  34  107.1044
  35  -1.455432
  36  47.57965
  37  113.6018
  38  31.1974
  39  7.375496
  40  89.09136
  41  -11.95865
  42  48.18726
  43  104.9826
  44  296.0001
  45  213.7141
  46  150.1398
  47  67.46975
  48  79.95685
  49  105.1372
  50  124.6082
  51  129.7245
  52  115.6229
  53  127.6212
  54  166.1391
  55  301.7085
  56  254.6678
  57  73.49774
  58  198.0376
  59  274.5779
  60  261.6418
  61  353.1607
  62  182.8387
  63  110.6566
  64  123.5105
  65  90.52746
  66  143.5431
  67  147.7063
  68  91.2636
  69  152.6882
  70  151.7041
  71  298.7787
  72  198.1618
  73  229.2708
  74  144.9216
  75  120.0206
  76  67.63058
  77  62.34933
  78  97.18339
  79  103.1351
  80  54.78669
  81  144.223
  82  53.62362
  83  28.84901
  84  58.39282
  85  161.5386
  86  101.2589
  87  40.84906
  88  -42.4935
  89  99.65433
  90  78.58108
  91  48.05155
  92  -76.97906
  93  37.64647
  94  101.3103
  95  49.87094
  96  71.04963
  97  133.8975
  98  58.07221
  99  29.93156
 100  98.31578
 101  103.9028
 102  128.8148
 103  165.9015
 104  -35.38596
 105  14.00953
 106  40.16709
 107  39.87292
 108  2.593727
 109  71.22218
 110  176.0617
 111  170.8275
 112  102.9829
 113  154.0458
 114  235.9965
 115  117.4712
 116  222.8907
 117  200.5369
 118  176.4906
 119  95.43214
 120  129.6891
 121  105.0742
 122  293.151
 123  60.06839
 124  110.2264
 125  64.11715
 126  28.40359
 127  117.7658
 128  94.60006
 129  104.6001
 130  -22.99946
 131  -37.34921
 132  107.2617
 133  104.9333
 134  128.0817
 135  18.38413
 136  157.1017
 137  294.271
 138  153.0974
 139  88.75964
 140  145.7337
 141  276.0923
 142  281.7078
 143  201.8406
 144  -54.24623
 145  110.0083
 146  175.7985
 147  193.5198
 148  219.68
 149  155.5881
 150  200.2953
 151  211.3367
 152  183.6831
 153  30.65431
 154  22.44139
 155  130.0173
 156  154.1211
 157  49.91059
 158  68.15752
 159  -10.59965
 160  -57.71691
 161  144.0315
 162  169.8979
 163  41.23937
 164  -26.3944
 165  67.51372
 166  161.4918
 167  213.3561
 168  73.93811
 169  94.87332
 170  76.84698
 171  -38.41484
 172  -71.73164
 173  1.78356
 174  -55.10132
 175  -42.24841
 176  -3.021498
 177  13.43804
 178  81.61826
 179  118.4485
 180  53.22114
 181  112.0047
 182  111.1593
 183  123.666
 184  201.7639
 185  282.9562
 186  218.9654
 187  -8.630229
 188  36.1492
 189  82.89805
 190  136.8245
 191  80.26674
 192  11.68729
 193  -70.8604
 194  92.12746
 195  201.4465
 196  213.2176
 197  32.11132
 198  47.41446
 199  176.6439
 200  198.5898
 201  115.7326
 202  120.7487
 203  171.5456
 204  300.3367
 205  280.6617
 206  291.495
 207  47.49401
 208  226.3848
 209  326.568
 210  219.0425
 211  166.1253
 212  260.3315
 213  248.3018
 214  238.6927
 215  260.0628
 216  197.6604
 217  128.3727
 218  180.1749
 219  312.097
 220  183.9757
 221  15.93382
 222  240.9407
 223  275.8717
 224  238.3401
 225  135.4975
 226  127.9375
 227  39.40797
 228  98.93577
 229  52.7108
 230  -19.33815
 231  87.74317
 232  -23.73868
 233  99.94356
 234  51.95055
 235  74.73315
 236  94.43028
 237  26.90937
 238  -29.37127
 239  90.13535
 240  -44.90834
 241  8.807748
 242  181.8323
 243  108.2522
 244  12.24039
 245  43.0276
 246  167.0758
 247  207.0587
 248  58.04713
 249  97.8644
 250  41.01714
 251  23.40022
 252  -45.76584
 253  -83.33091
 254  -33.30796
 255  189.9868
 256  179.0864
 257  185.0842
 258  131.8973
 259  99.07865
 260  85.53696
 261  50.94155
 262  167.5778
 263  117.4721
 264  28.06105
 265  115.633
 266  90.26035
 267  44.57243
 268  18.72571
 269  7.015958
 270  134.5471
 271  234.9476
 272  37.96104
 273  130.9417
 274  118.2073
 275  105.2523
 276  204.9423
 277  272.7748
 278  351.8704
 279  292.1967
 280  430.8441
 281  278.2824
 282  243.6002
 283  122.482
 284  176.7762
 285  170.8926
 286  289.5943
 287  146.1878
 288  33.25241
 289  161.7343
 290  381.9608
 291  308.8853
 292  1.223924
 293  -52.08881
 294  181.6773
 295  335.7833
 296  193.7391
 297  -33.95797
 298  -22.41447
 299  67.51702
 300  92.12977
 301  117.9874
 302  154.7697
 303  34.57106
 304  -54.89816
 305  121.9104
 306  141.6217
 307  72.60832
 308  138.4408
 309  110.7049
 310  93.39825
 311  64.58456
 312  84.25717
 313  87.98626
 314  118.3029
 315  54.36945
 316  -65.76237
 317  -113.5927
 318  -140.0588
 319  26.85215
 320  93.70441
 321  -45.76912
 322  -26.38178
 323  34.32373
 324  58.74146
 325  71.17716
 326  67.14432
 327  61.2275
 328  169.0857
 329  265.347
 330  214.284
 331  81.72682
 332  -39.2702
 333  221.9015
 334  93.59083
 335  139.5225
 336  161.2567
 337  172.2404
 338  178.4758
 339  116.4769
 340  117.3584
 341  94.45457
 342  94.6152
 343  109.3737
 344  50.61841
 345  173.7581
 346  50.84035
 347  82.90577
 348  62.24188
 349  21.74372
 350  144.0873
 351  202.9958
 352  96.47066
 353  49.14849
 354  106.7486
 355  82.93346
 356  35.13649
 357  47.64125
 358  160.5251
 359  12.2088
 360  34.75936
 361  105.0234
 362  165.9147
 363  228.6193
 364  123.3149
 365  -8.901155
 366  6.471197
 367  73.25998
 368  126.6924
 369  82.17152
 370  40.09109
 371  -1.014963
 372  15.78063
 373  -51.8241
 374  -84.19412
 375  -12.01651
 376  78.94276
 377  51.1696
 378  88.83907
 379  26.48697
 380  65.97886
 381  5.293797
 382  98.42697
 383  118.2998
 384  131.619
 385  97.98795
 386  130.4355
 387  113.8619
 388  0.5144132
 389  -76.10881
 390  125.1087
 391  182.2975
 392  69.06677
 393  -55.86858
 394  -3.700041
 395  25.18203
 396  -57.66135
 397  -40.39144
 398  73.16068
 399  20.75332
 400  104.5061
 401  41.72515
 402  52.87003
 403  105.2266
 404  2.71662
 405  97.61957
 406  156.3965
 407  150.1278
 408  77.65688
 409  59.68987
 410  18.85027
 411  53.01645
 412  137.8845
 413  44.66029
 414  82.97214
 415  39.6979
 416  -29.23877
 417  105.5436
 418  253.7153
 419  308.8481
 420  164.4496
 421  186.7662
 422  204.9893
 423  179.7323
 424  118.0136
 425  173.679
 426  94.42097
 427  198.3803
 428  169.33
 429  306.8542
 430  299.4586
 431  38.83316
 432  174.0372
 433  306.3087
 434  167.3637
 435  138.4379
 436  66.1934
 437  144.9498
 438  121.3455
 439  89.24456
 440  81.18456
 441  13.99135
 442  88.68416
 443  58.26892
 444  108.51
 445  63.04449
 446  -74.26158
 447  -52.26664
 448  107.0907
 449  16.66276
 450  -44.80152
 451  136.0192
 452  119.3295
 453  79.55656
 454  70.36939
 455  37.53418
 456  99.85892
 457  162.0018
 458  -76.26657
 459  -190.6595
 460  -80.90056
 461  34.60293
 462  120.6902
 463  144.2915
 464  211.2872
 465  -29.40482
 466  -74.78531
 467  -40.51819
 468  45.65409
 469  -104.5814
 470  58.1373
 471  24.15252
 472  2.605104
 473  77.62836
 474  -42.46227
 475  -40.9538
 476  0.2697042
 477  40.74587
 478  23.58234
 479  -99.17403
 480  64.46067
 481  205.2117
 482  165.5268
 483  187.0518
 484  86.8244
 485  163.629
 486  201.991
 487  146.763
 488  121.0187
 489  142.5864
 490  115.1879
 491  228.384
 492  167.4373
 493  109.7389
 494  148.2373
 495  221.8537
 496  184.602
 497  216.6228
 498  221.0007
 499  352.8559
 500  268.9729
 501  216.1469
 502  153.6875
 503  260.168
 504  290.9681
 505  377.0468
 506  283.3991
 507  248.2931
 508  261.0783
 509  229.7281
 510  410.0687
 511  543.7784
