# Input file       =  1188264049.1201_cleaned.dat
# Candidate        =  PSR_0332+5434
# Telescope        =  AR
# Epoch_topo       =  57997.055915741897
# Epoch_bary       =  N/A
# T_sample         =  0.002
# Data Folded      =  7340032
# Data Avg         =  0.00704742080760123
# Data StdDev      =  1.00002511538854 
# Profile Bins     =  512
# Profile Avg      =  101.027665983387 
# Profile StdDev   =  119.736043518496 
# Reduced chi-sqr  =  1.494
# Prob(Noise)      <  2.75e-12   (~6.9 sigma)
# P_topo (ms)      =  714.463463557466  +/- 0.000139
# P'_topo (s/s)    =  -0                +/- 7.32e-11
# P''_topo (s/s^2) =  0                 +/- 3.23e-14
# P_bary (ms)      =  N/A
# P'_bary (s/s)    =  N/A
# P''_bary (s/s^2) =  N/A
# P_orb (s)        =  N/A
# asin(i)/c (s)    =  N/A
# eccentricity     =  N/A
# w (rad)          =  N/A
# T_peri           =  N/A
######################################################
   0  886.6635
   1  782.1354
   2  732.6606
   3  462.4818
   4  234.0344
   5  110.6612
   6  189.7946
   7  244.3942
   8  34.50613
   9  -40.55478
  10  123.0446
  11  205.2
  12  260.109
  13  211.7238
  14  92.25758
  15  234.6794
  16  251.3585
  17  224.5668
  18  210.1244
  19  203.6784
  20  286.2314
  21  153.6403
  22  15.06031
  23  95.67002
  24  160.4246
  25  147.3454
  26  167.0335
  27  94.09062
  28  97.40159
  29  22.37575
  30  21.41443
  31  150.102
  32  136.7942
  33  23.93385
  34  -86.65965
  35  6.395504
  36  91.4134
  37  -42.33026
  38  -19.07961
  39  137.4445
  40  180.0479
  41  148.3275
  42  210.7538
  43  96.09272
  44  114.5666
  45  -78.07973
  46  31.53652
  47  76.77402
  48  155.6493
  49  88.31814
  50  114.7373
  51  120.7138
  52  160.7628
  53  151.8223
  54  205.3634
  55  234.2885
  56  -3.598269
  57  88.00735
  58  215.7324
  59  104.5472
  60  82.80591
  61  241.292
  62  197.8697
  63  40.16795
  64  -63.64769
  65  118.713
  66  -1.731079
  67  64.837
  68  127.4275
  69  77.32655
  70  84.43873
  71  140.6673
  72  171.0197
  73  -18.30099
  74  152.7128
  75  158.1193
  76  86.03696
  77  5.007725
  78  72.33282
  79  188.4479
  80  208.5155
  81  301.6603
  82  199.3356
  83  185.1087
  84  102.3398
  85  121.8152
  86  114.1833
  87  38.47293
  88  1.009213
  89  64.89663
  90  107.0723
  91  136.5188
  92  196.6182
  93  26.01775
  94  -5.933893
  95  18.45098
  96  -8.772877
  97  231.4226
  98  250.1049
  99  33.45341
 100  -10.96889
 101  5.09019
 102  -73.94077
 103  54.67215
 104  137.5283
 105  236.169
 106  25.50401
 107  -135.5173
 108  -125.5466
 109  -77.16175
 110  168.2923
 111  182.7241
 112  186.8123
 113  31.64796
 114  9.420945
 115  121.6767
 116  49.30128
 117  30.48933
 118  44.90815
 119  159.5037
 120  160.0962
 121  -17.32347
 122  -116.4204
 123  30.54389
 124  12.69799
 125  72.41971
 126  87.98783
 127  -53.43777
 128  91.61131
 129  49.48457
 130  107.7797
 131  105.2262
 132  153.9502
 133  126.7517
 134  11.77073
 135  -60.93454
 136  23.75486
 137  51.32916
 138  155.4167
 139  163.1792
 140  72.63084
 141  147.7404
 142  192.9752
 143  -23.28759
 144  84.69493
 145  200.5877
 146  119.0872
 147  124.6727
 148  127.5196
 149  102.2162
 150  146.7098
 151  53.85034
 152  238.1378
 153  170.742
 154  97.35992
 155  207.2473
 156  65.97811
 157  137.347
 158  129.7308
 159  147.8344
 160  114.435
 161  40.99741
 162  -39.19699
 163  156.5859
 164  143.579
 165  35.69384
 166  22.71497
 167  59.56594
 168  83.07388
 169  207.5892
 170  106.2159
 171  14.95308
 172  69.19865
 173  155.3519
 174  167.5414
 175  -13.94192
 176  -59.06997
 177  -12.35705
 178  101.0072
 179  22.37154
 180  33.22445
 181  153.2876
 182  251.3566
 183  80.63648
 184  -62.92036
 185  -47.81214
 186  -18.86888
 187  82.65385
 188  183.4644
 189  51.87734
 190  -57.24575
 191  96.08953
 192  121.726
 193  41.65098
 194  -62.95996
 195  -19.43439
 196  150.1168
 197  -8.329103
 198  0.5657722
 199  61.11388
 200  157.1038
 201  164.5844
 202  18.72623
 203  -116.0918
 204  -81.78196
 205  68.90456
 206  251.7755
 207  150.3727
 208  74.27808
 209  143.7831
 210  88.48746
 211  104.7742
 212  142.8148
 213  70.34825
 214  14.11007
 215  -71.03204
 216  -1.011257
 217  2.268889
 218  4.594481
 219  105.5838
 220  100.7444
 221  108.6929
 222  245.109
 223  147.9575
 224  131.6891
 225  55.13037
 226  8.355233
 227  97.70605
 228  170.3592
 229  169.6299
 230  295.1775
 231  172.2668
 232  167.0487
 233  165.0614
 234  33.59432
 235  68.6101
 236  62.78074
 237  194.5968
 238  58.56313
 239  69.34383
 240  140.0149
 241  144.0327
 242  -7.757343
 243  103.8524
 244  157.8408
 245  16.58919
 246  108.8221
 247  104.9076
 248  56.20276
 249  15.54574
 250  -48.92273
 251  43.3357
 252  112.4971
 253  37.45647
 254  51.34553
 255  37.00156
 256  66.78845
 257  190.5122
 258  197.3788
 259  72.32077
 260  104.9988
 261  77.50723
 262  156.2039
 263  134.768
 264  68.2928
 265  3.0172
 266  116.1085
 267  67.88481
 268  120.4942
 269  103.4402
 270  -24.75183
 271  87.85242
 272  202.4275
 273  150.7923
 274  -24.58869
 275  65.37996
 276  -36.52741
 277  -158.2879
 278  -84.10518
 279  -62.18836
 280  137.225
 281  300.2794
 282  148.0536
 283  41.56603
 284  29.40584
 285  -4.248726
 286  -25.53129
 287  43.94928
 288  31.20559
 289  -70.58804
 290  68.84218
 291  133.9024
 292  52.2155
 293  95.21742
 294  96.48238
 295  204.9468
 296  75.42197
 297  34.95286
 298  14.14968
 299  -106.411
 300  35.50432
 301  71.81377
 302  108.9015
 303  200.5794
 304  161.8047
 305  70.40269
 306  59.46888
 307  156.963
 308  232.0502
 309  133.3433
 310  14.9344
 311  -37.21351
 312  30.70795
 313  60.38743
 314  99.37027
 315  134.8337
 316  152.7585
 317  230.9373
 318  156.7962
 319  111.0483
 320  100.6795
 321  -28.38359
 322  -154.4515
 323  127.7465
 324  139.5193
 325  122.9236
 326  116.5496
 327  78.37059
 328  57.61124
 329  131.1619
 330  238.3393
 331  155.309
 332  145.1642
 333  199.6072
 334  173.9129
 335  -47.52499
 336  -57.60293
 337  51.14832
 338  87.84206
 339  152.7057
 340  -38.93314
 341  177.5157
 342  149.2611
 343  62.25577
 344  173.3704
 345  202.1846
 346  -1.173406
 347  123.984
 348  23.25171
 349  91.9226
 350  137.4681
 351  122.1621
 352  46.8508
 353  6.976402
 354  -63.90371
 355  -56.9869
 356  116.2707
 357  144.6913
 358  61.9884
 359  62.31465
 360  110.0669
 361  120.5964
 362  189.6216
 363  231.9514
 364  205.1163
 365  100.4397
 366  68.97598
 367  162.6672
 368  198.8705
 369  170.8241
 370  152.0904
 371  43.75109
 372  -56.24018
 373  -34.18048
 374  207.6068
 375  118.4413
 376  98.81633
 377  89.68384
 378  31.0431
 379  61.35889
 380  73.93275
 381  169.0931
 382  159.1917
 383  226.2649
 384  213.4806
 385  98.37984
 386  233.4993
 387  229.2975
 388  164.5875
 389  81.82881
 390  36.85732
 391  -0.4641438
 392  57.35507
 393  219.0789
 394  268.5331
 395  89.95023
 396  198.3075
 397  169.2285
 398  151.7443
 399  -75.02533
 400  -130.5818
 401  106.0073
 402  61.88302
 403  121.7889
 404  191.3733
 405  142.5553
 406  93.21246
 407  31.22996
 408  138.4128
 409  237.1887
 410  85.79655
 411  -7.351325
 412  26.12807
 413  121.5816
 414  186.5249
 415  82.78973
 416  148.1314
 417  60.67411
 418  -129.6685
 419  -12.92204
 420  148.7987
 421  50.6514
 422  46.0817
 423  46.22101
 424  26.44194
 425  51.86196
 426  112.5235
 427  15.88318
 428  33.58204
 429  -49.34228
 430  63.18497
 431  193.3633
 432  202.1616
 433  247.2785
 434  268.206
 435  171.3334
 436  188.4721
 437  48.84092
 438  110.5657
 439  242.9803
 440  260.3712
 441  164.303
 442  26.14208
 443  5.540291
 444  24.51836
 445  150.7001
 446  152.639
 447  81.71321
 448  122.5904
 449  123.7737
 450  203.778
 451  87.85725
 452  101.0279
 453  162.7258
 454  178.3586
 455  172.5908
 456  164.1149
 457  81.3875
 458  -29.2276
 459  13.47278
 460  70.07623
 461  172.84
 462  100.5333
 463  37.19628
 464  60.74098
 465  64.74636
 466  163.2731
 467  107.2746
 468  105.1864
 469  165.7667
 470  167.5383
 471  72.99958
 472  48.66499
 473  122.2155
 474  94.66569
 475  140.4389
 476  66.19453
 477  194.2423
 478  21.18443
 479  82.22311
 480  224.2908
 481  -12.98722
 482  16.58319
 483  116.0743
 484  44.19502
 485  -34.01859
 486  -20.76114
 487  127.6948
 488  324.2566
 489  157.2838
 490  10.67455
 491  164.3732
 492  223.5143
 493  209.7634
 494  127.2644
 495  102.904
 496  134.0775
 497  44.05798
 498  122.5953
 499  111.7387
 500  62.45721
 501  94.02402
 502  92.75111
 503  9.915495
 504  82.97514
 505  167.8923
 506  134.3046
 507  -17.80658
 508  88.01739
 509  268.927
 510  436.4514
 511  590.6321
