# Input file       =  1188709785.114631_cleaned.dat
# Candidate        =  PSR_0332+5434
# Telescope        =  AR
# Epoch_topo       =  58002.214897160084
# Epoch_bary       =  N/A
# T_sample         =  0.002
# Data Folded      =  7340032
# Data Avg         =  0.0103891760402697
# Data StdDev      =  1.00002353823645 
# Profile Bins     =  512
# Profile Avg      =  148.970185868181 
# Profile StdDev   =  119.735854681287 
# Reduced chi-sqr  =  1.190
# Prob(Noise)      <  0.00193   (~2.9 sigma)
# P_topo (ms)      =  714.464334381179  +/- 0.000245
# P'_topo (s/s)    =  -0                +/- 1.29e-10
# P''_topo (s/s^2) =  0                 +/- 5.7e-14
# P_bary (ms)      =  N/A
# P'_bary (s/s)    =  N/A
# P''_bary (s/s^2) =  N/A
# P_orb (s)        =  N/A
# asin(i)/c (s)    =  N/A
# eccentricity     =  N/A
# w (rad)          =  N/A
# T_peri           =  N/A
######################################################
   0  693.7677
   1  710.7941
   2  575.9299
   3  344.3288
   4  89.08609
   5  175.7542
   6  260.8769
   7  217.3692
   8  119.2685
   9  144.0935
  10  88.96333
  11  77.97628
  12  367.7505
  13  412.163
  14  202.3171
  15  187.1333
  16  280.2668
  17  309.4788
  18  306.2021
  19  175.9995
  20  120.7318
  21  75.92725
  22  179.2623
  23  123.3379
  24  247.4803
  25  99.82957
  26  215.4436
  27  179.7269
  28  122.6355
  29  144.7096
  30  114.5717
  31  179.3629
  32  44.97303
  33  66.74378
  34  95.06783
  35  82.36746
  36  124.9419
  37  193.9974
  38  97.62378
  39  38.14779
  40  164.227
  41  70.79296
  42  177.8033
  43  148.6404
  44  70.96628
  45  205.9775
  46  128.1598
  47  48.70398
  48  36.8941
  49  206.1869
  50  128.101
  51  113.2836
  52  247.1269
  53  155.4877
  54  -2.866781
  55  146.5396
  56  174.035
  57  167.8467
  58  59.62254
  59  109.672
  60  149.6501
  61  100.8088
  62  8.702602
  63  -36.68841
  64  82.10025
  65  71.41283
  66  -0.4802096
  67  173.3711
  68  189.715
  69  225.2327
  70  185.376
  71  112.4188
  72  -2.256939
  73  120.3843
  74  101.2658
  75  31.92276
  76  74.31274
  77  126.3313
  78  27.11888
  79  47.97797
  80  227.0899
  81  208.2385
  82  84.71744
  83  102.0439
  84  168.618
  85  161.2287
  86  25.12052
  87  67.88615
  88  61.36353
  89  -2.406281
  90  76.74065
  91  7.330818
  92  101.1445
  93  97.8675
  94  147.8627
  95  195.2879
  96  191.5683
  97  88.01244
  98  145.0694
  99  5.525973
 100  164.0407
 101  161.1733
 102  150.6302
 103  43.21726
 104  15.56072
 105  -2.979747
 106  28.28908
 107  112.09
 108  195.178
 109  95.84503
 110  93.38792
 111  148.1241
 112  118.9955
 113  75.48479
 114  15.26063
 115  89.30377
 116  -60.5418
 117  -20.9011
 118  186.7352
 119  223.4211
 120  152.4214
 121  102.8419
 122  98.91219
 123  208.3043
 124  185.9059
 125  129.4139
 126  155.1073
 127  146.9375
 128  12.91115
 129  19.4339
 130  -7.433654
 131  80.56507
 132  97.12061
 133  120.2003
 134  135.854
 135  56.64024
 136  88.07222
 137  93.26889
 138  94.48101
 139  147.1767
 140  119.1519
 141  -5.551476
 142  113.3004
 143  245.0838
 144  28.72588
 145  167.1815
 146  206.4087
 147  126.3185
 148  68.35751
 149  94.39085
 150  207.4481
 151  372.5168
 152  203.7156
 153  178.1377
 154  132.8534
 155  264.7961
 156  254.4438
 157  134.9485
 158  81.5879
 159  250.6329
 160  194.5912
 161  235.327
 162  224.3865
 163  77.54426
 164  121.4721
 165  85.25462
 166  70.34562
 167  110.7156
 168  204.5201
 169  179.8074
 170  158.4592
 171  193.0574
 172  273.2255
 173  237.4233
 174  298.4165
 175  139.291
 176  99.27452
 177  6.905672
 178  -22.18622
 179  86.88567
 180  230.6549
 181  155.5079
 182  53.66478
 183  19.84539
 184  103.4308
 185  127.3157
 186  66.66593
 187  106.691
 188  125.0284
 189  191.284
 190  141.5341
 191  117.5447
 192  226.5379
 193  177.3373
 194  84.02607
 195  80.05605
 196  16.39303
 197  202.9826
 198  171.4979
 199  149.3904
 200  179.3032
 201  3.395673
 202  92.41083
 203  75.81445
 204  131.5668
 205  121.1157
 206  235.4781
 207  149.928
 208  129.5154
 209  135.258
 210  163.2292
 211  235.3408
 212  195.2326
 213  152.9068
 214  71.04267
 215  26.95824
 216  -10.89256
 217  123.1577
 218  194.4499
 219  150.1969
 220  117.3036
 221  20.96995
 222  60.72168
 223  182.5982
 224  155.1537
 225  154.7825
 226  317.7352
 227  243.8083
 228  -14.5094
 229  19.96235
 230  165.4037
 231  68.14428
 232  204.413
 233  340.0007
 234  273.9322
 235  182.3407
 236  143.9707
 237  176.0187
 238  323.122
 239  394.3064
 240  240.3932
 241  188.0185
 242  185.465
 243  231.2233
 244  134.5419
 245  167.0064
 246  262.6308
 247  176.2696
 248  86.56388
 249  100.1193
 250  186.0394
 251  193.0201
 252  187.2359
 253  138.1758
 254  110.6695
 255  173.4125
 256  261.7014
 257  115.9922
 258  117.7726
 259  144.9206
 260  239.3357
 261  176.8425
 262  194.7077
 263  122.3541
 264  58.11441
 265  83.87911
 266  342.7327
 267  344.4788
 268  272.7202
 269  122.8113
 270  204.201
 271  149.6313
 272  107.4047
 273  42.51592
 274  5.244271
 275  39.1951
 276  44.4276
 277  45.58605
 278  134.8121
 279  79.09353
 280  33.9329
 281  171.757
 282  148.976
 283  140.4383
 284  72.48723
 285  168.3474
 286  214.3107
 287  27.33263
 288  24.88543
 289  160.9513
 290  260.6753
 291  192.7749
 292  103.5738
 293  157.1045
 294  282.1531
 295  238.9617
 296  265.011
 297  156.6289
 298  21.63254
 299  36.90248
 300  163.1168
 301  354.5195
 302  220.3405
 303  116.0415
 304  171.6451
 305  174.0696
 306  129.4552
 307  129.5791
 308  109.5036
 309  146.4125
 310  137.5585
 311  97.35178
 312  72.74338
 313  84.49887
 314  126.9439
 315  246.4814
 316  111.1882
 317  207.3748
 318  123.535
 319  106.2123
 320  140.9017
 321  309.9452
 322  250.8148
 323  116.2909
 324  116.6824
 325  177.7108
 326  80.50646
 327  124.2492
 328  136.9485
 329  43.47747
 330  84.91064
 331  236.7098
 332  178.7099
 333  112.9998
 334  260.1664
 335  304.4075
 336  176.5446
 337  111.4534
 338  201.9108
 339  160.815
 340  0.6091499
 341  150.7982
 342  70.31872
 343  62.51881
 344  105.3087
 345  79.67603
 346  215.5466
 347  117.5324
 348  223.0799
 349  205.6936
 350  42.86779
 351  56.1324
 352  99.80685
 353  171.6084
 354  157.0647
 355  97.44137
 356  62.93325
 357  101.9043
 358  171.934
 359  247.7056
 360  242.3221
 361  339.1761
 362  88.26451
 363  140.1114
 364  262.0605
 365  305.8267
 366  233.0722
 367  181.5719
 368  153.7905
 369  210.2226
 370  344.0383
 371  230.0421
 372  32.30002
 373  6.942363
 374  145.2112
 375  239.0554
 376  218.8746
 377  140.3905
 378  161.3048
 379  156.7791
 380  168.0465
 381  153.3405
 382  110.2126
 383  181.9473
 384  279.0958
 385  291.1993
 386  107.2149
 387  97.41662
 388  142.5902
 389  178.1284
 390  115.1818
 391  135.6469
 392  -31.53893
 393  -78.88796
 394  85.64294
 395  273.9086
 396  129.538
 397  205.7673
 398  214.0708
 399  56.02509
 400  99.11923
 401  205.4852
 402  190.6606
 403  280.2011
 404  191.4236
 405  112.0371
 406  63.31364
 407  224.6935
 408  179.693
 409  108.6123
 410  144.0925
 411  243.5108
 412  197.8237
 413  234.5591
 414  218.2279
 415  221.0132
 416  257.3658
 417  89.49565
 418  153.8828
 419  301.8364
 420  139.5176
 421  -50.85126
 422  68.53189
 423  226.6983
 424  275.622
 425  245.2426
 426  112.4195
 427  87.84574
 428  35.15725
 429  48.36048
 430  113.6485
 431  126.5618
 432  70.06969
 433  111.2904
 434  21.08118
 435  61.59316
 436  122.1257
 437  120.0628
 438  184.8938
 439  95.54038
 440  120.9952
 441  -2.16738
 442  121.809
 443  163.3899
 444  -36.32013
 445  124.8744
 446  332.137
 447  230.8131
 448  167.8344
 449  163.511
 450  152.9224
 451  123.124
 452  93.2951
 453  85.25719
 454  185.2744
 455  181.7332
 456  185.3706
 457  125.3153
 458  45.47264
 459  281.9373
 460  319.3132
 461  86.14677
 462  73.75715
 463  152.897
 464  158.4698
 465  134.5653
 466  205.6194
 467  263.5977
 468  222.5982
 469  127.7748
 470  120.8261
 471  141.6137
 472  171.4579
 473  193.0411
 474  75.05544
 475  161.3032
 476  178.0171
 477  165.9585
 478  165.7452
 479  134.3298
 480  164.855
 481  217.4488
 482  186.1698
 483  122.8436
 484  144.6187
 485  90.88815
 486  143.6498
 487  248.9432
 488  164.4805
 489  174.6112
 490  161.7714
 491  64.98817
 492  180.8958
 493  236.2112
 494  139.8208
 495  105.6045
 496  30.60995
 497  48.94866
 498  77.20187
 499  145.0034
 500  189.4684
 501  216.6586
 502  233.6661
 503  234.2118
 504  179.8895
 505  230.5263
 506  195.2563
 507  108.2156
 508  133.2284
 509  310.4975
 510  526.2371
 511  707.8019
