# Input file       =  1188694860.115103_cleaned.dat
# Candidate        =  PSR_0332+5434
# Telescope        =  AR
# Epoch_topo       =  58002.042154109986
# Epoch_bary       =  N/A
# T_sample         =  0.002
# Data Folded      =  7340032
# Data Avg         =  0.0108180071264574
# Data StdDev      =  1.00002551237225 
# Profile Bins     =  512
# Profile Avg      =  154.988634458979 
# Profile StdDev   =  119.73609105056  
# Reduced chi-sqr  =  1.088
# Prob(Noise)      <  0.0821   (~1.4 sigma)
# P_topo (ms)      =  714.463974831009  +/- 0.000164
# P'_topo (s/s)    =  -0                +/- 8.67e-11
# P''_topo (s/s^2) =  0                 +/- 3.83e-14
# P_bary (ms)      =  N/A
# P'_bary (s/s)    =  N/A
# P''_bary (s/s^2) =  N/A
# P_orb (s)        =  N/A
# asin(i)/c (s)    =  N/A
# eccentricity     =  N/A
# w (rad)          =  N/A
# T_peri           =  N/A
######################################################
   0  646.871
   1  712.3513
   2  503.5541
   3  383.764
   4  231.6313
   5  154.0645
   6  58.86012
   7  123.6055
   8  287.086
   9  237.9511
  10  163.5801
  11  262.1321
  12  269.3358
  13  173.032
  14  231.9693
  15  238.4467
  16  238.7989
  17  144.0268
  18  136.0291
  19  153.677
  20  224.175
  21  81.78925
  22  156.5665
  23  275.3292
  24  164.2891
  25  191.8913
  26  240.4636
  27  322.5875
  28  165.1213
  29  123.2658
  30  121.5415
  31  37.71411
  32  101.8034
  33  95.38725
  34  218.3008
  35  244.844
  36  52.3226
  37  109.4468
  38  121.0008
  39  111.8719
  40  200.0917
  41  134.6301
  42  153.3801
  43  127.8016
  44  97.94515
  45  98.37788
  46  44.43998
  47  114.0213
  48  129.406
  49  225.2212
  50  343.8428
  51  199.0252
  52  251.0454
  53  164.0069
  54  261.4174
  55  265.4471
  56  361.9146
  57  275.3076
  58  280.0345
  59  194.5818
  60  119.9634
  61  -42.24212
  62  104.0659
  63  33.74932
  64  159.8878
  65  245.4477
  66  65.77353
  67  176.0415
  68  251.9928
  69  229.7153
  70  176.6279
  71  188.5897
  72  129.8119
  73  120.3996
  74  171.2597
  75  174.0372
  76  204.1391
  77  272.265
  78  205.917
  79  156.0784
  80  173.119
  81  61.04818
  82  132.712
  83  212.462
  84  114.1505
  85  33.76695
  86  92.74416
  87  165.6712
  88  119.6567
  89  156.7758
  90  189.1365
  91  159.8331
  92  109.9308
  93  208.7198
  94  212.7638
  95  123.7641
  96  41.93193
  97  91.46242
  98  204.2294
  99  150.5581
 100  125.569
 101  186.4089
 102  99.01472
 103  92.21638
 104  249.6429
 105  268.5585
 106  83.42731
 107  172.6746
 108  269.8169
 109  264.6456
 110  176.8438
 111  117.9699
 112  156.0616
 113  155.7758
 114  152.0295
 115  -32.19588
 116  244.5812
 117  191.1969
 118  136.6059
 119  102.0234
 120  94.59322
 121  128.5348
 122  141.9804
 123  82.86489
 124  -28.31319
 125  -19.76116
 126  114.154
 127  113.9677
 128  185.3255
 129  259.3434
 130  192.3118
 131  112.6098
 132  239.602
 133  197.3162
 134  132.2188
 135  115.4678
 136  17.13077
 137  44.61052
 138  99.27495
 139  48.67896
 140  142.0463
 141  59.35309
 142  218.5542
 143  152.1378
 144  53.08112
 145  206.4294
 146  185.6436
 147  92.54688
 148  56.60438
 149  207.5867
 150  32.66493
 151  -48.47367
 152  133.7528
 153  135.4062
 154  189.5602
 155  254.3497
 156  260.6587
 157  206.8561
 158  168.5322
 159  222.9497
 160  277.2524
 161  163.3963
 162  197.8512
 163  169.1598
 164  145.3271
 165  54.52682
 166  171.3537
 167  185.4989
 168  162.4187
 169  296.2657
 170  121.7533
 171  52.61255
 172  93.55297
 173  101.8822
 174  73.66392
 175  225.8382
 176  236.146
 177  142.7344
 178  109.8244
 179  156.308
 180  174.0387
 181  196.3417
 182  174.1922
 183  160.4465
 184  178.753
 185  135.8094
 186  3.562426
 187  -14.9828
 188  97.29437
 189  114.4618
 190  19.88632
 191  85.87038
 192  79.04731
 193  159.9247
 194  237.6415
 195  208.6091
 196  213.9939
 197  231.3623
 198  298.8961
 199  167.9227
 200  221.9577
 201  336.9467
 202  170.5855
 203  176.471
 204  228.8023
 205  140.4103
 206  168.0183
 207  203.629
 208  215.4551
 209  96.69964
 210  23.54827
 211  70.84682
 212  111.5058
 213  18.43238
 214  -90.64196
 215  69.95541
 216  120.5699
 217  151.7261
 218  56.07476
 219  33.07515
 220  47.67331
 221  115.3739
 222  193.9077
 223  225.8252
 224  105.6134
 225  222.6096
 226  292.3226
 227  229.3893
 228  179.062
 229  84.55929
 230  128.4223
 231  107.5528
 232  89.18544
 233  35.88974
 234  161.9744
 235  111.4171
 236  141.2495
 237  63.84725
 238  30.5202
 239  24.40809
 240  68.07669
 241  160.9035
 242  190.8287
 243  159.2202
 244  149.8039
 245  164.9082
 246  121.1108
 247  32.34721
 248  168.6639
 249  318.1076
 250  191.4409
 251  104.9983
 252  93.3514
 253  -14.82145
 254  86.43951
 255  81.07282
 256  111.6237
 257  82.58088
 258  164.6351
 259  172.4578
 260  110.951
 261  27.6243
 262  92.05354
 263  105.7218
 264  157.6476
 265  176.5423
 266  48.61026
 267  153.0515
 268  226.2761
 269  305.9478
 270  126.1076
 271  149.236
 272  198.2872
 273  342.7661
 274  310.4309
 275  36.15471
 276  -27.04978
 277  93.35434
 278  249.6071
 279  190.8666
 280  168.0481
 281  104.5672
 282  217.2524
 283  242.0862
 284  176.6724
 285  146.8425
 286  52.63533
 287  165.5159
 288  268.3577
 289  179.2305
 290  141.2213
 291  283.2104
 292  99.76395
 293  138.0643
 294  211.5799
 295  197.8405
 296  190.4494
 297  152.9531
 298  245.5522
 299  160.1707
 300  190.5
 301  150.6067
 302  225.6131
 303  306.2318
 304  199.917
 305  113.7437
 306  99.20232
 307  179.2243
 308  157.3387
 309  203.8849
 310  198.8305
 311  267.5688
 312  254.9016
 313  281.0938
 314  80.77327
 315  80.60188
 316  100.2756
 317  101.2641
 318  212.4631
 319  71.85501
 320  82.94775
 321  115.5774
 322  50.05112
 323  74.97221
 324  213.4784
 325  119.412
 326  124.6634
 327  10.26128
 328  44.66115
 329  125.3612
 330  38.62223
 331  103.723
 332  189.5976
 333  81.77783
 334  131.7667
 335  85.05978
 336  143.3199
 337  93.32899
 338  121.9179
 339  112.1002
 340  49.71555
 341  60.89687
 342  145.1246
 343  175.0242
 344  125.7564
 345  104.4047
 346  63.69658
 347  219.2906
 348  301.2903
 349  293.0132
 350  192.6166
 351  111.6846
 352  52.38318
 353  -14.49172
 354  122.8146
 355  154.3587
 356  145.3405
 357  271.5283
 358  275.8077
 359  159.4185
 360  57.85015
 361  -17.84402
 362  47.60635
 363  19.0424
 364  96.31715
 365  117.7216
 366  254.4767
 367  100.576
 368  72.8588
 369  107.3508
 370  125.4322
 371  32.34808
 372  18.07437
 373  130.544
 374  219.6514
 375  222.108
 376  50.3993
 377  42.00329
 378  229.6477
 379  172.1319
 380  139.1043
 381  153.9286
 382  207.3637
 383  258.7474
 384  165.8357
 385  120.5166
 386  174.0156
 387  136.6258
 388  157.8315
 389  55.44767
 390  107.5478
 391  155.3539
 392  187.4202
 393  153.3373
 394  159.0954
 395  145.3152
 396  266.0007
 397  195.7983
 398  109.9315
 399  29.07574
 400  94.86111
 401  119.885
 402  210.8887
 403  72.96921
 404  33.31221
 405  23.43881
 406  128.5957
 407  192.4108
 408  180.8558
 409  160.1597
 410  112.9379
 411  -53.5691
 412  78.19931
 413  359.4745
 414  346.1411
 415  284.1422
 416  287.1008
 417  297.8922
 418  153.045
 419  113.6036
 420  106.0523
 421  90.3584
 422  240.8687
 423  214.3415
 424  166.9814
 425  229.5594
 426  183.638
 427  156.8573
 428  238.9656
 429  52.89418
 430  13.27633
 431  138.7248
 432  189.9763
 433  233.0986
 434  135.8895
 435  133.7632
 436  119.9443
 437  39.17569
 438  211.1368
 439  270.5881
 440  134.9728
 441  47.80619
 442  86.58951
 443  107.7625
 444  48.65546
 445  56.94877
 446  156.1671
 447  -7.54407
 448  72.60058
 449  220.5219
 450  207.4675
 451  215.7587
 452  158.5806
 453  116.1309
 454  203.1765
 455  221.1848
 456  72.78681
 457  50.81509
 458  141.2151
 459  149.5222
 460  110.6815
 461  18.72717
 462  159.7337
 463  331.6812
 464  73.31731
 465  151.9054
 466  270.7076
 467  225.7501
 468  156.5047
 469  177.0942
 470  42.95422
 471  28.64869
 472  60.11136
 473  48.60326
 474  161.2123
 475  306.8096
 476  217.2921
 477  143.8769
 478  162.0288
 479  178.4449
 480  265.1367
 481  217.1796
 482  224.474
 483  154.3386
 484  51.69779
 485  209.2321
 486  123.0111
 487  151.3375
 488  210.1902
 489  232.3369
 490  39.53618
 491  -12.50695
 492  40.30123
 493  178.0779
 494  207.2082
 495  221.4437
 496  250.9205
 497  220.3884
 498  260.9068
 499  177.7468
 500  161.578
 501  205.1472
 502  98.46129
 503  126.9691
 504  312.5439
 505  180.3587
 506  279.1517
 507  298.3522
 508  327.6422
 509  243.2912
 510  375.3428
 511  603.3419
