# Input file       =  1188852543.12519_cleaned.dat
# Candidate        =  PSR_0332+5434
# Telescope        =  AR
# Epoch_topo       =  58003.867188948956
# Epoch_bary       =  N/A
# T_sample         =  0.002
# Data Folded      =  7143424
# Data Avg         =  0.0252991953962448
# Data StdDev      =  1.00017417727395 
# Profile Bins     =  512
# Profile Avg      =  352.917554489415 
# Profile StdDev   =  118.139158054916 
# Reduced chi-sqr  =  1.272
# Prob(Noise)      <  2.76e-05   (~4.0 sigma)
# P_topo (ms)      =  714.464246079401  +/- 0.000238
# P'_topo (s/s)    =  -0                +/- 1.29e-10
# P''_topo (s/s^2) =  0                 +/- 5.86e-14
# P_bary (ms)      =  N/A
# P'_bary (s/s)    =  N/A
# P''_bary (s/s^2) =  N/A
# P_orb (s)        =  N/A
# asin(i)/c (s)    =  N/A
# eccentricity     =  N/A
# w (rad)          =  N/A
# T_peri           =  N/A
######################################################
   0  1071.825
   1  1019.493
   2  853.5895
   3  458.3806
   4  385.1581
   5  279.309
   6  464.4848
   7  458.907
   8  294.5305
   9  344.9204
  10  486.1037
  11  476.9796
  12  355.7359
  13  354.6679
  14  299.1696
  15  224.2315
  16  321.6218
  17  418.3927
  18  236.9178
  19  111.0684
  20  210.7071
  21  262.1964
  22  340.0704
  23  339.9655
  24  364.0432
  25  270.6037
  26  299.3595
  27  340.0084
  28  382.0694
  29  183.3267
  30  186.8057
  31  272.6149
  32  224.9395
  33  238.4932
  34  344.3497
  35  400.8659
  36  433.983
  37  391.0364
  38  179.8773
  39  193.6828
  40  370.4899
  41  344.7564
  42  301.1765
  43  289.0977
  44  263.3012
  45  316.403
  46  338.6614
  47  256.1353
  48  312.9227
  49  386.6898
  50  282.4651
  51  232.5267
  52  182.6308
  53  198.4099
  54  288.5483
  55  262.9074
  56  255.3453
  57  305.43
  58  313.9411
  59  248.6713
  60  166.9433
  61  322.6425
  62  308.3857
  63  389.8877
  64  361.0132
  65  291.8528
  66  235.7318
  67  305.9742
  68  467.756
  69  461.6248
  70  240.6191
  71  297.7707
  72  307.9165
  73  469.453
  74  508.0886
  75  398.4211
  76  395.225
  77  386.6412
  78  330.7169
  79  383.5265
  80  378.0848
  81  399.3486
  82  316.4341
  83  330.3709
  84  498.845
  85  442.1822
  86  487.4409
  87  468.7008
  88  313.4567
  89  415.3009
  90  437.1383
  91  503.7986
  92  359.9391
  93  277.2578
  94  248.1912
  95  451.796
  96  464.1938
  97  306.5651
  98  376.7499
  99  315.8094
 100  160.8297
 101  306.6929
 102  458.7711
 103  348.0073
 104  354.097
 105  394.8409
 106  432.496
 107  356.3596
 108  249.2979
 109  376.3337
 110  411.172
 111  463.5053
 112  356.3322
 113  357.5031
 114  447.0577
 115  376.4015
 116  322.4171
 117  331.2764
 118  259.9575
 119  252.3251
 120  330.1154
 121  358.2495
 122  391.4963
 123  470.726
 124  324.6707
 125  387.048
 126  339.2093
 127  301.1311
 128  341.0987
 129  425.2088
 130  328.9508
 131  296.4467
 132  439.9643
 133  363.4908
 134  365.8929
 135  273.7161
 136  364.8262
 137  310.81
 138  342.0161
 139  553.4583
 140  427.5067
 141  373.6068
 142  288.2557
 143  372.7191
 144  325.9777
 145  352.6684
 146  369.2816
 147  395.4291
 148  526.7867
 149  414.037
 150  379.4797
 151  380.5448
 152  398.4997
 153  407.3991
 154  391.5954
 155  405.5
 156  535.3951
 157  355.6328
 158  405.8871
 159  357.5625
 160  348.8518
 161  397.5313
 162  344.1722
 163  273.7682
 164  219.3377
 165  228.4628
 166  239.6542
 167  264.4936
 168  352.9126
 169  354.8972
 170  330.6337
 171  389.9019
 172  422.5634
 173  264.7266
 174  272.9399
 175  334.9743
 176  317.3842
 177  345.4403
 178  413.62
 179  216.5244
 180  237.0345
 181  364.7156
 182  383.2245
 183  334.8768
 184  371.8112
 185  399.6824
 186  215.6263
 187  160.1363
 188  209.7647
 189  179.1429
 190  302.0078
 191  323.5211
 192  428.4184
 193  392.362
 194  359.8276
 195  325.7197
 196  318.5538
 197  329.7093
 198  391.8918
 199  366.9753
 200  282.6788
 201  243.8312
 202  313.5863
 203  382.6291
 204  349.3479
 205  352.904
 206  334.5988
 207  363.3021
 208  319.6346
 209  256.542
 210  303.4858
 211  235.771
 212  239.812
 213  300.9502
 214  403.1636
 215  407.889
 216  283.6939
 217  391.1461
 218  409.3986
 219  282.1595
 220  396.4974
 221  489.8952
 222  428.2388
 223  289.3052
 224  468.8373
 225  442.0471
 226  372.4301
 227  310.1505
 228  356.0005
 229  328.3469
 230  423.9489
 231  386.1199
 232  351.4753
 233  293.6931
 234  266.3026
 235  388.4872
 236  406.1957
 237  345.7118
 238  364.3181
 239  395.086
 240  483.782
 241  510.2603
 242  434.1371
 243  364.5936
 244  217.0959
 245  396.9834
 246  325.0471
 247  384.9369
 248  349.5732
 249  452.8209
 250  425.7247
 251  367.0362
 252  326.4762
 253  267.9727
 254  401.5722
 255  372.5811
 256  336.1472
 257  191.4219
 258  324.7548
 259  350.945
 260  290.8326
 261  189.9483
 262  235.1533
 263  307.215
 264  384.0264
 265  474.873
 266  467.7166
 267  512.6989
 268  413.772
 269  412.6229
 270  449.3282
 271  364.4776
 272  267.2256
 273  337.056
 274  342.5703
 275  320.2411
 276  380.706
 277  358.7673
 278  214.3146
 279  267.1035
 280  292.5896
 281  339.7816
 282  367.6092
 283  403.4783
 284  301.0262
 285  271.2405
 286  291.6773
 287  289.9012
 288  286.8072
 289  285.582
 290  245.4616
 291  251.3986
 292  323.1094
 293  353.4041
 294  440.6611
 295  311.2905
 296  327.2735
 297  284.8051
 298  317.1009
 299  398.9176
 300  464.0388
 301  475.0793
 302  350.2147
 303  257.2791
 304  406.7564
 305  425.6543
 306  275.3762
 307  215.0744
 308  234.2753
 309  370.2758
 310  357.5886
 311  299.4632
 312  467.8682
 313  482.6472
 314  357.4261
 315  403.3807
 316  406.292
 317  425.7566
 318  402.6905
 319  416.0265
 320  416.8145
 321  404.8528
 322  435.2069
 323  492.3457
 324  438.5348
 325  307.9507
 326  237.6912
 327  226.4207
 328  361.9256
 329  466.2017
 330  380.7901
 331  203.0048
 332  323.1849
 333  254.4738
 334  335.8729
 335  366.1284
 336  409.5208
 337  305.9901
 338  94.51704
 339  124.1026
 340  234.9254
 341  331.5956
 342  346.2306
 343  391.7393
 344  432.0316
 345  381.8635
 346  324.8928
 347  391.404
 348  430.6676
 349  367.783
 350  246.499
 351  259.324
 352  371.1055
 353  459.6527
 354  397.3606
 355  378.7955
 356  302.0032
 357  377.8087
 358  390.0357
 359  412.8882
 360  401.6593
 361  348.3216
 362  330.9383
 363  305.5907
 364  298.0077
 365  389.485
 366  191.5295
 367  197.0381
 368  231.2841
 369  362.0743
 370  409.6217
 371  414.5659
 372  377.2052
 373  329.9798
 374  357.2747
 375  344.7844
 376  304.3779
 377  353.9888
 378  309.7685
 379  201.6121
 380  192.7411
 381  198.6559
 382  246.9611
 383  346.5693
 384  324.6412
 385  332.4458
 386  320.3221
 387  296.0956
 388  419.0834
 389  457.7334
 390  367.205
 391  388.348
 392  559.6995
 393  389.8991
 394  339.1601
 395  373.205
 396  319.0397
 397  415.6888
 398  345.1572
 399  239.8482
 400  305.4757
 401  299.0827
 402  407.2307
 403  279.6148
 404  259.221
 405  424.7388
 406  480.6891
 407  299.7656
 408  425.9459
 409  431.7332
 410  300.431
 411  366.1951
 412  323.798
 413  353.5377
 414  376.5232
 415  315.865
 416  446.5893
 417  389.0092
 418  317.854
 419  314.7814
 420  333.909
 421  468.7744
 422  489.9062
 423  382.3958
 424  352.3771
 425  416.6352
 426  435.377
 427  419.2157
 428  457.1774
 429  475.0882
 430  428.7249
 431  448.7582
 432  395.9989
 433  201.8439
 434  244.7144
 435  324.1716
 436  405.4768
 437  354.0755
 438  277.028
 439  284.1219
 440  301.7283
 441  465.386
 442  459.7556
 443  424.4578
 444  341.7974
 445  395.0131
 446  384.7261
 447  374.5527
 448  287.7049
 449  388.4477
 450  361.1693
 451  282.8323
 452  320.7263
 453  283.3109
 454  254.7194
 455  221.2196
 456  273.1053
 457  337.1639
 458  368.7165
 459  375.5297
 460  277.7622
 461  298.0779
 462  302.2222
 463  398.9537
 464  437.4105
 465  338.7383
 466  563.8235
 467  542.4349
 468  312.2404
 469  433.3882
 470  435.6351
 471  382.7252
 472  269.3898
 473  293.846
 474  247.1926
 475  223.3362
 476  408.0844
 477  404.9276
 478  377.6583
 479  358.647
 480  258.1613
 481  338.8883
 482  267.4656
 483  295.3103
 484  319.5303
 485  410.2869
 486  296.2552
 487  207.6776
 488  363.4116
 489  336.6317
 490  315.8865
 491  375.4263
 492  464.071
 493  357.9568
 494  342.6318
 495  288.2502
 496  301.4877
 497  286.4837
 498  326.5978
 499  389.6067
 500  417.1235
 501  433.6185
 502  295.478
 503  321.5998
 504  431.8245
 505  458.2505
 506  383.155
 507  371.5938
 508  382.8699
 509  611.9999
 510  771.0508
 511  832.1034
