# Input file       =  1188953313.119366_cleaned.dat
# Candidate        =  PSR_0332+5434
# Telescope        =  AR
# Epoch_topo       =  58005.033508325992
# Epoch_bary       =  N/A
# T_sample         =  0.002
# Data Folded      =  7340032
# Data Avg         =  0.0131834677806908
# Data StdDev      =  1.00001458699009 
# Profile Bins     =  512
# Profile Avg      =  189.041291782579 
# Profile StdDev   =  119.734782921381 
# Reduced chi-sqr  =  1.128
# Prob(Noise)      <  0.0233   (~2.0 sigma)
# P_topo (ms)      =  714.464467096554  +/- 8.2e-05
# P'_topo (s/s)    =  -0                +/- 4.33e-11
# P''_topo (s/s^2) =  0                 +/- 1.91e-14
# P_bary (ms)      =  N/A
# P'_bary (s/s)    =  N/A
# P''_bary (s/s^2) =  N/A
# P_orb (s)        =  N/A
# asin(i)/c (s)    =  N/A
# eccentricity     =  N/A
# w (rad)          =  N/A
# T_peri           =  N/A
######################################################
   0  815.1221
   1  573.8732
   2  288.98
   3  150.0649
   4  33.71954
   5  266.3983
   6  266.1343
   7  237.0174
   8  175.7382
   9  155.0176
  10  136.0429
  11  -33.53466
  12  159.2932
  13  212.6848
  14  304.6872
  15  236.5411
  16  240.9876
  17  249.5919
  18  123.9715
  19  80.89155
  20  158.6146
  21  148.1683
  22  184.8214
  23  167.5719
  24  59.81734
  25  83.00163
  26  127.2423
  27  170.8097
  28  55.0078
  29  232.4877
  30  213.4093
  31  150.8784
  32  225.9866
  33  208.8177
  34  125.2974
  35  270.9601
  36  244.5793
  37  281.2731
  38  147.0597
  39  126.7482
  40  101.4523
  41  200.2043
  42  354.4937
  43  290.343
  44  225.9392
  45  197.7239
  46  168.4409
  47  72.24647
  48  184.6672
  49  254.2106
  50  283.2999
  51  277.8261
  52  59.35498
  53  63.17403
  54  195.6689
  55  139.4315
  56  141.0647
  57  155.8803
  58  257.1646
  59  144.9763
  60  56.92057
  61  68.15201
  62  265.4211
  63  292.6815
  64  205.8764
  65  48.20526
  66  43.27592
  67  170.4526
  68  164.6492
  69  137.6499
  70  276.0793
  71  293.3569
  72  328.1201
  73  201.6028
  74  228.6139
  75  177.0912
  76  63.8762
  77  254.1778
  78  208.7207
  79  193.0537
  80  422.1191
  81  189.9353
  82  171.6284
  83  256.8305
  84  330.2464
  85  238.4514
  86  192.1049
  87  156.5881
  88  156.8019
  89  188.5512
  90  222.7108
  91  94.78203
  92  167.1224
  93  228.2907
  94  131.0281
  95  236.6852
  96  346.7002
  97  240.3478
  98  108.1721
  99  114.4146
 100  221.8352
 101  113.72
 102  146.1679
 103  187.762
 104  253.0244
 105  207.601
 106  320.4949
 107  236.4629
 108  40.73989
 109  -32.17818
 110  9.66573
 111  175.0169
 112  193.8798
 113  241.3437
 114  242.0412
 115  193.2202
 116  -32.47876
 117  125.258
 118  147.2165
 119  192.0234
 120  148.964
 121  141.352
 122  126.8554
 123  119.8901
 124  175.9324
 125  187.7969
 126  167.6039
 127  189.356
 128  194.3333
 129  137.3768
 130  130.5697
 131  96.70069
 132  21.70938
 133  232.8219
 134  201.5041
 135  88.88766
 136  38.4688
 137  195.4927
 138  230.3163
 139  123.3477
 140  214.273
 141  161.5427
 142  162.5443
 143  0.1539759
 144  90.96228
 145  149.1457
 146  169.1067
 147  181.737
 148  149.1679
 149  226.0765
 150  186.6741
 151  81.13231
 152  85.62205
 153  101.8248
 154  88.21729
 155  178.5724
 156  174.6762
 157  222.2776
 158  196.1275
 159  192.183
 160  250.3364
 161  201.9937
 162  154.5723
 163  81.86252
 164  161.973
 165  59.1807
 166  188.1161
 167  248.1187
 168  283.9259
 169  231.7505
 170  193.2822
 171  260.3266
 172  139.0443
 173  80.07507
 174  68.30624
 175  107.3147
 176  104.0472
 177  115.3202
 178  135.9393
 179  111.362
 180  139.008
 181  161.8345
 182  147.6939
 183  155.1916
 184  194.313
 185  151.9641
 186  158.9422
 187  179.4844
 188  201.188
 189  283.1035
 190  262.9838
 191  205.7595
 192  237.6193
 193  284.4534
 194  280.0888
 195  301.4061
 196  302.0247
 197  374.549
 198  357.6884
 199  215.4016
 200  226.0583
 201  270.7282
 202  218.4296
 203  181.3684
 204  170.6646
 205  99.3518
 206  154.538
 207  47.83249
 208  54.18464
 209  189.1282
 210  326.1248
 211  160.0809
 212  173.4626
 213  122.8029
 214  178.1882
 215  232.7779
 216  189.9057
 217  232.5842
 218  119.2561
 219  141.97
 220  93.1734
 221  118.5065
 222  156.3706
 223  278.0875
 224  216.8286
 225  142.5356
 226  159.3319
 227  200.1276
 228  221.3009
 229  186.6475
 230  117.3549
 231  295.578
 232  219.3357
 233  69.79199
 234  170.5578
 235  270.8203
 236  277.4294
 237  426.5751
 238  379.8953
 239  234.707
 240  134.317
 241  54.36321
 242  180.9422
 243  176.3613
 244  162.8354
 245  166.1494
 246  186.1064
 247  141.2652
 248  233.037
 249  171.9141
 250  99.46069
 251  217.6325
 252  299.21
 253  199.1198
 254  54.37181
 255  131.5886
 256  281.712
 257  213.1245
 258  126.3321
 259  250.3768
 260  232.7097
 261  274.054
 262  285.6325
 263  202.8702
 264  195.3344
 265  271.6581
 266  104.341
 267  102.7197
 268  189.3956
 269  177.2787
 270  116.2338
 271  186.7827
 272  184.8591
 273  116.669
 274  56.72063
 275  85.7045
 276  73.1917
 277  179.7429
 278  118.7835
 279  227.4731
 280  280.6767
 281  407.9553
 282  298.32
 283  -73.64982
 284  111.2421
 285  289.7947
 286  129.4893
 287  29.98576
 288  155.9169
 289  167.7444
 290  -12.70531
 291  67.83904
 292  148.742
 293  256.8171
 294  254.3243
 295  225.7702
 296  197.3829
 297  195.6851
 298  126.0973
 299  28.32771
 300  298.0261
 301  292.2659
 302  202.51
 303  143.9388
 304  227.996
 305  327.5693
 306  294.2523
 307  128.994
 308  225.3488
 309  235.4045
 310  109.5571
 311  197.8092
 312  166.179
 313  234.8961
 314  173.0508
 315  261.1705
 316  231.8273
 317  107.7512
 318  177.3409
 319  301.4643
 320  316.9239
 321  205.9957
 322  280.0431
 323  254.2396
 324  210.4617
 325  214.8973
 326  233.844
 327  159.7404
 328  6.886726
 329  165.4576
 330  210.4408
 331  219.6842
 332  221.6047
 333  284.4869
 334  239.5733
 335  132.5233
 336  182.3645
 337  185.4866
 338  136.6101
 339  115.171
 340  36.79572
 341  123.3017
 342  100.182
 343  259.2485
 344  262.5739
 345  167.4024
 346  155.073
 347  91.97286
 348  125.4901
 349  276.9729
 350  279.9354
 351  357.4575
 352  437.1982
 353  210.2201
 354  85.59807
 355  118.9363
 356  203.6777
 357  291.3519
 358  272.9642
 359  227.9141
 360  226.271
 361  247.9998
 362  112.9663
 363  127.5086
 364  156.7841
 365  64.89506
 366  46.8899
 367  36.0713
 368  121.2337
 369  144.3002
 370  107.4522
 371  145.2913
 372  152.7673
 373  171.5814
 374  155.2253
 375  189.9988
 376  277.4335
 377  132.4058
 378  269.5994
 379  435.2413
 380  274.8835
 381  205.2486
 382  251.1839
 383  182.679
 384  94.46731
 385  27.16634
 386  214.3577
 387  298.7931
 388  225.8965
 389  142.4239
 390  166.7559
 391  260.9169
 392  209.7859
 393  203.5052
 394  168.6041
 395  104.1795
 396  29.29624
 397  -146.3032
 398  38.85591
 399  225.8668
 400  260.4724
 401  223.7352
 402  247.8033
 403  197.7766
 404  135.8875
 405  50.98707
 406  224.5681
 407  177.3688
 408  159.1136
 409  287.1686
 410  214.5419
 411  150.3305
 412  133.1373
 413  163.8036
 414  291.5049
 415  193.932
 416  168.0981
 417  196.5954
 418  168.3173
 419  295.0334
 420  200.2608
 421  107.4997
 422  193.616
 423  304.4399
 424  139.0357
 425  139.235
 426  219.9515
 427  184.0233
 428  138.5515
 429  296.7621
 430  349.9197
 431  175.9949
 432  216.1798
 433  203.7967
 434  261.4185
 435  283.3949
 436  201.4922
 437  143.581
 438  112.3509
 439  351.1523
 440  260.6764
 441  144.9318
 442  129.7749
 443  221.6377
 444  208.6012
 445  317.6501
 446  201.657
 447  173.0177
 448  146.2234
 449  188.9813
 450  273.8044
 451  168.6239
 452  46.5007
 453  45.60304
 454  123.4448
 455  123.1311
 456  133.2955
 457  202.2646
 458  246.604
 459  245.5892
 460  287.7791
 461  188.8217
 462  91.48061
 463  203.5552
 464  209.598
 465  209.7666
 466  228.7968
 467  174.9654
 468  187.8795
 469  135.9848
 470  237.5687
 471  228.7365
 472  215.6066
 473  187.536
 474  66.84011
 475  123.9107
 476  162.9417
 477  92.92895
 478  114.507
 479  227.231
 480  169.3209
 481  22.15282
 482  196.8335
 483  343.6897
 484  226.1977
 485  104.7732
 486  44.04473
 487  177.517
 488  392.6419
 489  384.5137
 490  100.5424
 491  96.47967
 492  182.055
 493  310.5818
 494  350.2249
 495  241.2934
 496  261.2153
 497  203.6874
 498  169.884
 499  237.0798
 500  316.771
 501  206.9693
 502  102.9806
 503  181.7425
 504  404.477
 505  289.0497
 506  266.0485
 507  305.6856
 508  275.0935
 509  387.9617
 510  423.3961
 511  691.4131
