# Input file       =  1188852543.12519_cleaned.dat
# Candidate        =  PSR_0332+5434
# Telescope        =  AR
# Epoch_topo       =  58003.867188948956
# Epoch_bary       =  N/A
# T_sample         =  0.002
# Data Folded      =  7143424
# Data Avg         =  0.0252991953962448
# Data StdDev      =  1.00017417727395 
# Profile Bins     =  512
# Profile Avg      =  352.917554470481 
# Profile StdDev   =  118.139158054916 
# Reduced chi-sqr  =  1.275
# Prob(Noise)      <  2.35e-05   (~4.1 sigma)
# P_topo (ms)      =  714.46424616047   +/- 0.000236
# P'_topo (s/s)    =  -0                +/- 1.28e-10
# P''_topo (s/s^2) =  0                 +/- 5.81e-14
# P_bary (ms)      =  N/A
# P'_bary (s/s)    =  N/A
# P''_bary (s/s^2) =  N/A
# P_orb (s)        =  N/A
# asin(i)/c (s)    =  N/A
# eccentricity     =  N/A
# w (rad)          =  N/A
# T_peri           =  N/A
######################################################
   0  919.6707
   1  1065.461
   2  976.6511
   3  656.9982
   4  445.7616
   5  300.7296
   6  350.9552
   7  504.6606
   8  351.8874
   9  327.2731
  10  370.1079
  11  562.446
  12  369.0385
  13  375.4041
  14  328.2537
  15  259.149
  16  240.4259
  17  379.2238
  18  376.416
  19  146.3189
  20  139.95
  21  254.3266
  22  281.0593
  23  352.8272
  24  348.5311
  25  312.644
  26  293.7447
  27  286.1625
  28  404.8424
  29  291.7064
  30  183.7812
  31  212.9192
  32  267.8242
  33  205.3067
  34  298.6649
  35  372.7292
  36  407.2271
  37  435.1668
  38  320.2785
  39  118.108
  40  311.1189
  41  354.3953
  42  333.7448
  43  294.7333
  44  268.0469
  45  276.6247
  46  338.8971
  47  300.5245
  48  263.4865
  49  365.4151
  50  349.3802
  51  243.887
  52  204.7899
  53  179.2828
  54  238.0461
  55  297.2244
  56  242.856
  57  297.744
  58  306.5517
  59  316.115
  60  165.2366
  61  230.3976
  62  337.5348
  63  326.188
  64  412.7625
  65  307.6806
  66  266.4241
  67  253.5506
  68  373.5252
  69  523.1257
  70  335.5116
  71  266.2247
  72  279.9173
  73  385.5385
  74  501.0886
  75  467.7511
  76  365.6476
  77  422.9445
  78  332.1234
  79  370.9724
  80  359.8873
  81  410.0805
  82  364.182
  83  272.4458
  84  444.7477
  85  472.2431
  86  466.7321
  87  498.561
  88  390.9341
  89  342.2424
  90  426.0611
  91  482.6321
  92  433.711
  93  341.8214
  94  228.3743
  95  344.9894
  96  495.1246
  97  377.8182
  98  316.5127
  99  378.5621
 100  234.3349
 101  171.7851
 102  418.3614
 103  416.4303
 104  323.0184
 105  395.4626
 106  407.6944
 107  433.1442
 108  276.1183
 109  304.0882
 110  387.9614
 111  443.3744
 112  426.3549
 113  327.2198
 114  404.9882
 115  447.0995
 116  330.5427
 117  337.0804
 118  302.7831
 119  232.58
 120  316.4912
 121  327.9627
 122  388.0052
 123  409.3981
 124  432.2549
 125  312.5023
 126  395.4884
 127  305.9945
 128  289.6002
 129  410.5651
 130  388.4535
 131  286.987
 132  367.3342
 133  431.9246
 134  360.7612
 135  315.2953
 136  302.4238
 137  364.4482
 138  282.6991
 139  474.4641
 140  497.1933
 141  412.4975
 142  308.7112
 143  343.5675
 144  357.9456
 145  328.9424
 146  359.5735
 147  358.8303
 148  459.2559
 149  520.4348
 150  355.9512
 151  402.8727
 152  359.309
 153  432.2097
 154  391.9726
 155  373.2548
 156  495.4978
 157  464.6231
 158  370.703
 159  386.9188
 160  331.2873
 161  367.74
 162  387.6224
 163  332.6146
 164  223.2473
 165  230.8179
 166  223.987
 167  249.245
 168  311.2765
 169  349.1086
 170  353.8608
 171  343.249
 172  425.9403
 173  368.8547
 174  207.4881
 175  330.8309
 176  309.6744
 177  334.2371
 178  390.7693
 179  348.3193
 180  176.8939
 181  293.3829
 182  395.3345
 183  350.3286
 184  366.7943
 185  390.6306
 186  346.2239
 187  143.7141
 188  195.1911
 189  183.4401
 190  235.4758
 191  319.4384
 192  362.8757
 193  432.7473
 194  361.9177
 195  345.838
 196  316.2391
 197  329.9992
 198  365.01
 199  403.2353
 200  300.1913
 201  267.6279
 202  246.3062
 203  380.7619
 204  355.3679
 205  343.4474
 206  353.7641
 207  338.3626
 208  378.5356
 209  268.9715
 210  274.081
 211  288.3673
 212  197.7914
 213  287.6864
 214  340.7539
 215  436.8945
 216  357.8528
 217  280.2081
 218  471.8185
 219  296.8148
 220  328.6482
 221  416.7604
 222  530.1999
 223  314.8954
 224  382.3429
 225  466.0417
 226  428.1391
 227  303.1881
 228  355.2011
 229  319.3759
 230  391.4889
 231  408.644
 232  373.1803
 233  333.5745
 234  263.3319
 235  311.4376
 236  417.1539
 237  380.559
 238  341.1191
 239  370.2496
 240  431.1255
 241  512.6766
 242  498.0208
 243  410.3581
 244  266.3488
 245  287.4359
 246  376.0658
 247  351.8561
 248  361.5398
 249  405.4176
 250  453.6784
 251  396.1609
 252  350.972
 253  271.8942
 254  352.4567
 255  380.7007
 256  381.8416
 257  244.6397
 258  240.4274
 259  362.4169
 260  313.156
 261  245.2268
 262  200.2701
 263  267.3138
 264  345.5073
 265  418.3622
 266  469.9439
 267  509.4786
 268  453.3256
 269  434.2104
 270  385.7503
 271  479.6883
 272  257.8415
 273  306.1402
 274  349.9427
 275  320.4785
 276  360.3702
 277  372.0278
 278  314.7347
 279  196.244
 280  297.5709
 281  298.7765
 282  361.8007
 283  394.5218
 284  356.7958
 285  294.2806
 286  259.7022
 287  317.8131
 288  264.0143
 289  302.8681
 290  269.2918
 291  219.5666
 292  298.9878
 293  327.9594
 294  398.4716
 295  394.993
 296  296.9084
 297  324.3726
 298  301.2664
 299  329.8144
 300  456.4573
 301  467.8969
 302  440.5895
 303  273.9461
 304  315.589
 305  450.1549
 306  371.0387
 307  229.2038
 308  206.8868
 309  294.5776
 310  390.1721
 311  323.8063
 312  345.2612
 313  525.1838
 314  409.1102
 315  365.107
 316  402.7337
 317  405.8653
 318  417.6649
 319  418.1287
 320  412.5393
 321  416.5822
 322  411.8312
 323  458.9833
 324  492.178
 325  368.3479
 326  284.0251
 327  207.7524
 328  260.8686
 329  437.506
 330  438.2288
 331  312.3814
 332  219.603
 333  334.1049
 334  257.957
 335  363.5428
 336  399.5598
 337  377.9972
 338  203.7743
 339  73.56895
 340  179.0277
 341  284.0975
 342  334.8236
 343  367.3408
 344  410.8261
 345  436.9854
 346  328.4535
 347  341.8867
 348  430.7905
 349  414.4523
 350  318.6069
 351  221.0214
 352  312.5703
 353  425.5867
 354  428.7725
 355  405.088
 356  326.2809
 357  337.7414
 358  386.4364
 359  391.3387
 360  422.2211
 361  361.2972
 362  345.9284
 363  318.1697
 364  284.154
 365  364.7171
 366  303.211
 367  171.089
 368  211.7259
 369  277.4532
 370  420.2807
 371  392.3406
 372  410.6305
 373  341.1955
 374  344.3935
 375  378.4196
 376  286.8455
 377  342.8546
 378  326.4711
 379  296.5986
 380  165.373
 381  211.2261
 382  196.4865
 383  296.124
 384  343.3676
 385  332.0756
 386  335.0638
 387  303.674
 388  319.6918
 389  485.4823
 390  405.6648
 391  353.6791
 392  463.9594
 393  535.0793
 394  320.5574
 395  367.8799
 396  340.2127
 397  350.9858
 398  425.1517
 399  264.5782
 400  275.8256
 401  287.9981
 402  355.8587
 403  368.3503
 404  252.546
 405  308.9818
 406  516.5394
 407  368.9688
 408  330.4756
 409  468.7266
 410  368.6936
 411  319.5979
 412  370.7137
 413  299.3929
 414  397.525
 415  306.6223
 416  388.8922
 417  427.2443
 418  377.1135
 419  302.7146
 420  320.1092
 421  361.4156
 422  520.5364
 423  433.1194
 424  362.9686
 425  391.3633
 426  411.291
 427  437.6306
 428  419.4941
 429  474.727
 430  471.2335
 431  413.3103
 432  482.1167
 433  290.4707
 434  199.1561
 435  262.0963
 436  350.7722
 437  415.0175
 438  302.0657
 439  299.2843
 440  262.4519
 441  382.0954
 442  491.9798
 443  441.1226
 444  386.9012
 445  344.4442
 446  407.4987
 447  391.3329
 448  326.1721
 449  301.9911
 450  398.0956
 451  305.1421
 452  318.5392
 453  299.9845
 454  285.1734
 455  214.77
 456  252.6496
 457  284.5464
 458  368.8011
 459  371.7068
 460  350.5986
 461  270.0711
 462  305.7417
 463  319.2972
 464  453.5041
 465  369.1929
 466  421.5688
 467  613.5037
 468  422.1233
 469  326.6828
 470  466.168
 471  422.8304
 472  314.023
 473  283.7218
 474  277.7746
 475  217.0033
 476  292.1712
 477  449.8763
 478  368.8252
 479  390.3023
 480  287.8711
 481  299.4854
 482  319.6317
 483  275.8609
 484  282.5019
 485  383.8022
 486  371.0996
 487  246.7887
 488  251.4564
 489  396.7976
 490  287.9148
 491  349.1101
 492  428.2189
 493  420.0362
 494  345.1541
 495  302.7834
 496  305.6833
 497  285.5182
 498  316.7722
 499  346.8108
 500  406.6115
 501  422.9899
 502  406.6277
 503  262.0344
 504  378.9506
 505  450.4327
 506  420.5648
 507  402.7499
 508  319.5433
 509  499.1818
 510  689.0124
 511  816.4256
