# Input file       =  1188192762.121225_cleaned.dat
# Candidate        =  PSR_0332+5434
# Telescope        =  AR
# Epoch_topo       =  57996.230834736401
# Epoch_bary       =  N/A
# T_sample         =  0.002
# Data Folded      =  7340032
# Data Avg         =  0.00873852364418682
# Data StdDev      =  1.00003130278015 
# Profile Bins     =  512
# Profile Avg      =  125.264862893633 
# Profile StdDev   =  119.73678435368  
# Reduced chi-sqr  =  1.310
# Prob(Noise)      <  2.78e-06   (~4.5 sigma)
# P_topo (ms)      =  714.463751138021  +/- 0.000205
# P'_topo (s/s)    =  -0                +/- 1.08e-10
# P''_topo (s/s^2) =  0                 +/- 4.78e-14
# P_bary (ms)      =  N/A
# P'_bary (s/s)    =  N/A
# P''_bary (s/s^2) =  N/A
# P_orb (s)        =  N/A
# asin(i)/c (s)    =  N/A
# eccentricity     =  N/A
# w (rad)          =  N/A
# T_peri           =  N/A
######################################################
   0  528.5765
   1  496.4995
   2  502.0219
   3  299.509
   4  135.9731
   5  -28.06996
   6  -54.87972
   7  38.68392
   8  65.16074
   9  219.5704
  10  171.5395
  11  0.1486907
  12  -24.99399
  13  82.38026
  14  82.19099
  15  63.22942
  16  149.9296
  17  200.9719
  18  167.3379
  19  84.00485
  20  151.9022
  21  118.3594
  22  110.8332
  23  120.2129
  24  224.0277
  25  177.5406
  26  100.8929
  27  178.0985
  28  281.943
  29  152.0181
  30  43.10942
  31  224.2774
  32  288.7239
  33  200.7064
  34  112.0964
  35  246.1164
  36  186.6935
  37  84.44566
  38  107.1794
  39  248.5837
  40  282.509
  41  421.0681
  42  401.2843
  43  271.4396
  44  259.4284
  45  173.414
  46  180.879
  47  180.5907
  48  172.8434
  49  153.3575
  50  103.1981
  51  168.0831
  52  138.402
  53  79.69464
  54  112.0721
  55  193.7551
  56  258.096
  57  112.3108
  58  116.6213
  59  271.4384
  60  177.2996
  61  0.9584428
  62  -61.15881
  63  53.0817
  64  214.2825
  65  187.183
  66  41.58266
  67  28.54196
  68  125.636
  69  -20.66139
  70  -60.35065
  71  -35.52125
  72  96.37912
  73  17.54709
  74  121.1337
  75  98.74767
  76  110.7517
  77  40.8418
  78  70.8235
  79  70.39859
  80  -59.44814
  81  -28.44569
  82  93.78919
  83  66.44027
  84  78.16158
  85  124.6119
  86  -10.40241
  87  80.39241
  88  165.0405
  89  304.8172
  90  169.0514
  91  217.5816
  92  187.9057
  93  154.9147
  94  167.8374
  95  122.999
  96  187.3074
  97  229.8323
  98  192.5697
  99  109.6372
 100  201.8211
 101  210.859
 102  212.5884
 103  201.6112
 104  142.0644
 105  184.019
 106  255.6896
 107  289.5816
 108  287.9064
 109  202.2792
 110  255.9433
 111  361.2848
 112  295.3031
 113  177.8981
 114  103.4241
 115  119.2865
 116  117.8525
 117  246.0552
 118  188.0711
 119  172.2101
 120  211.3288
 121  231.9383
 122  296.7945
 123  121.7195
 124  151.819
 125  76.18221
 126  88.79256
 127  157.5489
 128  152.9582
 129  111.5019
 130  83.50368
 131  73.06841
 132  -58.47321
 133  120.4191
 134  118.1326
 135  74.07906
 136  181.5422
 137  174.3537
 138  81.3129
 139  123.876
 140  172.4243
 141  137.059
 142  117.0668
 143  153.1831
 144  152.6116
 145  52.41013
 146  167.9371
 147  81.20724
 148  89.48477
 149  180.7343
 150  194.8772
 151  106.0303
 152  -11.03333
 153  -14.25099
 154  43.47416
 155  162.1739
 156  128.6496
 157  179.4227
 158  148.2035
 159  -52.32745
 160  65.71906
 161  86.00078
 162  88.24239
 163  3.638262
 164  112.9899
 165  224.1246
 166  49.38924
 167  -30.98084
 168  228.6631
 169  255.1865
 170  215.6402
 171  111.7853
 172  238.5853
 173  174.827
 174  88.08748
 175  92.49682
 176  216.9423
 177  86.63057
 178  62.0011
 179  44.5617
 180  170.1219
 181  166.8619
 182  88.03235
 183  208.4971
 184  309.8799
 185  259.1808
 186  185.4555
 187  188.8699
 188  348.1516
 189  329.9803
 190  193.139
 191  133.8929
 192  259.2002
 193  144.8231
 194  179.103
 195  209.7166
 196  92.72501
 197  -4.027533
 198  203.3712
 199  264.9284
 200  117.5863
 201  133.847
 202  227.3389
 203  89.62373
 204  26.7837
 205  83.66322
 206  51.87848
 207  23.34013
 208  -107.6799
 209  9.756451
 210  64.37495
 211  19.36799
 212  23.54925
 213  -91.86235
 214  -69.1581
 215  56.62392
 216  69.58582
 217  85.91252
 218  49.17514
 219  -41.63106
 220  4.079939
 221  84.83221
 222  -2.83966
 223  96.29508
 224  99.93848
 225  154.6985
 226  47.21006
 227  91.04494
 228  218.5925
 229  141.2325
 230  102.6976
 231  150.7044
 232  184.3379
 233  194.562
 234  99.22852
 235  94.25739
 236  193
 237  48.52541
 238  118.3649
 239  147.7138
 240  42.08619
 241  16.00934
 242  66.36243
 243  83.0552
 244  86.25769
 245  -12.0877
 246  72.24639
 247  18.68093
 248  101.5175
 249  149.4974
 250  72.11201
 251  231.6966
 252  259.5689
 253  241.2467
 254  149.4485
 255  214.1688
 256  265.0605
 257  145.6874
 258  148.1713
 259  207.67
 260  377.9233
 261  281.6673
 262  222.0702
 263  216.409
 264  134.2441
 265  210.1126
 266  227.6133
 267  200.5534
 268  218.0085
 269  111.883
 270  83.51549
 271  90.59762
 272  221.5035
 273  245.4841
 274  130.7358
 275  34.51681
 276  119.3475
 277  -84.61197
 278  -32.43318
 279  6.921538
 280  39.77702
 281  69.95248
 282  52.6363
 283  2.511592
 284  2.253517
 285  -30.90036
 286  -45.47327
 287  41.04492
 288  -50.80545
 289  -37.99236
 290  34.3553
 291  -28.29848
 292  63.78016
 293  -46.09575
 294  -20.13375
 295  -44.6459
 296  -10.02712
 297  85.93413
 298  182.8338
 299  133.9801
 300  16.1498
 301  90.72229
 302  115.3666
 303  18.12519
 304  110.1808
 305  104.7951
 306  -9.982431
 307  -37.26283
 308  -13.67505
 309  147.1058
 310  4.058404
 311  84.09422
 312  55.28651
 313  188.0115
 314  145.4199
 315  89.3007
 316  22.71162
 317  -20.94651
 318  -5.163439
 319  -17.80884
 320  189.9961
 321  236.4193
 322  52.36905
 323  7.667119
 324  161.5354
 325  123.0151
 326  116.2546
 327  165.2323
 328  162.6137
 329  188.8789
 330  289.5378
 331  196.3166
 332  250.4703
 333  226.7747
 334  131.8295
 335  108.7806
 336  204.7571
 337  276.7154
 338  248.0022
 339  198.9556
 340  248.3764
 341  195.916
 342  58.56228
 343  -0.2996381
 344  76.65765
 345  136.5974
 346  195.5097
 347  217.4634
 348  167.637
 349  122.082
 350  146.5851
 351  7.667164
 352  -0.9796731
 353  62.3954
 354  121.0801
 355  -10.29537
 356  44.4945
 357  66.17655
 358  155.7566
 359  74.1517
 360  41.02429
 361  176.7765
 362  131.9234
 363  23.13893
 364  220.8994
 365  178.3916
 366  128.2089
 367  20.94346
 368  -14.87524
 369  49.27516
 370  91.07983
 371  62.78635
 372  126.1019
 373  11.82718
 374  63.17278
 375  55.47158
 376  14.22247
 377  183.0852
 378  35.27877
 379  -0.3811561
 380  -131.9865
 381  -9.677558
 382  97.09019
 383  136.9475
 384  28.77667
 385  14.49357
 386  269.0905
 387  235.5094
 388  179.8246
 389  55.52109
 390  18.30902
 391  104.1766
 392  210.0112
 393  244.0678
 394  213.1901
 395  198.2789
 396  235.7702
 397  138.9994
 398  6.349091
 399  129.9549
 400  0.8055043
 401  74.97648
 402  154.5653
 403  251.8344
 404  211.3642
 405  4.423012
 406  86.16982
 407  171.4585
 408  233.1918
 409  111.214
 410  75.97204
 411  96.63184
 412  90.85242
 413  96.8739
 414  87.93974
 415  89.10751
 416  184.8006
 417  23.17474
 418  25.04781
 419  126.3596
 420  108.9859
 421  99.25665
 422  10.30553
 423  -54.00108
 424  90.2841
 425  107.8822
 426  102.3963
 427  101.3459
 428  -7.114345
 429  -31.67098
 430  37.66236
 431  109.4269
 432  190.5816
 433  23.05194
 434  144.8802
 435  144.4312
 436  137.7603
 437  160.3703
 438  37.16291
 439  -68.92621
 440  39.84566
 441  43.64144
 442  15.78897
 443  -117.5882
 444  -9.94333
 445  78.10596
 446  127.4965
 447  76.17636
 448  27.00702
 449  -6.488384
 450  121.9003
 451  121.0045
 452  49.78885
 453  125.634
 454  83.64667
 455  161.5257
 456  162.3754
 457  134.2142
 458  152.2747
 459  46.54021
 460  9.818126
 461  258.8144
 462  260.5674
 463  157.3372
 464  104.144
 465  270.6596
 466  215.2483
 467  127.4509
 468  128.8709
 469  134.0496
 470  186.736
 471  225.6419
 472  64.48404
 473  228.9042
 474  169.6179
 475  69.54079
 476  189.8763
 477  288.7469
 478  196.7693
 479  184.6991
 480  206.4302
 481  236.0323
 482  269.5377
 483  136.4481
 484  98.74306
 485  215.1996
 486  287.4872
 487  195.5015
 488  188.8157
 489  210.7166
 490  48.16371
 491  88.95724
 492  97.75214
 493  24.38307
 494  60.42154
 495  271.0017
 496  301.4037
 497  249.255
 498  106.6847
 499  221.414
 500  166.7668
 501  106.7311
 502  91.10516
 503  103.1511
 504  204.9928
 505  205.6524
 506  186.8026
 507  179.1007
 508  156.9451
 509  229.3172
 510  381.0021
 511  568.9467
