# Input file       =  1188350229.11174_cleaned.dat
# Candidate        =  PSR_0332+5434
# Telescope        =  AR
# Epoch_topo       =  57998.053369348847
# Epoch_bary       =  N/A
# T_sample         =  0.002
# Data Folded      =  7340032
# Data Avg         =  0.00739831742203156
# Data StdDev      =  1.00001305292361 
# Profile Bins     =  512
# Profile Avg      =  106.074621329039 
# Profile StdDev   =  119.734599242944 
# Reduced chi-sqr  =  1.370
# Prob(Noise)      <  4.91e-08   (~5.3 sigma)
# P_topo (ms)      =  714.463534589857  +/- 0.000173
# P'_topo (s/s)    =  -0                +/- 9.15e-11
# P''_topo (s/s^2) =  0                 +/- 4.04e-14
# P_bary (ms)      =  N/A
# P'_bary (s/s)    =  N/A
# P''_bary (s/s^2) =  N/A
# P_orb (s)        =  N/A
# asin(i)/c (s)    =  N/A
# eccentricity     =  N/A
# w (rad)          =  N/A
# T_peri           =  N/A
######################################################
   0  673.8253
   1  748.9263
   2  489.7752
   3  180.4402
   4  150.7948
   5  97.63837
   6  66.52565
   7  112.5257
   8  115.6838
   9  83.3566
  10  126.2281
  11  112.9219
  12  107.5165
  13  146.2119
  14  201.1871
  15  164.5431
  16  73.95509
  17  25.22657
  18  44.78052
  19  68.68675
  20  -56.93778
  21  99.63091
  22  135.2023
  23  124.3949
  24  -41.62861
  25  109.112
  26  -29.79718
  27  -68.19375
  28  -94.70399
  29  161.9737
  30  232.8234
  31  67.55396
  32  60.28448
  33  -82.37089
  34  -61.53538
  35  18.40002
  36  100.854
  37  99.69946
  38  114.6767
  39  63.54602
  40  131.0744
  41  147.6803
  42  159.9111
  43  174.4922
  44  76.45625
  45  -26.43432
  46  32.85971
  47  115.0706
  48  59.04362
  49  176.4753
  50  226.9627
  51  151.357
  52  127.1963
  53  34.93657
  54  -40.84087
  55  -15.04782
  56  167.0023
  57  30.42195
  58  -21.30407
  59  -123.9071
  60  23.70729
  61  123.4728
  62  107.7019
  63  110.6244
  64  3.771976
  65  103.0346
  66  221.8007
  67  132.9406
  68  55.6884
  69  -41.47553
  70  59.81545
  71  -29.97192
  72  -116.1587
  73  -57.93002
  74  213.259
  75  145.7005
  76  59.01479
  77  50.43793
  78  100.3991
  79  135.5975
  80  144.6007
  81  228.3591
  82  75.89435
  83  -111.882
  84  -151.866
  85  -44.38134
  86  223.1351
  87  46.41289
  88  6.976146
  89  184.432
  90  160.417
  91  122.3756
  92  36.42794
  93  -96.11759
  94  -99.59431
  95  -80.90687
  96  177.5696
  97  144.1648
  98  94.31396
  99  65.0521
 100  43.59329
 101  48.20513
 102  -92.18475
 103  -31.19362
 104  95.36226
 105  170.9577
 106  90.11869
 107  59.67973
 108  240.3629
 109  230.5036
 110  162.4893
 111  94.96379
 112  105.7193
 113  134.7206
 114  76.78799
 115  -6.889543
 116  96.44003
 117  130.0245
 118  46.62951
 119  70.95375
 120  120.4042
 121  148.1817
 122  22.75038
 123  69.50669
 124  167.873
 125  214.4997
 126  36.62632
 127  31.56629
 128  91.22215
 129  152.032
 130  207.4487
 131  293.2684
 132  268.4073
 133  327.686
 134  271.8092
 135  188.3651
 136  92.29382
 137  112.0094
 138  130.2081
 139  135.6678
 140  233.7728
 141  209.3164
 142  -29.4772
 143  71.15294
 144  220.6007
 145  148.7481
 146  282.8953
 147  256.0728
 148  214.164
 149  128.9961
 150  222.3692
 151  150.1082
 152  120.4555
 153  43.1563
 154  45.89158
 155  35.87946
 156  64.19723
 157  220.5591
 158  212.054
 159  246.3188
 160  239.4055
 161  -63.88253
 162  75.18934
 163  160.3813
 164  251.9144
 165  235.6258
 166  167.7164
 167  19.15507
 168  173.6081
 169  139.8979
 170  232.3652
 171  133.0161
 172  110.5814
 173  155.6515
 174  137.275
 175  148.9634
 176  202.9809
 177  286.1176
 178  98.46113
 179  125.6759
 180  111.5733
 181  10.00609
 182  87.49088
 183  70.3486
 184  63.49301
 185  83.0751
 186  -3.142273
 187  -37.13231
 188  157.4222
 189  217.5207
 190  120.0184
 191  17.7935
 192  9.979352
 193  138.3248
 194  173.8103
 195  105.7135
 196  18.6885
 197  100.8558
 198  115.4404
 199  197.3438
 200  -61.83948
 201  12.68354
 202  198.201
 203  145.4474
 204  221.9219
 205  47.76125
 206  37.21767
 207  98.37572
 208  95.71555
 209  56.68203
 210  64.56732
 211  41.27287
 212  128.5621
 213  -89.06378
 214  53.89625
 215  79.03426
 216  157.1014
 217  124.8619
 218  3.157771
 219  101.1194
 220  25.22916
 221  85.86885
 222  190.2694
 223  144.6113
 224  108.1958
 225  112.8215
 226  68.26815
 227  64.20325
 228  111.4417
 229  82.08082
 230  103.1795
 231  -33.23294
 232  -86.85361
 233  35.43067
 234  -28.85118
 235  20.48668
 236  163.6786
 237  233.6541
 238  161.7842
 239  -41.15738
 240  116.5724
 241  134.5506
 242  150.3695
 243  58.07011
 244  14.35856
 245  56.22489
 246  -27.5526
 247  86.32321
 248  72.00549
 249  91.41492
 250  122.125
 251  143.5713
 252  45.64886
 253  94.69753
 254  140.3555
 255  93.1592
 256  -0.3052479
 257  57.38003
 258  21.40215
 259  -16.02398
 260  1.817342
 261  -69.82333
 262  -78.5286
 263  159.5191
 264  78.17933
 265  20.16113
 266  5.043282
 267  147.1403
 268  55.24766
 269  115.6206
 270  52.7775
 271  -121.3047
 272  -120.9371
 273  26.94238
 274  12.83962
 275  20.55719
 276  96.56874
 277  -0.7599256
 278  -51.25486
 279  115.2915
 280  76.56142
 281  87.65918
 282  51.52826
 283  20.53357
 284  58.83492
 285  141.4704
 286  120.0418
 287  222.7597
 288  181.181
 289  214.796
 290  151.1149
 291  -13.12196
 292  -124.9742
 293  -126.8206
 294  125.2896
 295  98.67949
 296  129.5737
 297  164.5631
 298  44.75076
 299  62.706
 300  55.96008
 301  171.2783
 302  88.82139
 303  109.9356
 304  110.1669
 305  116.6057
 306  55.01269
 307  12.59226
 308  -38.89069
 309  74.15151
 310  135.3976
 311  143.3146
 312  203.5339
 313  235.0975
 314  68.21934
 315  -1.861248
 316  169.8422
 317  298.5495
 318  264.4865
 319  111.6668
 320  117.1982
 321  188.0323
 322  178.0564
 323  167.5086
 324  210.5951
 325  198.5578
 326  199.9375
 327  111.5703
 328  215.0393
 329  104.8496
 330  113.527
 331  14.28084
 332  -23.1662
 333  106.1424
 334  122.5908
 335  154.6195
 336  40.00026
 337  135.4691
 338  52.44175
 339  85.27867
 340  142.5405
 341  88.12891
 342  99.5033
 343  97.60258
 344  64.44996
 345  134.1868
 346  260.8825
 347  118.4905
 348  156.8563
 349  200.3218
 350  188.4094
 351  253.529
 352  113.0599
 353  101.674
 354  -7.183056
 355  68.23227
 356  254.3
 357  210.6655
 358  219.6172
 359  144.5661
 360  218.5264
 361  270.0491
 362  174.2615
 363  18.19573
 364  174.8768
 365  101.0805
 366  152.7883
 367  215.8646
 368  148.2262
 369  159.5889
 370  35.11551
 371  2.957966
 372  107.8728
 373  153.5315
 374  161.884
 375  153.5324
 376  89.17371
 377  129.9188
 378  153.9108
 379  231.7921
 380  109.0466
 381  137.0616
 382  86.58826
 383  78.09818
 384  106.941
 385  175.8835
 386  153.1813
 387  82.97645
 388  148.0452
 389  149.2086
 390  61.32658
 391  227.0292
 392  215.3964
 393  84.11485
 394  51.51222
 395  101.5441
 396  129.8095
 397  102.8774
 398  95.70834
 399  209.6939
 400  219.9184
 401  176.1033
 402  129.093
 403  72.97343
 404  201.7499
 405  63.52689
 406  8.847433
 407  3.536195
 408  52.84072
 409  202.4568
 410  164.1203
 411  203.268
 412  222.4894
 413  96.43772
 414  69.98173
 415  83.1636
 416  191.3176
 417  71.26704
 418  95.1599
 419  13.27757
 420  -76.40585
 421  85.90982
 422  166.333
 423  155.4593
 424  152.7875
 425  163.988
 426  173.7277
 427  162.5285
 428  129.1827
 429  61.43723
 430  172.2944
 431  222.9673
 432  166.4743
 433  219.7289
 434  202.3288
 435  106.7129
 436  110.5234
 437  49.25761
 438  42.02276
 439  61.0951
 440  97.98521
 441  118.9096
 442  92.55055
 443  20.78472
 444  30.78788
 445  120.401
 446  48.77298
 447  81.34232
 448  153.7892
 449  142.0979
 450  82.22231
 451  27.8662
 452  103.3473
 453  6.113235
 454  59.14414
 455  130.0115
 456  95.77941
 457  48.44241
 458  -66.84846
 459  -65.53576
 460  45.52647
 461  142.4096
 462  228.2188
 463  300.9413
 464  220.4867
 465  142.5874
 466  139.9604
 467  138.4817
 468  48.85931
 469  67.99819
 470  194.7684
 471  213.7934
 472  136.7401
 473  49.66571
 474  45.86169
 475  -87.81983
 476  -118.1093
 477  -2.129991
 478  46.02335
 479  120.5047
 480  207.3594
 481  190.1563
 482  113.0508
 483  28.80284
 484  174.1747
 485  28.2908
 486  71.51149
 487  29.8605
 488  16.89194
 489  28.67691
 490  73.63004
 491  85.99918
 492  105.3049
 493  189.6897
 494  200.0224
 495  128.3636
 496  -24.66591
 497  65.07451
 498  33.49599
 499  67.0944
 500  3.280288
 501  90.99791
 502  191.9842
 503  209.2403
 504  124.4039
 505  26.99206
 506  157.3335
 507  167.4094
 508  161.0199
 509  431.0088
 510  622.1752
 511  660.1937
