# Input file       =  1188177843.110233_cleaned.dat
# Candidate        =  PSR_0332+5434
# Telescope        =  AR
# Epoch_topo       =  57996.058160998065
# Epoch_bary       =  N/A
# T_sample         =  0.002
# Data Folded      =  7340032
# Data Avg         =  0.0100000787483655
# Data StdDev      =  1.00001758920506 
# Profile Bins     =  512
# Profile Avg      =  143.38624723517  
# Profile StdDev   =  119.735142385695 
# Reduced chi-sqr  =  3.161
# Prob(Noise)      <  9.7e-115   (~22.7 sigma)
# P_topo (ms)      =  714.463408492312  +/- 0.00029
# P'_topo (s/s)    =  -0                +/- 1.53e-10
# P''_topo (s/s^2) =  0                 +/- 6.74e-14
# P_bary (ms)      =  N/A
# P'_bary (s/s)    =  N/A
# P''_bary (s/s^2) =  N/A
# P_orb (s)        =  N/A
# asin(i)/c (s)    =  N/A
# eccentricity     =  N/A
# w (rad)          =  N/A
# T_peri           =  N/A
######################################################
   0  676.0742
   1  859.2116
   2  691.5098
   3  375.9168
   4  301.9386
   5  239.0502
   6  300.7017
   7  194.0449
   8  185.579
   9  259.0882
  10  301.1322
  11  252.6618
  12  179.2924
  13  319.5162
  14  445.5478
  15  346.1339
  16  262.5104
  17  389.9741
  18  342.3052
  19  280.3457
  20  268.2459
  21  191.6352
  22  291.284
  23  88.39541
  24  182.7747
  25  160.8335
  26  70.63611
  27  138.8405
  28  23.4458
  29  184.2273
  30  337.4001
  31  271.1118
  32  204.3465
  33  259.7076
  34  189.4272
  35  369.6013
  36  344.0909
  37  211.5538
  38  262.519
  39  303.383
  40  289.437
  41  134.0636
  42  210.3038
  43  218.7236
  44  432.0796
  45  380.511
  46  373.0772
  47  357.1389
  48  150.0417
  49  279.0489
  50  203.4223
  51  204.0503
  52  338.9305
  53  321.0237
  54  457.4323
  55  447.9617
  56  321.7749
  57  327.1575
  58  248.3788
  59  179.3463
  60  394.508
  61  438.7361
  62  279.4813
  63  278.7436
  64  327.7646
  65  399.1955
  66  328.0245
  67  417.5163
  68  430.9073
  69  468.4648
  70  360.9214
  71  285.447
  72  348.604
  73  374.5745
  74  190.5752
  75  63.24125
  76  268.4732
  77  389.7286
  78  307.1315
  79  236.14
  80  210.4516
  81  262.7412
  82  386.5305
  83  330.1227
  84  272.8828
  85  260.1059
  86  221.1315
  87  395.4102
  88  322.6498
  89  371.1145
  90  393.0748
  91  451.9169
  92  464.6934
  93  323.9946
  94  224.9504
  95  437.3662
  96  520.9982
  97  340.2098
  98  244.6729
  99  283.6741
 100  339.8753
 101  369.6771
 102  364.8066
 103  269.5951
 104  310.3961
 105  398.7018
 106  375.1902
 107  423.8662
 108  365.1987
 109  232.5883
 110  261.0039
 111  320.7548
 112  325.9073
 113  178.1049
 114  96.87399
 115  224.1518
 116  243.6363
 117  334.0034
 118  335.8922
 119  248.0384
 120  291.1848
 121  262.0641
 122  236.7952
 123  317.0111
 124  281.1745
 125  142.7005
 126  319.3022
 127  196.8057
 128  150.4683
 129  210.2021
 130  124.4472
 131  98.48246
 132  154.1308
 133  177.9644
 134  231.3966
 135  237.9127
 136  190.1925
 137  307.7011
 138  114.8269
 139  131.1897
 140  309.2657
 141  214.8065
 142  170.2804
 143  187.0764
 144  292.2964
 145  281.0204
 146  141.9187
 147  161.0181
 148  142.6814
 149  157.8819
 150  359.321
 151  453.8072
 152  227.0739
 153  243.2581
 154  250.367
 155  250.5673
 156  166.9591
 157  82.78651
 158  163.9481
 159  154.6112
 160  119.3928
 161  145.6242
 162  200.5572
 163  154.6353
 164  135.6361
 165  250.4153
 166  317.6713
 167  115.9315
 168  258.4502
 169  259.8033
 170  235.9774
 171  226.4361
 172  43.7948
 173  60.89457
 174  2.297921
 175  -154.2282
 176  -73.28552
 177  -132.3934
 178  83.46689
 179  245.8175
 180  216.2821
 181  183.2471
 182  126.7606
 183  168.6474
 184  198.3884
 185  215.7251
 186  81.59074
 187  173.4954
 188  98.7502
 189  123.4754
 190  182.4553
 191  103.5011
 192  134.8748
 193  143.5445
 194  191.5244
 195  -27.70369
 196  -76.67612
 197  67.5671
 198  199.7959
 199  -68.87051
 200  -48.92916
 201  55.52501
 202  -0.4283215
 203  73.37145
 204  131.7213
 205  32.84686
 206  173.6662
 207  161.875
 208  45.19671
 209  -62.26131
 210  -131.5744
 211  -52.64415
 212  -0.8926268
 213  62.56701
 214  35.2556
 215  20.01451
 216  55.18801
 217  16.59771
 218  117.9498
 219  -86.47958
 220  -196.4084
 221  -64.991
 222  94.87035
 223  115.3955
 224  -55.09353
 225  -100.1922
 226  90.73737
 227  132.557
 228  3.485009
 229  -55.97957
 230  -111.3556
 231  -18.40097
 232  103.4895
 233  60.16057
 234  39.63836
 235  28.40825
 236  139.2949
 237  131.9551
 238  -79.84507
 239  -99.33071
 240  81.21896
 241  47.05848
 242  64.91471
 243  83.34127
 244  -83.5901
 245  -100.2222
 246  -64.58445
 247  -12.15019
 248  27.11628
 249  16.45142
 250  -33.52375
 251  -59.88421
 252  -111.8146
 253  -47.23234
 254  -90.52613
 255  11.31784
 256  -120.832
 257  3.312104
 258  -9.579301
 259  51.09098
 260  57.09431
 261  50.2676
 262  -17.79439
 263  -73.68083
 264  -78.55878
 265  2.667471
 266  -44.62261
 267  31.80561
 268  -68.19075
 269  -92.2522
 270  -46.90021
 271  -28.90891
 272  29.06117
 273  79.63579
 274  -87.23503
 275  -134.9543
 276  -73.16782
 277  -142.9547
 278  44.35539
 279  33.05405
 280  108.32
 281  31.30103
 282  73.10511
 283  22.88479
 284  163.8262
 285  158.7957
 286  93.95971
 287  65.52295
 288  72.2506
 289  17.9275
 290  72.32523
 291  35.35373
 292  173.5192
 293  238.5919
 294  218.0915
 295  86.96803
 296  72.80644
 297  145.9344
 298  154.334
 299  -11.43468
 300  -8.68921
 301  120.6809
 302  282.1814
 303  258.164
 304  303.4561
 305  139.3947
 306  228.2926
 307  215.185
 308  182.7255
 309  160.6863
 310  226.4794
 311  215.3892
 312  181.5915
 313  88.99334
 314  107.7424
 315  260.3264
 316  222.0541
 317  244.4445
 318  229.7688
 319  232.3578
 320  219.7201
 321  243.1684
 322  92.80297
 323  23.93219
 324  152.3668
 325  329.1572
 326  283.8596
 327  141.9984
 328  303.0622
 329  175.0316
 330  138.3451
 331  192.5807
 332  274.5564
 333  335.7469
 334  128.6086
 335  172.5077
 336  292.1731
 337  144.0954
 338  131.6415
 339  177.698
 340  240.0317
 341  135.9008
 342  107.7385
 343  164.262
 344  152.5581
 345  133.8978
 346  146.7203
 347  268.2067
 348  258.3012
 349  281.0954
 350  253.6387
 351  193.5448
 352  178.2914
 353  88.51643
 354  139.4767
 355  207.9251
 356  178.9658
 357  93.46664
 358  181.615
 359  120.311
 360  83.91795
 361  168.0136
 362  125.4987
 363  130.5207
 364  333.1747
 365  227.5983
 366  153.8315
 367  116.1111
 368  143.4697
 369  273.0634
 370  61.81634
 371  204.0376
 372  393.373
 373  276.3878
 374  -29.131
 375  34.3834
 376  56.50355
 377  34.60045
 378  87.51838
 379  114.2523
 380  137.5996
 381  6.06835
 382  18.80874
 383  119.9119
 384  83.80459
 385  106.6046
 386  197.2252
 387  133.3561
 388  21.4206
 389  51.77168
 390  65.11506
 391  189.5389
 392  178.4749
 393  163.9973
 394  62.34542
 395  -50.4131
 396  27.36264
 397  75.71687
 398  47.13726
 399  51.08849
 400  -19.47245
 401  -17.31385
 402  53.13184
 403  145.4852
 404  158.1097
 405  -36.61517
 406  -10.51669
 407  69.83382
 408  77.94941
 409  115.2117
 410  85.83576
 411  110.5955
 412  86.28299
 413  9.650375
 414  -74.43726
 415  -106.3269
 416  -130.5688
 417  18.63873
 418  -0.1497301
 419  -54.38065
 420  -51.94653
 421  34.31812
 422  -29.18912
 423  51.44058
 424  -7.851704
 425  78.80305
 426  58.48503
 427  67.53152
 428  -4.439878
 429  -85.1889
 430  -122.6314
 431  -120.2568
 432  68.98769
 433  95.64817
 434  93.61462
 435  97.41933
 436  56.84636
 437  132.4573
 438  147.7693
 439  55.07039
 440  -118.4042
 441  -41.59585
 442  10.65214
 443  -129.0121
 444  -19.5695
 445  1.807208
 446  -188.0093
 447  -167.947
 448  0.3787517
 449  36.85083
 450  27.54013
 451  166.1847
 452  19.37614
 453  24.73958
 454  -22.83858
 455  -144.7044
 456  56.68959
 457  41.08898
 458  -6.048182
 459  130.5782
 460  120.1549
 461  -1.186197
 462  -59.83269
 463  -52.68811
 464  50.20363
 465  73.11817
 466  127.3632
 467  131.1151
 468  -60.52737
 469  -168.9835
 470  -81.09251
 471  -121.852
 472  12.21985
 473  58.62061
 474  -67.14313
 475  -160.9774
 476  -165.0332
 477  -104.2002
 478  -59.89694
 479  -47.80315
 480  19.09449
 481  37.79442
 482  -130.0517
 483  -113.0747
 484  -9.508101
 485  -94.3311
 486  70.11872
 487  101.0513
 488  -99.76066
 489  -91.95615
 490  193.6238
 491  310.0761
 492  50.84126
 493  17.58874
 494  70.83614
 495  127.9959
 496  138.8006
 497  93.19913
 498  112.5589
 499  291.0549
 500  253.0696
 501  177.149
 502  208.9266
 503  189.4515
 504  251.7225
 505  246.6598
 506  459.8714
 507  432.1833
 508  248.9118
 509  353.1067
 510  549.6616
 511  588.1599
