# Input file       =  1188938671.110717_cleaned.dat
# Candidate        =  PSR_0332+5434
# Telescope        =  AR
# Epoch_topo       =  58004.864040633300
# Epoch_bary       =  N/A
# T_sample         =  0.002
# Data Folded      =  7208960
# Data Avg         =  0.00553137960487312
# Data StdDev      =  1.00013316108053 
# Profile Bins     =  512
# Profile Avg      =  77.8735748675977 
# Profile StdDev   =  118.674976577593 
# Reduced chi-sqr  =  1.346
# Prob(Noise)      <  2.67e-07   (~5.0 sigma)
# P_topo (ms)      =  714.46442374302   +/- 0.000126
# P'_topo (s/s)    =  -0                +/- 6.76e-11
# P''_topo (s/s^2) =  0                 +/- 3.04e-14
# P_bary (ms)      =  N/A
# P'_bary (s/s)    =  N/A
# P''_bary (s/s^2) =  N/A
# P_orb (s)        =  N/A
# asin(i)/c (s)    =  N/A
# eccentricity     =  N/A
# w (rad)          =  N/A
# T_peri           =  N/A
######################################################
   0  673.5309
   1  485.7331
   2  445.8497
   3  340.399
   4  83.50151
   5  69.4876
   6  114.7313
   7  6.296713
   8  151.2777
   9  90.89974
  10  90.12843
  11  111.9811
  12  284.029
  13  223.6154
  14  -10.82263
  15  130.5563
  16  208.4638
  17  166.0629
  18  179.3516
  19  226.0551
  20  114.934
  21  14.75212
  22  32.03051
  23  82.86611
  24  100.5106
  25  185.6537
  26  160.4537
  27  6.134709
  28  -68.81121
  29  -52.06051
  30  17.05699
  31  27.99695
  32  49.25451
  33  40.69732
  34  8.734862
  35  58.59733
  36  1.327061
  37  -107.5534
  38  -104.0765
  39  68.32371
  40  121.1578
  41  30.79509
  42  62.07582
  43  206.5139
  44  191.6732
  45  16.43625
  46  -42.39919
  47  -57.42718
  48  -3.022399
  49  146.2621
  50  119.7264
  51  175.1799
  52  113.4086
  53  29.43856
  54  12.80086
  55  122.0791
  56  159.905
  57  86.91496
  58  84.28126
  59  141.6283
  60  173.4997
  61  156.4199
  62  213.3399
  63  80.81436
  64  -19.89018
  65  15.55172
  66  64.62662
  67  155.3882
  68  81.46236
  69  100.7212
  70  -44.41314
  71  174.6278
  72  226.8924
  73  219.2071
  74  51.55594
  75  192.5503
  76  127.0112
  77  237.5811
  78  305.4589
  79  91.06238
  80  56.19136
  81  129.7647
  82  201.0246
  83  192.9194
  84  149.9956
  85  -0.8059224
  86  -21.97055
  87  8.382122
  88  15.39178
  89  68.08601
  90  96.36978
  91  180.0984
  92  24.76344
  93  141.1198
  94  65.90341
  95  -34.14669
  96  18.88274
  97  92.13018
  98  185.7752
  99  171.3373
 100  119.472
 101  92.19711
 102  141.8761
 103  168.2841
 104  72.56414
 105  -12.31338
 106  -59.01282
 107  -25.9649
 108  116.9469
 109  154.1976
 110  26.9495
 111  -11.97395
 112  -13.42058
 113  24.59061
 114  -6.021522
 115  -25.71339
 116  80.84261
 117  138.0913
 118  75.56726
 119  42.81692
 120  134.4182
 121  162.185
 122  -24.39125
 123  98.09998
 124  74.99178
 125  270.6447
 126  223.0646
 127  268.9979
 128  288.8239
 129  -4.918141
 130  105.7581
 131  174.8256
 132  126.3771
 133  159.9346
 134  76.10646
 135  219.3718
 136  114.2477
 137  55.96104
 138  57.36543
 139  114.4143
 140  160.6328
 141  142.1199
 142  -34.82884
 143  -78.98641
 144  -8.06073
 145  -100.732
 146  -85.60291
 147  131.217
 148  200.0139
 149  91.43489
 150  23.84248
 151  50.41342
 152  69.47029
 153  19.55212
 154  79.92669
 155  24.43205
 156  31.87959
 157  21.43738
 158  161.4678
 159  190.8653
 160  114.6158
 161  -44.63746
 162  39.73468
 163  103.2026
 164  102.9192
 165  79.37291
 166  191.5074
 167  72.40379
 168  78.46075
 169  56.70238
 170  -35.89638
 171  56.46757
 172  90.24658
 173  115.405
 174  126.8921
 175  157.854
 176  -29.98883
 177  -44.94098
 178  -38.32856
 179  43.70501
 180  -88.21236
 181  -84.4078
 182  37.9627
 183  111.9025
 184  2.286183
 185  119.4735
 186  91.27853
 187  17.13648
 188  -44.48304
 189  -79.87296
 190  -12.65619
 191  123.0494
 192  96.41922
 193  73.15134
 194  92.81301
 195  86.83554
 196  15.49228
 197  -26.30834
 198  -1.640715
 199  166.0725
 200  105.9557
 201  -21.23172
 202  11.62371
 203  0.1855729
 204  104.7463
 205  53.22832
 206  37.9466
 207  168.517
 208  217.634
 209  102.074
 210  -59.02686
 211  -140.2326
 212  4.462025
 213  50.68314
 214  72.48612
 215  -48.451
 216  -232.1709
 217  -154.7366
 218  -51.91799
 219  55.17222
 220  32.90175
 221  21.23764
 222  -27.74567
 223  -7.690554
 224  106.4327
 225  22.1076
 226  -54.51686
 227  85.67728
 228  123.0474
 229  -19.94935
 230  -19.00283
 231  -62.07974
 232  5.79807
 233  76.3801
 234  85.26193
 235  58.62728
 236  -48.85176
 237  -62.01232
 238  -33.14654
 239  -43.30465
 240  -124.8452
 241  203.6764
 242  60.94511
 243  -25.84018
 244  83.58018
 245  54.08256
 246  86.65013
 247  79.82871
 248  107.545
 249  135.0073
 250  189.5688
 251  171.8751
 252  -9.260606
 253  -138.408
 254  0.716024
 255  -34.27618
 256  128.0418
 257  240.2632
 258  78.75059
 259  16.71753
 260  79.82555
 261  0.7236171
 262  35.80577
 263  64.81573
 264  40.76932
 265  -10.98633
 266  -23.90162
 267  154.4858
 268  183.082
 269  81.98905
 270  -42.59196
 271  -52.59244
 272  170.4183
 273  165.9423
 274  141.305
 275  88.12975
 276  26.53468
 277  -17.26683
 278  21.26242
 279  -3.066683
 280  167.4444
 281  159.2081
 282  29.65031
 283  -48.60959
 284  26.78413
 285  2.155062
 286  45.38752
 287  160.0109
 288  119.3666
 289  136.8024
 290  95.04697
 291  11.92085
 292  -57.68425
 293  80.21969
 294  170.1956
 295  11.51955
 296  -47.43639
 297  141.2218
 298  123.7804
 299  -15.38271
 300  -38.94962
 301  16.49119
 302  85.74804
 303  125.7524
 304  138.6061
 305  54.66562
 306  -21.55026
 307  4.226398
 308  179.7486
 309  167.0062
 310  32.64352
 311  56.12293
 312  49.94689
 313  34.16257
 314  -81.55376
 315  41.94799
 316  46.78051
 317  73.49819
 318  114.567
 319  35.38989
 320  22.1981
 321  7.01977
 322  47.79898
 323  -1.497419
 324  76.58731
 325  13.1885
 326  70.42873
 327  146.961
 328  185.515
 329  82.89632
 330  92.19211
 331  104.8016
 332  159.0609
 333  211.0414
 334  -7.351007
 335  -46.83133
 336  62.46562
 337  -62.89823
 338  2.949663
 339  95.30293
 340  137.722
 341  70.62005
 342  96.57652
 343  76.16579
 344  174.0522
 345  209.226
 346  41.08363
 347  25.88861
 348  132.1082
 349  97.12897
 350  63.97268
 351  129.6774
 352  194.4619
 353  204.4063
 354  165.1976
 355  88.59628
 356  109.0381
 357  158.6306
 358  123.9248
 359  94.87392
 360  54.76414
 361  109.6221
 362  81.73853
 363  127.0286
 364  151.8082
 365  37.99001
 366  -52.71103
 367  40.11271
 368  164.7256
 369  183.2045
 370  128.4554
 371  87.25793
 372  116.1226
 373  132.8822
 374  164.1029
 375  111.263
 376  122.6338
 377  165.6367
 378  50.23163
 379  178.3198
 380  138.5537
 381  130.6839
 382  75.67351
 383  81.40536
 384  54.21001
 385  122.911
 386  81.08042
 387  -20.77369
 388  125.2945
 389  190.3632
 390  172.1944
 391  25.96187
 392  -103.8526
 393  8.630433
 394  101.0577
 395  116.9456
 396  203.7344
 397  134.3635
 398  115.4716
 399  45.13113
 400  174.0379
 401  90.18046
 402  -44.59001
 403  152.2326
 404  219.8047
 405  60.89509
 406  -39.3593
 407  -20.69278
 408  156.8437
 409  236.8077
 410  159.6192
 411  127.0387
 412  205.016
 413  61.04103
 414  50.40455
 415  110.0891
 416  93.93636
 417  -80.79749
 418  -33.79113
 419  22.90036
 420  60.55579
 421  81.66172
 422  115.6314
 423  77.57345
 424  184.7471
 425  112.1918
 426  -38.38375
 427  -76.24937
 428  -25.93126
 429  60.09104
 430  81.45446
 431  19.67641
 432  -10.18052
 433  4.323856
 434  -0.1255427
 435  57.95051
 436  78.44033
 437  -35.27957
 438  -72.90472
 439  119.8927
 440  97.12122
 441  166.9301
 442  18.37474
 443  26.69869
 444  -78.60089
 445  -33.92073
 446  -41.41504
 447  131.4095
 448  211.793
 449  46.01038
 450  -56.56375
 451  71.40919
 452  125.319
 453  186.0483
 454  165.2881
 455  79.16286
 456  15.69711
 457  -84.82211
 458  -13.03036
 459  -55.8625
 460  130.5607
 461  133.8866
 462  68.63478
 463  27.5498
 464  28.52111
 465  82.70371
 466  -64.73015
 467  52.55531
 468  115.2991
 469  36.77346
 470  -10.97873
 471  -35.41082
 472  69.1106
 473  126.8363
 474  182.893
 475  165.5671
 476  69.43115
 477  63.75688
 478  3.363878
 479  8.782839
 480  -24.14616
 481  -143.2112
 482  12.39913
 483  126.4381
 484  65.11601
 485  -21.07117
 486  22.95677
 487  17.43652
 488  66.94962
 489  137.5534
 490  58.69018
 491  19.70142
 492  96.86411
 493  124.6951
 494  85.13362
 495  4.363603
 496  29.90651
 497  47.95412
 498  75.4779
 499  115.8383
 500  205.454
 501  121.0275
 502  97.33465
 503  232.3138
 504  198.7188
 505  411.4607
 506  255.3505
 507  323.853
 508  402.6322
 509  297.0419
 510  522.5704
 511  605.0793
