# Input file       =  1188436404.113469_cleaned.dat
# Candidate        =  PSR_0332+5434
# Telescope        =  AR
# Epoch_topo       =  57999.050765202184
# Epoch_bary       =  N/A
# T_sample         =  0.002
# Data Folded      =  7340032
# Data Avg         =  0.00833958614784623
# Data StdDev      =  1.0000177789811  
# Profile Bins     =  512
# Profile Avg      =  119.542469514898 
# Profile StdDev   =  119.735165108157 
# Reduced chi-sqr  =  1.187
# Prob(Noise)      <  0.00222   (~2.8 sigma)
# P_topo (ms)      =  714.463621262004  +/- 0.000142
# P'_topo (s/s)    =  -0                +/- 7.51e-11
# P''_topo (s/s^2) =  0                 +/- 3.31e-14
# P_bary (ms)      =  N/A
# P'_bary (s/s)    =  N/A
# P''_bary (s/s^2) =  N/A
# P_orb (s)        =  N/A
# asin(i)/c (s)    =  N/A
# eccentricity     =  N/A
# w (rad)          =  N/A
# T_peri           =  N/A
######################################################
   0  628.786
   1  709.1121
   2  548.0493
   3  266.2977
   4  196.168
   5  183.4377
   6  156.3523
   7  123.8736
   8  -11.09763
   9  60.62823
  10  87.21758
  11  3.853337
  12  114.3572
  13  235.4696
  14  262.48
  15  241.6474
  16  159.4828
  17  94.54395
  18  193.4339
  19  157.2753
  20  246.5096
  21  246.5506
  22  157.4044
  23  145.0992
  24  125.8014
  25  92.48524
  26  257.6024
  27  177.5703
  28  52.80095
  29  45.17408
  30  -83.57471
  31  -1.978704
  32  19.32353
  33  155.1148
  34  223.1823
  35  21.71579
  36  47.53598
  37  85.67632
  38  156.3358
  39  205.3463
  40  249.3214
  41  109.2313
  42  126.7041
  43  220.527
  44  241.1955
  45  99.6226
  46  50.39986
  47  37.87218
  48  89.42274
  49  260.3599
  50  371.5057
  51  298.9638
  52  173.9212
  53  100.8094
  54  9.799181
  55  117.9579
  56  149.8177
  57  209.5761
  58  243.439
  59  153.5065
  60  187.4548
  61  290.5648
  62  383.6614
  63  329.0381
  64  128.2827
  65  20.60266
  66  -19.72855
  67  113.936
  68  134.1254
  69  182.0165
  70  127.8854
  71  65.23222
  72  130.2105
  73  27.92048
  74  42.33851
  75  174.397
  76  171.3552
  77  17.16011
  78  113.0448
  79  123.0537
  80  12.78996
  81  139.1278
  82  22.89108
  83  114.6639
  84  267.2935
  85  190.7915
  86  -11.8449
  87  -1.103108
  88  87.70061
  89  43.93354
  90  87.16355
  91  19.13452
  92  113.7762
  93  108.896
  94  27.77875
  95  -53.73845
  96  40.50568
  97  169.3349
  98  95.8375
  99  -89.54914
 100  -11.43819
 101  57.90905
 102  121.843
 103  77.42184
 104  110.6462
 105  203.4285
 106  26.84898
 107  64.35727
 108  69.60737
 109  100.9179
 110  181.0376
 111  125.9167
 112  55.39944
 113  -50.18732
 114  52.69076
 115  138.3833
 116  45.35842
 117  67.88657
 118  195.3842
 119  134.1806
 120  18.66185
 121  25.44847
 122  151.9382
 123  218.2275
 124  194.7163
 125  124.6199
 126  104.8801
 127  58.35868
 128  85.34023
 129  190.0719
 130  5.057863
 131  17.53379
 132  175.6183
 133  166.3933
 134  146.1557
 135  241.2785
 136  271.4799
 137  184.4124
 138  116.0291
 139  104.2318
 140  133.5863
 141  158.9026
 142  73.44374
 143  81.89938
 144  -87.85061
 145  16.1456
 146  25.15761
 147  -19.6608
 148  -17.05492
 149  95.36849
 150  131.3185
 151  140.5268
 152  117.0298
 153  116.4948
 154  48.43167
 155  92.5259
 156  157.4832
 157  246.0293
 158  310.2835
 159  121.5361
 160  84.00519
 161  88.78774
 162  198.2014
 163  261.6791
 164  210.1104
 165  164.9307
 166  149.7813
 167  -64.9409
 168  52.85163
 169  82.38636
 170  -0.7245651
 171  -37.57014
 172  122.0016
 173  136.442
 174  69.77606
 175  110.4629
 176  269.0055
 177  177.3605
 178  60.81909
 179  70.59798
 180  148.4775
 181  160.0261
 182  57.71852
 183  -17.0535
 184  62.18014
 185  89.98568
 186  214.6807
 187  224.8457
 188  68.45412
 189  75.99345
 190  224.3334
 191  159.1237
 192  244.7933
 193  284.8255
 194  71.67106
 195  -36.98577
 196  148.3941
 197  208.1657
 198  122.7847
 199  123.6327
 200  173.9672
 201  56.40434
 202  47.87593
 203  193.4173
 204  260.9271
 205  183.2329
 206  92.88913
 207  65.65656
 208  101.223
 209  144.2496
 210  30.71812
 211  44.35193
 212  95.71626
 213  110.324
 214  96.72588
 215  69.45972
 216  27.79324
 217  53.07232
 218  8.16164
 219  109.8342
 220  70.23788
 221  27.60283
 222  59.97532
 223  147.0439
 224  110.5469
 225  278.1961
 226  272.6679
 227  71.64394
 228  -6.9219
 229  262.0928
 230  299.1309
 231  149.711
 232  150.8032
 233  164.1467
 234  58.16226
 235  129.4125
 236  57.84364
 237  139.2415
 238  217.437
 239  199.3165
 240  169.4361
 241  46.79453
 242  50.18605
 243  126.4953
 244  106.9081
 245  103.5093
 246  219.2508
 247  239.5826
 248  111.0978
 249  139.6711
 250  110.0124
 251  -35.55479
 252  18.66936
 253  106.1932
 254  30.46634
 255  75.17758
 256  65.74312
 257  95.10853
 258  115.625
 259  113.7106
 260  88.39487
 261  -41.34609
 262  0.1887138
 263  118.2702
 264  190.6448
 265  267.6599
 266  60.5342
 267  53.72011
 268  96.05373
 269  165.3023
 270  124.1785
 271  98.3485
 272  61.41943
 273  73.37632
 274  63.10922
 275  49.87556
 276  51.44057
 277  75.65538
 278  -22.48879
 279  -22.91792
 280  99.08946
 281  155.7783
 282  216.6329
 283  86.28271
 284  50.53211
 285  37.0188
 286  152.3201
 287  7.633447
 288  -8.653322
 289  -7.431068
 290  86.51617
 291  11.75235
 292  64.62905
 293  169.2343
 294  174.6878
 295  26.7102
 296  -115.9815
 297  23.57264
 298  165.6463
 299  121.2602
 300  86.62971
 301  137.4821
 302  147.2141
 303  101.4327
 304  37.45447
 305  83.13959
 306  95.34339
 307  114.9441
 308  218.9104
 309  131.2516
 310  107.4017
 311  21.39983
 312  -1.831484
 313  188.9162
 314  165.0695
 315  35.49218
 316  59.87938
 317  30.64476
 318  17.4437
 319  51.32835
 320  268.7555
 321  214.2562
 322  173.8806
 323  231.1583
 324  142.6167
 325  140.8213
 326  -21.0771
 327  106.1256
 328  20.26187
 329  85.43504
 330  147.1272
 331  119.0272
 332  30.79095
 333  61.68465
 334  99.31248
 335  -23.7443
 336  20.10167
 337  64.63544
 338  193.6414
 339  43.1413
 340  -54.21935
 341  17.501
 342  62.76491
 343  104.0066
 344  86.85178
 345  199.9641
 346  179.524
 347  166.0919
 348  59.65771
 349  57.99767
 350  83.56209
 351  26.46016
 352  23.54556
 353  93.33961
 354  242.1422
 355  142.6841
 356  123.5768
 357  121.6582
 358  162.2034
 359  127.9835
 360  113.6499
 361  219.0421
 362  180.8511
 363  109.6858
 364  68.57318
 365  101.4542
 366  69.7201
 367  67.96711
 368  125.4492
 369  129.8552
 370  185.1287
 371  252.8651
 372  191.6631
 373  163.5792
 374  206.3408
 375  277.9183
 376  84.75414
 377  -8.803446
 378  37.42171
 379  237.4671
 380  220.3693
 381  139.4717
 382  16.58494
 383  178.5549
 384  277.332
 385  203.6965
 386  269.9908
 387  209.8695
 388  196.0269
 389  17.19693
 390  116.2111
 391  165.0174
 392  166.9715
 393  190.6374
 394  192.068
 395  138.8856
 396  304.187
 397  350.2812
 398  259.1933
 399  238.6204
 400  210.8991
 401  214.6448
 402  121.0031
 403  28.06834
 404  97.49037
 405  153.2574
 406  102.051
 407  201.85
 408  125.8462
 409  -53.47498
 410  99.34005
 411  128.4667
 412  175.4109
 413  289.4555
 414  196.3645
 415  77.15636
 416  32.72293
 417  182.5369
 418  97.92912
 419  95.47568
 420  145.4299
 421  24.40858
 422  -13.31628
 423  158.6777
 424  165.9124
 425  89.98019
 426  5.912943
 427  104.3817
 428  137.6347
 429  59.80573
 430  91.68333
 431  158.448
 432  120.1393
 433  47.94183
 434  34.98437
 435  166.5111
 436  124.052
 437  137.5664
 438  184.8299
 439  163.776
 440  160.4926
 441  72.27849
 442  160.7818
 443  220.6619
 444  124.3106
 445  148.9012
 446  165.8608
 447  -23.03943
 448  142.925
 449  41.96753
 450  23.11116
 451  88.30385
 452  222.7342
 453  361.0869
 454  226.534
 455  116.7029
 456  125.9577
 457  64.724
 458  79.54234
 459  6.984859
 460  85.12452
 461  166.4518
 462  136.899
 463  102.1028
 464  91.16033
 465  92.34198
 466  164.1134
 467  181.3259
 468  38.54105
 469  70.38208
 470  183.0948
 471  69.4521
 472  121.2451
 473  115.7411
 474  2.499861
 475  29.81486
 476  32.09449
 477  176.1322
 478  151.3736
 479  103.141
 480  124.4292
 481  -27.01786
 482  -33.30822
 483  74.49727
 484  68.57444
 485  144.1125
 486  136.044
 487  133.6193
 488  57.24651
 489  -10.81345
 490  29.05804
 491  -2.042624
 492  112.2438
 493  170.1004
 494  132.7964
 495  -38.40641
 496  89.45757
 497  216.8861
 498  159.2574
 499  135.7175
 500  36.85664
 501  113.0337
 502  135.6956
 503  104.1163
 504  14.49321
 505  -75.49398
 506  165.2044
 507  273.1709
 508  297.4097
 509  369.6447
 510  381.8377
 511  466.0625
