# Input file       =  1188421806.120907_cleaned.dat
# Candidate        =  PSR_0332+5434
# Telescope        =  AR
# Epoch_topo       =  57998.881806954945
# Epoch_bary       =  N/A
# T_sample         =  0.002
# Data Folded      =  7143424
# Data Avg         =  0.0132440030759907
# Data StdDev      =  1.00007613929866 
# Profile Bins     =  512
# Profile Avg      =  184.843063269398 
# Profile StdDev   =  118.127577948048 
# Reduced chi-sqr  =  1.350
# Prob(Noise)      <  1.94e-07   (~5.1 sigma)
# P_topo (ms)      =  714.463591131327  +/- 0.000167
# P'_topo (s/s)    =  -0                +/- 9.06e-11
# P''_topo (s/s^2) =  0                 +/- 4.11e-14
# P_bary (ms)      =  N/A
# P'_bary (s/s)    =  N/A
# P''_bary (s/s^2) =  N/A
# P_orb (s)        =  N/A
# asin(i)/c (s)    =  N/A
# eccentricity     =  N/A
# w (rad)          =  N/A
# T_peri           =  N/A
######################################################
   0  763.4589
   1  650.1259
   2  625.0107
   3  459.506
   4  235.5544
   5  178.7419
   6  92.39601
   7  52.46416
   8  -0.5764846
   9  128.0356
  10  274.9353
  11  294.2328
  12  351.0053
  13  361.9611
  14  385.4539
  15  347.4651
  16  397.9608
  17  309.7934
  18  214.8073
  19  123.5646
  20  172.6619
  21  116.6053
  22  127.4928
  23  184.7553
  24  202.0061
  25  178.786
  26  168.3165
  27  160.1524
  28  183.1155
  29  101.0613
  30  37.66599
  31  172.1706
  32  233.8593
  33  96.26588
  34  160.7674
  35  252.0549
  36  340.0994
  37  362.2457
  38  389.162
  39  154.7008
  40  324.6193
  41  270.3463
  42  211.5658
  43  187.572
  44  74.61131
  45  171.8353
  46  133.985
  47  163.198
  48  159.9939
  49  90.4147
  50  207.0633
  51  301.4263
  52  335.4813
  53  214.4023
  54  195.4441
  55  174.181
  56  131.246
  57  170.4516
  58  236.0247
  59  242.6151
  60  155.8332
  61  311.7191
  62  266.6486
  63  235.4716
  64  307.0124
  65  379.0915
  66  270.5735
  67  46.80256
  68  124.5305
  69  96.48944
  70  132.033
  71  284.0523
  72  312.7058
  73  56.26554
  74  268.9969
  75  300.9944
  76  363.8579
  77  262.6188
  78  272.8856
  79  279.3633
  80  115.4638
  81  139.0545
  82  215.4911
  83  331.9924
  84  263.969
  85  112.6497
  86  121.9837
  87  233.2227
  88  312.9864
  89  373.8716
  90  146.0127
  91  82.65536
  92  91.83869
  93  137.1445
  94  184.667
  95  92.46035
  96  83.94128
  97  141.7891
  98  251.5907
  99  420.9829
 100  186.1636
 101  84.44102
 102  121.3384
 103  145.2054
 104  147.3401
 105  178.6527
 106  77.76189
 107  77.701
 108  193.7922
 109  294.7502
 110  202.5298
 111  141.58
 112  135.8878
 113  195.8137
 114  144.9125
 115  140.0446
 116  125.2027
 117  141.2302
 118  188.7917
 119  236.0001
 120  280.1049
 121  123.1954
 122  118.2661
 123  173.5163
 124  110.6914
 125  175.6036
 126  173.1345
 127  56.26314
 128  69.56278
 129  278.8499
 130  187.6434
 131  146.0448
 132  169.7495
 133  190.5269
 134  212.6235
 135  238.4703
 136  232.0307
 137  63.16455
 138  109.9841
 139  152.1884
 140  126.7226
 141  82.10734
 142  68.02901
 143  118.3338
 144  224.4994
 145  293.5539
 146  269.0574
 147  8.412208
 148  59.44069
 149  -104.7511
 150  -11.8765
 151  91.98708
 152  243.0282
 153  187.1579
 154  229.9838
 155  115.868
 156  141.8871
 157  273.9566
 158  168.3774
 159  111.3957
 160  86.41804
 161  129.4132
 162  133.3598
 163  -80.37875
 164  9.605591
 165  178.7296
 166  52.25422
 167  16.97054
 168  106.9198
 169  228.3381
 170  297.1564
 171  210.5181
 172  200.6806
 173  -27.27051
 174  94.65926
 175  216.5034
 176  355.6128
 177  186.6412
 178  170.7001
 179  235.0553
 180  125.4463
 181  -27.07026
 182  -5.774425
 183  206.6559
 184  216.6399
 185  245.2166
 186  140.1965
 187  24.52589
 188  57.00821
 189  253.3354
 190  316.1726
 191  147.7343
 192  59.55462
 193  284.7617
 194  259.8109
 195  92.02666
 196  130.4193
 197  101.3573
 198  136.5836
 199  237.7852
 200  290.5963
 201  239.0004
 202  242.3841
 203  182.8009
 204  111.2083
 205  108.1215
 206  71.29117
 207  130.8115
 208  288.2851
 209  123.5451
 210  210.5544
 211  278.5507
 212  190.0662
 213  82.0724
 214  35.95467
 215  121.8813
 216  223.4649
 217  118.7624
 218  14.02973
 219  93.68339
 220  238.818
 221  235.7604
 222  147.6207
 223  204.5494
 224  335.0982
 225  220.2942
 226  145.1775
 227  268.0002
 228  151.556
 229  198.0855
 230  35.9783
 231  82.91877
 232  184.5132
 233  204.8995
 234  323.0504
 235  310.1564
 236  267.4
 237  152.3684
 238  23.36876
 239  145.4022
 240  68.43076
 241  62.39305
 242  144.6534
 243  252.0826
 244  255.0105
 245  80.8766
 246  83.35389
 247  127.8611
 248  39.8372
 249  59.07473
 250  70.94384
 251  262.473
 252  241.7063
 253  251.6703
 254  147.8745
 255  132.7153
 256  138.5965
 257  244.0495
 258  364.1674
 259  244.568
 260  310.5159
 261  295.9749
 262  190.704
 263  203.2596
 264  181.1665
 265  137.6035
 266  204.335
 267  316.5567
 268  242.9494
 269  196.0116
 270  284.1249
 271  267.7632
 272  197.9373
 273  125.4228
 274  148.6401
 275  197.0626
 276  223.767
 277  308.6161
 278  288.0499
 279  316.9259
 280  228.614
 281  72.90668
 282  85.08054
 283  193.5506
 284  189.1094
 285  315.0162
 286  276.4197
 287  118.1652
 288  123.1558
 289  223.1302
 290  206.9364
 291  206.8046
 292  169.4906
 293  194.3492
 294  118.9385
 295  178.2852
 296  140.7713
 297  8.968302
 298  117.5232
 299  194.3211
 300  174.6378
 301  108.8569
 302  272.0072
 303  214.4409
 304  180.9162
 305  282.7242
 306  199.4819
 307  211.3348
 308  246.1553
 309  330.8281
 310  208.0529
 311  208.8171
 312  32.21299
 313  100.3439
 314  132.8193
 315  182.1208
 316  211.079
 317  148.7282
 318  111.5474
 319  113.7707
 320  134.2907
 321  77.06633
 322  241.3415
 323  187.1023
 324  167.5399
 325  244.1361
 326  203.459
 327  232.9431
 328  226.5103
 329  63.32014
 330  93.13643
 331  112.071
 332  139.5366
 333  255.0011
 334  229.5219
 335  221.3471
 336  136.501
 337  200.4673
 338  164.7197
 339  31.97948
 340  14.96763
 341  207.7773
 342  150.5361
 343  92.96477
 344  79.79414
 345  132.8293
 346  176.6745
 347  14.96109
 348  30.85134
 349  -3.289648
 350  56.28056
 351  124.0994
 352  157.2424
 353  274.1217
 354  114.1012
 355  57.12052
 356  117.2223
 357  183.2225
 358  114.8142
 359  175.4531
 360  209.4896
 361  130.0533
 362  123.8085
 363  158.1675
 364  221.3488
 365  147.7396
 366  62.99425
 367  164.4542
 368  249.6711
 369  187.3128
 370  168.6076
 371  214.0748
 372  174.5499
 373  163.2578
 374  124.0594
 375  53.07386
 376  109.4479
 377  289.3308
 378  387.0389
 379  163.3173
 380  50.43831
 381  139.4037
 382  163.5519
 383  108.3143
 384  259.7299
 385  225.8073
 386  160.3858
 387  227.18
 388  329.5224
 389  328.2335
 390  210.7081
 391  168.2339
 392  140.677
 393  155.1886
 394  162.3654
 395  255.4389
 396  92.77511
 397  105.2074
 398  34.56334
 399  172.804
 400  231.6114
 401  291.4742
 402  253.993
 403  144.2799
 404  244.5166
 405  173.3912
 406  129.8408
 407  130.7985
 408  60.45552
 409  94.16218
 410  194.8252
 411  234.6253
 412  264.9659
 413  106.2772
 414  146.9697
 415  306.2901
 416  229.1568
 417  167.5323
 418  136.8849
 419  104.7159
 420  167.0295
 421  150.6073
 422  285.4729
 423  262.8309
 424  180.8249
 425  159.691
 426  211.2395
 427  97.44341
 428  193.5463
 429  279.9191
 430  185.0351
 431  191.7923
 432  154.0842
 433  195.9793
 434  246.3199
 435  88.29991
 436  133.9129
 437  99.12599
 438  64.72903
 439  165.7419
 440  203.313
 441  183.6783
 442  207.8535
 443  257.617
 444  247.0081
 445  292.1011
 446  287.1701
 447  81.92348
 448  215.3729
 449  219.9135
 450  190.5355
 451  13.38896
 452  -11.79891
 453  158.0848
 454  116.3098
 455  226.6207
 456  186.3232
 457  250.6615
 458  193.8599
 459  107.6765
 460  129.7017
 461  141.4304
 462  81.14391
 463  217.3629
 464  158.7624
 465  134.4889
 466  171.1484
 467  253.1355
 468  177.5857
 469  105.9362
 470  268.3883
 471  294.1495
 472  254.7175
 473  257.3946
 474  315.1927
 475  245.7444
 476  192.6038
 477  218.3107
 478  169.8332
 479  126.6937
 480  106.4399
 481  186.6839
 482  375.8497
 483  246.5707
 484  159.3955
 485  257.5427
 486  260.6305
 487  208.4894
 488  231.8444
 489  230.6699
 490  155.8373
 491  192.4056
 492  222.5303
 493  293.8571
 494  182.3454
 495  142.144
 496  113.5313
 497  102.4812
 498  90.6095
 499  164.1751
 500  212.5203
 501  141.6467
 502  151.0522
 503  271.808
 504  217.8359
 505  194.5507
 506  272.4566
 507  230.3216
 508  387.2961
 509  437.3932
 510  598.7254
 511  757.77
