# Input file       =  1188077051.109435_cleaned.dat
# Candidate        =  PSR_0332+5434
# Telescope        =  AR
# Epoch_topo       =  57994.891586914760
# Epoch_bary       =  N/A
# T_sample         =  0.002
# Data Folded      =  7208960
# Data Avg         =  0.0135782784152003
# Data StdDev      =  1.00003428995064 
# Profile Bins     =  512
# Profile Avg      =  191.177952487201 
# Profile StdDev   =  118.663244610812 
# Reduced chi-sqr  =  1.190
# Prob(Noise)      <  0.00195   (~2.9 sigma)
# P_topo (ms)      =  714.463353306168  +/- 0.000196
# P'_topo (s/s)    =  -0                +/- 1.05e-10
# P''_topo (s/s^2) =  0                 +/- 4.73e-14
# P_bary (ms)      =  N/A
# P'_bary (s/s)    =  N/A
# P''_bary (s/s^2) =  N/A
# P_orb (s)        =  N/A
# asin(i)/c (s)    =  N/A
# eccentricity     =  N/A
# w (rad)          =  N/A
# T_peri           =  N/A
######################################################
   0  671.9811
   1  666.5179
   2  569.0124
   3  524.9893
   4  243.4625
   5  80.47826
   6  176.2287
   7  160.3432
   8  11.16806
   9  261.6835
  10  191.1541
  11  194.544
  12  213.6756
  13  135.2546
  14  302.9384
  15  281.6959
  16  218.4845
  17  225.8078
  18  236.2815
  19  258.6798
  20  47.00752
  21  16.77066
  22  3.977314
  23  141.3519
  24  171.1764
  25  244.4478
  26  173.414
  27  253.4732
  28  353.663
  29  286.6111
  30  203.2197
  31  264.3818
  32  138.843
  33  200.7413
  34  232.6082
  35  189.0499
  36  238.0057
  37  127.9177
  38  58.99564
  39  145.1759
  40  119.2967
  41  142.824
  42  79.61277
  43  138.0296
  44  276.7526
  45  279.9474
  46  319.201
  47  338.8763
  48  105.0628
  49  129.2563
  50  180.2932
  51  315.5176
  52  170.7924
  53  157.323
  54  148.7498
  55  242.8839
  56  110.4582
  57  83.47533
  58  148.9811
  59  121.8541
  60  232.0702
  61  167.3992
  62  288.1845
  63  233.9226
  64  108.7137
  65  232.919
  66  197.7695
  67  220.3138
  68  182.7208
  69  144.8291
  70  131.9661
  71  61.11289
  72  276.8448
  73  387.1537
  74  316.9792
  75  310.5129
  76  192.0021
  77  140.084
  78  149.9846
  79  78.42564
  80  190.0354
  81  254.0826
  82  172.2255
  83  250.3215
  84  235.87
  85  157.7712
  86  186.4418
  87  293.1651
  88  214.3397
  89  178.2146
  90  220.8821
  91  156.5048
  92  143.8949
  93  91.38209
  94  85.49833
  95  151.0955
  96  333.32
  97  401.594
  98  282.4907
  99  152.4144
 100  196.5642
 101  332.5397
 102  306.6804
 103  207.9348
 104  171.3733
 105  210.5995
 106  150.7469
 107  179.8235
 108  263.3634
 109  39.68895
 110  79.05369
 111  42.92567
 112  83.1692
 113  209.5103
 114  156.0663
 115  163.4617
 116  163.7798
 117  158.527
 118  161.8828
 119  106.026
 120  66.27611
 121  104.062
 122  128.702
 123  332.36
 124  245.3151
 125  233.1597
 126  134.2366
 127  102.0214
 128  219.5486
 129  204.1721
 130  142.8195
 131  295.3355
 132  256.753
 133  280.9824
 134  200.2687
 135  191.3286
 136  225.0875
 137  266.1915
 138  202.4551
 139  105.1904
 140  205.9868
 141  226.6198
 142  210.3106
 143  123.6266
 144  83.94393
 145  37.57817
 146  142.344
 147  278.5258
 148  324.456
 149  223.6178
 150  223.1262
 151  209.0246
 152  208.9176
 153  229.4291
 154  240.123
 155  272.2552
 156  192.6056
 157  156.9826
 158  98.01228
 159  117.7516
 160  157.6135
 161  58.12785
 162  57.70116
 163  295.3036
 164  293.0138
 165  296.2357
 166  266.4
 167  153.7304
 168  168.1613
 169  281.9812
 170  430.4464
 171  279.7917
 172  100.4753
 173  246.5509
 174  276.9942
 175  189.5145
 176  242.5476
 177  168.9935
 178  75.8295
 179  237.1385
 180  277.6857
 181  338.9992
 182  178.1374
 183  124.9289
 184  186.5361
 185  202.1591
 186  124.9658
 187  187.7427
 188  156.5688
 189  196.323
 190  209.7581
 191  118.758
 192  163.773
 193  208.7283
 194  164.0777
 195  222.974
 196  334.1095
 197  278.4134
 198  315.4411
 199  300.1711
 200  266.5872
 201  229.4611
 202  126.5435
 203  188.0305
 204  239.2951
 205  306.9462
 206  226.8334
 207  219.5932
 208  348.5383
 209  275.3232
 210  299.9548
 211  201.326
 212  158.3427
 213  164.8021
 214  91.57787
 215  218.359
 216  280.2394
 217  287.5362
 218  233.2088
 219  216.4748
 220  221.4846
 221  221.6986
 222  213.0113
 223  113.0949
 224  229.6377
 225  275.7749
 226  205.122
 227  183.7723
 228  229.2413
 229  212.3847
 230  141.8965
 231  242.7833
 232  132.3579
 233  121.5401
 234  157.535
 235  129.9414
 236  139.6026
 237  208.262
 238  221.4042
 239  359.2378
 240  235.1488
 241  207.6874
 242  217.1381
 243  185.8885
 244  193.6449
 245  77.61452
 246  145.1992
 247  302.7768
 248  150.3798
 249  177.2638
 250  124.9894
 251  90.23643
 252  183.315
 253  180.6486
 254  163.3551
 255  199.8246
 256  63.57011
 257  294.6567
 258  182.3182
 259  119.362
 260  148.6844
 261  298.3604
 262  276.6083
 263  248.8534
 264  266.5944
 265  239.864
 266  165.1339
 267  306.6346
 268  350.2246
 269  285.0138
 270  175.8758
 271  205.5031
 272  292.2496
 273  393.0746
 274  382.0235
 275  301.101
 276  314.8027
 277  330.2704
 278  278.9813
 279  150.9261
 280  106.7969
 281  135.6311
 282  199.7974
 283  190.0517
 284  196.2159
 285  243.8285
 286  287.9554
 287  332.7919
 288  191.0684
 289  194.0094
 290  182.8622
 291  110.5063
 292  179.4192
 293  240.9571
 294  139.9004
 295  147.1695
 296  155.2401
 297  181.7938
 298  210.3145
 299  133.6094
 300  168.7318
 301  156.0122
 302  186.9101
 303  209.0268
 304  150.1184
 305  119.4773
 306  103.3459
 307  277.9391
 308  347.3619
 309  291.8297
 310  293.4838
 311  358.0544
 312  185.8929
 313  72.61367
 314  128.4038
 315  228.4042
 316  197.9766
 317  356.1711
 318  316.2685
 319  176.2436
 320  92.75645
 321  141.6665
 322  201.0334
 323  316.7974
 324  216.8298
 325  179.4333
 326  120.3268
 327  239.7832
 328  289.7996
 329  212.6354
 330  176.144
 331  191.392
 332  217.4117
 333  237.2799
 334  185.9689
 335  15.09961
 336  224.9603
 337  184.9174
 338  19.68383
 339  192.5059
 340  187.4879
 341  221.7712
 342  240.3899
 343  231.7264
 344  207.5992
 345  127.1282
 346  76.94557
 347  150.8806
 348  180.7691
 349  147.5536
 350  8.346734
 351  83.07006
 352  151.5737
 353  214.6979
 354  236.7401
 355  46.30582
 356  41.03984
 357  183.537
 358  96.43547
 359  -28.52802
 360  -34.31487
 361  137.7221
 362  154.9697
 363  115.4374
 364  169.0802
 365  334.9751
 366  292.8712
 367  245.9124
 368  246.9565
 369  191.4588
 370  156.1838
 371  95.56392
 372  286.1513
 373  271.4616
 374  242.2258
 375  338.9036
 376  295.8355
 377  225.3156
 378  13.92611
 379  77.7851
 380  96.36256
 381  130.094
 382  164.1422
 383  162.2311
 384  190.3081
 385  122.047
 386  108.4554
 387  138.7509
 388  118.6997
 389  41.17157
 390  120.184
 391  261.5912
 392  182.1567
 393  138.1138
 394  -86.3195
 395  13.8221
 396  139.962
 397  121.6165
 398  199.6077
 399  191.9446
 400  215.3302
 401  98.27066
 402  -15.61642
 403  5.957574
 404  142.6958
 405  224.3111
 406  244.6541
 407  180.0344
 408  114.6189
 409  71.48862
 410  67.76265
 411  217.1693
 412  167.4735
 413  -16.22593
 414  91.30592
 415  190.3573
 416  117.0963
 417  36.34414
 418  136.6653
 419  230.2107
 420  201.03
 421  172.5262
 422  31.57399
 423  98.94025
 424  277.0421
 425  209.9631
 426  150.3518
 427  126.9475
 428  125.8363
 429  222.8318
 430  108.4448
 431  69.15395
 432  122.5364
 433  173.5883
 434  237.0979
 435  177.8479
 436  208.692
 437  200.3379
 438  174.3185
 439  202.1911
 440  202.1948
 441  260.391
 442  198.0426
 443  147.4088
 444  168.569
 445  139.9855
 446  137.1917
 447  206.1113
 448  157.0216
 449  283.9441
 450  207.8313
 451  204.2599
 452  89.75141
 453  220.4488
 454  142.2735
 455  20.58561
 456  107.7262
 457  180.2
 458  52.84072
 459  111.023
 460  215.3653
 461  36.26091
 462  118.564
 463  322.901
 464  323.9621
 465  128.8906
 466  73.58966
 467  12.24027
 468  122.6283
 469  202.4209
 470  165.2686
 471  53.22096
 472  22.58137
 473  32.11428
 474  111.9574
 475  152.1491
 476  129.9285
 477  85.12976
 478  66.39725
 479  192.1322
 480  194.5678
 481  249.058
 482  188.9496
 483  198.7257
 484  123.5356
 485  166.149
 486  294.55
 487  122.4569
 488  188.5663
 489  207.1847
 490  309.0765
 491  67.23757
 492  12.98281
 493  187.3048
 494  155.7113
 495  199.7212
 496  220.2365
 497  222.639
 498  153.7732
 499  77.51056
 500  261.5089
 501  239.9452
 502  76.4197
 503  130.8792
 504  192.771
 505  196.1294
 506  232.219
 507  402.4147
 508  379.2902
 509  456.1337
 510  526.1964
 511  606.7356
