# Input file       =  1188091689.11132_cleaned.dat
# Candidate        =  PSR_0332+5434
# Telescope        =  AR
# Epoch_topo       =  57995.061008232871
# Epoch_bary       =  N/A
# T_sample         =  0.002
# Data Folded      =  7340032
# Data Avg         =  0.00287981701933955
# Data StdDev      =  1.00009959221852 
# Profile Bins     =  512
# Profile Avg      =  41.3969237887799 
# Profile StdDev   =  119.744960855489 
# Reduced chi-sqr  =  1.603
# Prob(Noise)      <  1.17e-16   (~8.2 sigma)
# P_topo (ms)      =  714.463370651706  +/- 0.000149
# P'_topo (s/s)    =  -0                +/- 7.85e-11
# P''_topo (s/s^2) =  0                 +/- 3.47e-14
# P_bary (ms)      =  N/A
# P'_bary (s/s)    =  N/A
# P''_bary (s/s^2) =  N/A
# P_orb (s)        =  N/A
# asin(i)/c (s)    =  N/A
# eccentricity     =  N/A
# w (rad)          =  N/A
# T_peri           =  N/A
######################################################
   0  604.7435
   1  668.5975
   2  641.1467
   3  343.4158
   4  224.6708
   5  122.0914
   6  239.0853
   7  73.03191
   8  15.68819
   9  23.89652
  10  20.00209
  11  107.7002
  12  217.0802
  13  265.8257
  14  147.618
  15  36.35173
  16  38.41496
  17  -14.37961
  18  61.01024
  19  70.87153
  20  7.082885
  21  -132.6104
  22  -47.41813
  23  -11.26345
  24  -3.075317
  25  80.53793
  26  104.8972
  27  58.7306
  28  11.79498
  29  -86.5501
  30  185.5081
  31  233.7934
  32  91.20367
  33  66.95222
  34  27.07766
  35  165.0336
  36  78.68429
  37  -16.44593
  38  -24.40973
  39  71.21406
  40  58.96283
  41  2.345334
  42  155.4208
  43  146.3469
  44  108.0545
  45  98.30736
  46  87.24786
  47  217.5802
  48  179.8356
  49  47.86957
  50  -46.14533
  51  39.94513
  52  16.19389
  53  62.12471
  54  73.89527
  55  38.8977
  56  -70.00358
  57  -9.512901
  58  61.2417
  59  143.9608
  60  93.15072
  61  57.56878
  62  -6.503041
  63  46.08711
  64  25.73277
  65  -59.74224
  66  -28.56771
  67  45.50116
  68  -15.50004
  69  -16.30286
  70  -41.47012
  71  21.86601
  72  81.33302
  73  -57.83787
  74  -104.6957
  75  -46.38311
  76  -49.60795
  77  -29.8785
  78  -82.57581
  79  -268.588
  80  -145.6714
  81  -17.12653
  82  -20.94869
  83  -18.254
  84  127.7305
  85  112.6848
  86  68.61115
  87  43.69509
  88  72.18884
  89  113.8859
  90  55.89223
  91  45.55389
  92  32.26475
  93  30.13919
  94  29.74885
  95  16.08545
  96  57.97075
  97  104.7042
  98  103.7377
  99  -150.4925
 100  -36.51126
 101  101.0106
 102  60.15246
 103  -29.3859
 104  237.0459
 105  183.87
 106  -92.47504
 107  -16.69714
 108  2.646077
 109  109.1764
 110  106.7966
 111  37.10528
 112  -61.32579
 113  -87.13453
 114  14.2344
 115  55.72539
 116  180.8697
 117  188.3904
 118  32.86987
 119  -33.97001
 120  -46.44042
 121  -11.26282
 122  70.18807
 123  86.0596
 124  42.14207
 125  76.31865
 126  173.9169
 127  115.4445
 128  9.31746
 129  -57.02291
 130  -50.9502
 131  -93.18553
 132  -9.336284
 133  12.45958
 134  -28.27915
 135  3.915591
 136  -29.63364
 137  -5.361015
 138  -101.6534
 139  -132.9326
 140  -179.4387
 141  -172.8421
 142  -83.24719
 143  -33.76596
 144  -196.8318
 145  -129.6053
 146  -22.90722
 147  -14.44168
 148  -22.13763
 149  25.93081
 150  -9.920957
 151  117.1898
 152  55.30137
 153  -106.6062
 154  -82.87063
 155  -82.31673
 156  -65.7948
 157  -102.7863
 158  -126.6593
 159  58.24617
 160  13.93098
 161  -103.4232
 162  -85.65545
 163  -73.15039
 164  -28.52761
 165  -95.19975
 166  -45.38845
 167  -8.579573
 168  -60.21368
 169  -77.58136
 170  -22.00309
 171  59.76902
 172  -26.38173
 173  -30.43638
 174  -9.275047
 175  -86.09109
 176  -108.5392
 177  -69.21208
 178  12.67938
 179  -175.7812
 180  -126.559
 181  20.06795
 182  -115.344
 183  -140.1935
 184  -65.64716
 185  57.903
 186  87.7401
 187  10.27868
 188  51.77806
 189  27.05227
 190  127.7781
 191  5.949025
 192  26.36926
 193  51.9469
 194  14.93039
 195  -54.3009
 196  -55.49009
 197  20.86528
 198  19.27197
 199  -9.501173
 200  5.315921
 201  85.38535
 202  12.65397
 203  -68.86836
 204  -113.1283
 205  -3.710485
 206  -9.56943
 207  58.08085
 208  39.07924
 209  -16.28457
 210  -115.9496
 211  -40.45579
 212  140.7509
 213  85.06362
 214  69.73717
 215  2.725353
 216  89.84032
 217  55.9187
 218  -121.7345
 219  -3.711865
 220  -89.25838
 221  -27.5676
 222  -169.3521
 223  -16.39908
 224  35.50854
 225  -29.32485
 226  -74.1367
 227  -101.3474
 228  7.392211
 229  -49.08462
 230  125.2556
 231  137.927
 232  42.27594
 233  -0.6628257
 234  16.88824
 235  -45.21096
 236  -20.28644
 237  -141.1904
 238  -65.67117
 239  -37.86883
 240  16.19084
 241  -73.46234
 242  29.32511
 243  51.55461
 244  -44.6228
 245  -25.98911
 246  70.58954
 247  116.8709
 248  40.9791
 249  76.94164
 250  19.25559
 251  24.88947
 252  119.9813
 253  208.9628
 254  224.9074
 255  141.7084
 256  51.91735
 257  109.3608
 258  102.5828
 259  144.8858
 260  7.458178
 261  -90.32785
 262  -83.84061
 263  104.4683
 264  94.79143
 265  84.73563
 266  123.1826
 267  -31.76991
 268  36.11251
 269  -5.443542
 270  -88.54385
 271  50.40133
 272  119.7124
 273  115.7576
 274  79.21406
 275  64.89194
 276  115.6066
 277  94.95138
 278  116.3737
 279  286.0015
 280  168.5012
 281  -23.01582
 282  39.42461
 283  140.9109
 284  201.6715
 285  115.4962
 286  149.3807
 287  151.4771
 288  118.1086
 289  251.4862
 290  219.6865
 291  169.2441
 292  132.0422
 293  92.8153
 294  -15.28453
 295  -124.1192
 296  19.85258
 297  55.98413
 298  -32.18349
 299  -59.70337
 300  102.7865
 301  369.6529
 302  307.9484
 303  143.6695
 304  44.90223
 305  105.1335
 306  -28.36193
 307  75.53872
 308  220.5108
 309  167.0842
 310  248.5828
 311  65.91939
 312  101.7606
 313  248.7245
 314  229.394
 315  143.252
 316  89.08705
 317  133.1929
 318  64.45859
 319  64.08102
 320  38.78144
 321  204.3688
 322  158.3827
 323  224.6116
 324  210.7214
 325  81.42451
 326  67.4389
 327  62.77929
 328  220.0317
 329  190.9407
 330  99.64122
 331  43.35246
 332  86.7999
 333  174.7812
 334  81.67986
 335  -10.34679
 336  23.46772
 337  182.0063
 338  157.7978
 339  89.51836
 340  15.88624
 341  37.19463
 342  73.88216
 343  43.0036
 344  48.04421
 345  120.2472
 346  88.32465
 347  53.37556
 348  41.86493
 349  177.2094
 350  130.7849
 351  124.0392
 352  12.10977
 353  -62.74919
 354  20.45959
 355  27.62811
 356  91.072
 357  45.9036
 358  34.72731
 359  -2.535214
 360  97.83855
 361  234.2658
 362  177.4227
 363  -21.61992
 364  -150.2431
 365  -3.535534
 366  83.70182
 367  -45.10657
 368  -64.74638
 369  -98.41782
 370  13.67384
 371  -7.382185
 372  101.4178
 373  72.60759
 374  -68.20601
 375  -11.17262
 376  -109.957
 377  -29.36086
 378  -77.4898
 379  -47.80175
 380  100.716
 381  61.71805
 382  141.1385
 383  22.50214
 384  70.32934
 385  136.4548
 386  25.2681
 387  38.69499
 388  39.95497
 389  37.43525
 390  81.57453
 391  112.212
 392  80.1663
 393  188.0657
 394  162.2017
 395  54.57972
 396  -92.1889
 397  16.72116
 398  89.71729
 399  172.1686
 400  25.71046
 401  61.26807
 402  -20.78524
 403  -85.29236
 404  -138.2397
 405  -78.62447
 406  -24.79867
 407  67.70569
 408  -119.7791
 409  -107.1402
 410  -63.70321
 411  -90.06112
 412  -122.2241
 413  -9.105371
 414  186.2166
 415  17.76869
 416  -96.52661
 417  -90.08057
 418  -69.22758
 419  -116.6745
 420  -6.788502
 421  83.64034
 422  -35.20362
 423  -16.25187
 424  3.247455
 425  -104.3304
 426  -86.25291
 427  6.904581
 428  143.7157
 429  228.3599
 430  53.64856
 431  -67.72639
 432  -194.5254
 433  -78.34276
 434  -7.828502
 435  -61.82326
 436  20.75118
 437  -1.969812
 438  75.34966
 439  39.28505
 440  46.98046
 441  -95.28994
 442  -44.81082
 443  -8.65678
 444  22.0162
 445  12.9437
 446  169.772
 447  90.92498
 448  54.97084
 449  40.86388
 450  203.3058
 451  171.5162
 452  108.5061
 453  106.9167
 454  65.20271
 455  106.7688
 456  -52.20965
 457  -7.59623
 458  20.58669
 459  -155.7147
 460  -27.74865
 461  -97.98155
 462  -54.29947
 463  9.330148
 464  -47.97307
 465  67.97835
 466  28.96267
 467  -82.4958
 468  -160.6912
 469  -31.63636
 470  27.52411
 471  36.97499
 472  144.882
 473  204.9182
 474  223.9637
 475  -51.13327
 476  -18.84456
 477  -88.77219
 478  -72.85944
 479  114.7029
 480  88.39928
 481  5.260866
 482  -22.32
 483  43.16119
 484  135.1307
 485  142.015
 486  125.7645
 487  163.6722
 488  66.59295
 489  71.62338
 490  163.7898
 491  227.475
 492  212.4536
 493  129.0129
 494  32.34105
 495  71.17892
 496  -38.2953
 497  -20.62322
 498  89.76001
 499  148.7072
 500  164.1922
 501  96.46918
 502  102.9753
 503  73.00817
 504  73.98391
 505  20.99962
 506  167.49
 507  122.7772
 508  210.8845
 509  242.159
 510  313.058
 511  514.8289
