# Input file       =  1188451331.12315_cleaned.dat
# Candidate        =  PSR_0332+5434
# Telescope        =  AR
# Epoch_topo       =  57999.223531517942
# Epoch_bary       =  N/A
# T_sample         =  0.002
# Data Folded      =  7340032
# Data Avg         =  0.0108513745389284
# Data StdDev      =  1.0000173546811  
# Profile Bins     =  512
# Profile Avg      =  155.317013255171 
# Profile StdDev   =  119.73511430543  
# Reduced chi-sqr  =  1.279
# Prob(Noise)      <  1.88e-05   (~4.1 sigma)
# P_topo (ms)      =  714.463973321456  +/- 0.000193
# P'_topo (s/s)    =  -0                +/- 1.02e-10
# P''_topo (s/s^2) =  0                 +/- 4.49e-14
# P_bary (ms)      =  N/A
# P'_bary (s/s)    =  N/A
# P''_bary (s/s^2) =  N/A
# P_orb (s)        =  N/A
# asin(i)/c (s)    =  N/A
# eccentricity     =  N/A
# w (rad)          =  N/A
# T_peri           =  N/A
######################################################
   0  554.1042
   1  518.3831
   2  654.7075
   3  543.2593
   4  276.773
   5  257.5982
   6  140.6256
   7  32.7242
   8  179.1071
   9  44.9801
  10  58.01662
  11  197.5085
  12  248.2614
  13  401.7609
  14  415.178
  15  370.8404
  16  370.4386
  17  295.0009
  18  220.9595
  19  154.0083
  20  110.6021
  21  299.557
  22  94.08923
  23  80.82221
  24  61.68946
  25  37.67665
  26  189.3444
  27  303.5639
  28  195.9022
  29  240.2411
  30  238.9929
  31  404.9675
  32  311.8373
  33  91.15279
  34  90.49503
  35  184.6898
  36  295.1024
  37  250.7752
  38  188.3186
  39  73.20837
  40  -11.01865
  41  122.132
  42  118.1054
  43  177.0413
  44  319.4826
  45  281.2298
  46  161.2553
  47  158.7395
  48  150.274
  49  26.99716
  50  27.32277
  51  113.9109
  52  286.5919
  53  223.0754
  54  283.1873
  55  210.3408
  56  178.729
  57  -10.01647
  58  -2.000667
  59  45.5037
  60  61.26331
  61  90.49561
  62  76.44675
  63  -45.99464
  64  47.09723
  65  47.55505
  66  149.2499
  67  135.7047
  68  99.87727
  69  -34.10011
  70  -42.94164
  71  97.78055
  72  52.00668
  73  29.43825
  74  76.9661
  75  123.8349
  76  111.8519
  77  -83.12017
  78  88.93209
  79  226.9191
  80  338.8023
  81  229.9104
  82  199.1373
  83  226.4188
  84  187.6587
  85  163.227
  86  214.3589
  87  278.7639
  88  260.427
  89  286.1132
  90  180.6709
  91  192.2818
  92  112.7638
  93  206.7097
  94  176.0907
  95  175.4533
  96  109.771
  97  143.2655
  98  253.3527
  99  168.4529
 100  129.9608
 101  139.1373
 102  210.6936
 103  125.5938
 104  59.27369
 105  28.93087
 106  66.8374
 107  69.04325
 108  -2.233451
 109  119.1823
 110  335.9272
 111  332.0206
 112  170.1485
 113  235.8221
 114  103.2182
 115  227.6657
 116  205.7479
 117  167.7962
 118  167.1215
 119  110.8939
 120  129.4188
 121  126.7969
 122  153.6768
 123  165.4959
 124  227.4507
 125  275.6816
 126  95.80698
 127  1.737517
 128  8.058301
 129  159.891
 130  118.2092
 131  142.2902
 132  110.6319
 133  112.6734
 134  253.2956
 135  156.2737
 136  126.3864
 137  123.7296
 138  246.0956
 139  120.0734
 140  75.98625
 141  69.9174
 142  190.3085
 143  116.792
 144  182.6883
 145  97.79618
 146  -3.807778
 147  98.39215
 148  133.4377
 149  118.2755
 150  283.8918
 151  348.2933
 152  118.9758
 153  198.6302
 154  351.2618
 155  130.6696
 156  166.7612
 157  273.9558
 158  242.6719
 159  103.8488
 160  165.9989
 161  297.2699
 162  206.093
 163  228.2003
 164  190.4745
 165  94.99085
 166  171.3577
 167  264.6814
 168  139.9592
 169  88.45166
 170  138.8657
 171  181.4843
 172  187.6699
 173  109.4743
 174  107.1242
 175  73.13728
 176  62.02289
 177  30.55756
 178  152.0778
 179  271.0139
 180  227.9689
 181  148.5683
 182  90.33518
 183  110.1817
 184  96.87658
 185  206.6567
 186  108.1286
 187  130.5278
 188  125.6865
 189  67.80145
 190  77.93963
 191  145.645
 192  97.01656
 193  112.0831
 194  146.0535
 195  183.2953
 196  87.83124
 197  24.5843
 198  -1.2594
 199  -90.4465
 200  -61.64614
 201  109.7103
 202  131.2974
 203  50.99802
 204  -10.60482
 205  68.08497
 206  161.9689
 207  128.1446
 208  88.4806
 209  -41.03638
 210  -2.845005
 211  85.73373
 212  43.36817
 213  161.0845
 214  103.7584
 215  92.7393
 216  179.3729
 217  225.0844
 218  84.1861
 219  84.32713
 220  52.19796
 221  73.31289
 222  171.3116
 223  205.5459
 224  191.0873
 225  198.9911
 226  357.672
 227  179.5194
 228  130.2989
 229  179.5472
 230  102.3043
 231  164.8762
 232  117.868
 233  172.8857
 234  130.7155
 235  0.7929444
 236  113.6649
 237  157.3939
 238  113.0615
 239  63.37929
 240  117.355
 241  144.0954
 242  173.1305
 243  5.265765
 244  111.9063
 245  110.6622
 246  150.906
 247  145.1046
 248  -9.356082
 249  89.91982
 250  232.1694
 251  161.8236
 252  85.92944
 253  56.59532
 254  136.2706
 255  96.91029
 256  42.70051
 257  108.1845
 258  132.3537
 259  120.8717
 260  52.09916
 261  138.3334
 262  110.1463
 263  70.2704
 264  -32.12371
 265  37.4413
 266  -44.05478
 267  143.8065
 268  192.26
 269  167.3538
 270  219.3205
 271  236.0118
 272  123.7324
 273  96.7652
 274  102.8269
 275  102.6307
 276  21.2171
 277  47.67627
 278  166.5673
 279  163.0635
 280  -88.27714
 281  102.0795
 282  29.04768
 283  -52.7631
 284  131.4145
 285  265.5675
 286  192.5386
 287  185.5097
 288  94.64481
 289  179.7849
 290  238.444
 291  165.927
 292  232.2542
 293  245.906
 294  108.1842
 295  229.6781
 296  268.0012
 297  216.0086
 298  198.5842
 299  332.1169
 300  348.3943
 301  271.8511
 302  41.84056
 303  91.10921
 304  226.3362
 305  213.951
 306  297.1417
 307  220.188
 308  198.2162
 309  237.2036
 310  104.1935
 311  150.4637
 312  272.4607
 313  310.8606
 314  179.2487
 315  136.6794
 316  245.6974
 317  245.2432
 318  144.8292
 319  20.4268
 320  170.011
 321  155.4797
 322  173.8731
 323  124.9926
 324  54.22726
 325  120.838
 326  141.3226
 327  46.37062
 328  72.27948
 329  83.46759
 330  205.3219
 331  166.0909
 332  203.8772
 333  215.3758
 334  105.1132
 335  -38.03755
 336  53.52884
 337  208.0326
 338  278.8817
 339  228.3625
 340  173.2401
 341  75.32329
 342  68.20077
 343  179.5099
 344  180.9665
 345  178.2219
 346  256.0452
 347  154.5044
 348  192.3978
 349  369.1858
 350  294.9387
 351  158.2771
 352  182.3143
 353  233.1518
 354  208.7224
 355  297.7
 356  222.274
 357  145.5403
 358  187.848
 359  264.4008
 360  253.1567
 361  156.2618
 362  141.1296
 363  145.597
 364  -24.58418
 365  132.8736
 366  149.4082
 367  150.1457
 368  170.8833
 369  233.583
 370  145.7782
 371  124.4758
 372  139.5546
 373  187.7838
 374  266.1761
 375  200.6118
 376  104.5756
 377  176.2213
 378  200.4263
 379  140.041
 380  90.81191
 381  155.5056
 382  238.8379
 383  198.8127
 384  146.2349
 385  197.0369
 386  243.8632
 387  300.6821
 388  201.4355
 389  209.9139
 390  270.0839
 391  167.2829
 392  165.8671
 393  385.7287
 394  379.4108
 395  301.4436
 396  146.4215
 397  228.973
 398  207.609
 399  119.7738
 400  168.5761
 401  135.3789
 402  207.1869
 403  227.9196
 404  12.9223
 405  -38.83166
 406  88.87276
 407  75.37556
 408  84.99731
 409  169.2249
 410  173.8771
 411  119.7601
 412  129.3777
 413  226.8668
 414  217.1769
 415  109.2451
 416  65.57134
 417  139.5536
 418  248.6345
 419  169.0367
 420  68.48846
 421  -38.90847
 422  49.92533
 423  227.8196
 424  123.5641
 425  69.86191
 426  72.86502
 427  49.89649
 428  78.23762
 429  33.45409
 430  -19.58859
 431  -11.33453
 432  187.6737
 433  299.9868
 434  151.5174
 435  -43.88362
 436  -51.50782
 437  -15.54624
 438  232.8068
 439  312.5473
 440  206.9013
 441  115.9904
 442  95.26699
 443  140.5919
 444  57.91505
 445  185.4612
 446  116.9755
 447  115.4339
 448  150.473
 449  211.8029
 450  292.0073
 451  277.8861
 452  168.0595
 453  203.0501
 454  141.4342
 455  180.853
 456  213.0017
 457  125.5096
 458  155.4813
 459  175.6789
 460  240.6477
 461  98.5255
 462  -77.832
 463  99.43982
 464  175.9221
 465  159.6461
 466  234.2134
 467  279.7301
 468  156.8391
 469  157.9247
 470  223.5081
 471  190.693
 472  106.834
 473  138.7343
 474  166.8681
 475  171.0729
 476  108.9477
 477  33.25152
 478  151.1927
 479  183.8486
 480  87.80885
 481  41.39154
 482  147.0568
 483  52.23198
 484  2.875577
 485  1.675259
 486  244.2234
 487  214.4452
 488  270.8537
 489  208.5574
 490  124.5283
 491  152.293
 492  135.7935
 493  158.2988
 494  229.6289
 495  232.0444
 496  207.9005
 497  255.3517
 498  142.2678
 499  153.2973
 500  93.01036
 501  146.025
 502  191.5797
 503  169.4503
 504  228.9293
 505  271.9966
 506  164.8581
 507  135.9291
 508  236.3562
 509  305.4796
 510  355.097
 511  500.3141
