# Input file       =  1188507916.120346_cleaned.dat
# Candidate        =  PSR_0332+5434
# Telescope        =  AR
# Epoch_topo       =  57999.878450466967
# Epoch_bary       =  N/A
# T_sample         =  0.002
# Data Folded      =  7143424
# Data Avg         =  0.0240088451033072
# Data StdDev      =  1.00005690095658 
# Profile Bins     =  512
# Profile Avg      =  334.981619422939 
# Profile StdDev   =  118.125305542314 
# Reduced chi-sqr  =  1.480
# Prob(Noise)      <  8.73e-12   (~6.7 sigma)
# P_topo (ms)      =  714.463691312161  +/- 0.0002
# P'_topo (s/s)    =  -0                +/- 1.09e-10
# P''_topo (s/s^2) =  0                 +/- 4.93e-14
# P_bary (ms)      =  N/A
# P'_bary (s/s)    =  N/A
# P''_bary (s/s^2) =  N/A
# P_orb (s)        =  N/A
# asin(i)/c (s)    =  N/A
# eccentricity     =  N/A
# w (rad)          =  N/A
# T_peri           =  N/A
######################################################
   0  959.6434
   1  939.9384
   2  784.319
   3  577.1177
   4  568.3602
   5  432.4056
   6  422.5041
   7  241.123
   8  351.7451
   9  216.1804
  10  152.4478
  11  148.3736
  12  185.97
  13  316.8213
  14  337.642
  15  336.1613
  16  298.2492
  17  254.1189
  18  273.7696
  19  167.0069
  20  212.4764
  21  369.0375
  22  387.6665
  23  191.2648
  24  98.49128
  25  172.6353
  26  279.8146
  27  225.9133
  28  152.4271
  29  106.9669
  30  203.7433
  31  249.3166
  32  269.9177
  33  361.8958
  34  421.7451
  35  324.8669
  36  200.6539
  37  282.7735
  38  305.8034
  39  274.372
  40  309.3636
  41  306.1953
  42  220.981
  43  200.3193
  44  151.4524
  45  229.2159
  46  209.8185
  47  287.754
  48  343.4098
  49  181.2717
  50  240.6837
  51  364.3821
  52  449.6738
  53  344.8851
  54  263.1405
  55  320.3186
  56  530.5883
  57  467.9262
  58  410.8294
  59  507.4118
  60  485.6254
  61  382.2629
  62  397.6256
  63  383.1619
  64  191.4124
  65  225.1938
  66  436.5233
  67  285.7279
  68  271.8872
  69  281.3214
  70  372.8735
  71  468.9359
  72  393.113
  73  356.5393
  74  351.4017
  75  291.1339
  76  328.1731
  77  318.8098
  78  346.0872
  79  411.3631
  80  319.0409
  81  239.2199
  82  350.4679
  83  308.2443
  84  305.1435
  85  262.9063
  86  204.3955
  87  332.7022
  88  193.7497
  89  220.7235
  90  259.0655
  91  309.1201
  92  395.5216
  93  407.7382
  94  308.5143
  95  337.3485
  96  332.1469
  97  286.4441
  98  306.6903
  99  278.9783
 100  284.1066
 101  324.9321
 102  318.1111
 103  355.5451
 104  395.4659
 105  336.5938
 106  401.4586
 107  277.0412
 108  307.4929
 109  379.0884
 110  488.0242
 111  440.5327
 112  291.0121
 113  249.7903
 114  294.006
 115  295.078
 116  328.6083
 117  397.6165
 118  267.7958
 119  283.5805
 120  406.0109
 121  494.9826
 122  410.4094
 123  315.889
 124  338.1544
 125  365.5434
 126  276.1124
 127  365.7335
 128  219.5337
 129  143.7877
 130  160.9963
 131  346.7221
 132  391.3587
 133  363.1203
 134  436.7913
 135  480.093
 136  449.1785
 137  376.4481
 138  359.2552
 139  235.7921
 140  242.5088
 141  398.7607
 142  512.0067
 143  407.5211
 144  484.4363
 145  495.8997
 146  472.0353
 147  297.1636
 148  221.873
 149  333.4212
 150  406.8338
 151  510.6234
 152  408.9448
 153  376.5085
 154  434.9131
 155  358.0006
 156  340.2676
 157  394.1402
 158  323.6523
 159  303.321
 160  280.9858
 161  228.1707
 162  348.6064
 163  524.4366
 164  508.1315
 165  446.4714
 166  502.8196
 167  395.3936
 168  380.7419
 169  327.3214
 170  320.1283
 171  320.7423
 172  244.5562
 173  264.2188
 174  179.0411
 175  332.8239
 176  403.328
 177  381.7341
 178  464.0472
 179  389.1486
 180  591.0708
 181  521.4696
 182  190.637
 183  386.9532
 184  591.7487
 185  460.0762
 186  247.2534
 187  399.8737
 188  403.1703
 189  462.203
 190  468.5271
 191  331.9673
 192  270.1237
 193  324.4014
 194  391.6657
 195  413.3013
 196  335.183
 197  295.9418
 198  309.8099
 199  316.733
 200  370.3665
 201  268.5279
 202  225.3891
 203  416.5153
 204  247.1728
 205  254.3805
 206  265.3087
 207  333.1819
 208  264.7812
 209  167.956
 210  221.8607
 211  301.7564
 212  375.3383
 213  340.782
 214  411.8345
 215  450.7069
 216  346.1408
 217  349.2585
 218  271.1776
 219  375.2172
 220  321.1507
 221  411.5471
 222  295.4444
 223  240.2248
 224  325.6032
 225  285.2241
 226  267.9308
 227  275.6026
 228  275.1398
 229  248.4951
 230  342.7263
 231  390.2419
 232  350.5079
 233  327.7449
 234  178.7458
 235  305.5749
 236  333.3835
 237  492.8853
 238  455.1245
 239  422.115
 240  305.0423
 241  284.5494
 242  283.4417
 243  378.4192
 244  268.8397
 245  285.8714
 246  227.8101
 247  288.8683
 248  361.09
 249  425.8327
 250  410.6926
 251  377.1672
 252  398.8214
 253  404.7505
 254  365.8508
 255  360.5413
 256  360.7101
 257  333.1427
 258  335.5402
 259  294.9495
 260  275.5885
 261  267.5069
 262  360.5148
 263  373.3333
 264  332.6647
 265  288.7475
 266  293.2586
 267  399.5986
 268  402.3622
 269  386.8879
 270  400.036
 271  309.5449
 272  234.6625
 273  293.7441
 274  376.4988
 275  391.4042
 276  333.3123
 277  261.2381
 278  333.9958
 279  371.0567
 280  362.4276
 281  449.1791
 282  429.4718
 283  323.4905
 284  270.5478
 285  163.6735
 286  290.8514
 287  274.4975
 288  344.1388
 289  413.6137
 290  240.9063
 291  368.0657
 292  296.2896
 293  246.3918
 294  225.1685
 295  331.9647
 296  282.981
 297  296.518
 298  486.8649
 299  399.4231
 300  310.4841
 301  450.3349
 302  429.9044
 303  381.2801
 304  334.6851
 305  325.3363
 306  324.5356
 307  260.2824
 308  328.5348
 309  384.2117
 310  307.1808
 311  340.9453
 312  321.0807
 313  326.1998
 314  413.2562
 315  318.2073
 316  299.4292
 317  396.282
 318  322.6221
 319  339.2887
 320  262.3955
 321  292.5735
 322  272.3171
 323  265.1247
 324  327.2727
 325  239.7102
 326  300.0294
 327  226.4401
 328  292.4216
 329  199.6954
 330  286.317
 331  403.066
 332  411.0642
 333  383.6118
 334  340.6092
 335  419.6672
 336  418.6757
 337  345.5225
 338  220.3715
 339  215.6173
 340  309.0461
 341  454.3519
 342  398.3385
 343  503.0473
 344  486.1861
 345  211.1839
 346  160.1889
 347  270.1214
 348  377.1654
 349  415.7194
 350  456.611
 351  448.63
 352  327.2961
 353  309.4532
 354  342.4209
 355  220.9384
 356  190.5229
 357  259.1075
 358  231.5383
 359  328.1174
 360  382.1552
 361  345.9504
 362  270.6299
 363  354.3176
 364  289.694
 365  237.5515
 366  171.6682
 367  177.6823
 368  252.7529
 369  295.8654
 370  255.1613
 371  294.8691
 372  373.5857
 373  348.0039
 374  296.4102
 375  395.5144
 376  280.5749
 377  269.9376
 378  300.5887
 379  360.2185
 380  328.1165
 381  260.1561
 382  330.4966
 383  317.9208
 384  302.0646
 385  166.1597
 386  163.346
 387  342.9283
 388  307.3472
 389  161.3341
 390  292.0798
 391  312.3064
 392  289.0211
 393  376.768
 394  259.2654
 395  241.6885
 396  303.4893
 397  291.0357
 398  194.1688
 399  291.3936
 400  387.437
 401  259.7648
 402  270.5837
 403  251.6502
 404  310.3702
 405  263.8812
 406  277.6343
 407  276.304
 408  188.4835
 409  270.114
 410  328.6385
 411  127.9446
 412  249.6566
 413  335.1248
 414  297.8494
 415  379.8759
 416  285.9901
 417  189.4644
 418  268.3488
 419  317.9286
 420  333.7037
 421  262.9336
 422  282.3904
 423  369.4503
 424  332.4432
 425  331.1743
 426  414.9505
 427  299.0788
 428  198.2225
 429  230.4569
 430  251.7136
 431  333.2345
 432  287.17
 433  450.5041
 434  316.9223
 435  305.534
 436  370.2536
 437  331.8567
 438  311.5317
 439  457.3121
 440  482.2646
 441  316.2214
 442  286.0359
 443  294.3993
 444  264.4074
 445  315.2846
 446  406.5828
 447  426.7133
 448  375.236
 449  399.0479
 450  397.0251
 451  404.081
 452  192.1526
 453  271.9949
 454  297.5286
 455  225.2985
 456  278.5784
 457  421.6607
 458  361.0359
 459  314.1579
 460  386.9845
 461  287.5922
 462  165.5092
 463  296.8187
 464  422.3235
 465  365.0873
 466  390.2626
 467  381.509
 468  302.3236
 469  261.4117
 470  370.1766
 471  379.9125
 472  343.7132
 473  340.7889
 474  247.261
 475  263.0513
 476  504.2635
 477  464.697
 478  397.777
 479  385.7634
 480  346.46
 481  186.9407
 482  150.0178
 483  273.3545
 484  413.2812
 485  318.9382
 486  217.4099
 487  355.6142
 488  317.1603
 489  415.68
 490  437.2963
 491  362.2004
 492  239.545
 493  284.3575
 494  359.4883
 495  257.5974
 496  418.7617
 497  432.7975
 498  406.9299
 499  562.2336
 500  450.0394
 501  196.416
 502  343.1701
 503  437.1646
 504  462.1741
 505  594.3149
 506  621.8806
 507  392.3498
 508  480.9868
 509  643.0259
 510  924.2851
 511  893.4815
