# Input file       =  1188163236.117847_cleaned.dat
# Candidate        =  PSR_0332+5434
# Telescope        =  AR
# Epoch_topo       =  57995.889098586194
# Epoch_bary       =  N/A
# T_sample         =  0.002
# Data Folded      =  7143424
# Data Avg         =  0.0128770844485113
# Data StdDev      =  1.00005762226688 
# Profile Bins     =  512
# Profile Avg      =  179.656880761398 
# Profile StdDev   =  118.125390742465 
# Reduced chi-sqr  =  1.274
# Prob(Noise)      <  2.57e-05   (~4.0 sigma)
# P_topo (ms)      =  714.46338864244   +/- 0.000105
# P'_topo (s/s)    =  -0                +/- 5.7e-11
# P''_topo (s/s^2) =  0                 +/- 2.59e-14
# P_bary (ms)      =  N/A
# P'_bary (s/s)    =  N/A
# P''_bary (s/s^2) =  N/A
# P_orb (s)        =  N/A
# asin(i)/c (s)    =  N/A
# eccentricity     =  N/A
# w (rad)          =  N/A
# T_peri           =  N/A
######################################################
   0  769.5901
   1  731.2648
   2  602.8847
   3  326.6891
   4  139.0278
   5  210.5407
   6  206.0629
   7  259.5066
   8  279.3161
   9  194.6755
  10  69.28364
  11  167.6454
  12  326.7568
  13  339.9077
  14  209.4857
  15  163.239
  16  182.0435
  17  109.5457
  18  168.0299
  19  112.0898
  20  249.581
  21  317.1037
  22  239.6555
  23  206.5591
  24  180.8248
  25  218.2353
  26  226.6287
  27  240.2411
  28  225.234
  29  97.73551
  30  142.7696
  31  188.5355
  32  250.0492
  33  245.7906
  34  173.7569
  35  169.223
  36  170.796
  37  81.15205
  38  156.3057
  39  106.5419
  40  96.55362
  41  186.5713
  42  146.0086
  43  136.8123
  44  144.8428
  45  175.5978
  46  212.3923
  47  220.0389
  48  112.6289
  49  168.9626
  50  115.1234
  51  161.6451
  52  33.34847
  53  143.1552
  54  147.4779
  55  91.94575
  56  244.0027
  57  245.9868
  58  226.9383
  59  240.3314
  60  215.8024
  61  107.0006
  62  122.49
  63  313.0789
  64  284.401
  65  184.7476
  66  191.3198
  67  174.5483
  68  222.4509
  69  152.1511
  70  70.18307
  71  161.1978
  72  209.913
  73  122.509
  74  253.3876
  75  301.622
  76  278.3075
  77  198.4764
  78  190.807
  79  312.2161
  80  262.3203
  81  321.0937
  82  318.5493
  83  252.4123
  84  207.9664
  85  67.47311
  86  139.43
  87  259.3186
  88  203.0337
  89  209.3111
  90  247.4369
  91  314.9836
  92  158.5428
  93  78.15224
  94  255.9758
  95  350.4631
  96  360.7115
  97  334.9594
  98  213.8387
  99  207.157
 100  201.5984
 101  243.7477
 102  155.5242
 103  131.9464
 104  118.0998
 105  57.63753
 106  258.4636
 107  386.264
 108  334.0555
 109  152.5824
 110  131.1741
 111  158.5192
 112  86.42435
 113  189.5808
 114  143.325
 115  298.5479
 116  317.2532
 117  207.4512
 118  92.01012
 119  192.9456
 120  273.8295
 121  214.0205
 122  271.5706
 123  266.1203
 124  189.6693
 125  283.1454
 126  268.183
 127  165.3583
 128  284.7181
 129  104.9493
 130  40.3588
 131  166.8417
 132  156.6337
 133  73.24914
 134  134.7113
 135  45.04989
 136  168.6027
 137  267.4304
 138  228.0083
 139  91.52652
 140  126.8806
 141  290.7137
 142  137.0951
 143  110.3467
 144  179.9052
 145  224.297
 146  220.1538
 147  218.8798
 148  96.14356
 149  132.4785
 150  204.2513
 151  272.4623
 152  209.3398
 153  171.2061
 154  242.5071
 155  186.2677
 156  153.6747
 157  168.9119
 158  211.8355
 159  112.5035
 160  32.32746
 161  120.279
 162  140.2431
 163  183.3527
 164  254.632
 165  230.3591
 166  156.9883
 167  336.5817
 168  239.403
 169  51.78025
 170  82.09641
 171  128.6695
 172  281.6673
 173  311.4987
 174  113.4749
 175  79.41346
 176  86.21638
 177  21.40508
 178  -66.14175
 179  9.71207
 180  145.552
 181  117.2167
 182  138.9768
 183  237.4045
 184  188.0118
 185  293.5998
 186  209.3775
 187  48.28731
 188  85.77406
 189  229.5672
 190  339.8504
 191  230.0548
 192  61.70246
 193  161.1149
 194  288.5924
 195  194.6518
 196  182.2947
 197  257.5461
 198  151.4705
 199  192.5383
 200  215.4449
 201  219.0586
 202  158.7465
 203  222.2775
 204  184.2126
 205  284.6712
 206  170.0627
 207  105.0147
 208  127.1547
 209  182.5303
 210  306.357
 211  188.1228
 212  168.3253
 213  274.6185
 214  300.274
 215  278.4916
 216  245.533
 217  97.77861
 218  3.088742
 219  60.82871
 220  197.9823
 221  270.9656
 222  208.1748
 223  208.4589
 224  196.995
 225  244.7213
 226  235.6676
 227  116.9628
 228  170.2086
 229  157.8478
 230  183.1024
 231  141.1189
 232  211.3848
 233  220.208
 234  70.25159
 235  56.2412
 236  53.37735
 237  135.6602
 238  153.6022
 239  283.6331
 240  312.9662
 241  217.0522
 242  142.4847
 243  155.1574
 244  -8.400077
 245  27.739
 246  200.9737
 247  225.0409
 248  189.0429
 249  205.276
 250  189.4658
 251  112.3291
 252  42.51622
 253  270.6292
 254  300.2665
 255  171.6238
 256  195.8117
 257  120.1205
 258  64.4564
 259  51.43782
 260  66.20493
 261  106.6868
 262  57.66651
 263  173.7636
 264  323.8799
 265  285.0787
 266  129.7525
 267  196.0508
 268  223.3507
 269  168.7138
 270  117.0237
 271  193.586
 272  274.3922
 273  299.6464
 274  139.7754
 275  204.3142
 276  201.2413
 277  181.6324
 278  289.5427
 279  254.7609
 280  208.0745
 281  169.3222
 282  83.99059
 283  56.70771
 284  149.9136
 285  196.7693
 286  199.1263
 287  144.573
 288  84.76173
 289  59.45186
 290  230.7556
 291  188.5112
 292  229.9483
 293  74.63103
 294  98.03126
 295  130.296
 296  75.97892
 297  97.8936
 298  157.7567
 299  126.5214
 300  70.5761
 301  52.22719
 302  163.9621
 303  265.3555
 304  240.773
 305  188.338
 306  112.6452
 307  75.14009
 308  92.06149
 309  119.7071
 310  129.8976
 311  83.2729
 312  138.7533
 313  97.66364
 314  64.24152
 315  20.40716
 316  26.20936
 317  94.86269
 318  89.65769
 319  90.5408
 320  103.3253
 321  218.9273
 322  265.3824
 323  172.5364
 324  136.4728
 325  80.94341
 326  54.44349
 327  56.37034
 328  217.8
 329  194.1933
 330  160.8509
 331  66.71449
 332  104.4476
 333  -7.736865
 334  193.223
 335  192.9441
 336  68.43946
 337  114.0813
 338  168.039
 339  262.9398
 340  227.2677
 341  142.4418
 342  72.06364
 343  8.528822
 344  58.78857
 345  162.6294
 346  113.7299
 347  4.517406
 348  95.18474
 349  168.8043
 350  179.4836
 351  145.3433
 352  57.54583
 353  82.9055
 354  95.54169
 355  158.9852
 356  232.5667
 357  143.26
 358  150.3467
 359  82.49168
 360  -31.24116
 361  73.33746
 362  53.54045
 363  233.3188
 364  238.4901
 365  206.1763
 366  75.81483
 367  153.1315
 368  157.5357
 369  288.6768
 370  271.0081
 371  219.7552
 372  127.5292
 373  201.3506
 374  244.1055
 375  205.3222
 376  141.2402
 377  153.071
 378  291.5183
 379  86.99551
 380  38.28617
 381  87.29604
 382  138.178
 383  161.0877
 384  89.03696
 385  87.85322
 386  234.6513
 387  390.9981
 388  314.7131
 389  208.2298
 390  155.8505
 391  140.2612
 392  109.7014
 393  179.7258
 394  258.6715
 395  193.5645
 396  245.1605
 397  264.571
 398  147.1682
 399  116.3062
 400  96.54617
 401  46.99265
 402  29.66071
 403  192.9201
 404  252.5654
 405  170.3237
 406  240.5944
 407  118.0433
 408  -10.74632
 409  108.3112
 410  161.1481
 411  237.1618
 412  210.1714
 413  124.6686
 414  128.723
 415  200.7559
 416  155.2339
 417  103.0917
 418  98.96697
 419  162.8617
 420  201.8499
 421  263.2079
 422  184.9686
 423  39.71156
 424  11.0181
 425  113.5337
 426  190.7397
 427  259.0186
 428  278.4869
 429  190.8888
 430  141.6259
 431  82.79103
 432  20.65697
 433  103.3629
 434  119.2062
 435  180.579
 436  204.6461
 437  162.3499
 438  189.2263
 439  211.5326
 440  191.6819
 441  135.8125
 442  315.6648
 443  196.9213
 444  97.28421
 445  115.8993
 446  251.0119
 447  344.8268
 448  235.1577
 449  185.3467
 450  193.6498
 451  265.7846
 452  162.5647
 453  20.18721
 454  208.6513
 455  108.5008
 456  115.8799
 457  171.8994
 458  138.7778
 459  271.6319
 460  287.9692
 461  176.5857
 462  222.3891
 463  224.9558
 464  270.3782
 465  190.8497
 466  85.36389
 467  113.3702
 468  88.93673
 469  53.33841
 470  118.5389
 471  118.6483
 472  156.6167
 473  189.0641
 474  166.6671
 475  242.5996
 476  209.8718
 477  82.72036
 478  129.0775
 479  121.0928
 480  124.8472
 481  226.2419
 482  192.6989
 483  187.0066
 484  99.02527
 485  191.1991
 486  230.5538
 487  60.9389
 488  48.18658
 489  183.4883
 490  296.6475
 491  148.918
 492  94.79467
 493  269.6324
 494  297.2142
 495  418.1321
 496  446.6987
 497  194.0545
 498  62.91107
 499  179.4382
 500  233.4167
 501  245.9154
 502  134.1001
 503  238.3492
 504  267.9031
 505  171.869
 506  348.0857
 507  479.6025
 508  428.6918
 509  450.026
 510  554.7526
 511  702.2178
