# Input file       =  1188522526.111912_cleaned.dat
# Candidate        =  PSR_0332+5434
# Telescope        =  AR
# Epoch_topo       =  58000.047547591574
# Epoch_bary       =  N/A
# T_sample         =  0.002
# Data Folded      =  7340032
# Data Avg         =  0.00250121385673041
# Data StdDev      =  0.999998350188306
# Profile Bins     =  512
# Profile Avg      =  35.8775816718612 
# Profile StdDev   =  119.732838839802 
# Reduced chi-sqr  =  1.603
# Prob(Noise)      <  1.16e-16   (~8.2 sigma)
# P_topo (ms)      =  714.463723014522  +/- 0.00025
# P'_topo (s/s)    =  -0                +/- 1.32e-10
# P''_topo (s/s^2) =  0                 +/- 5.82e-14
# P_bary (ms)      =  N/A
# P'_bary (s/s)    =  N/A
# P''_bary (s/s^2) =  N/A
# P_orb (s)        =  N/A
# asin(i)/c (s)    =  N/A
# eccentricity     =  N/A
# w (rad)          =  N/A
# T_peri           =  N/A
######################################################
   0  806.7584
   1  822.3973
   2  647.9742
   3  225.3255
   4  -25.23621
   5  77.92028
   6  135.6624
   7  166.7155
   8  233.9343
   9  81.85519
  10  160.0586
  11  246.0457
  12  255.9294
  13  288.5416
  14  188.6835
  15  147.6225
  16  118.8051
  17  40.36412
  18  21.09696
  19  -49.24681
  20  -62.94636
  21  1.190584
  22  9.556862
  23  14.93698
  24  97.56456
  25  -80.11248
  26  -52.05836
  27  14.68817
  28  114.5742
  29  35.98958
  30  100.9226
  31  -46.96696
  32  -33.68221
  33  16.0302
  34  -96.08739
  35  -70.19116
  36  3.048475
  37  -37.01811
  38  -3.751819
  39  148.0333
  40  65.14032
  41  67.347
  42  40.66748
  43  54.69538
  44  -4.623827
  45  27.13322
  46  64.56548
  47  8.322849
  48  89.66515
  49  -8.188461
  50  50.44429
  51  48.17352
  52  68.50926
  53  105.9898
  54  129.2546
  55  2.043887
  56  65.82059
  57  49.00721
  58  6.473677
  59  39.00211
  60  37.13775
  61  -25.45053
  62  13.35871
  63  -38.06922
  64  64.96517
  65  25.62532
  66  127.4188
  67  23.80295
  68  -20.17182
  69  200.9821
  70  3.912417
  71  29.62123
  72  166.8008
  73  181.1169
  74  69.51763
  75  -6.450512
  76  49.79042
  77  54.24155
  78  81.24552
  79  113.9699
  80  60.35691
  81  75.68766
  82  -35.41332
  83  31.08242
  84  -30.04067
  85  -124.6112
  86  -12.1629
  87  11.18273
  88  -7.394839
  89  58.91246
  90  3.854621
  91  144.5164
  92  77.88456
  93  64.53333
  94  74.24869
  95  125.6923
  96  133.9583
  97  64.5812
  98  75.05515
  99  -8.520528
 100  55.91514
 101  -36.36195
 102  -25.90219
 103  172.4109
 104  167.7036
 105  107.8726
 106  86.27539
 107  100.7344
 108  186.7986
 109  128.9453
 110  -30.21084
 111  -56.23111
 112  103.1069
 113  151.5346
 114  -130.7875
 115  -247.6174
 116  -37.88788
 117  30.81554
 118  80.53094
 119  62.69514
 120  -68.06757
 121  28.67142
 122  -38.79609
 123  62.71982
 124  86.36325
 125  139.4997
 126  65.42312
 127  155.5802
 128  143.7933
 129  12.67765
 130  0.05287679
 131  -93.62869
 132  61.66253
 133  111.9746
 134  61.78681
 135  93.72018
 136  37.39479
 137  -78.98347
 138  -57.21152
 139  98.32796
 140  -7.670253
 141  18.71781
 142  -6.989324
 143  -74.82973
 144  1.843079
 145  -59.20896
 146  11.23117
 147  40.72874
 148  -49.31219
 149  -78.5041
 150  16.51808
 151  -12.29677
 152  -266.0699
 153  -55.26696
 154  70.85329
 155  35.99594
 156  -31.61862
 157  -68.03483
 158  38.62795
 159  -48.40376
 160  58.62112
 161  102.407
 162  -30.98287
 163  95.22452
 164  220.0489
 165  195.4442
 166  145.6367
 167  56.39407
 168  21.74794
 169  34.84151
 170  33.13659
 171  -111.716
 172  -92.61806
 173  -96.50159
 174  -65.86551
 175  -30.05504
 176  -166.8868
 177  93.68401
 178  246.7362
 179  60.31214
 180  -62.20876
 181  -105.441
 182  40.32523
 183  80.63634
 184  19.49483
 185  -71.68185
 186  -5.763772
 187  -33.72136
 188  -110.3821
 189  -96.34765
 190  39.60908
 191  78.37203
 192  -23.09813
 193  -34.61475
 194  -121.9853
 195  -94.87769
 196  -59.87642
 197  -120.0341
 198  -91.94363
 199  114.3348
 200  179.6749
 201  -90.70227
 202  -169.7336
 203  67.00716
 204  59.73195
 205  95.69776
 206  -29.77596
 207  60.51995
 208  88.98291
 209  58.7169
 210  95.55582
 211  -7.250712
 212  53.2737
 213  103.3957
 214  95.13212
 215  27.13918
 216  56.89638
 217  24.26563
 218  -19.41725
 219  17.80889
 220  112.2502
 221  124.9837
 222  129.8339
 223  102.4324
 224  -10.68645
 225  -35.35284
 226  -33.92027
 227  133.2502
 228  69.6992
 229  -36.02709
 230  -13.53774
 231  174.5266
 232  102.6448
 233  78.1646
 234  20.30457
 235  -38.85931
 236  8.217153
 237  -39.56968
 238  35.56259
 239  56.73318
 240  41.84892
 241  -22.91569
 242  21.80879
 243  137.5121
 244  64.35557
 245  62.23535
 246  41.52936
 247  50.96535
 248  -42.45333
 249  -66.12555
 250  -82.34409
 251  -27.26529
 252  77.8731
 253  38.47921
 254  -31.07619
 255  72.38239
 256  29.79837
 257  9.784691
 258  -43.43145
 259  -93.10599
 260  -62.38754
 261  -14.90891
 262  30.01289
 263  46.54013
 264  -98.27866
 265  -50.48759
 266  104.531
 267  -62.49079
 268  -94.58667
 269  -64.47052
 270  -42.84053
 271  27.96595
 272  107.9852
 273  99.77089
 274  -19.69795
 275  -80.29557
 276  -33.1287
 277  86.72799
 278  157.472
 279  72.1583
 280  118.8789
 281  8.528448
 282  -24.38194
 283  -55.78408
 284  -48.34625
 285  119.5621
 286  162.9828
 287  17.68567
 288  -13.20602
 289  -34.77251
 290  110.979
 291  8.923932
 292  -145.5789
 293  -15.20628
 294  132.2897
 295  186.9718
 296  -45.834
 297  -161.5603
 298  -47.97187
 299  50.10144
 300  6.815608
 301  115.7104
 302  100.5656
 303  -90.61881
 304  59.48168
 305  42.286
 306  -54.14013
 307  161.9264
 308  127.7895
 309  -17.68987
 310  -19.75951
 311  111.8225
 312  -7.45909
 313  -164.9148
 314  -129.2309
 315  -37.97009
 316  -39.35007
 317  -15.21121
 318  9.261456
 319  -41.56002
 320  -76.79409
 321  -21.34527
 322  42.0318
 323  106.5022
 324  36.88189
 325  -43.00027
 326  -24.21071
 327  -83.13319
 328  85.89378
 329  190.6835
 330  23.84382
 331  -6.059832
 332  -91.26244
 333  -63.03004
 334  -36.569
 335  -47.43543
 336  69.28366
 337  -87.27388
 338  118.753
 339  192.999
 340  127.591
 341  21.57367
 342  55.36639
 343  -75.10681
 344  -144.4602
 345  -116.3402
 346  -112.4232
 347  25.86522
 348  46.9783
 349  -32.0152
 350  -45.99071
 351  -100.5642
 352  -101.7455
 353  -23.13047
 354  -52.64185
 355  -94.71312
 356  30.55019
 357  147.5704
 358  125.0662
 359  -18.6422
 360  -164.2233
 361  -74.88696
 362  -44.88284
 363  24.77355
 364  76.77168
 365  99.46468
 366  0.1488918
 367  38.50101
 368  44.90119
 369  -34.49156
 370  -16.94016
 371  19.30661
 372  116.5094
 373  169.9096
 374  63.18124
 375  109.2309
 376  60.21388
 377  -23.44416
 378  -65.89745
 379  -90.81574
 380  -89.84988
 381  -109.7965
 382  60.96066
 383  18.9959
 384  -10.08929
 385  -66.23428
 386  33.73063
 387  -48.46757
 388  3.668339
 389  121.189
 390  4.390602
 391  121.1602
 392  35.29662
 393  -25.86946
 394  119.6731
 395  5.440033
 396  -28.17459
 397  -41.52911
 398  58.22652
 399  190.4781
 400  76.6788
 401  -5.490006
 402  40.634
 403  38.70771
 404  69.78165
 405  181.0221
 406  172.6467
 407  -10.98458
 408  -50.11327
 409  81.97603
 410  120.0702
 411  -58.70184
 412  45.61174
 413  -6.736179
 414  -122.1882
 415  -43.57978
 416  57.03799
 417  47.39647
 418  195.0613
 419  170.3218
 420  196.181
 421  222.9711
 422  121.7713
 423  88.92153
 424  28.55913
 425  75.74786
 426  -71.12673
 427  -49.65543
 428  7.83433
 429  131.8161
 430  29.83565
 431  101.2178
 432  64.97254
 433  32.26003
 434  123.0584
 435  146.3867
 436  115.1036
 437  140.1555
 438  49.2253
 439  65.26441
 440  -61.73747
 441  14.71935
 442  79.31366
 443  35.91897
 444  51.08605
 445  68.98073
 446  -40.00689
 447  -129.0069
 448  -38.84917
 449  214.6553
 450  -4.981993
 451  -146.4475
 452  -31.86258
 453  13.37366
 454  14.29389
 455  -81.2172
 456  -66.63844
 457  97.71991
 458  148.855
 459  104.7199
 460  -38.03395
 461  10.54111
 462  -96.30463
 463  -23.84235
 464  70.48826
 465  -76.97009
 466  -44.90863
 467  -18.51111
 468  -77.30104
 469  -76.83398
 470  -34.42735
 471  85.50074
 472  93.9786
 473  110.1058
 474  153.7053
 475  26.12046
 476  -62.45755
 477  27.69109
 478  -88.79789
 479  -53.51162
 480  -70.99187
 481  62.44956
 482  172.1509
 483  4.967781
 484  -36.9862
 485  -70.68274
 486  91.6192
 487  61.91103
 488  88.96969
 489  -8.407352
 490  -49.28695
 491  34.63891
 492  140.8766
 493  161.612
 494  17.72551
 495  55.89597
 496  189.1459
 497  47.02821
 498  47.933
 499  -24.50162
 500  19.52482
 501  56.3392
 502  -3.20096
 503  -2.987407
 504  114.7068
 505  156.1432
 506  327.1873
 507  232.0553
 508  288.5367
 509  461.6775
 510  480.9325
 511  613.3032
