# Input file       =  1189541950.11086_cleaned.dat
# Candidate        =  PSR_0332+5434
# Telescope        =  AR
# Epoch_topo       =  58011.846436468288
# Epoch_bary       =  N/A
# T_sample         =  0.002
# Data Folded      =  7143424
# Data Avg         =  0.0126238803696888
# Data StdDev      =  1.00006087428553 
# Profile Bins     =  512
# Profile Avg      =  176.108713920891 
# Profile StdDev   =  118.125774866306 
# Reduced chi-sqr  =  1.524
# Prob(Noise)      <  1.88e-13   (~7.3 sigma)
# P_topo (ms)      =  714.466111386848  +/- 0.000161
# P'_topo (s/s)    =  -0                +/- 8.73e-11
# P''_topo (s/s^2) =  0                 +/- 3.96e-14
# P_bary (ms)      =  N/A
# P'_bary (s/s)    =  N/A
# P''_bary (s/s^2) =  N/A
# P_orb (s)        =  N/A
# asin(i)/c (s)    =  N/A
# eccentricity     =  N/A
# w (rad)          =  N/A
# T_peri           =  N/A
######################################################
   0  1010.442
   1  869.65
   2  444.3474
   3  305.2764
   4  218.5712
   5  221.8575
   6  222.8876
   7  196.8761
   8  112.3909
   9  145.4546
  10  77.47482
  11  30.99004
  12  110.3201
  13  68.65846
  14  170.2003
  15  197.7892
  16  169.5037
  17  183.7059
  18  151.5179
  19  82.75039
  20  73.33108
  21  68.73658
  22  122.3327
  23  113.0413
  24  78.2719
  25  138.6657
  26  169.019
  27  85.62524
  28  298.757
  29  313.4211
  30  256.0626
  31  182.8265
  32  124.1652
  33  19.17441
  34  18.52613
  35  152.3415
  36  280.1168
  37  246.745
  38  98.0097
  39  58.63068
  40  5.966327
  41  76.49857
  42  180.9742
  43  218.7633
  44  86.52603
  45  220.9559
  46  177.8734
  47  161.2813
  48  212.861
  49  223.6256
  50  110.1405
  51  132.9718
  52  236.1208
  53  122.9184
  54  148.0062
  55  154.4911
  56  273.9726
  57  298.1806
  58  285.0321
  59  231.6426
  60  179.258
  61  207.6998
  62  230.6918
  63  223.2264
  64  318.6349
  65  200.9143
  66  272.8885
  67  153.1535
  68  136.1729
  69  122.1816
  70  76.91991
  71  137.5507
  72  130.0932
  73  31.28678
  74  43.51602
  75  137.2974
  76  202.5139
  77  71.71989
  78  189.0545
  79  268.8786
  80  272.0447
  81  291.278
  82  258.1101
  83  227.4921
  84  127.319
  85  204.5159
  86  104.7381
  87  16.67462
  88  0.3764914
  89  28.75899
  90  78.88898
  91  71.6275
  92  123.7921
  93  143.1907
  94  107.4643
  95  125.6389
  96  161.0061
  97  94.39836
  98  -3.167891
  99  4.380253
 100  145.3278
 101  191.1706
 102  311.0022
 103  337.158
 104  324.1531
 105  366.0536
 106  328.7241
 107  183.1819
 108  138.0725
 109  127.5139
 110  202.3148
 111  161.971
 112  257.12
 113  219.6568
 114  244.5963
 115  159.2713
 116  230.1462
 117  188.7665
 118  226.022
 119  113.557
 120  143.5855
 121  235.8941
 122  146.7325
 123  269.9486
 124  289.4
 125  182.9502
 126  274.7338
 127  277.5308
 128  309.3543
 129  205.5927
 130  146.4708
 131  278.2655
 132  325.5609
 133  413.2529
 134  312.5698
 135  230.9355
 136  108.0116
 137  241.7288
 138  179.6929
 139  164.2503
 140  180.0329
 141  148.7567
 142  82.65606
 143  220.9577
 144  173.8929
 145  155.7862
 146  200.126
 147  191.804
 148  125.6076
 149  41.04567
 150  148.3522
 151  373.368
 152  237.4398
 153  316.8873
 154  248.478
 155  60.38262
 156  45.92533
 157  -27.42742
 158  -33.2902
 159  70.65376
 160  146.7782
 161  161.4799
 162  202.8153
 163  122.3123
 164  213.7912
 165  174.8318
 166  57.60238
 167  158.1142
 168  208.5246
 169  247.7563
 170  166.1582
 171  98.08158
 172  210.451
 173  111.9781
 174  37.37165
 175  189.9926
 176  119.6312
 177  209.2233
 178  173.8221
 179  107.1261
 180  233.7157
 181  111.0815
 182  72.51675
 183  97.98245
 184  147.6201
 185  209.5685
 186  152.4855
 187  186.4306
 188  252.6604
 189  166.7908
 190  123.1472
 191  111.9198
 192  270.1146
 193  287.7925
 194  251.3838
 195  195.0055
 196  202.7309
 197  164.9041
 198  69.98512
 199  -39.98655
 200  104.8245
 201  159.1028
 202  158.2961
 203  257.742
 204  221.6715
 205  201.3323
 206  248.8448
 207  200.2868
 208  221.5851
 209  248.5289
 210  142.716
 211  143.5262
 212  55.01332
 213  79.04665
 214  67.7264
 215  14.59309
 216  -68.22986
 217  67.22273
 218  141.4897
 219  238.6924
 220  179.4499
 221  185.0893
 222  203.6293
 223  91.53045
 224  146.8174
 225  111.4022
 226  45.94655
 227  132.9655
 228  260.965
 229  309.9883
 230  246.9607
 231  168.8738
 232  115.5378
 233  78.23666
 234  180.7976
 235  266.8788
 236  232.7863
 237  144.3644
 238  123.1553
 239  130.1267
 240  149.4494
 241  203.5263
 242  12.20223
 243  -6.074463
 244  95.94324
 245  313.8275
 246  268.0277
 247  125.7914
 248  124.9128
 249  88.41009
 250  156.8889
 251  103.2921
 252  163.7701
 253  153.5785
 254  147.8952
 255  179.6604
 256  138.9811
 257  260.3878
 258  264.6027
 259  248.1263
 260  156.7928
 261  72.9501
 262  266.6119
 263  230.4999
 264  60.53793
 265  78.33604
 266  115.4151
 267  203.8355
 268  182.7989
 269  183.8222
 270  204.029
 271  156.4409
 272  254.0802
 273  248.8108
 274  100.3877
 275  158.7612
 276  427.6761
 277  378.0914
 278  334.5556
 279  224.1093
 280  167.0692
 281  116.1409
 282  173.5796
 283  182.2007
 284  217.939
 285  160.9395
 286  181.2425
 287  42.03119
 288  92.06602
 289  211.3872
 290  152.4457
 291  107.3139
 292  15.74342
 293  37.85312
 294  58.1295
 295  203.1292
 296  209.1243
 297  229.7326
 298  199.6377
 299  70.50464
 300  161.7724
 301  127.8392
 302  80.53266
 303  229.0167
 304  195.5881
 305  210.8614
 306  354.6998
 307  206.0449
 308  59.88697
 309  253.7992
 310  195.0691
 311  206.6697
 312  99.44332
 313  -48.45205
 314  -32.51276
 315  22.24127
 316  145.911
 317  222.405
 318  303.217
 319  381.0145
 320  256.6294
 321  198.72
 322  212.9247
 323  71.55512
 324  169.9217
 325  174.7075
 326  216.8887
 327  249.7912
 328  240.7699
 329  187.0401
 330  170.0582
 331  122.4332
 332  232.0309
 333  80.73289
 334  105.1263
 335  156.5803
 336  282.5991
 337  243.321
 338  177.433
 339  194.1365
 340  236.401
 341  308.8945
 342  215.6575
 343  102.5354
 344  79.78311
 345  290.7229
 346  332.9089
 347  194.1006
 348  143.4644
 349  185.8324
 350  107.1818
 351  136.6407
 352  123.4777
 353  -45.83785
 354  66.19766
 355  36.84749
 356  87.41152
 357  190.3677
 358  270.6819
 359  172.8546
 360  141.9943
 361  136.0552
 362  185.2643
 363  220.5648
 364  56.37444
 365  193.1381
 366  193.2724
 367  188.6174
 368  158.3619
 369  31.99538
 370  56.06088
 371  96.29633
 372  191.321
 373  45.3443
 374  96.02131
 375  127.7996
 376  143.5127
 377  105.8251
 378  151.4583
 379  268.3793
 380  291.6562
 381  216.1366
 382  169.6844
 383  77.40141
 384  203.584
 385  182.246
 386  156.2188
 387  252.4333
 388  229.5589
 389  233.2852
 390  75.55406
 391  152.84
 392  310.2743
 393  164.4353
 394  143.5434
 395  134.8197
 396  263.5662
 397  323.7774
 398  213.6219
 399  143.7534
 400  185.8755
 401  234.118
 402  315.2596
 403  280.2997
 404  213.7272
 405  124.9095
 406  97.81236
 407  66.13097
 408  194.2739
 409  99.87981
 410  53.53157
 411  73.53007
 412  185.1542
 413  158.5817
 414  111.013
 415  142.3998
 416  289.8162
 417  181.0272
 418  86.04072
 419  137.3053
 420  37.88098
 421  34.24082
 422  205.5061
 423  153.145
 424  24.37512
 425  2.369373
 426  102.4274
 427  227.5728
 428  258.1675
 429  272.9036
 430  175.3395
 431  177.548
 432  126.889
 433  258.1683
 434  91.28587
 435  100.8448
 436  252.5857
 437  203.1756
 438  139.3588
 439  204.2152
 440  217.3574
 441  58.67329
 442  13.48331
 443  -9.411152
 444  67.15369
 445  210.1158
 446  140.745
 447  159.7736
 448  284.7014
 449  329.8508
 450  252.5303
 451  186.5075
 452  242.9691
 453  238.3126
 454  274.394
 455  106.8017
 456  93.19955
 457  128.8461
 458  178.2988
 459  218.4974
 460  200.0152
 461  257.6719
 462  155.8172
 463  184.2626
 464  307.6879
 465  214.9118
 466  197.8401
 467  212.7492
 468  210.233
 469  256.7559
 470  212.7953
 471  205.7171
 472  235.4283
 473  195.3745
 474  266.9392
 475  143.0253
 476  130.6577
 477  139.1902
 478  48.83309
 479  83.45276
 480  134.7955
 481  120.5642
 482  88.36246
 483  268.5496
 484  166.5647
 485  255.6248
 486  347.9103
 487  266.918
 488  50.9331
 489  50.4767
 490  146.9341
 491  235.4828
 492  271.0799
 493  301.8329
 494  181.9284
 495  104.3523
 496  93.43003
 497  31.41602
 498  93.80009
 499  262.5627
 500  207.1337
 501  224.6711
 502  171.4427
 503  125.7537
 504  115.9756
 505  337.6457
 506  285.7504
 507  240.7392
 508  245.6615
 509  426.8723
 510  702.5062
 511  920.2482
