# Input file       =  1189886569.111768_cleaned.dat
# Candidate        =  PSR_0332+5434
# Telescope        =  AR
# Epoch_topo       =  58015.835082312129
# Epoch_bary       =  N/A
# T_sample         =  0.002
# Data Folded      =  7143424
# Data Avg         =  0.00854364383708118
# Data StdDev      =  1.00006185809458 
# Profile Bins     =  512
# Profile Avg      =  119.211848716591 
# Profile StdDev   =  118.125891072438 
# Reduced chi-sqr  =  1.544
# Prob(Noise)      <  3.12e-14   (~7.5 sigma)
# P_topo (ms)      =  714.467451054117  +/- 0.000207
# P'_topo (s/s)    =  -0                +/- 1.12e-10
# P''_topo (s/s^2) =  0                 +/- 5.09e-14
# P_bary (ms)      =  N/A
# P'_bary (s/s)    =  N/A
# P''_bary (s/s^2) =  N/A
# P_orb (s)        =  N/A
# asin(i)/c (s)    =  N/A
# eccentricity     =  N/A
# w (rad)          =  N/A
# T_peri           =  N/A
######################################################
   0  978.5155
   1  777.9872
   2  563.1514
   3  309.7039
   4  79.1543
   5  -15.33688
   6  71.2233
   7  93.43074
   8  170.5165
   9  111.7566
  10  53.7723
  11  27.03464
  12  123.3772
  13  204.176
  14  187.1015
  15  37.90937
  16  199.7151
  17  204.086
  18  132.1433
  19  13.08987
  20  35.04655
  21  18.19735
  22  40.4984
  23  33.44825
  24  105.6182
  25  159.0248
  26  214.3891
  27  219.6515
  28  193.166
  29  157.9132
  30  254.6427
  31  211.0346
  32  169.5952
  33  172.6229
  34  104.4257
  35  241.7342
  36  257.9712
  37  223.6208
  38  67.21587
  39  11.16665
  40  100.3072
  41  181.4906
  42  100.9576
  43  256.0679
  44  81.23505
  45  118.1689
  46  141.5053
  47  171.3623
  48  145.876
  49  77.06547
  50  155.2039
  51  81.14649
  52  219.894
  53  275.7898
  54  232.3942
  55  96.7509
  56  47.50686
  57  127.8373
  58  144.0903
  59  216.8368
  60  200.9783
  61  111.8989
  62  112.8691
  63  61.4237
  64  93.50618
  65  198.4366
  66  217.8345
  67  33.67863
  68  -19.2134
  69  118.8051
  70  141.0814
  71  46.17881
  72  31.17128
  73  76.71398
  74  121.0156
  75  302.8327
  76  163.9341
  77  90.13339
  78  47.77252
  79  131.8427
  80  159.1983
  81  125.5216
  82  150.4506
  83  164.3078
  84  154.8118
  85  151.0216
  86  212.4807
  87  49.67799
  88  185.5663
  89  193.7944
  90  219.2467
  91  187.7314
  92  85.79979
  93  20.48245
  94  8.845616
  95  185.0195
  96  76.3593
  97  193.0304
  98  241.3535
  99  162.4483
 100  36.97381
 101  -56.99939
 102  2.426474
 103  -22.69373
 104  58.11849
 105  151.5889
 106  176.0497
 107  48.57924
 108  32.04868
 109  193.0828
 110  272.7008
 111  84.9449
 112  10.14491
 113  -16.80919
 114  5.43341
 115  98.05373
 116  108.6564
 117  165.3003
 118  131.1498
 119  69.47501
 120  106.3031
 121  30.48771
 122  -20.6406
 123  100.5447
 124  131.3681
 125  109.324
 126  125.3357
 127  219.4004
 128  294.9971
 129  244.0441
 130  227.576
 131  203.2947
 132  94.42632
 133  28.32412
 134  -16.80496
 135  97.61267
 136  203.2149
 137  192.0574
 138  173.2783
 139  133.2352
 140  203.5318
 141  80.26713
 142  63.10975
 143  22.43192
 144  98.23739
 145  124.8497
 146  166.5262
 147  143.4984
 148  75.37957
 149  101.3526
 150  178.6514
 151  144.7673
 152  192.1675
 153  151.3857
 154  65.7235
 155  142.7081
 156  178.6502
 157  143.7303
 158  48.65383
 159  164.5912
 160  226.3214
 161  54.41199
 162  113.1352
 163  170.6721
 164  102.5589
 165  71.26231
 166  52.88617
 167  115.0571
 168  123.3745
 169  86.85369
 170  257.3397
 171  84.29907
 172  83.18098
 173  84.10155
 174  129.7426
 175  90.30708
 176  24.19863
 177  128.2642
 178  117.3943
 179  116.0314
 180  129.7516
 181  98.34386
 182  14.23388
 183  199.2662
 184  353.4979
 185  45.09456
 186  -39.4268
 187  10.82473
 188  238.7849
 189  260.221
 190  65.97897
 191  70.06937
 192  40.38695
 193  10.60098
 194  5.397085
 195  142.9243
 196  122.6024
 197  49.53217
 198  162.9691
 199  138.2554
 200  120.2679
 201  48.66636
 202  270.0971
 203  302.4311
 204  159.0257
 205  6.749337
 206  -138.3563
 207  22.99374
 208  -39.97979
 209  18.30537
 210  81.04782
 211  141.7416
 212  59.77694
 213  102.6605
 214  189.4624
 215  140.5607
 216  25.98553
 217  -63.83827
 218  -8.495725
 219  65.57875
 220  164.2972
 221  244.6028
 222  76.10214
 223  126.9572
 224  164.9081
 225  60.27267
 226  174.7371
 227  38.627
 228  -89.46259
 229  42.88039
 230  -4.241688
 231  74.76749
 232  104.5276
 233  130.2324
 234  227.8805
 235  134.1044
 236  103.3861
 237  129.0125
 238  206.1609
 239  174.4509
 240  114.3231
 241  72.85172
 242  84.74181
 243  146.8189
 244  49.28705
 245  190.5384
 246  66.06063
 247  -55.62191
 248  -13.68575
 249  81.26628
 250  86.81087
 251  -39.12646
 252  23.60879
 253  76.56993
 254  103.584
 255  110.3634
 256  71.6817
 257  23.58545
 258  9.165652
 259  3.921736
 260  13.58206
 261  12.32508
 262  22.22902
 263  30.44031
 264  93.04259
 265  61.49649
 266  161.9109
 267  77.45116
 268  -4.188501
 269  -4.642161
 270  193.6459
 271  230.7069
 272  108.7825
 273  117.2689
 274  102.3889
 275  -41.70996
 276  94.21631
 277  84.78172
 278  162.0976
 279  170.3987
 280  284.9035
 281  299.094
 282  335.989
 283  187.1659
 284  66.01942
 285  150.9123
 286  187.5806
 287  94.96397
 288  -18.62537
 289  -72.37102
 290  -24.19248
 291  92.38236
 292  159.1937
 293  190.4555
 294  126.2314
 295  338.9254
 296  205.4178
 297  143.9087
 298  171.1539
 299  98.68568
 300  -105.1649
 301  -38.44802
 302  100.8065
 303  169.5978
 304  192.5778
 305  89.71918
 306  47.0169
 307  74.32041
 308  72.34801
 309  1.699676
 310  26.98582
 311  56.98763
 312  2.861663
 313  70.08628
 314  213.4498
 315  82.63698
 316  -33.82592
 317  41.91671
 318  7.500299
 319  47.97094
 320  155.919
 321  56.03117
 322  104.5927
 323  64.79441
 324  181.2617
 325  68.14028
 326  -114.5387
 327  -58.1263
 328  114.3278
 329  130.2866
 330  169.4079
 331  189.3608
 332  127.4884
 333  81.96733
 334  211.9157
 335  37.80931
 336  105.9471
 337  175.8024
 338  154.77
 339  39.36437
 340  56.01317
 341  154.1087
 342  120.1324
 343  146.7821
 344  118.2499
 345  96.43973
 346  39.80204
 347  39.15206
 348  70.55
 349  165.6613
 350  122.1372
 351  157.207
 352  120.0392
 353  -27.99948
 354  53.48227
 355  122.9749
 356  104.5254
 357  70.17142
 358  123.8601
 359  87.95616
 360  50.89399
 361  -82.63743
 362  59.63964
 363  118.3286
 364  124.3554
 365  160.3705
 366  138.7095
 367  -43.94441
 368  88.96141
 369  150.1388
 370  141.1481
 371  163.1185
 372  185.5983
 373  25.99369
 374  -14.92094
 375  5.010374
 376  80.4402
 377  -84.98177
 378  43.80956
 379  67.50805
 380  125.9303
 381  208.4912
 382  221.1109
 383  77.70383
 384  96.4446
 385  158.8513
 386  15.96043
 387  -19.33323
 388  155.6354
 389  272.517
 390  153.7698
 391  87.63403
 392  163.2879
 393  153.3705
 394  42.87091
 395  83.74638
 396  171.4812
 397  185.9881
 398  235.0423
 399  241.8636
 400  109.4729
 401  167.3165
 402  88.89697
 403  -5.007571
 404  -14.50023
 405  56.04342
 406  39.0929
 407  31.8304
 408  106.3561
 409  104.8688
 410  133.0065
 411  213.6873
 412  252.0673
 413  196.5384
 414  21.64037
 415  -4.614588
 416  107.9034
 417  144.9093
 418  107.7159
 419  178.2852
 420  99.7954
 421  97.95744
 422  33.72438
 423  86.53072
 424  132.1746
 425  77.10178
 426  22.3204
 427  46.05778
 428  73.50629
 429  54.82756
 430  114.9552
 431  124.1739
 432  88.20993
 433  -22.60772
 434  55.03048
 435  161.6988
 436  188.8755
 437  157.7175
 438  18.8911
 439  59.68413
 440  63.13125
 441  38.72588
 442  76.26391
 443  126.8312
 444  14.03158
 445  29.60619
 446  134.7496
 447  203.3794
 448  197.1341
 449  214.8703
 450  282.9509
 451  177.4529
 452  155.8695
 453  170.5033
 454  165.6971
 455  175.2512
 456  177.6873
 457  145.8344
 458  46.15837
 459  110.3097
 460  128.6781
 461  223.3127
 462  234.002
 463  71.54215
 464  35.82861
 465  78.12528
 466  50.65643
 467  64.74046
 468  108.3584
 469  -34.04911
 470  102.4607
 471  241.3694
 472  214.2043
 473  171.2052
 474  74.15144
 475  115.5454
 476  79.63813
 477  172.5627
 478  241.9489
 479  261.8335
 480  255.0834
 481  102.1049
 482  98.51297
 483  123.0859
 484  178.1849
 485  264.2419
 486  119.3766
 487  -16.99755
 488  94.23172
 489  169.7682
 490  143.1703
 491  179.2354
 492  195.6489
 493  291.6799
 494  151.1454
 495  125.4155
 496  126.3977
 497  7.988266
 498  -4.900071
 499  124.8784
 500  154.3018
 501  157.1515
 502  182.2405
 503  85.70851
 504  310.0172
 505  283.3297
 506  256.7261
 507  199.3792
 508  171.01
 509  466.0121
 510  709.9305
 511  853.815
