# Input file       =  1189369560.126245_cleaned.dat
# Candidate        =  PSR_0332+5434
# Telescope        =  AR
# Epoch_topo       =  58009.851182016726
# Epoch_bary       =  N/A
# T_sample         =  0.002
# Data Folded      =  7208960
# Data Avg         =  0.00727684848580209
# Data StdDev      =  1.00004745263436 
# Profile Bins     =  512
# Profile Avg      =  102.457085193089 
# Profile StdDev   =  118.664806484013 
# Reduced chi-sqr  =  1.666
# Prob(Noise)      <  1.98e-19   (~8.9 sigma)
# P_topo (ms)      =  714.465546352669  +/- 0.000223
# P'_topo (s/s)    =  -0                +/- 1.2e-10
# P''_topo (s/s^2) =  0                 +/- 5.39e-14
# P_bary (ms)      =  N/A
# P'_bary (s/s)    =  N/A
# P''_bary (s/s^2) =  N/A
# P_orb (s)        =  N/A
# asin(i)/c (s)    =  N/A
# eccentricity     =  N/A
# w (rad)          =  N/A
# T_peri           =  N/A
######################################################
   0  816.3215
   1  784.275
   2  643.6881
   3  348.7118
   4  178.7602
   5  69.56832
   6  39.284
   7  90.55492
   8  72.6077
   9  162.9413
  10  138.5213
  11  160.6548
  12  234.6123
  13  302.485
  14  235.8406
  15  121.9812
  16  121.8091
  17  94.48821
  18  182.4262
  19  56.73196
  20  -12.69063
  21  120.5122
  22  109.8999
  23  -8.877904
  24  -24.61028
  25  12.48148
  26  -8.51822
  27  -81.70287
  28  78.6738
  29  216.8866
  30  172.2979
  31  112.9516
  32  181.2633
  33  226.9005
  34  265.5217
  35  170.465
  36  115.9116
  37  91.45045
  38  55.07744
  39  176.383
  40  278.4492
  41  301.1105
  42  208.0572
  43  138.7171
  44  158.3828
  45  79.42379
  46  110.7635
  47  233.3504
  48  116.3243
  49  91.29338
  50  129.6604
  51  201.2954
  52  191.8532
  53  35.00718
  54  -27.07615
  55  -63.56209
  56  5.063219
  57  143.2696
  58  166.4118
  59  180.0477
  60  109.0181
  61  97.31328
  62  104.336
  63  155.7867
  64  252.4456
  65  107.9762
  66  69.71444
  67  -19.39215
  68  94.87418
  69  111.0859
  70  183.1205
  71  334.2833
  72  164.2283
  73  72.33552
  74  98.40335
  75  6.594657
  76  -8.37499
  77  121.0927
  78  65.57301
  79  -6.290999
  80  166.1418
  81  231.1263
  82  156.5124
  83  38.41624
  84  56.68245
  85  63.87391
  86  148.1155
  87  165.6215
  88  87.45284
  89  40.26629
  90  80.82498
  91  62.34759
  92  55.00399
  93  58.03811
  94  8.121132
  95  108.1605
  96  -14.53516
  97  -0.1748184
  98  2.947901
  99  4.019826
 100  128.1434
 101  144.6701
 102  87.8183
 103  170.454
 104  98.90403
 105  -7.22142
 106  140.5104
 107  104.3842
 108  268.3528
 109  202.2571
 110  15.47012
 111  134.3133
 112  2.467084
 113  -29.07943
 114  173.9753
 115  218.9707
 116  50.07369
 117  -33.92554
 118  -0.7025852
 119  -94.69629
 120  -61.19967
 121  16.42691
 122  196.9668
 123  142.5507
 124  -2.460446
 125  -29.3572
 126  73.90425
 127  169.802
 128  122.7704
 129  57.8037
 130  -10.22772
 131  76.18495
 132  140.1811
 133  100.6695
 134  97.88037
 135  141.3142
 136  263.3371
 137  191.1152
 138  232.709
 139  46.62399
 140  33.94909
 141  93.21174
 142  165.9339
 143  243.8153
 144  92.91116
 145  89.10734
 146  64.78382
 147  -51.74464
 148  -127.3107
 149  -25.35252
 150  82.53252
 151  23.64598
 152  -40.18765
 153  -71.81655
 154  -46.61606
 155  136.1612
 156  176.593
 157  67.17916
 158  111.9469
 159  122.6947
 160  77.36845
 161  164.816
 162  35.28662
 163  118.363
 164  181.8095
 165  283.0693
 166  75.04015
 167  -77.29003
 168  -77.11635
 169  27.72331
 170  192.988
 171  197.6512
 172  131.4206
 173  8.692334
 174  115.0501
 175  95.12941
 176  103.4491
 177  9.491358
 178  36.36834
 179  -81.1135
 180  -76.58895
 181  -64.24333
 182  62.15852
 183  127.067
 184  257.6701
 185  88.75949
 186  116.279
 187  123.4825
 188  65.75355
 189  52.72891
 190  124.0317
 191  193.5768
 192  125.5647
 193  6.234937
 194  57.72264
 195  77.21847
 196  53.97912
 197  33.89198
 198  159.9823
 199  93.35133
 200  125.6764
 201  67.97716
 202  97.04467
 203  144.366
 204  93.69793
 205  97.84052
 206  28.12471
 207  98.38526
 208  101.2358
 209  41.19928
 210  113.0636
 211  109.8946
 212  228.6171
 213  280.4907
 214  141.065
 215  -35.29641
 216  -18.57291
 217  108.2084
 218  326.1913
 219  150.1441
 220  54.17405
 221  204.72
 222  65.29152
 223  155.6789
 224  215.5611
 225  65.38009
 226  25.63807
 227  192.0771
 228  168.0028
 229  41.20737
 230  92.34553
 231  212.1716
 232  184.2869
 233  166.0415
 234  143.929
 235  14.75547
 236  94.88049
 237  136.0177
 238  38.74063
 239  31.29658
 240  -6.777381
 241  52.45198
 242  245.2589
 243  187.4198
 244  171.8548
 245  172.7214
 246  123.8775
 247  -21.83358
 248  29.13753
 249  29.04395
 250  -48.71848
 251  103.5673
 252  76.27242
 253  175.246
 254  72.7529
 255  6.015259
 256  -30.55244
 257  -25.08948
 258  95.00972
 259  218.3477
 260  81.37158
 261  36.63482
 262  84.11488
 263  143.2669
 264  48.85246
 265  103.9407
 266  79.04141
 267  148.5361
 268  143.377
 269  72.05813
 270  114.0659
 271  191.7955
 272  268.5117
 273  -62.5303
 274  68.56426
 275  308.3502
 276  274.3885
 277  9.077555
 278  79.58775
 279  279.763
 280  188.6703
 281  107.097
 282  67.82008
 283  212.3303
 284  154.4383
 285  94.62761
 286  32.52889
 287  -45.41737
 288  -65.99422
 289  4.27322
 290  43.20177
 291  233.1862
 292  95.88525
 293  -39.95421
 294  94.93874
 295  188.2729
 296  232.6995
 297  273.297
 298  91.4237
 299  10.52845
 300  114.0372
 301  258.0188
 302  209.0578
 303  288.3978
 304  202.6424
 305  177.3464
 306  82.06406
 307  155.3337
 308  172.7207
 309  7.613859
 310  -6.633573
 311  116.8833
 312  55.38477
 313  -78.21947
 314  -188.4241
 315  -48.55637
 316  129.1967
 317  105.3373
 318  213.4096
 319  192.2267
 320  197.3573
 321  57.66075
 322  -17.05384
 323  172.5723
 324  222.2495
 325  104.9268
 326  47.8429
 327  87.33431
 328  87.71577
 329  -41.33609
 330  18.80936
 331  -10.98882
 332  -15.95209
 333  107.8223
 334  60.88238
 335  152.5333
 336  182.4239
 337  49.63763
 338  -0.08206885
 339  53.28372
 340  120.9703
 341  136.8001
 342  191.2836
 343  142.6689
 344  3.175698
 345  34.10318
 346  -58.38817
 347  80.02486
 348  117.8264
 349  102.833
 350  111.8386
 351  -40.3214
 352  -14.49601
 353  4.38421
 354  97.17842
 355  81.7739
 356  92.86183
 357  188.7448
 358  -19.05688
 359  13.13391
 360  64.62547
 361  101.0053
 362  73.72251
 363  110.3252
 364  -32.08792
 365  -160.2578
 366  -153.7881
 367  29.5737
 368  120.6272
 369  80.57371
 370  80.02671
 371  111.0978
 372  95.07964
 373  9.279962
 374  -43.44906
 375  42.45364
 376  123.7855
 377  178.1298
 378  176.1034
 379  117.0384
 380  90.0963
 381  118.9332
 382  40.40187
 383  40.52981
 384  -5.399872
 385  91.10062
 386  97.5832
 387  131.404
 388  187.0671
 389  60.93521
 390  120.4489
 391  116.8266
 392  194.5155
 393  172.73
 394  52.08075
 395  72.68233
 396  47.87228
 397  83.4095
 398  155.9768
 399  129.061
 400  118.3525
 401  132.0677
 402  95.85268
 403  81.32889
 404  49.53741
 405  96.01864
 406  36.61148
 407  114.5515
 408  70.0767
 409  -21.09271
 410  -2.334949
 411  124.4205
 412  96.32381
 413  48.08078
 414  40.83664
 415  125.6932
 416  267.8129
 417  153.3681
 418  127.0962
 419  196.5758
 420  37.64216
 421  -40.67235
 422  146.965
 423  348.6796
 424  321.4529
 425  219.9401
 426  191.6547
 427  -8.083596
 428  38.82965
 429  53.1162
 430  40.69468
 431  52.31136
 432  135.8398
 433  154.746
 434  45.95742
 435  120.5903
 436  207.3156
 437  156.8678
 438  131.8891
 439  111.7839
 440  92.15801
 441  131.6255
 442  108.457
 443  -48.72553
 444  -49.0021
 445  29.8715
 446  135.8613
 447  13.07653
 448  2.10411
 449  -40.84644
 450  90.76357
 451  32.75771
 452  43.36961
 453  38.72873
 454  -66.83944
 455  14.74055
 456  -80.68351
 457  55.40538
 458  60.03138
 459  22.4488
 460  103.9133
 461  140.3
 462  247.6313
 463  229.4692
 464  47.10744
 465  133.1663
 466  6.556353
 467  -1.456947
 468  47.75695
 469  138.1604
 470  89.02352
 471  4.649454
 472  37.6727
 473  -42.43883
 474  -11.23205
 475  -7.388956
 476  75.44302
 477  -1.039983
 478  44.8824
 479  32.61333
 480  75.43159
 481  132.809
 482  94.338
 483  -10.25573
 484  83.08418
 485  127.8418
 486  185.9006
 487  169.4533
 488  81.57928
 489  134.8612
 490  91.90282
 491  179.3486
 492  186.6711
 493  152.3902
 494  87.36745
 495  23.51799
 496  89.0834
 497  112.5752
 498  76.18769
 499  47.39869
 500  76.96062
 501  140.0401
 502  197.0131
 503  141.6568
 504  109.11
 505  221.2992
 506  322.2322
 507  294.4636
 508  363.714
 509  426.361
 510  697.6795
 511  850.2496
