# Input file       =  1189571473.122714_cleaned.dat
# Candidate        =  PSR_0332+5434
# Telescope        =  AR
# Epoch_topo       =  58012.188137994373
# Epoch_bary       =  N/A
# T_sample         =  0.002
# Data Folded      =  7340032
# Data Avg         =  0.0102569048392552
# Data StdDev      =  1.00002597263002 
# Profile Bins     =  512
# Profile Avg      =  146.876745833518 
# Profile StdDev   =  119.736146158621 
# Reduced chi-sqr  =  1.319
# Prob(Noise)      <  1.61e-06   (~4.7 sigma)
# P_topo (ms)      =  714.466565388808  +/- 0.000121
# P'_topo (s/s)    =  -0                +/- 6.37e-11
# P''_topo (s/s^2) =  0                 +/- 2.81e-14
# P_bary (ms)      =  N/A
# P'_bary (s/s)    =  N/A
# P''_bary (s/s^2) =  N/A
# P_orb (s)        =  N/A
# asin(i)/c (s)    =  N/A
# eccentricity     =  N/A
# w (rad)          =  N/A
# T_peri           =  N/A
######################################################
   0  743.7195
   1  501.1458
   2  538.0759
   3  510.6568
   4  201.5536
   5  98.33298
   6  141.2506
   7  212.9998
   8  229.3744
   9  313.8919
  10  206.4528
  11  185.4839
  12  51.95281
  13  198.8578
  14  193.9369
  15  252.9523
  16  157.0068
  17  35.503
  18  -10.95945
  19  -37.01738
  20  20.5536
  21  98.24921
  22  69.42691
  23  149.4665
  24  118.9675
  25  149.0931
  26  176.6568
  27  189.6272
  28  233.8628
  29  294.6766
  30  309.4782
  31  243.9105
  32  94.58349
  33  59.1657
  34  60.36027
  35  82.0244
  36  29.90461
  37  105.881
  38  43.20502
  39  78.5787
  40  177.8324
  41  97.32943
  42  49.58001
  43  137.6658
  44  108.2529
  45  73.90785
  46  32.71997
  47  13.92913
  48  58.96058
  49  198.9579
  50  270.2527
  51  181.503
  52  153.9096
  53  276.0308
  54  144.4859
  55  68.00745
  56  205.1754
  57  226.8936
  58  161.6277
  59  144.9384
  60  96.2602
  61  109.4878
  62  363.4261
  63  311.8063
  64  115.9968
  65  62.85286
  66  43.72326
  67  122.7005
  68  46.01044
  69  244.3477
  70  324.8866
  71  242.4331
  72  184.3754
  73  105.4873
  74  186.8558
  75  285.6906
  76  304.6746
  77  219.4008
  78  440.7589
  79  318.9324
  80  248.695
  81  256.102
  82  171.5986
  83  80.42171
  84  -16.10326
  85  -0.9501081
  86  102.4426
  87  134.5354
  88  172.5341
  89  237.0244
  90  174.3619
  91  110.0728
  92  177.1559
  93  195.4568
  94  146.6125
  95  108.6118
  96  96.91652
  97  174.3752
  98  170.6082
  99  99.60934
 100  189.0687
 101  81.74371
 102  80.20574
 103  49.70186
 104  135.8484
 105  381.9586
 106  356.1572
 107  232.2451
 108  181.0151
 109  216.6259
 110  251.9842
 111  271.6777
 112  313.7437
 113  314.9328
 114  231.0245
 115  -32.92873
 116  -46.56689
 117  -2.700749
 118  192.4738
 119  191.5319
 120  16.62256
 121  7.018037
 122  59.69135
 123  95.3315
 124  19.96639
 125  96.43933
 126  154.4541
 127  -15.17248
 128  50.50526
 129  102.4048
 130  77.42109
 131  230.7136
 132  226.323
 133  178.1853
 134  166.2829
 135  153.771
 136  125.2848
 137  221.3869
 138  88.44976
 139  39.10866
 140  22.67285
 141  126.3788
 142  155.2742
 143  98.99609
 144  101.0737
 145  41.1296
 146  72.63049
 147  153.826
 148  100.6074
 149  170.0642
 150  107.5141
 151  108.003
 152  304.6907
 153  256.3336
 154  153.9797
 155  233.1998
 156  205.0302
 157  233.9678
 158  208.6674
 159  103.3985
 160  184.5372
 161  119.8082
 162  86.57166
 163  61.46518
 164  184.3456
 165  272.4495
 166  171.7636
 167  139.678
 168  55.99359
 169  97.04533
 170  166.4675
 171  218.364
 172  122.2274
 173  206.9646
 174  155.2736
 175  250.8351
 176  150.2612
 177  171.7668
 178  169.8255
 179  122.705
 180  172.1814
 181  53.8318
 182  72.46317
 183  132.5071
 184  27.68522
 185  74.10658
 186  92.509
 187  183.7639
 188  145.3266
 189  79.32823
 190  269.9687
 191  313.5846
 192  143.2579
 193  130.63
 194  121.793
 195  223.3371
 196  229.9204
 197  252.4783
 198  226.0397
 199  94.4599
 200  137.0964
 201  96.53284
 202  46.49198
 203  121.192
 204  252.132
 205  142.2309
 206  171.0047
 207  251.7318
 208  211.7942
 209  121.434
 210  263.6912
 211  93.514
 212  -4.658757
 213  81.47952
 214  272.4537
 215  140.4645
 216  257.2198
 217  367.6048
 218  291.936
 219  128.6977
 220  72.93845
 221  77.06297
 222  98.26077
 223  229.2889
 224  278.7759
 225  125.9488
 226  0.2075104
 227  67.28122
 228  160.9326
 229  30.18449
 230  88.73865
 231  123.7445
 232  95.5865
 233  -9.562181
 234  -42.25776
 235  24.16959
 236  119.0831
 237  147.9846
 238  71.94594
 239  32.38459
 240  150.4503
 241  97.47323
 242  59.45345
 243  19.28653
 244  126.93
 245  105.2109
 246  108.0709
 247  183.2284
 248  208.1819
 249  213.5427
 250  63.15309
 251  -31.96065
 252  117.6429
 253  150.9048
 254  214.1924
 255  222.3102
 256  126.3026
 257  95.62885
 258  137.3177
 259  57.84031
 260  115.7598
 261  74.44289
 262  183.2811
 263  148.8525
 264  45.07698
 265  268.4802
 266  309.5444
 267  166.5535
 268  221.5582
 269  141.0547
 270  37.63268
 271  144.4716
 272  86.1785
 273  93.42299
 274  208.6065
 275  195.503
 276  224.1278
 277  184.7525
 278  179.7754
 279  248.3371
 280  180.1329
 281  173.5829
 282  170.6118
 283  266.2466
 284  269.1236
 285  131.2146
 286  127.1404
 287  239.6262
 288  113.5656
 289  106.1242
 290  23.01887
 291  42.92709
 292  122.8561
 293  178.3182
 294  -6.323875
 295  -49.15123
 296  71.08052
 297  162.0965
 298  212.8095
 299  215.7009
 300  211.8347
 301  211.3468
 302  219.9509
 303  70.15331
 304  42.25131
 305  135.9476
 306  140.0703
 307  101.9789
 308  15.2995
 309  75.34299
 310  -19.0646
 311  55.10013
 312  59.52318
 313  85.8629
 314  74.48157
 315  187.986
 316  92.13319
 317  48.82715
 318  48.04479
 319  106.5015
 320  185.3047
 321  161.3971
 322  160.6679
 323  136.9625
 324  139.6622
 325  133.0613
 326  101.8947
 327  5.375178
 328  160.3024
 329  133.5226
 330  77.1246
 331  87.86483
 332  26.01205
 333  58.19295
 334  34.27338
 335  6.025471
 336  140.5154
 337  137.813
 338  144.4214
 339  136.7217
 340  187.3443
 341  117.2705
 342  -10.17969
 343  27.14392
 344  115.349
 345  268.299
 346  234.3737
 347  90.88842
 348  161.0131
 349  243.5709
 350  161.775
 351  -31.16929
 352  32.25904
 353  126.5575
 354  207.5267
 355  256.2018
 356  235.581
 357  171.9408
 358  129.2832
 359  145.0156
 360  127.2497
 361  31.04086
 362  111.9818
 363  186.6844
 364  253.1369
 365  244.2737
 366  61.53708
 367  -22.72364
 368  -28.13497
 369  155.724
 370  114.9365
 371  12.58945
 372  -17.51336
 373  9.222311
 374  79.35459
 375  237.224
 376  169.1102
 377  147.7912
 378  145.1536
 379  122.8369
 380  55.99435
 381  89.77262
 382  153.8104
 383  95.36639
 384  205.5318
 385  106.6844
 386  112.4147
 387  49.95133
 388  119.3481
 389  207.2859
 390  231.8985
 391  109.5758
 392  167.7098
 393  174.2364
 394  245.8382
 395  174.7264
 396  90.33328
 397  26.24412
 398  68.24852
 399  109.7343
 400  195.7022
 401  278.8736
 402  240.0608
 403  167.2279
 404  114.9533
 405  172.4648
 406  246.9578
 407  105.804
 408  122.5943
 409  184.4627
 410  273.4464
 411  199.6574
 412  214.3556
 413  177.4618
 414  194.6344
 415  264.5289
 416  176.0869
 417  56.24386
 418  91.58188
 419  116.9217
 420  146.8642
 421  190.6857
 422  98.22478
 423  127.0642
 424  83.55188
 425  -95.0812
 426  -104.1658
 427  132.9267
 428  283.0458
 429  42.785
 430  38.55754
 431  114.1943
 432  68.99628
 433  151.6504
 434  191.6523
 435  70.04866
 436  -21.78102
 437  -10.09933
 438  -7.648433
 439  87.58189
 440  162.8633
 441  107.0413
 442  63.66452
 443  203.1906
 444  163.7094
 445  275.2569
 446  146.6501
 447  74.07999
 448  23.69786
 449  83.15985
 450  116.0999
 451  59.17536
 452  113.7068
 453  192.1451
 454  102.5571
 455  75.73364
 456  81.0279
 457  69.74672
 458  145.5758
 459  29.67498
 460  84.20659
 461  -14.16105
 462  55.82487
 463  147.7984
 464  127.4053
 465  31.41842
 466  29.85693
 467  170.7219
 468  154.4711
 469  116.9805
 470  76.34014
 471  210.8417
 472  148.2688
 473  141.2172
 474  256.0756
 475  275.7642
 476  192.8188
 477  144.298
 478  254.3104
 479  167.5878
 480  88.35885
 481  273.0444
 482  135.4292
 483  224.9312
 484  307.8407
 485  238.0304
 486  277.254
 487  128.5899
 488  211.594
 489  170.2553
 490  151.6369
 491  186.8429
 492  134.9871
 493  288.3508
 494  391.3662
 495  138.2016
 496  193.0567
 497  92.32715
 498  303.092
 499  249.1572
 500  220.0496
 501  268.7217
 502  384.2155
 503  127.8336
 504  140.4173
 505  204.0162
 506  249.6656
 507  258.2586
 508  99.50476
 509  225.9741
 510  515.5854
 511  777.6166
