# Input file       =  1189485312.127878_cleaned.dat
# Candidate        =  PSR_0332+5434
# Telescope        =  AR
# Epoch_topo       =  58011.190904257848
# Epoch_bary       =  N/A
# T_sample         =  0.002
# Data Folded      =  7340032
# Data Avg         =  0.00929363966856605
# Data StdDev      =  1.00003008393927 
# Profile Bins     =  512
# Profile Avg      =  133.274156322455 
# Profile StdDev   =  119.736638418161 
# Reduced chi-sqr  =  1.385
# Prob(Noise)      <  1.64e-08   (~5.5 sigma)
# P_topo (ms)      =  714.466268169194  +/- 0.000139
# P'_topo (s/s)    =  -0                +/- 7.35e-11
# P''_topo (s/s^2) =  0                 +/- 3.24e-14
# P_bary (ms)      =  N/A
# P'_bary (s/s)    =  N/A
# P''_bary (s/s^2) =  N/A
# P_orb (s)        =  N/A
# asin(i)/c (s)    =  N/A
# eccentricity     =  N/A
# w (rad)          =  N/A
# T_peri           =  N/A
######################################################
   0  755.4805
   1  801.8422
   2  739.8643
   3  359.4264
   4  238.4176
   5  257.9445
   6  137.039
   7  33.69717
   8  19.59883
   9  74.84967
  10  66.03684
  11  39.59217
  12  56.16488
  13  230.4228
  14  105.6072
  15  56.2472
  16  136.4954
  17  210.0027
  18  88.70023
  19  45.85266
  20  94.87399
  21  28.42085
  22  34.40171
  23  197.4619
  24  203.7391
  25  33.23557
  26  52.70461
  27  -45.41449
  28  -18.13796
  29  178.9938
  30  237.5994
  31  194.0011
  32  49.12777
  33  265.6045
  34  159.5732
  35  106.4689
  36  92.68945
  37  183.2192
  38  104.7691
  39  87.08113
  40  117.7505
  41  215.7514
  42  191.5501
  43  194.862
  44  174.9474
  45  70.10776
  46  74.07879
  47  209.4132
  48  135.5424
  49  80.80022
  50  13.66426
  51  79.0629
  52  128.6486
  53  135.3593
  54  149.9832
  55  61.98867
  56  125.8715
  57  15.88458
  58  -22.25225
  59  66.73233
  60  171.9082
  61  218.8427
  62  51.3489
  63  98.01676
  64  245.6118
  65  151.9987
  66  117.5828
  67  24.55264
  68  206.2873
  69  69.55478
  70  92.5359
  71  176.2066
  72  84.26855
  73  -39.53607
  74  63.69308
  75  97.3669
  76  208.2557
  77  151.4306
  78  123.2758
  79  99.94346
  80  34.22842
  81  13.12068
  82  166.0742
  83  216.8191
  84  217.0702
  85  108.4247
  86  21.99926
  87  162.06
  88  192.3114
  89  333.0771
  90  272.3359
  91  93.67326
  92  147.1885
  93  136.7882
  94  225.7975
  95  241.966
  96  68.46918
  97  63.09999
  98  114.3293
  99  148.5309
 100  190.1293
 101  151.3905
 102  253.352
 103  137.5443
 104  10.97959
 105  259.6565
 106  286.9953
 107  163.5331
 108  83.23568
 109  109.473
 110  295.2372
 111  275.3326
 112  375.3298
 113  269.4044
 114  277.7004
 115  118.0825
 116  80.83797
 117  81.68681
 118  305.7179
 119  122.5881
 120  -29.46073
 121  -35.73487
 122  39.1641
 123  203.8329
 124  134.6204
 125  -37.69198
 126  -44.08094
 127  4.900025
 128  213.6864
 129  181.5573
 130  70.16048
 131  34.48683
 132  -3.057588
 133  35.65061
 134  237.9814
 135  247.8818
 136  89.40087
 137  -3.024439
 138  19.81892
 139  102.9885
 140  17.09628
 141  -83.35223
 142  43.2296
 143  185.4102
 144  263.4291
 145  230.6234
 146  119.5226
 147  128.4991
 148  113.0012
 149  47.66272
 150  136.1092
 151  254.2307
 152  352.6833
 153  249.1258
 154  186.069
 155  142.0761
 156  94.97449
 157  53.44806
 158  27.44345
 159  56.45503
 160  -66.06316
 161  -73.58073
 162  -122.5033
 163  94.18005
 164  134.5312
 165  126.8515
 166  173.6883
 167  161.6119
 168  151.1142
 169  154.1596
 170  132.5468
 171  46.80724
 172  10.62926
 173  106.7573
 174  163.3698
 175  113.9369
 176  144.5476
 177  212.7266
 178  187.1869
 179  117.559
 180  149.4847
 181  196.1553
 182  53.32896
 183  114.1614
 184  165.4784
 185  130.8502
 186  52.49683
 187  88.68523
 188  38.03853
 189  0.361955
 190  95.90438
 191  134.8693
 192  172.1497
 193  266.3611
 194  265.7734
 195  132.8228
 196  116.3874
 197  153.0357
 198  172.301
 199  112.7163
 200  297.7114
 201  177.0023
 202  218.4451
 203  169.9043
 204  132.4533
 205  196.0881
 206  237.0939
 207  -21.93966
 208  26.35538
 209  138.5455
 210  199.8531
 211  82.39597
 212  180.3584
 213  120.2508
 214  123.6216
 215  77.29376
 216  205.0614
 217  203.1526
 218  79.842
 219  -6.152244
 220  64.31371
 221  134.5987
 222  78.56956
 223  -23.30721
 224  35.94033
 225  241.6776
 226  230.7921
 227  355.4611
 228  295.8581
 229  156.5301
 230  155.369
 231  14.23251
 232  103.8708
 233  170.0081
 234  244.1343
 235  162.4928
 236  135.4124
 237  137.4831
 238  68.26235
 239  -90.89899
 240  32.29858
 241  85.00711
 242  43.77142
 243  145.5576
 244  153.9007
 245  56.58567
 246  64.89384
 247  52.90802
 248  21.40438
 249  63.95432
 250  44.40642
 251  71.26527
 252  110.9853
 253  177.0374
 254  187.1809
 255  253.9436
 256  120.0418
 257  269.0141
 258  228.8748
 259  233.5024
 260  180.2371
 261  55.15162
 262  153.0981
 263  163.5897
 264  17.74218
 265  137.0957
 266  112.4402
 267  223.7455
 268  230.0351
 269  146.6269
 270  141.6141
 271  137.8059
 272  162.5208
 273  340.1482
 274  222.7865
 275  67.94616
 276  123.6545
 277  108.4532
 278  165.0075
 279  254.9173
 280  151.5192
 281  259.1804
 282  252.223
 283  155.2227
 284  210.5237
 285  144.454
 286  136.9152
 287  183.0555
 288  137.2338
 289  89.29623
 290  69.59514
 291  71.00915
 292  124.5751
 293  122.7123
 294  80.78911
 295  162.2793
 296  115.2517
 297  175.1804
 298  126.6035
 299  148.4421
 300  137.5933
 301  112.2475
 302  246.661
 303  145.9922
 304  115.549
 305  189.7416
 306  66.38998
 307  64.71068
 308  161.2923
 309  141.9822
 310  83.32278
 311  89.49072
 312  121.1866
 313  240.9085
 314  247.5842
 315  225.4782
 316  108.5512
 317  29.62207
 318  115.6088
 319  114.3925
 320  48.46475
 321  235.0227
 322  81.11506
 323  156.9099
 324  230.5654
 325  134.4719
 326  186.6687
 327  368.6367
 328  265.6544
 329  299.8083
 330  381.1979
 331  318.5926
 332  112.137
 333  29.75569
 334  226.9691
 335  283.4388
 336  217.1019
 337  182.0796
 338  214.8871
 339  216.8863
 340  153.9639
 341  124.698
 342  139.556
 343  110.6492
 344  40.8525
 345  56.74509
 346  80.40175
 347  92.92587
 348  267.983
 349  293.3593
 350  114.4987
 351  118.0588
 352  153.2091
 353  91.24884
 354  101.5382
 355  84.14268
 356  162.2108
 357  147.2575
 358  81.8646
 359  181.5515
 360  254.3652
 361  123.4481
 362  32.97831
 363  68.85459
 364  186.4351
 365  240.9004
 366  135.2705
 367  208.109
 368  197.5661
 369  211.0484
 370  130.7166
 371  126.8669
 372  -72.30859
 373  38.75701
 374  90.18538
 375  262.9702
 376  135.8445
 377  147.7479
 378  185.4476
 379  174.182
 380  217.3356
 381  171.3513
 382  252.0267
 383  174.8865
 384  53.82389
 385  109.3248
 386  112.5379
 387  58.22306
 388  23.42938
 389  163.6307
 390  218.4558
 391  147.7174
 392  59.60345
 393  132.5668
 394  322.1678
 395  167.8436
 396  114.1195
 397  192.6825
 398  244.0422
 399  157.7832
 400  137.056
 401  182.7931
 402  69.31109
 403  4.804346
 404  125.9528
 405  69.4249
 406  131.2298
 407  174.3563
 408  87.45827
 409  -30.06618
 410  61.50922
 411  157.3363
 412  137.4599
 413  197.562
 414  158.1798
 415  163.5424
 416  45.15253
 417  102.977
 418  77.95139
 419  116.9284
 420  115.3057
 421  -100.9343
 422  70.91918
 423  209.4436
 424  92.30316
 425  157.3787
 426  56.37442
 427  127.264
 428  84.09169
 429  -1.145146
 430  85.79181
 431  171.8548
 432  240.0935
 433  182.227
 434  134.5475
 435  146.7406
 436  129.2942
 437  90.1404
 438  64.06528
 439  84.43648
 440  153.7595
 441  238.3779
 442  60.65854
 443  -3.212739
 444  176.8923
 445  104.5577
 446  7.357841
 447  -83.71473
 448  102.8328
 449  91.47546
 450  117.6977
 451  193.2491
 452  42.65138
 453  112.791
 454  178.1213
 455  97.22549
 456  3.227343
 457  -94.67037
 458  112.2285
 459  103.4722
 460  27.3127
 461  2.409607
 462  -22.48964
 463  206.1376
 464  266.0916
 465  183.2784
 466  30.35586
 467  151.6217
 468  249.1168
 469  195.0961
 470  76.38942
 471  116.2123
 472  95.72079
 473  10.35498
 474  89.74515
 475  78.93456
 476  126.4516
 477  187.013
 478  181.8991
 479  79.34135
 480  25.91373
 481  114.6116
 482  172.1306
 483  174.6043
 484  149.9714
 485  11.06991
 486  -84.49695
 487  -8.896284
 488  -1.502286
 489  -71.21192
 490  101.1393
 491  76.32217
 492  204.9198
 493  176.2172
 494  147.1651
 495  186.6895
 496  16.10628
 497  -74.08724
 498  -68.70889
 499  116.667
 500  15.63397
 501  16.19356
 502  67.73394
 503  173.1965
 504  165.0249
 505  82.39542
 506  55.19769
 507  159.9422
 508  163.6204
 509  247.8612
 510  420.9476
 511  628.8478
