# Input file       =  1189886569.111768_cleaned.dat
# Candidate        =  PSR_0332+5434
# Telescope        =  AR
# Epoch_topo       =  58015.835082312129
# Epoch_bary       =  N/A
# T_sample         =  0.002
# Data Folded      =  7143424
# Data Avg         =  0.00854364383708118
# Data StdDev      =  1.00006185809458 
# Profile Bins     =  512
# Profile Avg      =  119.211848661122 
# Profile StdDev   =  118.125891072438 
# Reduced chi-sqr  =  1.545
# Prob(Noise)      <  2.74e-14   (~7.5 sigma)
# P_topo (ms)      =  714.467450969331  +/- 0.000203
# P'_topo (s/s)    =  -0                +/- 1.1e-10
# P''_topo (s/s^2) =  0                 +/- 4.99e-14
# P_bary (ms)      =  N/A
# P'_bary (s/s)    =  N/A
# P''_bary (s/s^2) =  N/A
# P_orb (s)        =  N/A
# asin(i)/c (s)    =  N/A
# eccentricity     =  N/A
# w (rad)          =  N/A
# T_peri           =  N/A
######################################################
   0  930.2607
   1  920.9868
   2  664.9953
   3  464.7588
   4  203.4693
   5  3.581696
   6  22.16856
   7  81.50087
   8  126.4099
   9  158.1043
  10  83.48575
  11  25.04103
  12  75.38721
  13  155.3653
  14  233.5584
  15  85.88328
  16  88.33755
  17  228.5418
  18  189.7169
  19  60.1301
  20  27.5711
  21  15.85556
  22  37.73344
  23  21.74696
  24  69.02384
  25  129.8239
  26  189.5217
  27  221.5753
  28  214.4647
  29  149.51
  30  222.406
  31  246.8638
  32  182.1315
  33  171.7327
  34  129.5818
  35  174.1346
  36  262.0629
  37  258.5499
  38  139.7836
  39  31.49422
  40  27.68972
  41  155.9078
  42  144.9977
  43  161.9635
  44  231.908
  45  37.13926
  46  156.4616
  47  132.9402
  48  189.8991
  49  78.98684
  50  132.2439
  51  112.9784
  52  115.5184
  53  259.0704
  54  270.0816
  55  192.2714
  56  54.48422
  57  80.22606
  58  128.4557
  59  181.2558
  60  223.9916
  61  167.0716
  62  100.0277
  63  110.5453
  64  41.74693
  65  151.8365
  66  223.7901
  67  144.439
  68  -30.37635
  69  38.54802
  70  162.4966
  71  102.4974
  72  18.78246
  73  55.42674
  74  74.17529
  75  227.3811
  76  256.6718
  77  116.38
  78  60.87774
  79  82.40559
  80  158.1552
  81  149.286
  82  122.6385
  83  149.4236
  84  179.3033
  85  121.7393
  86  220.0039
  87  130.8529
  88  94.36384
  89  194.5027
  90  201.5957
  91  213.9604
  92  146.9744
  93  43.42725
  94  -0.3470667
  95  90.57462
  96  169.5308
  97  82.42342
  98  258.2473
  99  199.5862
 100  124.7364
 101  -26.02174
 102  -27.37474
 103  -20.24429
 104  6.008524
 105  96.91936
 106  187.9502
 107  128.8541
 108  15.55478
 109  81.262
 110  261.8745
 111  212.944
 112  1.908423
 113  36.99242
 114  -45.52816
 115  54.33361
 116  104.5943
 117  143.2285
 118  166.7212
 119  88.75582
 120  76.52337
 121  99.6862
 122  -19.42801
 123  20.55468
 124  138.553
 125  136.1847
 126  96.07272
 127  153.1654
 128  258.1881
 129  289.7824
 130  222.1434
 131  244.306
 132  136.0483
 133  83.62116
 134  -21.92615
 135  14.77749
 136  173.5317
 137  189.4591
 138  215.9982
 139  113.3519
 140  187.3764
 141  171.6795
 142  48.78984
 143  44.44562
 144  48.63105
 145  120.1284
 146  131.8004
 147  171.5559
 148  119.5196
 149  77.12808
 150  132.228
 151  170.6322
 152  143.8276
 153  214.758
 154  73.07384
 155  119.9066
 156  143.1966
 157  208.0524
 158  61.59979
 159  95.31335
 160  212.4644
 161  159.943
 162  43.56106
 163  160.4435
 164  139.6316
 165  80.3718
 166  63.74056
 167  71.34233
 168  152.9158
 169  73.83691
 170  179.3675
 171  205.6659
 172  39.98804
 173  111.1792
 174  72.75345
 175  159.8042
 176  13.08863
 177  85.50673
 178  129.8685
 179  116.5179
 180  124.4779
 181  122.8734
 182  47.58919
 183  64.424
 184  312.1322
 185  251.2243
 186  -51.77895
 187  -1.643227
 188  88.09857
 189  301.6347
 190  154.8913
 191  38.73246
 192  83.80822
 193  2.153317
 194  16.53423
 195  49.09332
 196  179.7491
 197  40.65042
 198  125.385
 199  145.8863
 200  171.9299
 201  40.62323
 202  132.4968
 203  318.2903
 204  237.1289
 205  114.8769
 206  -90.14848
 207  -75.93491
 208  42.92645
 209  -65.02132
 210  68.88912
 211  97.67416
 212  132.0121
 213  44.90294
 214  151.6582
 215  178.4435
 216  94.59932
 217  -26.77306
 218  -50.99626
 219  39.92458
 220  78.63165
 221  240.6863
 222  176.4038
 223  67.20383
 224  175.0884
 225  95.75896
 226  96.85944
 227  155.4295
 228  -65.42432
 229  -4.139012
 230  23.07214
 231  19.49055
 232  87.47283
 233  118.3009
 234  159.3528
 235  230.4698
 236  78.17658
 237  129.7126
 238  157.5943
 239  210.3198
 240  133.9234
 241  92.92252
 242  66.12269
 243  148.0005
 244  83.50238
 245  107.1774
 246  170.2093
 247  -16.1621
 248  -64.76859
 249  39.58733
 250  89.59151
 251  54.26547
 252  -60.63973
 253  85.70326
 254  86.70156
 255  116.5267
 256  94.63177
 257  37.71469
 258  17.91426
 259  -3.669719
 260  25.93859
 261  -2.303148
 262  39.51306
 263  -0.1979709
 264  84.37288
 265  66.96709
 266  96.86992
 267  153.9747
 268  27.68276
 269  -18.2404
 270  81.06598
 271  213.4993
 272  194.6488
 273  79.52617
 274  165.2495
 275  1.090963
 276  2.939084
 277  103.7806
 278  123.6743
 279  142.233
 280  230.8777
 281  303.5628
 282  325.1721
 283  297.1757
 284  91.25008
 285  101.7099
 286  173.4736
 287  160.334
 288  29.52205
 289  -28.50176
 290  -63.88465
 291  36.48862
 292  117.0247
 293  192.5968
 294  128.3817
 295  227.6892
 296  312.7087
 297  145.6462
 298  164.4288
 299  142.2586
 300  21.99506
 301  -132.4556
 302  55.64679
 303  112.7456
 304  220.6838
 305  134.7928
 306  70.39809
 307  35.34957
 308  103.8354
 309  29.95852
 310  -4.952441
 311  63.89532
 312  35.7195
 313  10.04012
 314  139.3071
 315  201.3473
 316  -2.673304
 317  -1.592808
 318  43.35718
 319  -23.77065
 320  145.1722
 321  81.78767
 322  92.33217
 323  54.31121
 324  143.4191
 325  158.6765
 326  -22.49337
 327  -134.7453
 328  37.23499
 329  123.8563
 330  145.2927
 331  184.8283
 332  181.3962
 333  88.18716
 334  151.8514
 335  140.319
 336  30.29252
 337  148.073
 338  182.5883
 339  100.3998
 340  36.23955
 341  103.1961
 342  145.3672
 343  135.8761
 344  133.9673
 345  116.9055
 346  68.66166
 347  40.84553
 348  40.35572
 349  103.3359
 350  154.3824
 351  126.1855
 352  191.8891
 353  26.72555
 354  -18.81236
 355  86.24512
 356  134.7559
 357  79.82993
 358  104.0395
 359  103.4333
 360  78.20375
 361  -10.72849
 362  -51.42123
 363  130.4079
 364  96.40242
 365  154.3088
 366  154.4526
 367  52.50274
 368  -8.136556
 369  121.4178
 370  164.9153
 371  139.2312
 372  176.9119
 373  137.1671
 374  -29.25696
 375  2.618832
 376  66.29894
 377  3.684378
 378  -64.23446
 379  72.37492
 380  78.23642
 381  175.8123
 382  231.804
 383  156.9492
 384  58.45889
 385  138.7823
 386  119.111
 387  -43.75904
 388  38.69569
 389  239.4145
 390  224.2662
 391  124.7163
 392  104.3822
 393  185.8447
 394  105.0706
 395  35.0985
 396  148.4698
 397  157.8314
 398  232.1407
 399  231.5637
 400  198.6495
 401  91.59709
 402  173.5157
 403  36.13694
 404  -16.7724
 405  8.54598
 406  59.80838
 407  22.96558
 408  57.60099
 409  124.8017
 410  85.77351
 411  205.0355
 412  204.3881
 413  274.4775
 414  104.219
 415  -10.12734
 416  40.14094
 417  149.9394
 418  123.5538
 419  133.5636
 420  158.2717
 421  60.35937
 422  111.5962
 423  6.623916
 424  153.1503
 425  94.60382
 426  55.5129
 427  15.02153
 428  73.31322
 429  61.21082
 430  73.54866
 431  148.2498
 432  82.02132
 433  71.19792
 434  -42.60132
 435  134.836
 436  157.1976
 437  195.9305
 438  104.0712
 439  7.002244
 440  92.43304
 441  32.03751
 442  49.25571
 443  114.3915
 444  63.09433
 445  14.83641
 446  63.18021
 447  198.2428
 448  208.8756
 449  176.9435
 450  263.7391
 451  239.0215
 452  165.2382
 453  158.7274
 454  174.4478
 455  169.9315
 456  167.5621
 457  180.4384
 458  84.15202
 459  71.98497
 460  115.1611
 461  166.9028
 462  253.3456
 463  165.0347
 464  23.90465
 465  74.41034
 466  68.00187
 467  33.81956
 468  98.31828
 469  48.4685
 470  -4.410026
 471  175.2292
 472  247.9852
 473  197.2885
 474  121.4255
 475  87.89476
 476  105.8121
 477  104.4364
 478  215.3559
 479  246.8237
 480  278.7433
 481  193.9659
 482  63.96074
 483  128.7451
 484  127.7001
 485  250.8242
 486  204.1407
 487  40.02194
 488  -13.76905
 489  186.9106
 490  121.7653
 491  193.853
 492  160.941
 493  261.2844
 494  233.0947
 495  124.0481
 496  133.8087
 497  86.94656
 498  -38.78619
 499  58.73722
 500  154.041
 501  148.3983
 502  188.0298
 503  116.9431
 504  175.1007
 505  330.2217
 506  249.6087
 507  259.0435
 508  142.3543
 509  287.7057
 510  594.2806
 511  781.5687
