# Input file       =  1189714279.113872_cleaned.dat
# Candidate        =  PSR_0332+5434
# Telescope        =  AR
# Epoch_topo       =  58013.840985114257
# Epoch_bary       =  N/A
# T_sample         =  0.002
# Data Folded      =  7143424
# Data Avg         =  0.0149003593947262
# Data StdDev      =  1.00013939412714 
# Profile Bins     =  512
# Profile Avg      =  207.881713143209 
# Profile StdDev   =  118.13504951885  
# Reduced chi-sqr  =  1.589
# Prob(Noise)      <  4.37e-16   (~8.0 sigma)
# P_topo (ms)      =  714.466746409657  +/- 0.000116
# P'_topo (s/s)    =  -0                +/- 6.29e-11
# P''_topo (s/s^2) =  0                 +/- 2.86e-14
# P_bary (ms)      =  N/A
# P'_bary (s/s)    =  N/A
# P''_bary (s/s^2) =  N/A
# P_orb (s)        =  N/A
# asin(i)/c (s)    =  N/A
# eccentricity     =  N/A
# w (rad)          =  N/A
# T_peri           =  N/A
######################################################
   0  1001.432
   1  956.1016
   2  600.5395
   3  218.4704
   4  245.004
   5  141.0025
   6  121.9516
   7  263.4997
   8  320.6937
   9  330.7168
  10  286.0204
  11  297.8406
  12  114.2696
  13  148.6032
  14  150.0972
  15  192.8289
  16  350.4923
  17  343.5454
  18  269.8357
  19  253.1955
  20  301.4787
  21  241.3711
  22  305.7383
  23  354.4871
  24  424.5456
  25  258.2056
  26  248.7511
  27  149.3866
  28  178.9856
  29  178.0067
  30  181.9586
  31  135.3346
  32  314.2531
  33  368.1555
  34  211.5535
  35  232.5279
  36  150.7406
  37  282.3199
  38  184.631
  39  206.1155
  40  345.7591
  41  419.1034
  42  299.4185
  43  221.3071
  44  178.8025
  45  176.5519
  46  222.5282
  47  177.389
  48  202.9552
  49  173.4701
  50  170.1974
  51  246.1468
  52  128.0524
  53  60.16368
  54  -0.8538157
  55  82.57975
  56  184.4518
  57  118.2747
  58  196.3289
  59  287.1491
  60  324.6152
  61  224.6296
  62  165.175
  63  343.4846
  64  406.0454
  65  191.8237
  66  128.9778
  67  113.5117
  68  136.8844
  69  249.692
  70  315.5105
  71  167.4632
  72  57.57246
  73  117.1441
  74  183.4913
  75  286.0449
  76  264.4249
  77  334.1154
  78  195.5046
  79  187.9646
  80  156.5796
  81  328.999
  82  224.984
  83  132.6146
  84  147.2696
  85  170.1121
  86  97.12161
  87  69.54096
  88  206.1316
  89  291.3622
  90  298.0216
  91  157.2519
  92  104.7682
  93  55.73626
  94  171.8553
  95  137.7463
  96  222.675
  97  245.8368
  98  228.5236
  99  355.704
 100  324.5835
 101  301.1321
 102  351.061
 103  166.0212
 104  180.838
 105  243.209
 106  159.1152
 107  246.1891
 108  342.2273
 109  246.6354
 110  219.0077
 111  266.5372
 112  243.4614
 113  96.72816
 114  124.8448
 115  198.2925
 116  187.8281
 117  262.0844
 118  327.7358
 119  293.1372
 120  151.592
 121  130.59
 122  82.26681
 123  214.6699
 124  175.3774
 125  177.4524
 126  222.8793
 127  287.5306
 128  109.0789
 129  206.2342
 130  307.0081
 131  314.6388
 132  371.3964
 133  382.965
 134  233.0743
 135  227.3371
 136  215.1656
 137  117.0384
 138  186.5419
 139  360.2137
 140  393.8131
 141  266.3126
 142  310.736
 143  356.5178
 144  287.8499
 145  144.2439
 146  168.9789
 147  327.1385
 148  276.3439
 149  243.0399
 150  231.1862
 151  251.0991
 152  229.955
 153  96.9871
 154  72.48381
 155  124.0274
 156  148.5764
 157  215.9754
 158  165.4942
 159  136.5574
 160  103.1142
 161  250.4417
 162  278.9979
 163  156.1887
 164  233.8944
 165  256.167
 166  270.487
 167  197.6566
 168  108.1979
 169  213.1206
 170  260.473
 171  179.3922
 172  231.1703
 173  182.9632
 174  167.4484
 175  243.9379
 176  149.828
 177  150.1943
 178  240.2618
 179  216.1301
 180  296.1513
 181  229.9578
 182  128.9163
 183  157.8421
 184  227.8673
 185  96.29454
 186  128.3315
 187  94.47854
 188  233.5743
 189  158.4582
 190  124.1016
 191  122.6349
 192  203.6266
 193  247.7904
 194  216.0593
 195  136.3414
 196  33.00351
 197  149.8667
 198  217.0439
 199  310.7684
 200  232.8331
 201  289.7654
 202  300.2842
 203  252.2999
 204  245.4918
 205  177.0038
 206  166.2785
 207  185.9474
 208  127.0506
 209  157.5656
 210  160.4634
 211  177.4113
 212  157.975
 213  291.9771
 214  330.052
 215  200.7961
 216  115.4855
 217  56.4151
 218  85.93137
 219  126.1221
 220  144.677
 221  73.70278
 222  150.1583
 223  124.7358
 224  161.1944
 225  150.0267
 226  121.6845
 227  77.37368
 228  -75.28852
 229  -57.10211
 230  158.3281
 231  277.4646
 232  298.6149
 233  200.8861
 234  141.2843
 235  56.84384
 236  116.596
 237  102.7613
 238  35.13959
 239  32.12224
 240  116.5639
 241  232.6609
 242  147.3601
 243  126.9871
 244  182.648
 245  213.9813
 246  90.98053
 247  193.5512
 248  238.999
 249  165.2758
 250  221.5429
 251  135.9774
 252  109.3623
 253  181.05
 254  285.604
 255  228.7856
 256  198.6878
 257  32.58057
 258  175.5435
 259  307.0459
 260  350.6166
 261  244.3282
 262  203.5083
 263  85.87602
 264  68.8937
 265  244.124
 266  303.5244
 267  145.9752
 268  27.86006
 269  93.90397
 270  64.15112
 271  130.0835
 272  167.536
 273  188.0629
 274  50.49477
 275  26.15683
 276  143.4094
 277  108.1357
 278  100.377
 279  315.8748
 280  297.5113
 281  372.861
 282  335.4768
 283  231.2451
 284  205.6236
 285  233.6285
 286  94.08253
 287  121.8699
 288  239.948
 289  370.6441
 290  237.4367
 291  164.4598
 292  29.26625
 293  63.08455
 294  115.6128
 295  207.3638
 296  91.68699
 297  164.048
 298  323.2497
 299  297.4578
 300  213.0758
 301  23.14663
 302  112.8213
 303  170.0611
 304  184.08
 305  191.2306
 306  356.5865
 307  193.6625
 308  172.51
 309  159.4365
 310  219.1152
 311  164.7963
 312  166.9608
 313  190.0683
 314  82.51367
 315  105.3724
 316  220.3043
 317  171.9465
 318  210.6483
 319  182.2896
 320  44.72269
 321  103.9122
 322  272.0161
 323  186.2224
 324  138.3535
 325  175.2907
 326  196.9221
 327  171.0501
 328  166.8354
 329  264.1967
 330  185.8442
 331  237.5125
 332  246.7613
 333  118.1395
 334  163.3848
 335  57.26071
 336  103.0131
 337  132.0293
 338  -10.40324
 339  22.98769
 340  160.707
 341  205.7584
 342  169.5481
 343  183.2997
 344  147.4164
 345  88.63341
 346  185.5018
 347  157.9066
 348  157.2657
 349  91.39721
 350  204.2774
 351  167.3162
 352  238.3462
 353  188.0498
 354  166.4287
 355  287.4355
 356  210.5829
 357  52.48644
 358  177.327
 359  276.5717
 360  188.2124
 361  261.6435
 362  312.7927
 363  213.2051
 364  30.73763
 365  154.5208
 366  253.376
 367  315.5546
 368  163.3445
 369  78.68717
 370  145.1106
 371  115.5722
 372  209.7304
 373  139.0014
 374  192.7343
 375  178.4835
 376  191.3158
 377  201.3071
 378  180.6586
 379  235.8424
 380  148.6468
 381  122.2732
 382  167.5708
 383  123.3929
 384  164.6776
 385  215.1895
 386  266.2615
 387  205.9396
 388  164.1247
 389  219.171
 390  202.7183
 391  211.583
 392  220.4199
 393  156.8259
 394  321.1577
 395  281.6249
 396  161.4212
 397  193.5421
 398  286.9948
 399  222.5098
 400  74.99199
 401  188.8952
 402  218.1659
 403  198.9993
 404  263.1289
 405  291.3958
 406  195.4328
 407  214.2514
 408  222.7915
 409  166.5628
 410  276.7739
 411  187.6563
 412  291.3696
 413  221.6904
 414  277.5144
 415  243.4307
 416  232.9924
 417  210.2046
 418  209.1255
 419  172.6866
 420  218.7197
 421  247.5811
 422  401.6256
 423  162.0351
 424  169.8158
 425  215.5886
 426  120.7402
 427  181.9377
 428  151.4483
 429  291.0102
 430  356.332
 431  368.2452
 432  389.0066
 433  298.6807
 434  173.0639
 435  70.14621
 436  155.1288
 437  125.1379
 438  273.9183
 439  304.6093
 440  250.079
 441  97.95673
 442  146.7105
 443  66.88515
 444  125.1434
 445  267.5748
 446  280.9571
 447  235.1084
 448  209.1091
 449  183.9431
 450  237.8893
 451  262.7624
 452  295.0251
 453  322.9866
 454  354.894
 455  208.6519
 456  150.7859
 457  209.6082
 458  174.8278
 459  267.2064
 460  200.0065
 461  238.7002
 462  263.7227
 463  400.5537
 464  264.4384
 465  224.9241
 466  130.2314
 467  179.8533
 468  265.9939
 469  198.5585
 470  287.1451
 471  307.6914
 472  255.56
 473  278.6165
 474  363.3015
 475  398.8318
 476  250.1081
 477  73.21339
 478  141.3623
 479  188.9473
 480  186.0001
 481  196.4164
 482  130.8088
 483  199.7724
 484  172.144
 485  109.2164
 486  81.41435
 487  178.7905
 488  216.2138
 489  95.99114
 490  38.19296
 491  120.8286
 492  93.50265
 493  132.9218
 494  234.0233
 495  372.049
 496  182.0993
 497  132.9553
 498  161.6221
 499  142.3181
 500  326.9617
 501  300.2328
 502  318.2113
 503  269.595
 504  295.2053
 505  378.1709
 506  350.6043
 507  364.7141
 508  469.9601
 509  485.2984
 510  796.3202
 511  930.8031
