# Input file       =  1189485312.127878_cleaned.dat
# Candidate        =  PSR_0332+5434
# Telescope        =  AR
# Epoch_topo       =  58011.190904257848
# Epoch_bary       =  N/A
# T_sample         =  0.002
# Data Folded      =  7340032
# Data Avg         =  0.00929363966856605
# Data StdDev      =  1.00003008393927 
# Profile Bins     =  512
# Profile Avg      =  133.274156453181 
# Profile StdDev   =  119.736638418161 
# Reduced chi-sqr  =  1.370
# Prob(Noise)      <  5.02e-08   (~5.3 sigma)
# P_topo (ms)      =  714.46626801787   +/- 0.000141
# P'_topo (s/s)    =  -0                +/- 7.47e-11
# P''_topo (s/s^2) =  0                 +/- 3.3e-14
# P_bary (ms)      =  N/A
# P'_bary (s/s)    =  N/A
# P''_bary (s/s^2) =  N/A
# P_orb (s)        =  N/A
# asin(i)/c (s)    =  N/A
# eccentricity     =  N/A
# w (rad)          =  N/A
# T_peri           =  N/A
######################################################
   0  772.1544
   1  819.7939
   2  513.2612
   3  279.7415
   4  228.5524
   5  246.1208
   6  21.49956
   7  41.15022
   8  27.7268
   9  105.1633
  10  41.37037
  11  37.06563
  12  147.3766
  13  201.3407
  14  37.99027
  15  110.7215
  16  179.5156
  17  171.2053
  18  23.47813
  19  91.44122
  20  64.93398
  21  6.986821
  22  132.0615
  23  241.0674
  24  92.9581
  25  26.55435
  26  13.4765
  27  -72.67229
  28  106.0142
  29  222.4064
  30  235.2631
  31  94.87746
  32  141.1676
  33  266.9942
  34  92.17924
  35  117.4852
  36  128.2762
  37  158.7638
  38  62.39103
  39  102.0581
  40  175.8325
  41  223.5626
  42  170.1966
  43  209.0329
  44  114.7488
  45  49.1956
  46  155.8893
  47  182.4131
  48  102.5555
  49  42.40285
  50  38.961
  51  114.6053
  52  134.2136
  53  150.4216
  54  113.5243
  55  72.5069
  56  107.5883
  57  -63.2057
  58  45.3833
  59  97.28462
  60  242.6259
  61  118.6393
  62  49.15624
  63  200.9875
  64  210.6743
  65  131.2403
  66  46.68733
  67  128.1598
  68  154.2691
  69  32.52147
  70  157.4256
  71  150.2944
  72  -1.371689
  73  -3.726949
  74  102.7891
  75  151.8451
  76  203.0617
  77  130.3329
  78  102.4969
  79  81.49216
  80  -20.89207
  81  113.3704
  82  202.3074
  83  215.6037
  84  172.6638
  85  16.29611
  86  119.7849
  87  166.5602
  88  284.7923
  89  322.5956
  90  150.0362
  91  122.2608
  92  152.0675
  93  164.7467
  94  253.3991
  95  153.8929
  96  40.21991
  97  115.309
  98  107.0761
  99  194.1888
 100  144.898
 101  207.916
 102  241.5317
 103  26.51253
 104  134.5542
 105  325.8075
 106  188.9474
 107  131.4164
 108  52.7608
 109  248.5663
 110  274.8546
 111  338.0237
 112  322.2207
 113  279.1133
 114  183.076
 115  97.85169
 116  47.01432
 117  229.4192
 118  247.3398
 119  -14.82604
 120  -22.94319
 121  -8.385382
 122  146.5086
 123  209.5068
 124  0.4520046
 125  -33.35221
 126  -46.01957
 127  111.452
 128  254.4748
 129  82.92102
 130  72.49492
 131  -12.45474
 132  9.99222
 133  142.9965
 134  283.5542
 135  153.8767
 136  22.92977
 137  -7.379
 138  76.36941
 139  91.29098
 140  -71.56163
 141  -11.99748
 142  116.6269
 143  236.1225
 144  256.324
 145  174.2776
 146  119.107
 147  137.9117
 148  60.36117
 149  84.96291
 150  181.8935
 151  334.0484
 152  302.6312
 153  213.983
 154  166.1694
 155  105.0367
 156  77.3496
 157  16.61205
 158  60.86958
 159  -25.39798
 160  -61.74261
 161  -122.3741
 162  5.401793
 163  145.7699
 164  123.8684
 165  156.5653
 166  166.3444
 167  153.7315
 168  141.5065
 169  159.1337
 170  72.90215
 171  10.16999
 172  66.47025
 173  155.1819
 174  141.8203
 175  109.3324
 176  192.5697
 177  204.999
 178  141.6977
 179  113.7793
 180  204.0084
 181  117.4103
 182  60.17407
 183  154.5811
 184  160.6217
 185  89.63159
 186  63.49062
 187  91.74837
 188  -16.06746
 189  51.20726
 190  121.0686
 191  155.1384
 192  212.8094
 193  307.976
 194  163.6462
 195  133.4295
 196  105.3578
 197  207.762
 198  95.23322
 199  239.8331
 200  241.6758
 201  185.0793
 202  211.29
 203  139.8272
 204  148.1325
 205  240.8485
 206  101.9027
 207  -26.10187
 208  75.47171
 209  210.5211
 210  112.7413
 211  147.4964
 212  157.3726
 213  115.0343
 214  98.44479
 215  123.3117
 216  240.9401
 217  137.667
 218  7.82632
 219  28.52035
 220  116.6436
 221  129.6502
 222  1.621603
 223  -27.08071
 224  157.3501
 225  268.8689
 226  267.6628
 227  373.6087
 228  176.2459
 229  170.3256
 230  86.78032
 231  34.29963
 232  159.1395
 233  209.0252
 234  210.4912
 235  130.4076
 236  130.9957
 237  127.7515
 238  -33.79608
 239  -46.03353
 240  95.46092
 241  43.44121
 242  99.79305
 243  170.3604
 244  83.16678
 245  50.66719
 246  77.61855
 247  22.78123
 248  45.95555
 249  57.41253
 250  51.33587
 251  81.33932
 252  160.8691
 253  177.1579
 254  263.7621
 255  145.4558
 256  198.5285
 257  243.0419
 258  237.7001
 259  214.8068
 260  119.3846
 261  74.40355
 262  210.5762
 263  47.41578
 264  80.44701
 265  137.172
 266  147.9575
 267  274.9338
 268  158.5917
 269  147.0491
 270  133.9784
 271  129.7966
 272  269.0472
 273  324.9604
 274  119.9649
 275  74.30412
 276  145.7335
 277  89.45531
 278  273.8209
 279  156.729
 280  224.7489
 281  261.4096
 282  192.5766
 283  174.4675
 284  183.7166
 285  124.4118
 286  166.5095
 287  175.7968
 288  102.2536
 289  86.9921
 290  60.39072
 291  94.27146
 292  154.5962
 293  62.33432
 294  140.3061
 295  123.9608
 296  141.9742
 297  162.2708
 298  127.0911
 299  172.2948
 300  101.0209
 301  184.146
 302  210.674
 303  101.6424
 304  174.6931
 305  134.6801
 306  47.88802
 307  130.4973
 308  159.0604
 309  102.1016
 310  68.86917
 311  100.7584
 312  200.1502
 313  244.6241
 314  262.1087
 315  132.8784
 316  78.49799
 317  32.27654
 318  169.3065
 319  38.70596
 320  159.0305
 321  185.6288
 322  64.98225
 323  237.0531
 324  181.1169
 325  116.8625
 326  323.9354
 327  323.3192
 328  267.3707
 329  346.5563
 330  367.1115
 331  215.2117
 332  39.62008
 333  111.9379
 334  292.1256
 335  242.3074
 336  205.6823
 337  185.908
 338  236.0356
 339  167.6467
 340  133.6385
 341  137.7838
 342  123.2582
 343  73.99008
 344  19.26809
 345  93.58411
 346  71.69852
 347  181.313
 348  332.2485
 349  178.9183
 350  97.28341
 351  155.3644
 352  131.13
 353  81.39159
 354  108.2293
 355  95.49046
 356  183.4712
 357  91.14874
 358  109.6713
 359  265.0096
 360  187.703
 361  66.9074
 362  41.95157
 363  115.4868
 364  252.0612
 365  163.8382
 366  168.36
 367  202.7478
 368  219.8678
 369  144.8198
 370  174.0849
 371  -27.88519
 372  -12.80509
 373  66.03308
 374  201.609
 375  222.5224
 376  76.54885
 377  219.6435
 378  144.5926
 379  239.7282
 380  167.4414
 381  216.6888
 382  234.9114
 383  72.59271
 384  94.67374
 385  118.3237
 386  96.10484
 387  -3.194103
 388  104.4711
 389  200.924
 390  205.3692
 391  87.36327
 392  74.98037
 393  253.9434
 394  274.1
 395  85.71006
 396  177.8424
 397  234.971
 398  197.0507
 399  132.6743
 400  157.2778
 401  145.4459
 402  -6.657512
 403  86.87302
 404  111.2832
 405  72.33321
 406  162.2827
 407  154.7128
 408  11.39772
 409  3.935487
 410  128.7654
 411  137.6091
 412  178.7952
 413  178.2878
 414  170.7493
 415  99.5318
 416  53.74265
 417  107.7806
 418  68.27756
 419  176.5725
 420  -32.8787
 421  -39.00824
 422  179.0562
 423  146.4381
 424  102.9497
 425  130.6244
 426  54.7074
 427  149.4585
 428  -1.265343
 429  52.24809
 430  135.1479
 431  233.105
 432  211.9117
 433  147.1338
 434  125.9965
 435  159.233
 436  86.38928
 437  78.89713
 438  71.05555
 439  122.5893
 440  228.7341
 441  153.1943
 442  -32.07188
 443  100.8698
 444  172.7111
 445  55.06884
 446  -68.06226
 447  2.852043
 448  128.2858
 449  88.98888
 450  187.9864
 451  99.92933
 452  53.01951
 453  166.9162
 454  149.6756
 455  56.18664
 456  -92.18946
 457  23.13286
 458  121.9632
 459  80.34555
 460  -2.768521
 461  -15.3946
 462  71.47489
 463  274.3263
 464  241.4001
 465  76.84897
 466  79.47025
 467  216.5453
 468  248.2598
 469  104.4737
 470  95.88772
 471  118.8687
 472  32.04839
 473  43.41393
 474  93.75169
 475  99.43864
 476  165.3352
 477  198.4014
 478  118.1776
 479  43.2709
 480  48.5282
 481  169.6058
 482  164.7138
 483  191.5161
 484  69.1338
 485  -62.12749
 486  -47.08939
 487  15.74277
 488  -44.8571
 489  14.33328
 490  107.4408
 491  130.1331
 492  210.7812
 493  125.5056
 494  193.1022
 495  97.30412
 496  -41.3233
 497  -93.76704
 498  50.67089
 499  89.85976
 500  -14.99772
 501  37.31203
 502  114.1444
 503  191.5092
 504  117.9285
 505  56.67686
 506  104.9415
 507  178.8182
 508  190.1217
 509  357.3523
 510  520.9188
 511  715.795
