# Input file       =  1189455760.115726_cleaned.dat
# Candidate        =  PSR_0332+5434
# Telescope        =  AR
# Epoch_topo       =  58010.848867080160
# Epoch_bary       =  N/A
# T_sample         =  0.002
# Data Folded      =  7208960
# Data Avg         =  0.00745839390753597
# Data StdDev      =  0.999983889478101
# Profile Bins     =  512
# Profile Avg      =  104.977808897668 
# Profile StdDev   =  118.65726413228  
# Reduced chi-sqr  =  1.675
# Prob(Noise)      <  8.07e-20   (~9.0 sigma)
# P_topo (ms)      =  714.46582045094   +/- 0.000222
# P'_topo (s/s)    =  -0                +/- 1.19e-10
# P''_topo (s/s^2) =  0                 +/- 5.35e-14
# P_bary (ms)      =  N/A
# P'_bary (s/s)    =  N/A
# P''_bary (s/s^2) =  N/A
# P_orb (s)        =  N/A
# asin(i)/c (s)    =  N/A
# eccentricity     =  N/A
# w (rad)          =  N/A
# T_peri           =  N/A
######################################################
   0  961.7058
   1  884.3296
   2  775.0104
   3  426.6204
   4  225.7606
   5  78.7347
   6  130.229
   7  178.274
   8  208.0194
   9  126.9816
  10  241.1459
  11  179.7185
  12  149.3244
  13  288.6475
  14  291.3797
  15  106.1006
  16  122.2419
  17  223.3515
  18  143.1147
  19  -12.80814
  20  14.23999
  21  64.684
  22  -32.79212
  23  20.17192
  24  96.65794
  25  68.03213
  26  80.35567
  27  133.5056
  28  43.10902
  29  43.13831
  30  129.6184
  31  47.44216
  32  88.5022
  33  121.7758
  34  30.05184
  35  -86.26289
  36  -17.30108
  37  30.51696
  38  24.0774
  39  3.097908
  40  86.68451
  41  113.6962
  42  122.6742
  43  127.0719
  44  139.4062
  45  195.7941
  46  159.173
  47  140.3711
  48  60.31334
  49  18.29508
  50  22.85657
  51  125.2305
  52  101.9066
  53  -2.174863
  54  44.93632
  55  61.49009
  56  -71.44054
  57  0.1079155
  58  162.0861
  59  175.4371
  60  270.7551
  61  138.6283
  62  89.43958
  63  134.4854
  64  133.8298
  65  161.263
  66  2.361783
  67  -35.84117
  68  6.848289
  69  109.7858
  70  124.1207
  71  10.43188
  72  -54.15552
  73  -13.242
  74  98.74857
  75  121.7815
  76  74.45818
  77  134.9364
  78  127.4317
  79  105.7038
  80  146.8958
  81  131.4552
  82  71.03315
  83  143.8171
  84  140.5554
  85  95.77118
  86  101.6773
  87  74.59105
  88  59.59414
  89  40.82058
  90  202.1802
  91  164.9316
  92  194.7227
  93  237.1405
  94  107.3063
  95  7.624065
  96  -57.0294
  97  48.32657
  98  44.51172
  99  161.6184
 100  189.0947
 101  80.58508
 102  40.09898
 103  120.2054
 104  116.964
 105  49.5749
 106  140.5538
 107  175.887
 108  43.32716
 109  54.41574
 110  155.2725
 111  11.62271
 112  -70.50681
 113  46.02803
 114  152.7021
 115  22.00998
 116  -136.823
 117  44.82151
 118  119.152
 119  151.7774
 120  31.18402
 121  -4.143731
 122  -10.71846
 123  -15.13694
 124  -23.34619
 125  61.01312
 126  210.7398
 127  79.37167
 128  44.53847
 129  194.621
 130  41.80501
 131  41.7769
 132  40.36802
 133  96.68886
 134  56.25843
 135  0.4794748
 136  10.47796
 137  93.98679
 138  -34.81052
 139  47.22355
 140  39.65723
 141  124.7873
 142  -0.9100309
 143  1.836468
 144  55.05848
 145  9.754454
 146  50.32848
 147  254.1308
 148  249.0072
 149  199.3979
 150  173.221
 151  104.0182
 152  -11.45086
 153  9.477591
 154  79.48191
 155  74.73856
 156  123.0506
 157  114.9368
 158  45.91289
 159  123.5068
 160  122.1797
 161  9.087765
 162  101.1349
 163  88.30387
 164  30.45128
 165  -39.42255
 166  -9.000092
 167  45.88299
 168  170.7193
 169  181.1523
 170  99.259
 171  88.32128
 172  20.64455
 173  151.5246
 174  124.9146
 175  72.33942
 176  213.077
 177  148.89
 178  49.0122
 179  -43.47785
 180  24.32854
 181  79.31369
 182  81.25716
 183  128.6961
 184  165.8049
 185  94.24599
 186  16.22037
 187  114.2436
 188  182.8758
 189  183.9902
 190  139.481
 191  283.2389
 192  164.6616
 193  80.72166
 194  121.2642
 195  98.77351
 196  232.3304
 197  350.8784
 198  297.1041
 199  229.7814
 200  63.41488
 201  26.62974
 202  95.80682
 203  0.6141647
 204  -20.78554
 205  25.3882
 206  114.3861
 207  113.3345
 208  78.75005
 209  5.12095
 210  28.56485
 211  44.15561
 212  179.9546
 213  165.4341
 214  143.2337
 215  267.7005
 216  193.1343
 217  215.8973
 218  172.6576
 219  234.4353
 220  142.6918
 221  143.4674
 222  112.9518
 223  151.5266
 224  267.5744
 225  143.8424
 226  132.4335
 227  25.64149
 228  38.41441
 229  129.4997
 230  218.5773
 231  171.8104
 232  128.8353
 233  -14.44096
 234  29.40372
 235  141.4373
 236  100.8281
 237  66.7319
 238  141.7263
 239  77.00986
 240  79.06731
 241  25.82816
 242  -14.06089
 243  2.535045
 244  72.20451
 245  110.0744
 246  32.43558
 247  84.32689
 248  60.00008
 249  61.7323
 250  60.63326
 251  85.24009
 252  -19.95736
 253  14.53535
 254  0.5691645
 255  70.89932
 256  204.1723
 257  200.9648
 258  197.0093
 259  154.4289
 260  277.6093
 261  200.5894
 262  216.293
 263  152.0478
 264  238.4862
 265  272.0349
 266  100.3575
 267  -12.86262
 268  -59.57688
 269  -48.72622
 270  -14.17293
 271  16.89837
 272  145.1993
 273  49.15999
 274  53.57294
 275  -33.69889
 276  -24.66964
 277  45.84703
 278  91.99395
 279  157.9608
 280  150.6166
 281  30.38608
 282  32.91752
 283  50.17487
 284  136.5031
 285  158.9222
 286  222.9346
 287  177.5096
 288  161.5679
 289  108.2494
 290  76.26292
 291  23.45895
 292  41.70687
 293  137.771
 294  67.1479
 295  42.87728
 296  81.28154
 297  75.33647
 298  -25.49688
 299  -14.41703
 300  148.9323
 301  197.0912
 302  180.6518
 303  46.69404
 304  -30.86103
 305  24.09818
 306  120.1402
 307  141.6121
 308  101.661
 309  2.785214
 310  192.6226
 311  116.127
 312  -6.178478
 313  105.73
 314  67.1643
 315  76.55263
 316  164.4084
 317  228.1801
 318  239.4048
 319  169.8121
 320  146.3058
 321  180.8111
 322  247.9728
 323  111.3257
 324  28.73376
 325  -10.11709
 326  75.67733
 327  111.5423
 328  37.84129
 329  36.16497
 330  3.673746
 331  58.26134
 332  89.65086
 333  100.9338
 334  100.1773
 335  62.10182
 336  85.13718
 337  155.5103
 338  168.1411
 339  56.99261
 340  88.91491
 341  93.34833
 342  181.1782
 343  52.29018
 344  44.82675
 345  62.57012
 346  167.8611
 347  160.6665
 348  94.58839
 349  -29.24986
 350  68.47238
 351  -9.474431
 352  153.8096
 353  215.9155
 354  91.08009
 355  173.8548
 356  220.0428
 357  43.30338
 358  -38.29681
 359  85.26192
 360  72.64902
 361  2.632322
 362  22.7335
 363  32.94984
 364  67.82595
 365  124.2269
 366  176.7022
 367  116.0845
 368  106.5879
 369  98.80824
 370  220.4275
 371  35.11377
 372  97.38107
 373  20.16743
 374  -22.32217
 375  143.1956
 376  160.598
 377  67.88926
 378  42.07409
 379  124.2521
 380  63.65363
 381  -54.08246
 382  12.7747
 383  161.8017
 384  105.4106
 385  123.6049
 386  104.3561
 387  45.90846
 388  47.86644
 389  99.55759
 390  172.6035
 391  293.3002
 392  239.2165
 393  120.3105
 394  98.25043
 395  82.61027
 396  10.75231
 397  59.88472
 398  201.6924
 399  249.869
 400  76.21156
 401  -59.77094
 402  97.94244
 403  121.7298
 404  127.1891
 405  56.79322
 406  209.3583
 407  252.8176
 408  122.4478
 409  92.49949
 410  58.46444
 411  31.69925
 412  -91.12254
 413  6.29268
 414  143.9692
 415  89.89699
 416  165.0786
 417  84.07935
 418  79.24197
 419  103.3947
 420  218.9919
 421  91.58376
 422  175.7319
 423  206.455
 424  199.5167
 425  224.3075
 426  287.3342
 427  51.68287
 428  113.9221
 429  18.0325
 430  -47.49442
 431  -58.535
 432  20.6931
 433  85.73681
 434  147.4304
 435  151.2754
 436  146.7022
 437  189.7628
 438  82.92535
 439  -36.90787
 440  -15.74894
 441  140.9565
 442  164.693
 443  193.8225
 444  193.4243
 445  205.3151
 446  65.22341
 447  85.78741
 448  135.4525
 449  122.4428
 450  103.4072
 451  43.46352
 452  -0.4567111
 453  38.99036
 454  238.8004
 455  188.6198
 456  81.78197
 457  -8.946153
 458  46.07537
 459  52.41481
 460  57.14708
 461  212.0725
 462  187.2353
 463  165.5021
 464  43.29044
 465  -22.38041
 466  56.69126
 467  84.94658
 468  76.25392
 469  82.43871
 470  -1.019316
 471  38.44506
 472  170.7204
 473  66.55624
 474  40.66015
 475  49.26541
 476  47.24427
 477  -51.23346
 478  -75.28573
 479  87.01115
 480  32.68137
 481  32.32423
 482  76.5378
 483  23.39227
 484  85.64749
 485  61.00686
 486  150.477
 487  209.4506
 488  80.54603
 489  89.17303
 490  119.6543
 491  -51.28529
 492  -75.98066
 493  109.623
 494  219.8764
 495  123.6923
 496  27.50763
 497  88.49374
 498  202.114
 499  187.0078
 500  136.3272
 501  90.03878
 502  87.61515
 503  170.4582
 504  143.1144
 505  64.15731
 506  203.3022
 507  387.0609
 508  395.5015
 509  462.2516
 510  732.7461
 511  854.4312
