# Input file       =  1189642711.126697_cleaned.dat
# Candidate        =  PSR_0332+5434
# Telescope        =  AR
# Epoch_topo       =  58013.012651929363
# Epoch_bary       =  N/A
# T_sample         =  0.002
# Data Folded      =  7340032
# Data Avg         =  0.0088411373013685
# Data StdDev      =  1.00002674104639 
# Profile Bins     =  512
# Profile Avg      =  126.885098950156 
# Profile StdDev   =  119.736238163446 
# Reduced chi-sqr  =  1.515
# Prob(Noise)      <  4.1e-13   (~7.2 sigma)
# P_topo (ms)      =  714.466488866278  +/- 0.00019
# P'_topo (s/s)    =  -0                +/- 1e-10
# P''_topo (s/s^2) =  0                 +/- 4.42e-14
# P_bary (ms)      =  N/A
# P'_bary (s/s)    =  N/A
# P''_bary (s/s^2) =  N/A
# P_orb (s)        =  N/A
# asin(i)/c (s)    =  N/A
# eccentricity     =  N/A
# w (rad)          =  N/A
# T_peri           =  N/A
######################################################
   0  713.5028
   1  794.3404
   2  598.9311
   3  307.7565
   4  54.58439
   5  109.8992
   6  148.944
   7  93.58493
   8  115.9748
   9  250.9777
  10  260.1258
  11  148.4545
  12  122.6267
  13  163.0847
  14  308.9306
  15  113.5476
  16  129.9354
  17  0.0005349841
  18  18.60255
  19  -60.80621
  20  14.63348
  21  126.9868
  22  135.4391
  23  75.29527
  24  11.74841
  25  -67.81425
  26  59.30164
  27  110.0906
  28  70.04972
  29  15.99504
  30  -34.94171
  31  56.69124
  32  42.36454
  33  92.06672
  34  128.0016
  35  161.7552
  36  177.7301
  37  254.4023
  38  231.78
  39  228.4231
  40  320.9882
  41  260.882
  42  28.80152
  43  27.41565
  44  87.17522
  45  57.10316
  46  149.2016
  47  238.0647
  48  219.8607
  49  219.1371
  50  125.6167
  51  -26.91685
  52  23.67336
  53  221.8185
  54  243.9676
  55  135.1015
  56  70.36576
  57  215.8503
  58  182.3177
  59  105.1375
  60  132.6082
  61  185.0597
  62  177.5696
  63  50.32705
  64  -104.431
  65  26.02342
  66  78.51561
  67  43.99704
  68  171.734
  69  196.8363
  70  170.7133
  71  96.15053
  72  60.81607
  73  22.58098
  74  126.4523
  75  208.6366
  76  120.33
  77  68.052
  78  96.23084
  79  89.55054
  80  133.9681
  81  114.3433
  82  -67.65376
  83  -93.94352
  84  44.6089
  85  25.83753
  86  150.3291
  87  154.4733
  88  157.5894
  89  -12.65653
  90  -9.294177
  91  82.43781
  92  123.7072
  93  58.12595
  94  117.0565
  95  44.52584
  96  115.9565
  97  134.9559
  98  72.199
  99  18.49698
 100  33.16018
 101  65.72684
 102  180.5919
 103  152.5335
 104  308.3249
 105  303.475
 106  307.3976
 107  210.9289
 108  140.3485
 109  193.5531
 110  97.27771
 111  -14.58621
 112  -53.33126
 113  128.184
 114  215.6648
 115  107.7696
 116  41.98691
 117  69.22661
 118  87.98895
 119  171.0774
 120  192.0846
 121  26.82423
 122  30.61619
 123  88.63364
 124  168.3632
 125  69.43263
 126  8.323624
 127  185.7606
 128  158.0092
 129  73.83164
 130  128.6233
 131  324.3967
 132  207.5761
 133  134.062
 134  76.63635
 135  155.0901
 136  115.3951
 137  168.1194
 138  208.4894
 139  158.8531
 140  94.47307
 141  155.144
 142  211.0836
 143  66.09019
 144  161.9493
 145  53.63525
 146  112.2
 147  41.27777
 148  62.15073
 149  229.7198
 150  201.8471
 151  131.2864
 152  120.0567
 153  223.4843
 154  242.7248
 155  108.908
 156  45.25423
 157  180.4223
 158  55.80099
 159  199.2858
 160  234.2272
 161  68.30101
 162  -16.58668
 163  104.2999
 164  111.0637
 165  26.64255
 166  42.34663
 167  73.6022
 168  57.2954
 169  71.8427
 170  0.5993217
 171  45.78699
 172  108.5216
 173  214.4555
 174  99.69736
 175  192.7298
 176  265.0475
 177  175.539
 178  131.3876
 179  -39.45225
 180  52.28297
 181  243.2066
 182  27.74891
 183  -4.479819
 184  141.622
 185  236.5507
 186  117.59
 187  6.746912
 188  44.75237
 189  124.2251
 190  214.8206
 191  133.8025
 192  126.051
 193  235.6976
 194  248.3417
 195  -64.05461
 196  -60.56832
 197  38.45008
 198  -23.45555
 199  43.70733
 200  119.7435
 201  72.33846
 202  169.888
 203  104.4312
 204  86.13982
 205  110.9874
 206  223.5679
 207  129.6745
 208  69.95323
 209  19.30784
 210  139.9002
 211  209.2179
 212  56.8633
 213  12.72905
 214  103.6304
 215  6.205499
 216  44.36537
 217  101.5838
 218  131.3759
 219  23.99275
 220  143.0143
 221  215.8009
 222  220.3588
 223  176.2064
 224  166.3518
 225  225.7847
 226  256.9433
 227  252.6624
 228  121.197
 229  107.6612
 230  225.3572
 231  313.6996
 232  263.5716
 233  37.25702
 234  -5.572372
 235  96.48095
 236  115.8126
 237  95.57066
 238  134.213
 239  192.6476
 240  208.5496
 241  130.3746
 242  71.18452
 243  129.2599
 244  140.8162
 245  228.0762
 246  154.7554
 247  204.0031
 248  142.3466
 249  108.1942
 250  132.0839
 251  112.7269
 252  61.84609
 253  119.0299
 254  87.23944
 255  14.4626
 256  146.5564
 257  45.35321
 258  -50.4575
 259  50.93201
 260  104.2739
 261  227.0237
 262  116.6341
 263  129.4212
 264  118.3167
 265  89.65942
 266  58.64257
 267  -1.708434
 268  -6.33673
 269  116.1687
 270  154.1084
 271  148.7294
 272  161.685
 273  84.96528
 274  73.08683
 275  73.06107
 276  93.10237
 277  129.3613
 278  180.0697
 279  194.6754
 280  151.0557
 281  63.00447
 282  107.1149
 283  114.5807
 284  197.985
 285  240.1609
 286  55.8437
 287  84.08655
 288  67.52834
 289  105.4069
 290  77.06024
 291  100.8905
 292  109.4202
 293  -20.01256
 294  68.57548
 295  88.36496
 296  224.5273
 297  226.3498
 298  90.6133
 299  -76.74447
 300  42.72978
 301  235.6013
 302  208.6852
 303  154.7158
 304  239.1465
 305  247.0052
 306  106.7978
 307  105.1803
 308  155.0336
 309  146.6002
 310  190.5411
 311  183.4704
 312  304.1465
 313  174.2567
 314  168.173
 315  123.5145
 316  126.8294
 317  221.844
 318  149.4778
 319  -12.17614
 320  69.78247
 321  140.1441
 322  136.7062
 323  59.3832
 324  67.2554
 325  48.9153
 326  135.0752
 327  23.60584
 328  110.9838
 329  240.4472
 330  218.2982
 331  188.1491
 332  58.25062
 333  24.17836
 334  121.0733
 335  133.5235
 336  176.4697
 337  71.80294
 338  84.77335
 339  134.2556
 340  21.00084
 341  11.85449
 342  180.9139
 343  334.4718
 344  302.2124
 345  249.7195
 346  272.9985
 347  169.4888
 348  84.82756
 349  159.9668
 350  164.6232
 351  134.6029
 352  71.17007
 353  111.9389
 354  170.1022
 355  216.8061
 356  196.698
 357  165.958
 358  -90.27451
 359  52.90421
 360  210.3202
 361  120.9677
 362  172.7584
 363  37.85492
 364  166.5182
 365  178.7843
 366  168.2919
 367  162.1175
 368  223.2077
 369  197.6179
 370  279.3151
 371  249.0948
 372  262.0002
 373  346.1217
 374  279.4378
 375  133.0353
 376  147.6692
 377  137.465
 378  -35.38509
 379  45.98089
 380  48.22497
 381  1.311369
 382  17.55831
 383  200.8799
 384  217.9569
 385  70.43368
 386  103.7828
 387  231.9023
 388  240.5519
 389  51.44881
 390  -71.50246
 391  52.32188
 392  29.59493
 393  65.44014
 394  137.5854
 395  72.54136
 396  21.60742
 397  80.16608
 398  54.02549
 399  127.2278
 400  100.8804
 401  157.5311
 402  6.830729
 403  177.5367
 404  217.8466
 405  22.64392
 406  -0.1201267
 407  144.3555
 408  243.2252
 409  216.0206
 410  46.98615
 411  75.68327
 412  42.01585
 413  128.9828
 414  120.345
 415  59.69107
 416  127.3527
 417  45.9841
 418  128.2063
 419  160.6235
 420  98.03478
 421  31.9989
 422  19.81625
 423  -60.76368
 424  31.3131
 425  13.99422
 426  98.79135
 427  95.26273
 428  -85.29759
 429  -21.89069
 430  -157.1539
 431  -53.21189
 432  -2.554874
 433  -53.76675
 434  145.278
 435  187.4765
 436  120.8869
 437  148.8313
 438  91.64061
 439  37.10766
 440  125.5175
 441  18.83071
 442  28.98933
 443  156.7604
 444  107.9668
 445  169.6107
 446  209.5977
 447  103.0269
 448  94.16133
 449  15.25503
 450  174.4886
 451  156.3531
 452  169.7051
 453  202.0389
 454  44.3984
 455  110.3987
 456  208.5145
 457  269.7902
 458  232.8518
 459  78.02882
 460  92.59236
 461  91.74941
 462  23.02386
 463  244.7685
 464  90.62828
 465  -15.95763
 466  -16.28472
 467  50.30158
 468  70.06961
 469  89.38295
 470  30.92973
 471  69.42894
 472  137.3034
 473  145.9033
 474  36.33859
 475  166.5726
 476  192.3316
 477  54.6199
 478  149.1473
 479  315.5835
 480  149.5075
 481  7.871777
 482  66.57475
 483  120.0165
 484  90.81955
 485  189.9099
 486  268.0297
 487  164.6344
 488  270.3345
 489  250.6622
 490  216.7176
 491  265.7488
 492  324.1012
 493  302.8571
 494  244.8624
 495  235.7922
 496  142.4052
 497  51.60707
 498  161.7844
 499  204.6939
 500  53.42949
 501  16.83185
 502  79.6964
 503  62.30624
 504  167.8611
 505  256.3766
 506  231.9734
 507  334.2394
 508  270.2612
 509  492.066
 510  752.0364
 511  789.1916
