# Input file       =  1189556553.120852_cleaned.dat
# Candidate        =  PSR_0332+5434
# Telescope        =  AR
# Epoch_topo       =  58012.015452787637
# Epoch_bary       =  N/A
# T_sample         =  0.002
# Data Folded      =  7340032
# Data Avg         =  0.00525843064661254
# Data StdDev      =  1.00002125481318 
# Profile Bins     =  512
# Profile Avg      =  75.3642080211182 
# Profile StdDev   =  119.735581280086 
# Reduced chi-sqr  =  1.488
# Prob(Noise)      <  4.48e-12   (~6.8 sigma)
# P_topo (ms)      =  714.466177244374  +/- 0.000151
# P'_topo (s/s)    =  -0                +/- 7.97e-11
# P''_topo (s/s^2) =  0                 +/- 3.52e-14
# P_bary (ms)      =  N/A
# P'_bary (s/s)    =  N/A
# P''_bary (s/s^2) =  N/A
# P_orb (s)        =  N/A
# asin(i)/c (s)    =  N/A
# eccentricity     =  N/A
# w (rad)          =  N/A
# T_peri           =  N/A
######################################################
   0  825.9944
   1  740.8655
   2  620.4794
   3  398.1799
   4  181.9421
   5  145.0723
   6  147.3177
   7  67.57875
   8  121.499
   9  218.3053
  10  153.3148
  11  89.99454
  12  247.6001
  13  224.6667
  14  21.29108
  15  65.18066
  16  78.75129
  17  15.50295
  18  53.22844
  19  44.92775
  20  200.0563
  21  43.56049
  22  40.87347
  23  133.6015
  24  27.15065
  25  60.24069
  26  96.61797
  27  57.04681
  28  124.4372
  29  70.87968
  30  166.0828
  31  -2.808495
  32  40.64182
  33  168.3181
  34  30.96778
  35  28.39352
  36  59.34393
  37  4.571928
  38  71.82762
  39  91.75332
  40  170.5761
  41  110.0887
  42  27.1332
  43  132.3622
  44  262.8433
  45  227.4868
  46  40.84607
  47  117.7417
  48  168.5913
  49  40.26145
  50  33.18407
  51  87.9994
  52  42.95257
  53  52.64961
  54  -83.72858
  55  54.2549
  56  106.2041
  57  -27.25856
  58  -147.7905
  59  -13.66685
  60  9.234393
  61  32.46308
  62  104.1634
  63  154.4503
  64  66.22047
  65  72.10508
  66  75.22342
  67  -0.4872038
  68  94.43989
  69  169.4126
  70  96.31972
  71  146.8515
  72  110.5906
  73  49.59391
  74  106.5894
  75  217.9864
  76  112.3826
  77  109.9791
  78  198.1673
  79  257.2158
  80  221.7032
  81  124.7502
  82  9.668029
  83  69.30623
  84  126.0349
  85  109.5733
  86  90.28429
  87  9.60652
  88  -136.3424
  89  -79.26205
  90  -71.84386
  91  14.29618
  92  184.0972
  93  -77.78772
  94  -35.02948
  95  109.5833
  96  70.8913
  97  58.73774
  98  39.92861
  99  -23.92818
 100  -71.54781
 101  50.66157
 102  99.59717
 103  108.6886
 104  176.6742
 105  22.99144
 106  1.785136
 107  38.41114
 108  25.02318
 109  -14.20634
 110  112.3853
 111  11.53912
 112  113.4505
 113  153.6023
 114  134.5997
 115  -64.50253
 116  -4.370944
 117  24.32679
 118  -82.14364
 119  -13.20345
 120  63.23615
 121  87.53919
 122  147.8498
 123  41.44424
 124  128.9666
 125  209.9145
 126  187.2291
 127  38.32818
 128  8.773022
 129  175.9472
 130  213.7483
 131  14.33084
 132  -207.6094
 133  -106.7522
 134  -28.60385
 135  -25.72276
 136  53.12157
 137  -57.44977
 138  -11.6939
 139  135.3134
 140  127.4748
 141  69.67699
 142  15.92321
 143  -54.39577
 144  34.34436
 145  62.4
 146  71.10567
 147  70.90259
 148  67.19258
 149  156.9425
 150  125.5903
 151  53.50257
 152  -0.03627984
 153  -17.96741
 154  23.47417
 155  42.7764
 156  131.8183
 157  58.74052
 158  -120.5768
 159  -12.02608
 160  98.91722
 161  34.02712
 162  140.0445
 163  78.51885
 164  110.0205
 165  -12.98583
 166  40.73236
 167  -24.62429
 168  110.7234
 169  85.48448
 170  91.5713
 171  105.5856
 172  20.7326
 173  175.077
 174  41.10367
 175  -2.06323
 176  63.34275
 177  143.046
 178  106.761
 179  -128.6519
 180  14.67685
 181  132.2692
 182  182.4368
 183  174.2369
 184  224.6208
 185  78.77212
 186  -50.32254
 187  94.47656
 188  184.7895
 189  91.1539
 190  81.22808
 191  85.20126
 192  223.3057
 193  112.0332
 194  -30.55711
 195  7.761663
 196  176.8003
 197  142.0594
 198  204.0339
 199  58.02137
 200  -12.23602
 201  133.4717
 202  65.64831
 203  90.85584
 204  126.5343
 205  62.18842
 206  -46.75822
 207  119.363
 208  82.31064
 209  7.477263
 210  93.20087
 211  46.06879
 212  146.8531
 213  171.0668
 214  31.97031
 215  29.4747
 216  16.592
 217  37.03602
 218  155.8607
 219  108.6616
 220  64.26524
 221  30.7614
 222  24.67381
 223  179.8876
 224  170.4097
 225  33.58927
 226  60.21003
 227  51.86752
 228  80.86272
 229  -41.07755
 230  85.71003
 231  49.01226
 232  110.5998
 233  82.30618
 234  -21.55266
 235  -35.35138
 236  25.04234
 237  138.1472
 238  173.5608
 239  101.5857
 240  122.4511
 241  173.1808
 242  182.4863
 243  190.0972
 244  100.5289
 245  -70.61641
 246  116.4025
 247  202.3686
 248  145.592
 249  155.4965
 250  128.6892
 251  106.1232
 252  69.81389
 253  160.3929
 254  36.97308
 255  81.09869
 256  95.69818
 257  54.58375
 258  -18.69062
 259  42.76014
 260  65.26472
 261  97.19417
 262  -6.131108
 263  50.15639
 264  58.31385
 265  -45.31662
 266  62.79813
 267  184.1169
 268  76.17065
 269  0.06153107
 270  81.08966
 271  22.02638
 272  136.6958
 273  241.8962
 274  254.7658
 275  129.9513
 276  -3.342896
 277  9.549578
 278  43.36001
 279  100.2129
 280  -23.21478
 281  -17.30931
 282  30.76054
 283  17.19084
 284  55.31688
 285  172.6794
 286  195.5446
 287  76.02727
 288  -55.79024
 289  -59.10805
 290  36.47691
 291  93.05595
 292  182.9024
 293  85.49599
 294  97.50106
 295  -14.6015
 296  -136.5971
 297  -60.50798
 298  15.32507
 299  59.89228
 300  -49.69081
 301  0.4337368
 302  101.264
 303  84.54894
 304  62.18947
 305  126.0077
 306  79.03083
 307  43.89491
 308  129.6483
 309  -20.53956
 310  -94.27138
 311  -77.19469
 312  130.8882
 313  -15.81579
 314  -81.25975
 315  13.90056
 316  -62.19662
 317  -30.45192
 318  76.42427
 319  186.3213
 320  114.482
 321  105.3034
 322  88.71487
 323  15.50197
 324  138.2572
 325  81.2462
 326  102.9216
 327  180.1688
 328  111.5975
 329  69.30618
 330  3.789672
 331  -6.725873
 332  -52.61261
 333  -60.15898
 334  82.37153
 335  113.5375
 336  128.0292
 337  81.77567
 338  161.5319
 339  283.3371
 340  24.44834
 341  -65.39427
 342  68.97227
 343  121.0707
 344  141.3186
 345  183.7594
 346  86.01325
 347  -139.5988
 348  35.04081
 349  226.098
 350  26.4104
 351  -11.65562
 352  9.990356
 353  -5.363721
 354  40.97543
 355  -105.4085
 356  -146.1565
 357  -213.8674
 358  -81.38774
 359  98.70017
 360  121.9217
 361  44.54301
 362  52.08116
 363  -23.28777
 364  36.8833
 365  -41.95338
 366  -39.41747
 367  -71.84848
 368  46.8925
 369  92.13857
 370  149.7869
 371  132.6951
 372  38.55696
 373  66.31205
 374  101.7957
 375  121.1971
 376  96.74914
 377  114.8087
 378  72.11719
 379  63.68051
 380  110.7614
 381  72.53018
 382  -13.99857
 383  126.2645
 384  298.2345
 385  315.722
 386  142.768
 387  78.02103
 388  -11.78636
 389  67.98231
 390  41.90459
 391  43.7109
 392  145.2233
 393  202.597
 394  189.5975
 395  59.33963
 396  -71.50422
 397  -61.86892
 398  34.92315
 399  110.5157
 400  -58.64825
 401  -56.46751
 402  89.85899
 403  115.4571
 404  -43.06233
 405  27.16466
 406  48.62536
 407  108.4894
 408  128.6617
 409  59.59581
 410  119.0127
 411  74.87755
 412  -17.59522
 413  85.71908
 414  120.2147
 415  40.49813
 416  250.4312
 417  107.4914
 418  48.00876
 419  99.02493
 420  57.33672
 421  -60.45144
 422  -110.7359
 423  -20.96796
 424  45.8483
 425  117.4602
 426  80.08923
 427  77.32401
 428  83.70277
 429  109.1697
 430  76.0541
 431  -29.56715
 432  -16.30859
 433  -5.534201
 434  -57.36087
 435  1.278098
 436  47.15856
 437  149.7047
 438  -18.86349
 439  -71.17214
 440  66.22897
 441  45.8757
 442  103.1934
 443  83.73553
 444  41.62078
 445  111.2806
 446  152.4766
 447  13.89643
 448  44.65898
 449  166.4552
 450  134.4987
 451  -15.75621
 452  62.45006
 453  90.83301
 454  130.9243
 455  73.93105
 456  43.65623
 457  64.00692
 458  132.5917
 459  135.9989
 460  136.7562
 461  6.498009
 462  59.92389
 463  -103.9045
 464  -51.93882
 465  -5.683674
 466  113.0774
 467  18.1046
 468  60.16682
 469  102.8985
 470  189.4287
 471  196.6757
 472  0.653986
 473  64.69189
 474  28.23607
 475  220.5475
 476  111.564
 477  76.68752
 478  -37.09176
 479  158.9273
 480  200.7067
 481  89.46102
 482  120.9821
 483  112.2289
 484  75.27823
 485  144.6795
 486  71.41887
 487  -30.65524
 488  0.08736265
 489  2.932113
 490  -97.23614
 491  7.053092
 492  159.3874
 493  284.7368
 494  197.4722
 495  -57.24838
 496  116.6899
 497  -24.3526
 498  129.957
 499  114.223
 500  86.51031
 501  111.459
 502  32.37907
 503  38.10603
 504  64.39835
 505  116.7666
 506  136.5308
 507  -7.876798
 508  253.7269
 509  387.2121
 510  602.4998
 511  767.1008
