# Input file       =  1189815021.115329_cleaned.dat
# Candidate        =  PSR_0332+5434
# Telescope        =  AR
# Epoch_topo       =  58015.006980501494
# Epoch_bary       =  N/A
# T_sample         =  0.002
# Data Folded      =  7340032
# Data Avg         =  0.00593708035957892
# Data StdDev      =  1.00002876679974 
# Profile Bins     =  512
# Profile Avg      =  84.9087896609737 
# Profile StdDev   =  119.736480713046 
# Reduced chi-sqr  =  1.530
# Prob(Noise)      <  1.08e-13   (~7.3 sigma)
# P_topo (ms)      =  714.467164057944  +/- 0.000289
# P'_topo (s/s)    =  -0                +/- 1.53e-10
# P''_topo (s/s^2) =  0                 +/- 6.74e-14
# P_bary (ms)      =  N/A
# P'_bary (s/s)    =  N/A
# P''_bary (s/s^2) =  N/A
# P_orb (s)        =  N/A
# asin(i)/c (s)    =  N/A
# eccentricity     =  N/A
# w (rad)          =  N/A
# T_peri           =  N/A
######################################################
   0  776.8115
   1  801.9659
   2  677.2404
   3  419.6724
   4  279.8366
   5  268.3773
   6  186.731
   7  28.10538
   8  -52.00338
   9  -18.00446
  10  146.2367
  11  136.1806
  12  28.26805
  13  83.86835
  14  158.7084
  15  139.2493
  16  131.1806
  17  2.485433
  18  34.13543
  19  58.90089
  20  146.4017
  21  276.6274
  22  148.642
  23  125.4002
  24  144.8274
  25  143.4142
  26  95.43005
  27  125.6352
  28  193.6249
  29  169.2986
  30  41.2657
  31  77.26344
  32  41.57769
  33  -55.33278
  34  -23.31817
  35  126.527
  36  119.5028
  37  59.70586
  38  1.4006
  39  11.58656
  40  -48.83339
  41  -4.532709
  42  159.0641
  43  146.1939
  44  89.8111
  45  45.0629
  46  13.59296
  47  97.98062
  48  194.7428
  49  14.24004
  50  -100.856
  51  63.96244
  52  140.533
  53  171.8283
  54  90.02007
  55  276.1977
  56  88.21375
  57  -67.39216
  58  -32.18533
  59  81.41377
  60  169.7889
  61  177.2223
  62  67.09883
  63  -115.6317
  64  14.61839
  65  261.4653
  66  145.7493
  67  65.76462
  68  35.34301
  69  116.266
  70  142.3461
  71  -5.916655
  72  48.51447
  73  50.79973
  74  112.8797
  75  160.9558
  76  73.08223
  77  114.2529
  78  118.1422
  79  8.505684
  80  13.36251
  81  88.19664
  82  190.3024
  83  63.9459
  84  114.034
  85  161.9317
  86  139.1954
  87  54.49612
  88  108.1613
  89  88.80331
  90  76.48856
  91  90.42255
  92  53.67076
  93  115.3362
  94  77.87881
  95  -12.37244
  96  -24.19279
  97  113.4282
  98  179.9144
  99  160.3607
 100  34.59127
 101  158.2784
 102  139.0455
 103  183.7118
 104  85.76772
 105  -142.4242
 106  -111.2616
 107  44.63933
 108  94.22314
 109  -20.35154
 110  -104.7395
 111  53.50058
 112  103.248
 113  62.88799
 114  144.7025
 115  -66.63906
 116  -101.9503
 117  159.7335
 118  177.0789
 119  140.4718
 120  84.89482
 121  110.2031
 122  123.8698
 123  14.97756
 124  26.83201
 125  -65.67762
 126  -60.08559
 127  44.32967
 128  -10.02938
 129  -24.98608
 130  -40.42916
 131  83.46371
 132  15.06909
 133  -13.29141
 134  144.2829
 135  139.5372
 136  46.35392
 137  34.84238
 138  4.591992
 139  85.16476
 140  139.426
 141  169.0406
 142  254.7474
 143  57.67592
 144  -15.53239
 145  75.31043
 146  28.24951
 147  73.0219
 148  18.96444
 149  -0.5392483
 150  77.08885
 151  42.11462
 152  93.54692
 153  86.97272
 154  213.6879
 155  63.07185
 156  -135.4929
 157  -1.476512
 158  81.14173
 159  143.1716
 160  150.4246
 161  46.71706
 162  134.3399
 163  196.1221
 164  128.6618
 165  151.2972
 166  5.425091
 167  31.39092
 168  125.3481
 169  206.4423
 170  173.5353
 171  -80.49677
 172  53.7234
 173  89.1157
 174  110.5618
 175  50.13072
 176  2.016949
 177  126.0977
 178  35.00856
 179  -50.08546
 180  10.74313
 181  68.48431
 182  5.096898
 183  1.938639
 184  95.48666
 185  82.57674
 186  -98.36263
 187  113.4851
 188  151.0641
 189  42.14756
 190  42.0562
 191  155.6551
 192  131.6277
 193  125.8303
 194  135.3227
 195  242.6284
 196  58.47019
 197  18.07082
 198  15.08007
 199  200.8126
 200  192.9638
 201  127.5232
 202  141.2517
 203  183.9695
 204  81.09512
 205  95.49752
 206  21.51749
 207  18.15803
 208  -14.72462
 209  -10.9227
 210  -37.77368
 211  -62.14527
 212  -24.0399
 213  45.96095
 214  54.518
 215  -26.4096
 216  18.0586
 217  117.0711
 218  40.28897
 219  29.02905
 220  105.1755
 221  179.2392
 222  58.73072
 223  -49.69047
 224  -142.4422
 225  -18.8177
 226  94.12698
 227  94.74799
 228  41.14748
 229  92.23226
 230  -26.7736
 231  53.28614
 232  11.328
 233  70.67948
 234  87.10185
 235  12.06308
 236  75.82682
 237  135.8293
 238  163.8546
 239  69.71522
 240  78.73315
 241  109.1732
 242  27.45767
 243  8.658556
 244  47.16483
 245  125.028
 246  2.655758
 247  -36.07293
 248  105.4959
 249  96.42681
 250  98.19043
 251  217.193
 252  73.84564
 253  -59.25334
 254  39.77831
 255  103.7523
 256  45.45561
 257  49.35703
 258  101.7961
 259  110.5401
 260  37.71137
 261  102.9687
 262  112.6884
 263  -27.60734
 264  74.73669
 265  261.2812
 266  307.9092
 267  193.2934
 268  43.96412
 269  -28.63141
 270  61.19311
 271  -101.6081
 272  -40.7222
 273  67.37386
 274  -32.56776
 275  97.31508
 276  64.10199
 277  -33.26896
 278  24.13826
 279  69.49779
 280  123.4904
 281  57.12529
 282  102.2802
 283  149.031
 284  116.8311
 285  85.85439
 286  117.5091
 287  31.01911
 288  -79.70212
 289  130.877
 290  -94.55163
 291  -66.15839
 292  120.1516
 293  238.4169
 294  145.4026
 295  132.4852
 296  61.73642
 297  50.21686
 298  59.22866
 299  64.65979
 300  -35.47631
 301  6.256271
 302  115.7421
 303  -10.50493
 304  17.99368
 305  73.93754
 306  -6.601685
 307  -19.46483
 308  113.4564
 309  71.67503
 310  9.762848
 311  47.39026
 312  -37.43723
 313  14.58885
 314  47.44659
 315  47.23494
 316  -19.27452
 317  43.6753
 318  95.60221
 319  46.61266
 320  180.0567
 321  110.0909
 322  151.5689
 323  66.41809
 324  134.0732
 325  67.25553
 326  41.53007
 327  50.3638
 328  69.46902
 329  161.0309
 330  119.1375
 331  69.53465
 332  57.55035
 333  125.2855
 334  12.71004
 335  1.962673
 336  -19.89413
 337  34.17793
 338  -0.1258109
 339  -104.403
 340  158.8178
 341  74.38613
 342  -12.08173
 343  -43.31906
 344  27.84753
 345  101.6702
 346  106.8834
 347  119.0226
 348  145.7007
 349  131.4541
 350  104.577
 351  86.99809
 352  231.0213
 353  181.861
 354  182.6836
 355  157.6861
 356  116.7308
 357  66.32346
 358  84.82973
 359  144.4233
 360  131.2377
 361  54.62088
 362  156.3993
 363  213.4581
 364  224.1459
 365  279.2547
 366  92.23575
 367  90.44137
 368  190.7027
 369  179.8321
 370  245.6689
 371  240.9847
 372  104.0064
 373  19.82002
 374  6.69907
 375  -21.39311
 376  107.6626
 377  13.40779
 378  -16.13137
 379  8.059012
 380  40.50195
 381  94.05286
 382  46.46752
 383  122.415
 384  190.9525
 385  44.79948
 386  1.763073
 387  64.55077
 388  176.3252
 389  154.2763
 390  123.6532
 391  132.1708
 392  118.5664
 393  105.9811
 394  112.0486
 395  55.8308
 396  145.4555
 397  27.02739
 398  10.69696
 399  129.7225
 400  78.62241
 401  -13.79935
 402  -27.94629
 403  -12.34286
 404  4.346704
 405  29.44937
 406  -57.85421
 407  -100.9508
 408  -17.47798
 409  102.1961
 410  95.14326
 411  51.97663
 412  27.24257
 413  -7.631546
 414  154.5705
 415  142.2301
 416  89.49356
 417  50.34696
 418  70.91472
 419  -43.87968
 420  -16.80435
 421  84.85284
 422  41.9034
 423  167.2644
 424  189.0411
 425  266.4657
 426  152.7724
 427  110.3203
 428  89.30149
 429  83.26578
 430  255.0268
 431  117.4003
 432  150.1721
 433  64.46857
 434  58.38306
 435  95.18766
 436  74.66211
 437  37.068
 438  12.52733
 439  98.84198
 440  149.0472
 441  50.28499
 442  -35.83116
 443  106.5434
 444  176.0441
 445  101.4514
 446  16.64976
 447  -37.55474
 448  4.593779
 449  138.3698
 450  136.7215
 451  117.6914
 452  133.3188
 453  -73.94794
 454  -82.12268
 455  -70.86748
 456  72.82208
 457  36.68391
 458  91.10323
 459  278.8486
 460  306.9088
 461  88.11066
 462  60.4915
 463  178.2868
 464  180.2603
 465  75.03021
 466  -47.37205
 467  27.49428
 468  82.76672
 469  77.24936
 470  45.35824
 471  81.83064
 472  2.085499
 473  -14.94651
 474  9.873568
 475  -23.26881
 476  132.2866
 477  64.99928
 478  84.10213
 479  80.26474
 480  -1.646199
 481  65.89898
 482  60.80417
 483  72.18961
 484  138.1441
 485  89.76388
 486  102.8573
 487  168.2417
 488  99.78066
 489  22.91956
 490  -19.07027
 491  -26.37583
 492  133.4468
 493  113.9908
 494  87.42158
 495  26.09958
 496  74.99197
 497  8.592572
 498  100.7255
 499  173.7661
 500  160.0917
 501  57.00493
 502  208.1481
 503  307.0661
 504  224.386
 505  303.3047
 506  318.8433
 507  233.1659
 508  263.2564
 509  497.7125
 510  745.4297
 511  716.6192
