# Input file       =  1189657632.118036_cleaned.dat
# Candidate        =  PSR_0332+5434
# Telescope        =  AR
# Epoch_topo       =  58013.185348588377
# Epoch_bary       =  N/A
# T_sample         =  0.002
# Data Folded      =  7340032
# Data Avg         =  0.00938967085490177
# Data StdDev      =  1.00003694520621 
# Profile Bins     =  512
# Profile Avg      =  134.663869782715 
# Profile StdDev   =  119.737459938485 
# Reduced chi-sqr  =  1.191
# Prob(Noise)      <  0.00191   (~2.9 sigma)
# P_topo (ms)      =  714.466879957356  +/- 0.000107
# P'_topo (s/s)    =  -0                +/- 5.65e-11
# P''_topo (s/s^2) =  0                 +/- 2.49e-14
# P_bary (ms)      =  N/A
# P'_bary (s/s)    =  N/A
# P''_bary (s/s^2) =  N/A
# P_orb (s)        =  N/A
# asin(i)/c (s)    =  N/A
# eccentricity     =  N/A
# w (rad)          =  N/A
# T_peri           =  N/A
######################################################
   0  640.1863
   1  680.7859
   2  503.8216
   3  272.4057
   4  205.6304
   5  148.0622
   6  87.10391
   7  151.7242
   8  138.0816
   9  150.5103
  10  129.8365
  11  200.8728
  12  294.662
  13  320.2972
  14  233.032
  15  158.9171
  16  111.6268
  17  162.497
  18  37.68368
  19  62.56211
  20  175.3474
  21  253.3306
  22  286.6481
  23  392.8495
  24  214.5141
  25  212.1923
  26  59.78665
  27  41.90667
  28  166.7128
  29  100.5505
  30  139.0201
  31  127.2791
  32  4.714581
  33  -25.83457
  34  102.6682
  35  95.71421
  36  56.8898
  37  158.1768
  38  72.5749
  39  37.234
  40  106.9201
  41  178.1858
  42  209.6163
  43  244.037
  44  107.2166
  45  91.95882
  46  57.86072
  47  -16.32418
  48  9.154333
  49  202.8245
  50  12.8083
  51  -16.2775
  52  169.9383
  53  310.4337
  54  227.6635
  55  133.065
  56  39.61872
  57  47.67871
  58  74.1088
  59  43.6996
  60  103.9269
  61  126.9956
  62  213.4977
  63  168.8838
  64  16.68504
  65  126.873
  66  207.6241
  67  200.6479
  68  43.52652
  69  121.5149
  70  149.7569
  71  28.23175
  72  78.85957
  73  158.3393
  74  112.6293
  75  85.97828
  76  234.2473
  77  176.9869
  78  102.8277
  79  143.6327
  80  169.1265
  81  88.44486
  82  -49.59167
  83  65.22615
  84  177.3023
  85  379.582
  86  273.434
  87  117.5335
  88  162.7661
  89  114.4325
  90  11.16544
  91  -3.78317
  92  76.38379
  93  168.5902
  94  216.512
  95  294.3233
  96  261.0187
  97  123.016
  98  90.23719
  99  135.9974
 100  84.74448
 101  60.28032
 102  127.9271
 103  154.0193
 104  32.09641
 105  139.823
 106  110.4411
 107  32.85923
 108  5.407904
 109  135.2499
 110  108.8183
 111  136.0856
 112  81.87145
 113  45.14336
 114  65.00261
 115  94.67941
 116  151.6847
 117  142.8429
 118  150.4577
 119  126.6268
 120  126.8762
 121  188.5632
 122  79.31713
 123  128.61
 124  132.4587
 125  135.2477
 126  -3.147244
 127  55.64268
 128  69.45087
 129  60.12144
 130  160.5481
 131  115.735
 132  208.6104
 133  62.26308
 134  110.5252
 135  147.5875
 136  133.9756
 137  218.4123
 138  264.2324
 139  144.3357
 140  108.9196
 141  61.40379
 142  50.77142
 143  46.59477
 144  117.7053
 145  172.6471
 146  45.04605
 147  143.4731
 148  217.4823
 149  92.34124
 150  -5.465381
 151  23.38471
 152  48.85094
 153  170.4386
 154  49.98141
 155  158.2181
 156  231.1542
 157  187.8645
 158  92.80036
 159  102.6534
 160  -47.97594
 161  17.71266
 162  74.679
 163  89.95387
 164  -4.257135
 165  252.0624
 166  243.9193
 167  260.2681
 168  198.5687
 169  0.0592839
 170  104.3246
 171  115.7662
 172  159.5975
 173  47.36184
 174  12.08385
 175  42.87973
 176  160.1978
 177  227.6416
 178  196.0456
 179  3.14285
 180  118.6365
 181  204.7564
 182  175.7244
 183  155.5211
 184  171.8752
 185  101.3878
 186  159.6717
 187  151.8102
 188  258.2687
 189  160.5709
 190  35.86778
 191  106.4757
 192  207.88
 193  199.8935
 194  132.8658
 195  121.5909
 196  84.6436
 197  116.1312
 198  46.62326
 199  126.2597
 200  229.7041
 201  202.4469
 202  88.47446
 203  81.30787
 204  211.8407
 205  116.6479
 206  57.77953
 207  99.93039
 208  162.3766
 209  109.8307
 210  -13.95425
 211  56.25797
 212  -8.664517
 213  122.168
 214  199.3389
 215  154.8036
 216  31.04202
 217  -26.66322
 218  20.65567
 219  94.2664
 220  140.5454
 221  104.1936
 222  191.9794
 223  95.28968
 224  50.15498
 225  71.71268
 226  195.186
 227  135.291
 228  206.6206
 229  233.7856
 230  109.6923
 231  103.48
 232  84.09913
 233  87.22905
 234  246.1021
 235  207.4052
 236  69.64555
 237  43.47512
 238  101.8471
 239  74.52606
 240  194.7545
 241  164.3693
 242  165.6768
 243  246.8677
 244  117.9577
 245  140.6186
 246  259.3381
 247  169.1218
 248  240.1911
 249  221.7767
 250  336.8771
 251  24.2504
 252  6.281762
 253  239.7185
 254  256.0113
 255  185.9537
 256  59.98568
 257  122.5454
 258  232.757
 259  187.8651
 260  273.8333
 261  220.0445
 262  104.2512
 263  80.87522
 264  266.6177
 265  180.8751
 266  214.4178
 267  384.7545
 268  313.6947
 269  177.6323
 270  103.8116
 271  120.8602
 272  88.63847
 273  119.7519
 274  112.9689
 275  276.8786
 276  67.77318
 277  46.1597
 278  48.77106
 279  98.15121
 280  43.91406
 281  148.7227
 282  237.295
 283  250.5233
 284  95.53494
 285  167.4669
 286  213.44
 287  168.2467
 288  120.9584
 289  58.298
 290  145.464
 291  220.6586
 292  140.6211
 293  197.2188
 294  250.4217
 295  155.1484
 296  183.6684
 297  245.186
 298  233.4607
 299  123.2904
 300  95.9705
 301  103.1269
 302  193.6786
 303  179.0175
 304  112.861
 305  105.9886
 306  121.7307
 307  90.91427
 308  171.6317
 309  43.77366
 310  -69.31219
 311  -83.72234
 312  18.00833
 313  107.8072
 314  151.9333
 315  31.1426
 316  28.31432
 317  201.6604
 318  144.1826
 319  134.8019
 320  78.47363
 321  106.9412
 322  113.4133
 323  117.3955
 324  95.88391
 325  222.2233
 326  166.6922
 327  145.1509
 328  162.4307
 329  161.0433
 330  185.1291
 331  192.5909
 332  150.5133
 333  159.3247
 334  180.7222
 335  122.8353
 336  131.4833
 337  10.71133
 338  41.17692
 339  114.8623
 340  154.5709
 341  180.7998
 342  124.1934
 343  79.72467
 344  138.6634
 345  150.2394
 346  151.776
 347  187.0162
 348  235.2743
 349  177.1505
 350  46.44034
 351  95.82262
 352  194.7936
 353  121.177
 354  116.0442
 355  129.3567
 356  175.9825
 357  143.5102
 358  20.89815
 359  16.25611
 360  89.6608
 361  -13.46135
 362  29.9957
 363  84.99485
 364  40.4353
 365  159.0624
 366  82.97956
 367  -8.817314
 368  19.14601
 369  187.1542
 370  74.9453
 371  -24.50324
 372  93.21603
 373  238.3786
 374  71.55267
 375  89.93054
 376  20.55884
 377  -35.59479
 378  131.0531
 379  289.9362
 380  297.0219
 381  209.577
 382  248.6832
 383  212.0587
 384  175.643
 385  154.0179
 386  143.2765
 387  199.2845
 388  219.4944
 389  185.889
 390  54.6905
 391  -12.97424
 392  3.749703
 393  91.49056
 394  43.57259
 395  64.72858
 396  101.6109
 397  53.75858
 398  126.0353
 399  161.9588
 400  229.0271
 401  214.5152
 402  88.36533
 403  43.01349
 404  55.17387
 405  79.26447
 406  183.0494
 407  168.9166
 408  157.9509
 409  190.8396
 410  179.8288
 411  102.6209
 412  -39.47113
 413  72.26507
 414  194.0005
 415  63.06315
 416  1.461781
 417  124.2659
 418  313.0859
 419  222.4352
 420  192.9384
 421  153.7488
 422  153.7487
 423  191.3752
 424  56.24763
 425  -25.50968
 426  8.601256
 427  284.2863
 428  125.8489
 429  159.6438
 430  137.287
 431  64.08614
 432  105.0086
 433  129.6505
 434  19.31475
 435  -4.422976
 436  96.30965
 437  316.5898
 438  219.2606
 439  159.8329
 440  151.3736
 441  96.39433
 442  85.67981
 443  123.9597
 444  89.60467
 445  113.156
 446  -7.811352
 447  127.3328
 448  105.7093
 449  68.21502
 450  132.3877
 451  183.5111
 452  165.8315
 453  4.412278
 454  37.28209
 455  132.6433
 456  -42.06886
 457  -38.38849
 458  -45.7517
 459  35.25359
 460  58.01501
 461  152.3155
 462  163.911
 463  112.1647
 464  88.55444
 465  109.0253
 466  316.9776
 467  318.9552
 468  86.26546
 469  67.94495
 470  38.03477
 471  306.7942
 472  261.8564
 473  173.0509
 474  86.79356
 475  9.73339
 476  159.8013
 477  117.3843
 478  87.78025
 479  229.7032
 480  216.1997
 481  297.5714
 482  233.6877
 483  94.2029
 484  184.4278
 485  84.09607
 486  -16.31668
 487  68.6671
 488  155.8485
 489  153.8399
 490  101.1969
 491  55.46769
 492  155.8165
 493  221.07
 494  225.0285
 495  241.8934
 496  176.3157
 497  72.16621
 498  39.14563
 499  184.6988
 500  186.8547
 501  134.5303
 502  143.5729
 503  143.0509
 504  263.3079
 505  208.7526
 506  110.4719
 507  167.0207
 508  271.3048
 509  459.6564
 510  530.1713
 511  679.0981
