# Input file       =  1189024883.115833_cleaned.dat
# Candidate        =  PSR_0332+5434
# Telescope        =  AR
# Epoch_topo       =  58005.861864766586
# Epoch_bary       =  N/A
# T_sample         =  0.002
# Data Folded      =  7208960
# Data Avg         =  0.0081190372452178
# Data StdDev      =  1.00006324338279 
# Profile Bins     =  512
# Profile Avg      =  114.313655095077 
# Profile StdDev   =  118.666680201206 
# Reduced chi-sqr  =  1.124
# Prob(Noise)      <  0.0268   (~1.9 sigma)
# P_topo (ms)      =  714.464615871191  +/- 0.000389
# P'_topo (s/s)    =  -0                +/- 2.09e-10
# P''_topo (s/s^2) =  0                 +/- 9.38e-14
# P_bary (ms)      =  N/A
# P'_bary (s/s)    =  N/A
# P''_bary (s/s^2) =  N/A
# P_orb (s)        =  N/A
# asin(i)/c (s)    =  N/A
# eccentricity     =  N/A
# w (rad)          =  N/A
# T_peri           =  N/A
######################################################
   0  540.1669
   1  531.6446
   2  427.3802
   3  201.0488
   4  64.19101
   5  198.3061
   6  54.05716
   7  59.44856
   8  173.0285
   9  132.9196
  10  111.1715
  11  44.37344
  12  188.7463
  13  227.4334
  14  169.8618
  15  58.03094
  16  78.36003
  17  103.0925
  18  91.62
  19  34.45569
  20  140.2849
  21  131.8251
  22  148.5734
  23  142.9044
  24  83.65915
  25  66.4922
  26  19.66257
  27  105.5396
  28  131.8806
  29  104.2485
  30  103.7335
  31  63.57017
  32  65.77971
  33  88.33617
  34  50.76458
  35  116.8047
  36  126.3105
  37  122.5039
  38  48.61395
  39  150.437
  40  149.2527
  41  230.8858
  42  61.57604
  43  126.4887
  44  122.1746
  45  61.18679
  46  98.06015
  47  70.53437
  48  5.54725
  49  141.9739
  50  91.06261
  51  76.28128
  52  98.05412
  53  158.8092
  54  133.0548
  55  158.7703
  56  59.25388
  57  64.74223
  58  154.9646
  59  169.7651
  60  107.1542
  61  74.7921
  62  69.9512
  63  145.7005
  64  133.3908
  65  152.3378
  66  36.74687
  67  45.7198
  68  97.91882
  69  15.718
  70  19.00358
  71  106.9482
  72  103.3982
  73  -6.168271
  74  64.21576
  75  60.80109
  76  10.37572
  77  135.0989
  78  216.2386
  79  233.602
  80  118.0338
  81  100.0649
  82  185.5493
  83  203.1752
  84  114.4167
  85  27.59943
  86  12.5457
  87  99.11794
  88  65.56548
  89  152.9154
  90  246.3772
  91  186.364
  92  123.6416
  93  86.34119
  94  84.96964
  95  44.61809
  96  -36.51842
  97  -17.85035
  98  -24.92245
  99  7.62788
 100  -89.56649
 101  -91.87351
 102  64.00372
 103  6.758072
 104  -13.01582
 105  -141.2917
 106  -48.97731
 107  110.8064
 108  97.88803
 109  -45.29536
 110  10.78139
 111  32.91365
 112  95.75831
 113  114.1955
 114  157.0281
 115  26.05956
 116  72.25291
 117  152.546
 118  38.56485
 119  -70.6543
 120  76.44553
 121  128.6567
 122  96.07583
 123  276.1624
 124  236.9435
 125  105.5421
 126  167.6627
 127  139.7023
 128  148.52
 129  149.3852
 130  131.3943
 131  104.5071
 132  121.7911
 133  98.33147
 134  28.96185
 135  121.9477
 136  -50.26604
 137  -58.56525
 138  106.6888
 139  175.5677
 140  150.1971
 141  21.74556
 142  131.7196
 143  78.47977
 144  61.23667
 145  6.871252
 146  138.1058
 147  146.4719
 148  202.7238
 149  173.396
 150  104.137
 151  71.00947
 152  143.6228
 153  175.3595
 154  60.8261
 155  189.3735
 156  216.4938
 157  115.6632
 158  81.89458
 159  49.11133
 160  51.47102
 161  50.93476
 162  65.25751
 163  68.68724
 164  54.72325
 165  -45.14678
 166  -75.75339
 167  -27.6474
 168  158.0103
 169  202.0241
 170  330.2119
 171  234.1719
 172  -38.04998
 173  44.53094
 174  79.67499
 175  20.41076
 176  88.92699
 177  67.00779
 178  59.68939
 179  111.7441
 180  113.1958
 181  102.7272
 182  95.15778
 183  49.09444
 184  -41.14489
 185  7.039751
 186  72.15804
 187  29.95914
 188  112.0098
 189  172.5053
 190  65.37678
 191  12.49229
 192  7.197628
 193  66.61654
 194  243.9946
 195  207.0492
 196  257.2816
 197  261.3533
 198  200.4089
 199  166.9796
 200  145.1014
 201  86.59389
 202  58.73946
 203  93.71364
 204  48.03221
 205  105.5394
 206  137.0348
 207  60.80582
 208  31.35221
 209  10.51919
 210  -19.48153
 211  81.30486
 212  95.52073
 213  -3.470313
 214  6.988667
 215  250.6385
 216  228.8977
 217  243.9227
 218  203.0831
 219  138.8133
 220  196.9149
 221  111.173
 222  172.4333
 223  117.6382
 224  63.18039
 225  175.2118
 226  99.21754
 227  66.53971
 228  77.81834
 229  31.3675
 230  -19.74726
 231  -3.616421
 232  219.1508
 233  163.3539
 234  40.53216
 235  128.4655
 236  98.9352
 237  33.54583
 238  36.63214
 239  232.9093
 240  227.9959
 241  179.04
 242  132.0861
 243  109.0782
 244  140.2436
 245  -5.748336
 246  62.58124
 247  120.7466
 248  71.53667
 249  31.2419
 250  210.0475
 251  130.3881
 252  104.4683
 253  120.8213
 254  138.861
 255  150.0923
 256  66.52795
 257  92.35493
 258  151.3206
 259  162.451
 260  126.6402
 261  -6.017432
 262  81.08677
 263  84.5575
 264  79.51525
 265  165.2757
 266  188.2489
 267  214.9946
 268  101.2166
 269  -37.34641
 270  -36.81503
 271  67.28152
 272  85.02506
 273  151.3501
 274  166.8062
 275  282.0716
 276  320.8345
 277  331.8563
 278  266.8651
 279  164.0094
 280  102.7106
 281  161.9752
 282  249.6708
 283  108.458
 284  123.8617
 285  115.2542
 286  101.2264
 287  180.4732
 288  169.2619
 289  197.8347
 290  209.1868
 291  144.4064
 292  87.44482
 293  108.3679
 294  150.9148
 295  251.6622
 296  149.8785
 297  93.0757
 298  180.2271
 299  192.2392
 300  204.0928
 301  167.7467
 302  139.9155
 303  170.3861
 304  191.4714
 305  165.492
 306  278.6688
 307  289.2558
 308  238.8764
 309  152.6987
 310  102.6559
 311  166.1261
 312  231.9332
 313  71.63513
 314  168.1063
 315  77.90588
 316  166.6476
 317  143.8738
 318  142.4784
 319  101.2854
 320  209.1578
 321  313.41
 322  322.7883
 323  296.422
 324  229.0071
 325  73.70268
 326  147.0786
 327  80.1994
 328  86.86092
 329  231.1066
 330  191.1275
 331  198.121
 332  138.5925
 333  70.43147
 334  208.1484
 335  234.4665
 336  80.42215
 337  -21.11693
 338  177.7685
 339  252.0526
 340  177.9729
 341  116.2068
 342  234.0818
 343  324.9463
 344  215.8493
 345  55.10237
 346  65.63384
 347  112.2516
 348  78.09635
 349  127.7714
 350  244.8262
 351  233.5559
 352  115.2733
 353  51.91476
 354  71.66837
 355  30.9804
 356  151.3635
 357  139.0342
 358  0.1260961
 359  117.6555
 360  362.0565
 361  206.187
 362  42.30254
 363  54.75825
 364  221.9897
 365  172.9895
 366  58.95214
 367  115.1243
 368  164.9448
 369  206.0657
 370  90.62122
 371  82.56351
 372  74.65199
 373  121.4476
 374  154.3928
 375  215.0211
 376  179.193
 377  -20.22733
 378  7.612344
 379  26.71453
 380  76.06885
 381  139.2532
 382  161.9299
 383  43.46788
 384  173.4587
 385  123.1463
 386  51.77863
 387  164.6711
 388  -26.86358
 389  16.80431
 390  60.27056
 391  89.50282
 392  -17.45387
 393  168.6793
 394  170.7446
 395  20.22306
 396  61.61416
 397  114.7756
 398  255.7301
 399  87.66932
 400  93.31983
 401  13.07287
 402  95.89985
 403  152.5516
 404  159.4066
 405  106.5954
 406  13.03261
 407  22.53428
 408  42.97005
 409  115.4011
 410  238.8981
 411  240.1857
 412  124.1421
 413  111.4873
 414  51.66501
 415  156.2127
 416  239.8831
 417  277.2918
 418  130.968
 419  121.4246
 420  155.4573
 421  162.5199
 422  183.045
 423  158.1903
 424  133.3784
 425  186.7387
 426  210.713
 427  181.9719
 428  248.6568
 429  173.8365
 430  102.0714
 431  -5.032545
 432  -18.01446
 433  72.04044
 434  169.0731
 435  112.1876
 436  -17.58182
 437  30.8437
 438  133.2429
 439  -28.52112
 440  -53.74495
 441  41.65813
 442  3.01581
 443  124.5876
 444  115.6655
 445  8.231547
 446  68.95644
 447  121.1297
 448  52.15565
 449  85.35276
 450  183.2715
 451  258.95
 452  236.1
 453  167.5795
 454  208.4329
 455  121.7253
 456  121.2015
 457  122.4929
 458  38.2566
 459  217.2444
 460  335.6306
 461  198.1508
 462  18.76118
 463  44.0995
 464  124.3685
 465  34.45907
 466  -9.365187
 467  -84.60024
 468  23.14837
 469  15.74009
 470  -69.03777
 471  111.1065
 472  163.0465
 473  -7.369467
 474  -38.33234
 475  123.4097
 476  -0.7777337
 477  -78.53427
 478  105.5455
 479  109.5758
 480  10.31604
 481  4.911942
 482  93.84085
 483  -46.56915
 484  130.3907
 485  113.2379
 486  156.7275
 487  195.2497
 488  86.13992
 489  84.81841
 490  73.38952
 491  33.34769
 492  14.58789
 493  89.99174
 494  91.44833
 495  130.6343
 496  5.315291
 497  -11.80373
 498  68.91486
 499  -26.36682
 500  30.07976
 501  86.97221
 502  166.2781
 503  93.06477
 504  101.8661
 505  220.5886
 506  157.3534
 507  105.3844
 508  202.1736
 509  302.8163
 510  441.9501
 511  621.9411
