# Input file       =  1189628040.113569_cleaned.dat
# Candidate        =  PSR_0332+5434
# Telescope        =  AR
# Epoch_topo       =  58012.842848536675
# Epoch_bary       =  N/A
# T_sample         =  0.002
# Data Folded      =  7208960
# Data Avg         =  0.0108527985087911
# Data StdDev      =  1.000022293643   
# Profile Bins     =  512
# Profile Avg      =  152.793636608201 
# Profile StdDev   =  118.661821138834 
# Reduced chi-sqr  =  1.526
# Prob(Noise)      <  1.64e-13   (~7.3 sigma)
# P_topo (ms)      =  714.466420792153  +/- 0.000201
# P'_topo (s/s)    =  -0                +/- 1.08e-10
# P''_topo (s/s^2) =  0                 +/- 4.85e-14
# P_bary (ms)      =  N/A
# P'_bary (s/s)    =  N/A
# P''_bary (s/s^2) =  N/A
# P_orb (s)        =  N/A
# asin(i)/c (s)    =  N/A
# eccentricity     =  N/A
# w (rad)          =  N/A
# T_peri           =  N/A
######################################################
   0  1000.722
   1  812.2754
   2  598.9451
   3  464.4501
   4  348.6064
   5  355.9245
   6  321.2471
   7  336.7787
   8  183.8873
   9  85.49037
  10  165.0244
  11  135.2985
  12  137.5595
  13  195.2677
  14  234.9396
  15  305.3961
  16  260.9435
  17  217.9192
  18  102.998
  19  108.553
  20  84.9527
  21  85.87599
  22  112.7824
  23  72.29842
  24  -26.08909
  25  58.92896
  26  101.0732
  27  -52.51392
  28  -22.40767
  29  165.8398
  30  149.7985
  31  155.603
  32  150.5317
  33  160.3617
  34  95.73495
  35  65.95879
  36  59.30176
  37  96.24123
  38  174.9379
  39  41.17278
  40  139.8737
  41  102.8519
  42  174.9355
  43  119.4006
  44  146.5839
  45  150.2569
  46  166.1433
  47  24.824
  48  108.1724
  49  134.0196
  50  149.5426
  51  60.65508
  52  139.6122
  53  225.8035
  54  205.3468
  55  221.5267
  56  252.2921
  57  159.7571
  58  93.73646
  59  92.22316
  60  98.81895
  61  277.3993
  62  226.5854
  63  189.3949
  64  120.6511
  65  185.6034
  66  189.3305
  67  83.20585
  68  39.69361
  69  77.69807
  70  211.2469
  71  135.0397
  72  131.065
  73  212.9303
  74  181.6427
  75  197.6577
  76  183.7878
  77  263.725
  78  123.0248
  79  75.493
  80  163.5331
  81  171.8813
  82  168.821
  83  185.6481
  84  143.6752
  85  238.7059
  86  300.9524
  87  144.6951
  88  133.8924
  89  71.7477
  90  112.1954
  91  214.2479
  92  303.3703
  93  22.00822
  94  139.4343
  95  80.35154
  96  190.6444
  97  164.5966
  98  156.8323
  99  145.8462
 100  89.79264
 101  135.2941
 102  33.43949
 103  111.4489
 104  20.28656
 105  211.9501
 106  227.5256
 107  226.1999
 108  70.10512
 109  142.6996
 110  47.65923
 111  -45.0979
 112  123.5208
 113  244.08
 114  343.9152
 115  264.9304
 116  121.1194
 117  189.9677
 118  189.1651
 119  181.1837
 120  160.9144
 121  236.8802
 122  364.9621
 123  149.7076
 124  11.28559
 125  45.3298
 126  53.79092
 127  114.637
 128  101.329
 129  137.2915
 130  150.2926
 131  160.1499
 132  114.9959
 133  188.5973
 134  209.8298
 135  66.69891
 136  67.53314
 137  265.0117
 138  173.4769
 139  88.38078
 140  114.1518
 141  140.8809
 142  69.66682
 143  42.85121
 144  34.70553
 145  125.1026
 146  118.0272
 147  165.1817
 148  246.904
 149  324.6097
 150  276.5537
 151  182.6425
 152  193.7863
 153  200.6586
 154  57.07113
 155  198.3168
 156  104.962
 157  53.93825
 158  26.05052
 159  19.25572
 160  25.07447
 161  58.1308
 162  24.27459
 163  105.4236
 164  113.954
 165  220.9244
 166  101.0475
 167  34.05883
 168  43.71965
 169  97.03777
 170  181.6576
 171  216.8604
 172  160.8967
 173  40.83418
 174  51.50817
 175  122.5199
 176  240.8729
 177  187.6624
 178  205.0577
 179  214.6271
 180  261.6471
 181  218.7819
 182  200.7582
 183  155.9466
 184  146.0198
 185  113.9302
 186  82.21751
 187  132.4264
 188  169.4241
 189  83.18784
 190  62.84736
 191  171.7104
 192  158.7949
 193  150.4424
 194  120.5121
 195  130.335
 196  203.2048
 197  144.1818
 198  254.4724
 199  220.722
 200  117.0827
 201  71.51361
 202  130.9105
 203  203.7252
 204  254.1895
 205  -24.37935
 206  113.658
 207  200.3928
 208  178.9343
 209  183.4755
 210  104.7578
 211  125.185
 212  132.2483
 213  3.328497
 214  169.679
 215  220.6909
 216  143.2339
 217  10.55858
 218  119.2327
 219  148.8205
 220  211.7279
 221  194.7352
 222  179.8071
 223  159.159
 224  118.805
 225  179.7704
 226  139.9886
 227  121.9611
 228  48.91358
 229  211.8284
 230  196.2392
 231  173.6651
 232  225.2943
 233  191.8526
 234  154.5818
 235  177.3471
 236  85.99742
 237  6.004221
 238  42.41917
 239  154.2363
 240  179.8427
 241  15.78029
 242  66.75416
 243  -82.52811
 244  14.35823
 245  30.38023
 246  22.30755
 247  133.8998
 248  213.3321
 249  162.8842
 250  182.0735
 251  109.1609
 252  190.5485
 253  203.657
 254  183.6774
 255  211.7716
 256  166.5756
 257  162.5669
 258  117.4328
 259  118.082
 260  162.538
 261  147.6172
 262  96.16347
 263  168.7422
 264  153.9803
 265  171.6392
 266  249.3375
 267  129.6736
 268  33.29782
 269  -25.96685
 270  97.5246
 271  140.2938
 272  81.91113
 273  190.3118
 274  177.8392
 275  216.0579
 276  151.7488
 277  99.31475
 278  193.941
 279  293.7823
 280  308.1067
 281  267.9872
 282  225.9619
 283  247.246
 284  180.8881
 285  171.5535
 286  121.2095
 287  180.4466
 288  99.80143
 289  133.5484
 290  169.2758
 291  264.7821
 292  267.5811
 293  119.1275
 294  180.3002
 295  -1.982836
 296  108.8079
 297  202.9539
 298  239.2769
 299  34.70313
 300  82.37217
 301  48.87172
 302  -14.41949
 303  71.73795
 304  44.34389
 305  -2.810024
 306  73.59127
 307  169.5978
 308  105.7592
 309  72.25425
 310  250.1599
 311  164.7744
 312  176.8023
 313  183.0599
 314  221.3167
 315  89.40394
 316  51.54594
 317  200.7129
 318  146.0938
 319  189.0405
 320  288.6403
 321  317.7551
 322  186.1212
 323  14.32547
 324  16.86658
 325  84.64394
 326  106.4309
 327  168.9483
 328  141.4731
 329  120.9841
 330  97.32349
 331  300.0159
 332  228.3892
 333  212.3506
 334  254.8695
 335  130.1113
 336  -26.25362
 337  199.3123
 338  229.9144
 339  113.7993
 340  124.6361
 341  258.8991
 342  350.3707
 343  236.8326
 344  -2.588119
 345  114.8523
 346  195.003
 347  184.344
 348  276.0039
 349  312.5471
 350  241.322
 351  234.5914
 352  180.5732
 353  182.4778
 354  88.34527
 355  115.7254
 356  251.0154
 357  358.5883
 358  234.8655
 359  205.3096
 360  221.3769
 361  93.82001
 362  -22.11061
 363  119.762
 364  233.787
 365  135.504
 366  105.584
 367  60.1362
 368  80.42021
 369  110.7162
 370  163.873
 371  81.91512
 372  -16.32253
 373  142.427
 374  132.8259
 375  65.28938
 376  58.41059
 377  96.98442
 378  -1.967292
 379  -17.21354
 380  166.0164
 381  112.5073
 382  16.33265
 383  -14.85198
 384  155.8557
 385  157.5589
 386  75.56913
 387  71.59748
 388  99.73062
 389  114.1286
 390  161.4371
 391  95.5634
 392  39.37934
 393  166.3289
 394  201.2075
 395  18.05627
 396  72.80373
 397  81.20394
 398  105.0596
 399  68.63667
 400  66.90552
 401  96.88888
 402  218.5237
 403  260.553
 404  44.67853
 405  39.25107
 406  58.21164
 407  98.55975
 408  195.5199
 409  189.7809
 410  158.9547
 411  227.744
 412  254.4039
 413  118.2131
 414  96.83469
 415  108.4338
 416  141.3512
 417  283.3731
 418  129.5011
 419  7.953287
 420  -22.57012
 421  55.15636
 422  211.4
 423  158.4977
 424  113.2744
 425  183.7856
 426  334.8018
 427  135.0597
 428  179.1313
 429  308.9933
 430  196.9187
 431  120.394
 432  123.3591
 433  123.6589
 434  130.483
 435  182.097
 436  153.6597
 437  164.7997
 438  226.4109
 439  327.22
 440  199.4687
 441  141.759
 442  11.83605
 443  10.82233
 444  46.58219
 445  256.5521
 446  288.4464
 447  245.5595
 448  189.2418
 449  169.972
 450  -27.56727
 451  81.7968
 452  160.0268
 453  136.4726
 454  156.9577
 455  217.7994
 456  138.8797
 457  190.321
 458  141.146
 459  60.78454
 460  136.49
 461  133.2336
 462  139.3916
 463  187.8327
 464  201.9494
 465  230.4995
 466  157.1636
 467  74.39736
 468  106.6212
 469  52.25104
 470  120.9148
 471  178.1438
 472  21.42699
 473  141.5766
 474  226.6791
 475  16.04168
 476  -11.18915
 477  49.62882
 478  43.44387
 479  36.72986
 480  85.22974
 481  137.5416
 482  168.3264
 483  27.78911
 484  55.27959
 485  236.8981
 486  231.4482
 487  230.9474
 488  209.4165
 489  238.206
 490  386.4513
 491  294.42
 492  65.87815
 493  70.22289
 494  162.9829
 495  180.24
 496  151.5051
 497  271.5052
 498  177.9596
 499  134.3567
 500  204.286
 501  90.49513
 502  195.1523
 503  147.4201
 504  108.3145
 505  257.8395
 506  344.2232
 507  321.0605
 508  360.7132
 509  404.1976
 510  693.8249
 511  884.6804
