# Input file       =  1189226738.107004_cleaned.dat
# Candidate        =  PSR_0332+5434
# Telescope        =  AR
# Epoch_topo       =  58008.198149386619
# Epoch_bary       =  N/A
# T_sample         =  0.002
# Data Folded      =  7340032
# Data Avg         =  0.00789069542371925
# Data StdDev      =  1.0000060837787  
# Profile Bins     =  512
# Profile Avg      =  113.091563832762 
# Profile StdDev   =  119.733764806062 
# Reduced chi-sqr  =  1.460
# Prob(Noise)      <  4.62e-11   (~6.5 sigma)
# P_topo (ms)      =  714.465476309208  +/- 0.000117
# P'_topo (s/s)    =  -0                +/- 6.2e-11
# P''_topo (s/s^2) =  0                 +/- 2.74e-14
# P_bary (ms)      =  N/A
# P'_bary (s/s)    =  N/A
# P''_bary (s/s^2) =  N/A
# P_orb (s)        =  N/A
# asin(i)/c (s)    =  N/A
# eccentricity     =  N/A
# w (rad)          =  N/A
# T_peri           =  N/A
######################################################
   0  851.1063
   1  918.1842
   2  664.2344
   3  452.4204
   4  369.3191
   5  322.9236
   6  121.9148
   7  154.6446
   8  79.18713
   9  -32.21376
  10  -44.63918
  11  210.2793
  12  239.6052
  13  125.4285
  14  310.1288
  15  282.6748
  16  159.6979
  17  205.7667
  18  206.6456
  19  191.5132
  20  45.31451
  21  28.41005
  22  118.2628
  23  182.8557
  24  141.5141
  25  185.3696
  26  145.1964
  27  63.59365
  28  -73.76464
  29  125.788
  30  233.5131
  31  -11.80667
  32  111.4258
  33  43.90816
  34  121.4043
  35  126.9713
  36  55.37991
  37  12.88343
  38  150.7963
  39  113.3944
  40  -32.04892
  41  46.56573
  42  140.2054
  43  10.53152
  44  85.90777
  45  225.4651
  46  174.4982
  47  -1.949993
  48  -9.262119
  49  -53.0349
  50  58.34851
  51  141.5283
  52  137.592
  53  75.39639
  54  35.15722
  55  115.7108
  56  123.7358
  57  51.29168
  58  80.56207
  59  -11.91087
  60  0.7517328
  61  85.56161
  62  132.1348
  63  204.6141
  64  117.0883
  65  106.0891
  66  -4.456792
  67  114.1338
  68  168.223
  69  89.79557
  70  178.6743
  71  232.8528
  72  315.2771
  73  192.264
  74  88.6952
  75  116.6362
  76  66.59896
  77  242.5981
  78  274.2482
  79  224.0411
  80  37.19568
  81  216.0822
  82  212.9694
  83  10.2994
  84  65.10572
  85  261.1387
  86  272.2044
  87  144.9409
  88  102.8718
  89  2.489677
  90  16.13082
  91  -38.98679
  92  15.62249
  93  179.78
  94  174.4068
  95  -10.851
  96  -1.949658
  97  114.2311
  98  -7.689698
  99  17.5399
 100  248.2377
 101  230.3357
 102  145.2397
 103  73.39073
 104  49.66368
 105  88.05381
 106  107.6739
 107  122.3181
 108  22.16511
 109  123.9104
 110  286.5521
 111  5.416069
 112  64.81744
 113  62.43979
 114  67.57861
 115  67.08963
 116  105.0381
 117  103.8248
 118  48.45475
 119  190.5622
 120  262.2088
 121  53.57156
 122  -64.00457
 123  80.39382
 124  96.13913
 125  26.22808
 126  -32.99667
 127  168.9952
 128  348.0883
 129  70.07331
 130  14.82007
 131  72.91958
 132  -11.70322
 133  -79.55627
 134  29.06625
 135  227.5826
 136  -5.610501
 137  -14.9069
 138  85.89763
 139  21.52228
 140  127.0128
 141  181.5945
 142  177.3073
 143  156.9018
 144  161.4464
 145  174.2271
 146  198.6105
 147  191.3858
 148  208.557
 149  203.9248
 150  147.3278
 151  66.06036
 152  81.26176
 153  217.714
 154  229.5509
 155  140.1654
 156  87.948
 157  67.12492
 158  121.5644
 159  89.28045
 160  106.3635
 161  278.4479
 162  205.7927
 163  95.91216
 164  98.70891
 165  -16.19434
 166  -7.187606
 167  54.76161
 168  149.6111
 169  186.5199
 170  125.264
 171  128.8086
 172  130.433
 173  57.96612
 174  131.1134
 175  139.9655
 176  186.8405
 177  262.7869
 178  128.1738
 179  192.8346
 180  115.7184
 181  -34.27604
 182  87.89679
 183  69.51927
 184  -108.169
 185  111.8827
 186  182.1707
 187  161.2188
 188  -90.42464
 189  29.96608
 190  53.15885
 191  105.2114
 192  151.335
 193  227.6638
 194  144.3787
 195  175.1373
 196  100.9746
 197  -78.62894
 198  -59.78085
 199  106.1172
 200  46.0073
 201  194.5071
 202  122.4341
 203  38.83186
 204  168.5736
 205  71.98131
 206  -43.73552
 207  -127.9317
 208  34.66344
 209  118.8635
 210  120.5557
 211  90.33765
 212  112.9126
 213  66.34267
 214  60.76593
 215  81.7444
 216  152.4779
 217  82.53922
 218  -35.89657
 219  66.71567
 220  103.635
 221  124.0441
 222  52.10075
 223  -196.0746
 224  5.688503
 225  94.13773
 226  44.99624
 227  29.68113
 228  98.87667
 229  71.32368
 230  105.8971
 231  97.0134
 232  148.2248
 233  43.0041
 234  115.9748
 235  111.585
 236  120.1034
 237  122.3513
 238  148.1384
 239  9.146001
 240  50.7729
 241  202.2348
 242  184.9538
 243  132.2226
 244  -6.334186
 245  90.60777
 246  145.9887
 247  170.4731
 248  120.5067
 249  37.32504
 250  104.7237
 251  73.66504
 252  86.39984
 253  226.1487
 254  97.28778
 255  127.2062
 256  186.7767
 257  151.5538
 258  95.40038
 259  95.22652
 260  95.41869
 261  246.7252
 262  146.7617
 263  100.6485
 264  167.6842
 265  74.70495
 266  -64.23235
 267  49.0467
 268  88.74858
 269  -52.61761
 270  13.87761
 271  7.780058
 272  35.15697
 273  64.52273
 274  145.7465
 275  -53.85064
 276  7.291284
 277  107.3298
 278  176.7782
 279  199.1506
 280  192.0372
 281  81.06938
 282  -33.61911
 283  -31.05095
 284  151.6205
 285  71.31558
 286  36.70433
 287  203.4395
 288  142.6731
 289  124.3904
 290  196.0576
 291  86.35313
 292  30.93196
 293  22.3714
 294  28.16927
 295  42.8962
 296  23.696
 297  110.4101
 298  222.7878
 299  219.0922
 300  139.3853
 301  31.65205
 302  134.7957
 303  156.064
 304  161.1654
 305  145.4252
 306  132.4883
 307  221.6615
 308  185.8989
 309  93.35357
 310  125.8336
 311  149.5807
 312  -17.80484
 313  -21.64225
 314  143.4544
 315  185.9721
 316  268.6029
 317  176.0303
 318  47.43735
 319  91.01277
 320  103.1979
 321  81.40263
 322  14.15741
 323  75.80739
 324  143.0349
 325  192.8752
 326  259.9784
 327  171.808
 328  107.0458
 329  51.80428
 330  115.9053
 331  66.97012
 332  230.2264
 333  98.05928
 334  157.2943
 335  19.90684
 336  -47.87351
 337  71.28672
 338  -1.036868
 339  -16.31457
 340  -7.792004
 341  110.3503
 342  53.05047
 343  15.54222
 344  180.3759
 345  261.725
 346  98.59992
 347  105.9599
 348  70.55133
 349  86.07029
 350  47.83967
 351  193.1081
 352  148.8021
 353  70.42708
 354  88.95306
 355  91.28909
 356  131.7695
 357  54.51728
 358  14.29827
 359  -33.85167
 360  -13.36233
 361  144.5735
 362  8.226774
 363  176.4131
 364  149.9767
 365  70.63243
 366  0.007887659
 367  33.66818
 368  27.89919
 369  49.30378
 370  165.4464
 371  199.745
 372  -27.7271
 373  -54.93584
 374  44.61652
 375  51.5774
 376  124.4565
 377  234.8955
 378  84.17865
 379  92.39648
 380  72.71151
 381  199.5617
 382  174.5061
 383  19.75918
 384  54.8494
 385  120.018
 386  153.4972
 387  64.79406
 388  -30.06504
 389  86.65489
 390  151.1867
 391  76.3105
 392  -22.56384
 393  65.50188
 394  108.2806
 395  67.03696
 396  177.5799
 397  92.902
 398  59.16055
 399  231.1777
 400  223.4912
 401  41.553
 402  53.62439
 403  73.30486
 404  5.078979
 405  107.7517
 406  63.44682
 407  80.01981
 408  129.7971
 409  93.84716
 410  153.9469
 411  159.0483
 412  217.7014
 413  193.608
 414  85.94776
 415  163.3891
 416  93.82864
 417  195.623
 418  193.0763
 419  183.1572
 420  136.8433
 421  125.3305
 422  64.90202
 423  40.31646
 424  157.2802
 425  99.43105
 426  87.17666
 427  89.81854
 428  97.82121
 429  98.74888
 430  87.23573
 431  110.2379
 432  178.9167
 433  204.7415
 434  90.26886
 435  -90.0471
 436  28.64084
 437  125.8444
 438  201.2927
 439  156.9306
 440  235.5603
 441  174.0114
 442  59.46911
 443  44.61328
 444  -14.62444
 445  -38.38346
 446  -15.12014
 447  146.605
 448  89.94616
 449  141.496
 450  107.8186
 451  92.92853
 452  144.0412
 453  159.5954
 454  124.9708
 455  126.5997
 456  219.5135
 457  244.9489
 458  197.2086
 459  18.80017
 460  177.2242
 461  203.7903
 462  248.1984
 463  278.4216
 464  353.1069
 465  114.6507
 466  234.6998
 467  249.9222
 468  -1.369794
 469  81.60995
 470  137.2415
 471  272.5897
 472  43.70491
 473  100.3415
 474  179.7874
 475  245.4193
 476  120.5763
 477  -30.06824
 478  24.29225
 479  7.031384
 480  86.88431
 481  48.13269
 482  179.825
 483  135.1029
 484  -8.715926
 485  98.45589
 486  12.43062
 487  90.8745
 488  123.0007
 489  -0.9981047
 490  62.59717
 491  133.6757
 492  156.6287
 493  64.30373
 494  163.1078
 495  186.4919
 496  98.27155
 497  79.48545
 498  251.3192
 499  287.3015
 500  92.8734
 501  107.4096
 502  161.1911
 503  135.485
 504  261.0844
 505  201.4771
 506  192.2722
 507  125.4075
 508  268.4269
 509  215.7351
 510  361.7169
 511  680.1295
