# Input file       =  1189556553.120852_cleaned.dat
# Candidate        =  PSR_0332+5434
# Telescope        =  AR
# Epoch_topo       =  58012.015452787637
# Epoch_bary       =  N/A
# T_sample         =  0.002
# Data Folded      =  7340032
# Data Avg         =  0.00525843064661254
# Data StdDev      =  1.00002125481318 
# Profile Bins     =  512
# Profile Avg      =  75.3642080199545 
# Profile StdDev   =  119.735581280086 
# Reduced chi-sqr  =  1.506
# Prob(Noise)      <  9.63e-13   (~7.0 sigma)
# P_topo (ms)      =  714.466177271263  +/- 0.000152
# P'_topo (s/s)    =  -0                +/- 8.02e-11
# P''_topo (s/s^2) =  0                 +/- 3.54e-14
# P_bary (ms)      =  N/A
# P'_bary (s/s)    =  N/A
# P''_bary (s/s^2) =  N/A
# P_orb (s)        =  N/A
# asin(i)/c (s)    =  N/A
# eccentricity     =  N/A
# w (rad)          =  N/A
# T_peri           =  N/A
######################################################
   0  793.6545
   1  677.5457
   2  508.8001
   3  258.377
   4  135.1936
   5  168.443
   6  87.49332
   7  80.53755
   8  189.3189
   9  207.0823
  10  95.90682
  11  161.5101
  12  287.7357
  13  84.95754
  14  33.92613
  15  82.91142
  16  43.03101
  17  16.03143
  18  56.78888
  19  130.7431
  20  150.5641
  21  -6.706613
  22  102.483
  23  82.92326
  24  29.48243
  25  90.23804
  26  92.45324
  27  75.22186
  28  114.7455
  29  103.8169
  30  111.6388
  31  -53.92888
  32  178.9515
  33  63.43901
  34  32.09262
  35  39.18073
  36  49.84716
  37  28.4684
  38  81.28638
  39  126.9114
  40  166.9224
  41  46.68829
  42  56.32362
  43  221.9184
  44  260.3365
  45  128.5812
  46  34.16958
  47  205.3207
  48  90.5766
  49  4.231818
  50  72.73889
  51  62.52758
  52  62.77169
  53  -17.49428
  54  -48.03089
  55  129.3546
  56  32.90371
  57  -100.5193
  58  -86.64811
  59  13.24196
  60  15.47115
  61  51.21375
  62  172.2727
  63  88.20339
  64  60.09891
  65  71.6004
  66  49.02674
  67  22.35709
  68  176.7717
  69  105.296
  70  113.9947
  71  143.9306
  72  69.87722
  73  60.5895
  74  184.7957
  75  178.6796
  76  93.28886
  77  151.1623
  78  242.9056
  79  242.687
  80  170.15
  81  61.15608
  82  16.25832
  83  127.5424
  84  112.5499
  85  92.2718
  86  64.41106
  87  -80.01743
  88  -128.3966
  89  -42.36234
  90  -82.11037
  91  152.6791
  92  56.18078
  93  -104.8033
  94  81.83734
  95  94.20683
  96  48.35984
  97  64.73118
  98  -1.229286
  99  -65.3369
 100  -35.48291
 101  123.1851
 102  69.37365
 103  193.868
 104  82.82808
 105  11.03442
 106  15.11748
 107  49.84581
 108  -43.6012
 109  76.76237
 110  59.46999
 111  64.60322
 112  150.5555
 113  175.1981
 114  5.941563
 115  -71.01742
 116  53.79001
 117  -60.45142
 118  -46.77145
 119  20.35581
 120  78.63496
 121  132.6318
 122  106.2437
 123  51.33969
 124  197.0771
 125  186.2452
 126  126.2995
 127  -6.914327
 128  83.83875
 129  243.9683
 130  106.0615
 131  -119.0784
 132  -189.9348
 133  -19.86647
 134  -54.09281
 135  31.30522
 136  3.479243
 137  -72.05665
 138  91.72181
 139  141.5219
 140  86.97687
 141  57.37601
 142  -41.46757
 143  -7.371103
 144  70.90759
 145  56.53753
 146  90.03745
 147  29.85533
 148  136.1791
 149  143.9339
 150  87.79369
 151  32.59763
 152  -47.76143
 153  27.87039
 154  16.75944
 155  106.1395
 156  129.4851
 157  -66.63901
 158  -96.36794
 159  77.58592
 160  36.67609
 161  134.9218
 162  91.64572
 163  112
 164  24.70977
 165  9.074265
 166  19.33015
 167  20.35758
 168  147.649
 169  43.73586
 170  138.8109
 171  24.36883
 172  106.2636
 173  139.1276
 174  -24.34764
 175  43.10082
 176  101.916
 177  169.2516
 178  -46.55879
 179  -88.44934
 180  102.7306
 181  160.7731
 182  186.4172
 183  176.8117
 184  206.6889
 185  -52.90385
 186  40.48932
 187  141.6839
 188  162.6775
 189  64.08485
 190  74.81125
 191  162.226
 192  193.5904
 193  23.09447
 194  -62.96955
 195  121.6348
 196  166.9578
 197  187.8833
 198  162.9817
 199  -29.1728
 200  78.4188
 201  117.8677
 202  44.55353
 203  122.957
 204  107.9754
 205  -19.9883
 206  37.01993
 207  122.8903
 208  39.8862
 209  33.07892
 210  102.2875
 211  42.24013
 212  226.7849
 213  58.00908
 214  36.46868
 215  0.597482
 216  36.13723
 217  82.4618
 218  180.3561
 219  67.04327
 220  43.81178
 221  26.1872
 222  79.29445
 223  233.8427
 224  60.53396
 225  57.85455
 226  55.14486
 227  85.33765
 228  -0.2094619
 229  14.50141
 230  99.60332
 231  55.09326
 232  124.0467
 233  10.67852
 234  -43.47181
 235  -14.32841
 236  89.35641
 237  169.9135
 238  128.5213
 239  106.9691
 240  147.7001
 241  207.8442
 242  161.5507
 243  190.1414
 244  -35.21016
 245  4.30507
 246  201.1308
 247  174.4135
 248  150.498
 249  141.8145
 250  119.5425
 251  76.19843
 252  124.4836
 253  105.5484
 254  27.39393
 255  122.6207
 256  59.45041
 257  21.14163
 258  -20.32172
 259  82.97549
 260  74.87858
 261  59.52128
 262  -5.673821
 263  88.38387
 264  -7.021448
 265  -22.25856
 266  149.4876
 267  169.6318
 268  -12.8049
 269  66.31036
 270  20.83681
 271  76.95333
 272  197.1818
 273  273.4179
 274  197.6268
 275  42.28627
 276  -10.32506
 277  32.03246
 278  83.22353
 279  52.04889
 280  -52.14944
 281  24.67115
 282  14.64878
 283  29.08232
 284  107.2787
 285  221.2945
 286  118.765
 287  25.10003
 288  -106.7864
 289  24.93621
 290  43.77898
 291  170.0057
 292  129.6124
 293  73.83405
 294  79.53244
 295  -139.3115
 296  -74.80396
 297  -42.01924
 298  69.85187
 299  -22.41013
 300  -34.78614
 301  93.50793
 302  92.91639
 303  75.52626
 304  71.05311
 305  141.573
 306  11.14296
 307  137.592
 308  42.73491
 309  -68.39193
 310  -121.7399
 311  34.37346
 312  114.3879
 313  -110.2268
 314  -4.227647
 315  -26.75767
 316  -54.3057
 317  25.17983
 318  153.3556
 319  145.0597
 320  108.5033
 321  108.0689
 322  35.98807
 323  67.10882
 324  133.9247
 325  51.19311
 326  178.6245
 327  135.9016
 328  107.1833
 329  5.179877
 330  17.36314
 331  -55.91012
 332  -57.80326
 333  15.2866
 334  110.3382
 335  131.3129
 336  94.38499
 337  94.74671
 338  279.0418
 339  157.672
 340  -59.27438
 341  -13.61268
 342  124.3974
 343  112.961
 344  184.4947
 345  147.4746
 346  -48.21842
 347  -115.253
 348  214.676
 349  110.6552
 350  -5.763888
 351  7.986122
 352  -8.891678
 353  35.28273
 354  -33.0571
 355  -140.2713
 356  -183.1369
 357  -176.093
 358  28.57897
 359  140.9777
 360  67.83146
 361  54.93007
 362  13.58403
 363  -11.36752
 364  25.50032
 365  -60.7395
 366  -44.74685
 367  -12.87791
 368  64.99792
 369  134.4381
 370  134.602
 371  80.30628
 372  38.75915
 373  79.87734
 374  136.9563
 375  107.6937
 376  107.7054
 377  100.7903
 378  47.14473
 379  88.876
 380  110.3908
 381  4.5202
 382  40.55108
 383  251.3363
 384  325.9319
 385  231.3868
 386  75.50263
 387  30.03475
 388  22.93399
 389  99.3633
 390  0.5017622
 391  123.0031
 392  140.4453
 393  235.3092
 394  100.3729
 395  3.175827
 396  -101.833
 397  -10.22029
 398  94.35098
 399  38.74765
 400  -95.20413
 401  18.80916
 402  147.0275
 403  0.90084
 404  -6.219611
 405  39.633
 406  69.8243
 407  161.0078
 408  60.94278
 409  107.0038
 410  84.29285
 411  33.59531
 412  -14.61192
 413  180.3501
 414  8.035304
 415  197.4405
 416  192.9392
 417  46.91403
 418  94.38615
 419  65.07731
 420  10.18716
 421  -126.0548
 422  -44.24271
 423  18.502
 424  96.24421
 425  96.12527
 426  68.32728
 427  80.11215
 428  89.07796
 429  120.1485
 430  -5.20106
 431  -17.11164
 432  -10.33914
 433  -25.08405
 434  -47.95023
 435  25.38998
 436  105.9061
 437  96.94736
 438  -96.23366
 439  23.84903
 440  64.57989
 441  80.76812
 442  92.44344
 443  58.1165
 444  42.48905
 445  176.6898
 446  70.69927
 447  4.786143
 448  130.1622
 449  165.9187
 450  46.76497
 451  2.634278
 452  90.37086
 453  118.2803
 454  97.19971
 455  47.52985
 456  42.60596
 457  132.5672
 458  108.796
 459  173.7995
 460  21.79375
 461  63.81229
 462  -27.29055
 463  -108.3275
 464  -16.43166
 465  58.303
 466  85.59715
 467  16.89806
 468  97.41466
 469  131.9149
 470  246.8699
 471  42.05732
 472  52.47129
 473  9.01558
 474  159.6196
 475  177.2635
 476  80.95828
 477  12.39894
 478  33.21436
 479  238.2467
 480  107.5565
 481  117.6508
 482  116.0591
 483  104.8231
 484  74.28704
 485  165.6715
 486  -22.72805
 487  -5.100987
 488  -11.17465
 489  -32.0249
 490  -88.40083
 491  136.724
 492  187.6199
 493  316.6102
 494  1.242036
 495  50.3202
 496  55.42223
 497  22.99161
 498  158.964
 499  76.3905
 500  105.7721
 501  84.42144
 502  -0.3955881
 503  81.67557
 504  49.4747
 505  178.9018
 506  17.89148
 507  112.3595
 508  359.0467
 509  479.9289
 510  732.11
 511  806.1414
