# Input file       =  1189628040.113569_cleaned.dat
# Candidate        =  PSR_0332+5434
# Telescope        =  AR
# Epoch_topo       =  58012.842848536675
# Epoch_bary       =  N/A
# T_sample         =  0.002
# Data Folded      =  7208960
# Data Avg         =  0.0108527985087911
# Data StdDev      =  1.000022293643   
# Profile Bins     =  512
# Profile Avg      =  152.793636701931 
# Profile StdDev   =  118.661821138834 
# Reduced chi-sqr  =  1.538
# Prob(Noise)      <  5.16e-14   (~7.4 sigma)
# P_topo (ms)      =  714.466420800385  +/- 0.000241
# P'_topo (s/s)    =  -0                +/- 1.29e-10
# P''_topo (s/s^2) =  0                 +/- 5.82e-14
# P_bary (ms)      =  N/A
# P'_bary (s/s)    =  N/A
# P''_bary (s/s^2) =  N/A
# P_orb (s)        =  N/A
# asin(i)/c (s)    =  N/A
# eccentricity     =  N/A
# w (rad)          =  N/A
# T_peri           =  N/A
######################################################
   0  960.9554
   1  962.3081
   2  690.6066
   3  536.7589
   4  389.0776
   5  364.7706
   6  343.2189
   7  329.1878
   8  278.3325
   9  103.1424
  10  125.2096
  11  175.2844
  12  113.8639
  13  158.4485
  14  219.9341
  15  255.9735
  16  332.0323
  17  203.2806
  18  198.6887
  19  58.75908
  20  135.1118
  21  74.07967
  22  101.7206
  23  128.5963
  24  -19.69349
  25  16.26163
  26  76.3629
  27  70.84386
  28  -105.0493
  29  77.95364
  30  181.9413
  31  144.2901
  32  165.4757
  33  124.3044
  34  160.6907
  35  66.5928
  36  72.69279
  37  65.39977
  38  159.2377
  39  116.1056
  40  77.43925
  41  121.3665
  42  120.8314
  43  155.2538
  44  119.3372
  45  158.9593
  46  159.4196
  47  112.8631
  48  19.59986
  49  150.6181
  50  139.7861
  51  134.6163
  52  59.59849
  53  184.5847
  54  227.6219
  55  183.0901
  56  264.6705
  57  212.3911
  58  126.4931
  59  116.4079
  60  59.11009
  61  191.0815
  62  266.2886
  63  196.6254
  64  170.6657
  65  118.1626
  66  231.6551
  67  126.0566
  68  57.41793
  69  46.34717
  70  134.8117
  71  214.9457
  72  81.50685
  73  193.078
  74  204.0583
  75  190.914
  76  187.6328
  77  218.659
  78  231.0799
  79  69.48223
  80  112.3228
  81  179.1207
  82  159.0237
  83  187.1885
  84  159.9584
  85  172.8873
  86  305.7283
  87  225.8167
  88  139.5358
  89  79.87621
  90  98.65501
  91  111.5582
  92  333.7154
  93  141.7236
  94  67.88663
  95  108.2516
  96  127.741
  97  195.0734
  98  152.7586
  99  172.1781
 100  110.2498
 101  114.8984
 102  95.86585
 103  51.91298
 104  75.61649
 105  73.11268
 106  245.642
 107  246.851
 108  141.0212
 109  110.9127
 110  111.8199
 111  -6.47992
 112  -2.298277
 113  187.4827
 114  303.5579
 115  330.1601
 116  198.2249
 117  104.8197
 118  230.7047
 119  158.9142
 120  196.1624
 121  152.6903
 122  324.3857
 123  292.2397
 124  59.9338
 125  15.24403
 126  59.56868
 127  79.93535
 128  121.6535
 129  119.1703
 130  120.272
 131  184.0966
 132  107.4672
 133  177.9661
 134  183.5038
 135  184.2016
 136  12.74616
 137  163.7285
 138  255.2712
 139  114.5171
 140  81.23492
 141  146.7934
 142  102.8567
 143  63.96091
 144  22.1243
 145  98.8874
 146  113.3296
 147  138.0985
 148  185.6393
 149  280.6225
 150  341.412
 151  218.3705
 152  183.5388
 153  211.3359
 154  114.4245
 155  112.0889
 156  171.2865
 157  81.03455
 158  28.90269
 159  54.95222
 160  -7.06064
 161  71.84168
 162  8.22832
 163  71.25874
 164  97.75426
 165  155.9982
 166  206.2945
 167  36.56504
 168  54.7318
 169  48.8925
 170  139.5047
 171  202.0332
 172  214.7689
 173  84.57529
 174  48.26973
 175  72.15406
 176  183.6682
 177  242.1078
 178  164.7515
 179  226.124
 180  221.8055
 181  274.2591
 182  176.863
 183  211.752
 184  116.8652
 185  168.4598
 186  67.8035
 187  110.5753
 188  155.3801
 189  150.9125
 190  57.90066
 191  88.46334
 192  203.0181
 193  124.8642
 194  184.8142
 195  59.05146
 196  201.1257
 197  152.1782
 198  190.9073
 199  274.8814
 200  160.3434
 201  102.9264
 202  85.15338
 203  147.7766
 204  266.2762
 205  127.6182
 206  2.248114
 207  181.2661
 208  200.3477
 209  160.9048
 210  157.4087
 211  76.56885
 212  163.623
 213  68.3445
 214  56.67845
 215  220.4864
 216  200.4475
 217  57.88499
 218  41.33863
 219  159.7926
 220  155.8793
 221  233.5643
 222  178.9309
 223  179.7594
 224  129.8918
 225  146.4985
 226  173.1252
 227  124.9491
 228  75.17764
 229  92.04544
 230  256.6639
 231  149.1516
 232  208.6565
 233  208.2131
 234  184.1883
 235  163.9287
 236  165.7264
 237  21.00723
 238  20.05569
 239  63.81875
 240  221.806
 241  68.84647
 242  59.36258
 243  -7.666081
 244  -52.99339
 245  39.01723
 246  20.91492
 247  46.50796
 248  204.4879
 249  182.7088
 250  183.9723
 251  152.4819
 252  106.0776
 253  227.3844
 254  182.6917
 255  189.3044
 256  224.0805
 257  128.2159
 258  175.5812
 259  84.06609
 260  142.99
 261  176.8488
 262  117.2642
 263  127.7611
 264  186.0277
 265  116.4785
 266  246.0369
 267  177.6831
 268  112.3414
 269  -33.5206
 270  40.14251
 271  135.7072
 272  101.0981
 273  122.3607
 274  183.1034
 275  201.9334
 276  198.0592
 277  120.3736
 278  122.0725
 279  251.7733
 280  291.6129
 281  310.2853
 282  233.4976
 283  249.6107
 284  203.8479
 285  197.366
 286  128.416
 287  165.0378
 288  156.9138
 289  74.59309
 290  176.1404
 291  160.7716
 292  352.5173
 293  145.9978
 294  183.5298
 295  95.89089
 296  6.851457
 297  161.1602
 298  228.9648
 299  160.7688
 300  31.19536
 301  103.6678
 302  3.536677
 303  2.848954
 304  91.04243
 305  -4.288856
 306  32.39614
 307  107.8794
 308  175.782
 309  49.52077
 310  165.3076
 311  231.3621
 312  159.3947
 313  171.4881
 314  197.5502
 315  176.1264
 316  55.0196
 317  112.0294
 318  206.5305
 319  139.7036
 320  239.6697
 321  328.6946
 322  244.7119
 323  132.5773
 324  -35.69323
 325  86.53246
 326  79.00205
 327  153.5034
 328  146.4551
 329  138.1665
 330  79.84171
 331  193.3567
 332  287.2843
 333  215.2253
 334  209.7914
 335  258.8337
 336  -9.357898
 337  78.30094
 338  239.9747
 339  179.6058
 340  108.9944
 341  165.3508
 342  329.5773
 343  314.4803
 344  131.7471
 345  -3.765273
 346  200.7196
 347  157.5149
 348  232.8371
 349  303.2109
 350  296.2191
 351  223.838
 352  214.1025
 353  168.259
 354  155.2992
 355  82.00846
 356  157.9489
 357  333.8473
 358  314.6725
 359  190.0885
 360  229.3987
 361  170.7528
 362  35.67762
 363  4.594041
 364  211.2639
 365  182.7192
 366  126.7316
 367  76.12598
 368  68.53748
 369  84.91824
 370  153.4162
 371  145.1929
 372  21.91181
 373  26.04762
 374  186.7178
 375  70.78016
 376  68.24367
 377  66.89169
 378  98.56181
 379  -54.01137
 380  78.96299
 381  146.5083
 382  76.58141
 383  -28.65322
 384  65.81031
 385  171.6403
 386  121.8768
 387  39.80585
 388  111.8477
 389  92.81936
 390  161.7444
 391  128.3739
 392  52.47802
 393  78.56142
 394  219.25
 395  115.2689
 396  21.6651
 397  82.45782
 398  98.97376
 399  78.4021
 400  75.12551
 401  67.65592
 402  146.5835
 403  273.093
 404  181.0508
 405  9.80508
 406  54.49825
 407  59.07093
 408  136.9079
 409  227.9517
 410  145.2647
 411  204.608
 412  226.9089
 413  226.4126
 414  61.0668
 415  146.0618
 416  70.38101
 417  238.3793
 418  234.9629
 419  60.97499
 420  -6.11519
 421  -10.96137
 422  128.6596
 423  202.0074
 424  131.1685
 425  120.3912
 426  298.0255
 427  261.4759
 428  97.95959
 429  271.2695
 430  261.0532
 431  151.7227
 432  113.3536
 433  122.537
 434  136.1225
 435  146.2564
 436  203.5672
 437  116.9826
 438  188.7251
 439  291.5775
 440  277.815
 441  187.5322
 442  45.63799
 443  20.47556
 444  3.326265
 445  135.295
 446  305.5487
 447  275.4487
 448  215.9124
 449  185.727
 450  71.31309
 451  -15.92391
 452  147.7985
 453  158.8209
 454  120.1227
 455  217.6503
 456  165.594
 457  161.2915
 458  190.4782
 459  84.10159
 460  103.6276
 461  141.4083
 462  119.2444
 463  175.2402
 464  170.2554
 465  248.1089
 466  182.172
 467  124.6226
 468  74.52557
 469  90.2023
 470  63.54433
 471  173.0513
 472  119.1091
 473  12.37758
 474  224.8619
 475  153.285
 476  -32.99963
 477  44.93316
 478  32.61608
 479  29.62174
 480  56.0004
 481  94.27154
 482  192.6221
 483  86.14803
 484  36.63141
 485  113.0056
 486  280.444
 487  224.6655
 488  227.863
 489  193.7234
 490  305.1509
 491  393.8107
 492  187.5457
 493  14.18799
 494  138.5639
 495  167.5026
 496  173.5197
 497  187.9474
 498  269.6467
 499  118.8422
 500  191.4019
 501  139.7581
 502  115.9991
 503  204.3405
 504  109.0898
 505  163.3805
 506  336.5893
 507  307.774
 508  351.3943
 509  340.2328
 510  524.8291
 511  799.6938
