# Input file       =  1189111040.110165_cleaned.dat
# Candidate        =  PSR_0332+5434
# Telescope        =  AR
# Epoch_topo       =  58006.859052200984
# Epoch_bary       =  N/A
# T_sample         =  0.002
# Data Folded      =  7143424
# Data Avg         =  0.0238266159514117
# Data StdDev      =  1.00002576061705 
# Profile Bins     =  512
# Profile Avg      =  332.415898146099 
# Profile StdDev   =  118.121627289489 
# Reduced chi-sqr  =  1.386
# Prob(Noise)      <  1.52e-08   (~5.5 sigma)
# P_topo (ms)      =  714.464824387101  +/- 0.000166
# P'_topo (s/s)    =  -0                +/- 9e-11
# P''_topo (s/s^2) =  0                 +/- 4.08e-14
# P_bary (ms)      =  N/A
# P'_bary (s/s)    =  N/A
# P''_bary (s/s^2) =  N/A
# P_orb (s)        =  N/A
# asin(i)/c (s)    =  N/A
# eccentricity     =  N/A
# w (rad)          =  N/A
# T_peri           =  N/A
######################################################
   0  901.8251
   1  951.688
   2  862.0494
   3  610.7603
   4  406.898
   5  293.1631
   6  338.8531
   7  319.2616
   8  424.3813
   9  549.5596
  10  513.446
  11  385.5494
  12  362.7628
  13  458.7666
  14  382.6562
  15  373.4303
  16  218.1246
  17  319.2737
  18  334.0362
  19  363.5705
  20  380.5771
  21  305.6116
  22  337.9333
  23  181.451
  24  169.3357
  25  250.0941
  26  312.3699
  27  319.6554
  28  261.9056
  29  407.2786
  30  411.9865
  31  384.5029
  32  386.5387
  33  380.1243
  34  437.2077
  35  419.9275
  36  363.4734
  37  212.9508
  38  127.9756
  39  148.0617
  40  159.0728
  41  233.5433
  42  284.7015
  43  269.582
  44  348.0034
  45  461.9257
  46  474.6273
  47  393.793
  48  291.4936
  49  244.8342
  50  283.2692
  51  244.3198
  52  228.0372
  53  299.2317
  54  344.1577
  55  300.8661
  56  284.6391
  57  246.3508
  58  207.9945
  59  203.7419
  60  325.4723
  61  352.231
  62  225.415
  63  283.8961
  64  272.4381
  65  438.3203
  66  441.1627
  67  309.8851
  68  254.7203
  69  345.9891
  70  279.0014
  71  377.7494
  72  245.0033
  73  246.2849
  74  311.6059
  75  361.7541
  76  287.4894
  77  206.667
  78  345.2861
  79  266.3286
  80  225.7792
  81  219.8764
  82  289.7402
  83  299.8816
  84  243.9838
  85  276.5228
  86  270.9128
  87  305.8369
  88  283.7856
  89  247.3542
  90  377.0986
  91  355.3867
  92  336.1005
  93  373.4995
  94  277.1944
  95  235.7505
  96  297.7691
  97  297.2006
  98  331.6895
  99  283.3896
 100  188.2794
 101  348.3742
 102  438.7555
 103  370.0079
 104  377.3861
 105  291.5112
 106  352.1302
 107  236.2151
 108  251.8819
 109  225.1815
 110  219.1066
 111  229.132
 112  265.684
 113  373.3577
 114  430.3002
 115  295.098
 116  280.1555
 117  271.5671
 118  211.6774
 119  208.1567
 120  356.6844
 121  296.4247
 122  272.0013
 123  373.9426
 124  205.6006
 125  226.0749
 126  263.0538
 127  303.2277
 128  172.0222
 129  202.0233
 130  228.0502
 131  169.8811
 132  298.4494
 133  254.1626
 134  154.9509
 135  414.0082
 136  436.785
 137  389.9983
 138  498.4499
 139  385.4058
 140  310.5502
 141  370.2663
 142  434.4434
 143  475.2523
 144  439.5346
 145  451.5425
 146  391.9944
 147  349.86
 148  423.1433
 149  329.9548
 150  224.6796
 151  274.6542
 152  351.9252
 153  287.284
 154  424.5736
 155  425.437
 156  315.0469
 157  265.8138
 158  255.1961
 159  354.3208
 160  285.1683
 161  278.354
 162  440.267
 163  341.4032
 164  301.6249
 165  263.4027
 166  308.6766
 167  341.2478
 168  396.6632
 169  364.7956
 170  216.9987
 171  359.0041
 172  442.7397
 173  351.277
 174  374.2565
 175  303.6057
 176  211.801
 177  364.9738
 178  421.8878
 179  437.5606
 180  358.1791
 181  276.4245
 182  394.02
 183  256.7249
 184  352.8163
 185  409.483
 186  406.8925
 187  393.6678
 188  434.3682
 189  253.7869
 190  179.8366
 191  302.0965
 192  346.9015
 193  295.4962
 194  425.2573
 195  597.3575
 196  640.9451
 197  603.1375
 198  416.9232
 199  247.8876
 200  256.0826
 201  440.5353
 202  480.3904
 203  465.4108
 204  323.224
 205  277.3794
 206  327.745
 207  411.1463
 208  302.9377
 209  328.0406
 210  446.2679
 211  373.145
 212  353.1876
 213  284.5056
 214  239.7865
 215  302.4037
 216  297.9043
 217  395.0629
 218  368.4569
 219  339.4216
 220  347.4716
 221  353.013
 222  393.5109
 223  211.4249
 224  260.1051
 225  258.6194
 226  283.671
 227  336.4346
 228  343.8832
 229  306.1503
 230  217.2973
 231  295.3851
 232  292.8447
 233  299.683
 234  337.8922
 235  361.9731
 236  344.0988
 237  415.6648
 238  329.7267
 239  188.5766
 240  390.6927
 241  546.3245
 242  404.0931
 243  333.5244
 244  308.6876
 245  241.9936
 246  346.1167
 247  378.6718
 248  236.5211
 249  277.2623
 250  276.0327
 251  370.8484
 252  362.974
 253  366.6935
 254  341.1258
 255  402.3576
 256  294.7972
 257  243.3294
 258  379.0716
 259  405.5066
 260  306.7964
 261  306.4569
 262  414.5149
 263  325.5878
 264  386.2915
 265  358.6721
 266  284.0961
 267  280.0591
 268  284.5499
 269  331.8903
 270  249.2371
 271  178.0433
 272  281.3549
 273  271.8135
 274  395.2684
 275  293.4141
 276  340.5117
 277  308.8726
 278  294.7868
 279  394.1554
 280  434.4848
 281  423.4339
 282  426.4364
 283  359.3471
 284  417.9557
 285  361.2845
 286  244.2208
 287  195.9389
 288  241.316
 289  335.4778
 290  341.0313
 291  401.6271
 292  450.6617
 293  310.3296
 294  330.9215
 295  331.42
 296  269.0639
 297  176.0845
 298  142.1788
 299  190.1584
 300  388.6932
 301  510.146
 302  421.329
 303  419.0344
 304  356.5848
 305  374.6897
 306  287.6071
 307  226.9177
 308  430.3171
 309  312.6203
 310  312.0082
 311  376.225
 312  256.3216
 313  131.1221
 314  219.2694
 315  228.274
 316  231.5102
 317  229.4872
 318  357.9653
 319  410.2101
 320  288.7231
 321  302.3672
 322  341.0247
 323  301.2394
 324  263.0628
 325  275.312
 326  337.653
 327  448.6554
 328  150.829
 329  279.1615
 330  283.6551
 331  256.9764
 332  185.7666
 333  428.3501
 334  431.049
 335  246.2849
 336  181.2159
 337  245.1227
 338  344.7233
 339  397.7213
 340  389.8679
 341  324.1152
 342  400.5737
 343  341.4679
 344  278.8971
 345  286.8059
 346  288.5701
 347  428.0027
 348  327.516
 349  374.8335
 350  475.7438
 351  395.8899
 352  220.3063
 353  311.5308
 354  429.7733
 355  395.9948
 356  318.4616
 357  356.7457
 358  390.9407
 359  337.5481
 360  344.9961
 361  470.5331
 362  321.8132
 363  207.8456
 364  275.3214
 365  294.5651
 366  266.0844
 367  237.2474
 368  192.8398
 369  328.0222
 370  242.8093
 371  302.6897
 372  414.3021
 373  440.8511
 374  336.2627
 375  316.8804
 376  346.5645
 377  217.8879
 378  351.4176
 379  418.4093
 380  397.2887
 381  466.2212
 382  324.2574
 383  287.3806
 384  266.6659
 385  290.7436
 386  273.8329
 387  297.4438
 388  344.2996
 389  481.8713
 390  413.946
 391  426.9358
 392  337.9277
 393  259.6045
 394  204.0114
 395  161.2606
 396  295.4145
 397  378.3746
 398  337.2899
 399  222.7591
 400  178.1179
 401  281.0294
 402  182.0276
 403  365.0468
 404  403.3448
 405  350.5573
 406  263.2427
 407  377.2786
 408  363.6768
 409  266.6593
 410  438.0413
 411  408.7513
 412  264.8914
 413  155.5872
 414  239.8601
 415  333.5861
 416  353.6826
 417  513.5981
 418  325.5186
 419  119.5619
 420  380.5135
 421  489.1115
 422  369.1324
 423  328.8345
 424  310.1624
 425  288.4939
 426  260.9507
 427  137.4552
 428  301.2168
 429  387.9484
 430  357.2318
 431  283.3068
 432  281.3286
 433  393.8664
 434  440.1337
 435  404.8828
 436  282.5757
 437  186.272
 438  196.0399
 439  270.9537
 440  345.8154
 441  499.5031
 442  494.4032
 443  445.0237
 444  323.6389
 445  311.1363
 446  315.8753
 447  412.0953
 448  247.1205
 449  241.0836
 450  426.6582
 451  299.522
 452  223.7195
 453  254.0747
 454  305.1681
 455  304.4663
 456  376.2868
 457  468.9702
 458  273.1924
 459  199.5179
 460  199.8513
 461  211.2612
 462  290.8527
 463  366.1413
 464  357.3987
 465  293.0647
 466  317.5362
 467  235.0854
 468  177.5963
 469  312.23
 470  425.8078
 471  384.6411
 472  436.7086
 473  345.3608
 474  244.1876
 475  145.5545
 476  334.5025
 477  419.7962
 478  305.703
 479  234.1617
 480  219.3436
 481  329.3444
 482  385.2288
 483  440.8089
 484  383.995
 485  400.8939
 486  428.0136
 487  394.4068
 488  315.0605
 489  304.5777
 490  405.7787
 491  395.9632
 492  280.5855
 493  383.15
 494  456.4872
 495  325.4696
 496  183.8255
 497  291.8797
 498  230.7491
 499  395.138
 500  298.088
 501  281.2142
 502  383.627
 503  439.0796
 504  516.5753
 505  541.907
 506  547.9016
 507  531.7692
 508  446.3647
 509  595.1677
 510  686.3871
 511  837.2685
