# Input file       =  1189312948.110782_cleaned.dat
# Candidate        =  PSR_0332+5434
# Telescope        =  AR
# Epoch_topo       =  58009.195950356276
# Epoch_bary       =  N/A
# T_sample         =  0.002
# Data Folded      =  7340032
# Data Avg         =  0.0087696844626375
# Data StdDev      =  1.00002303379882 
# Profile Bins     =  512
# Profile Avg      =  125.789237899673 
# Profile StdDev   =  119.735794283438 
# Reduced chi-sqr  =  1.506
# Prob(Noise)      <  9.57e-13   (~7.0 sigma)
# P_topo (ms)      =  714.465724057425  +/- 0.000137
# P'_topo (s/s)    =  -0                +/- 7.21e-11
# P''_topo (s/s^2) =  0                 +/- 3.18e-14
# P_bary (ms)      =  N/A
# P'_bary (s/s)    =  N/A
# P''_bary (s/s^2) =  N/A
# P_orb (s)        =  N/A
# asin(i)/c (s)    =  N/A
# eccentricity     =  N/A
# w (rad)          =  N/A
# T_peri           =  N/A
######################################################
   0  681.0463
   1  696.4092
   2  570.8455
   3  411.5295
   4  257.6136
   5  167.5475
   6  166.1947
   7  11.6858
   8  124.4242
   9  168.5359
  10  217.5799
  11  215.6645
  12  113.2099
  13  153.3013
  14  312.8993
  15  396.9782
  16  374.7345
  17  321.0646
  18  99.20736
  19  34.49033
  20  -26.72204
  21  31.6851
  22  60.82328
  23  27.08535
  24  249.3249
  25  301.9112
  26  230.4192
  27  171.4389
  28  77.53415
  29  74.16483
  30  175.1133
  31  258.5996
  32  75.22339
  33  -5.695564
  34  -36.68359
  35  106.7502
  36  24.79573
  37  162.4713
  38  181.0764
  39  149.6326
  40  78.14607
  41  84.944
  42  79.94506
  43  2.604785
  44  11.21744
  45  40.09799
  46  110.733
  47  15.89979
  48  10.32885
  49  57.41758
  50  -9.026349
  51  -45.39099
  52  121.2415
  53  124.1976
  54  123.455
  55  192.2899
  56  186.2628
  57  57.83761
  58  -25.00694
  59  -5.8885
  60  150.943
  61  218.0396
  62  162.0071
  63  167.1559
  64  98.28367
  65  80.81293
  66  19.54288
  67  95.93932
  68  51.50996
  69  190.8015
  70  312.9243
  71  182.0044
  72  116.4246
  73  100.2455
  74  79.41385
  75  134.7842
  76  207.6638
  77  163.9205
  78  117.0015
  79  -47.52585
  80  -31.39277
  81  96.49917
  82  -35.30828
  83  68.96426
  84  202.2027
  85  110.2449
  86  61.86372
  87  97.44781
  88  171.1293
  89  180.0721
  90  39.80149
  91  114.839
  92  150.5949
  93  159.3215
  94  83.3933
  95  240.9019
  96  195.8091
  97  185.5348
  98  64.50854
  99  3.703408
 100  -41.00523
 101  23.81731
 102  215.8155
 103  169.3973
 104  182.4764
 105  143.4915
 106  131.445
 107  194.0423
 108  226.6027
 109  119.7631
 110  37.66464
 111  82.78189
 112  199.1934
 113  45.71527
 114  41.87757
 115  88.218
 116  158.1173
 117  85.54422
 118  157.434
 119  88.52666
 120  134.7216
 121  177.7265
 122  131.624
 123  71.43137
 124  44.2044
 125  16.82529
 126  27.73844
 127  167.9954
 128  233.0653
 129  277.2993
 130  195.8639
 131  124.811
 132  58.76666
 133  130.6288
 134  56.25491
 135  96.64101
 136  78.36799
 137  -3.43938
 138  129.6579
 139  216.5076
 140  199.4176
 141  210.0643
 142  132.4516
 143  85.0133
 144  125.8675
 145  197.2424
 146  63.69067
 147  135.7561
 148  246.3479
 149  253.5648
 150  83.55354
 151  59.22145
 152  100.702
 153  189.0356
 154  103.2424
 155  135.076
 156  118.2179
 157  134.7601
 158  36.20384
 159  91.7317
 160  69.56004
 161  114.7991
 162  214.1991
 163  128.4568
 164  3.478661
 165  41.85743
 166  93.48598
 167  164.7004
 168  121.7434
 169  26.1471
 170  -7.745768
 171  143.6565
 172  148.9892
 173  111.2236
 174  167.8923
 175  158.2633
 176  215.9801
 177  248.4616
 178  247.2612
 179  98.34461
 180  84.32093
 181  16.69713
 182  -14.83244
 183  144.7431
 184  217.2878
 185  162.1814
 186  219.3567
 187  74.0306
 188  131.1522
 189  145.987
 190  55.45854
 191  -42.43069
 192  98.56142
 193  246.5452
 194  142.8712
 195  63.8304
 196  16.59782
 197  160.1633
 198  283.1465
 199  178.2082
 200  115.5512
 201  49.76131
 202  223.9609
 203  172.9184
 204  58.5197
 205  70.29432
 206  90.59819
 207  -16.14121
 208  -39.90065
 209  143.7973
 210  106.1636
 211  68.15775
 212  284.3332
 213  285.4245
 214  79.73624
 215  15.9989
 216  118.8592
 217  160.953
 218  45.31803
 219  81.51147
 220  200.4748
 221  189.1611
 222  200.899
 223  188.8626
 224  296.235
 225  185.9636
 226  165.2441
 227  89.96766
 228  197.5485
 229  201.9561
 230  190.7512
 231  139.2544
 232  60.11361
 233  8.691426
 234  61.32711
 235  242.9777
 236  171.6264
 237  94.77101
 238  93.13097
 239  354.1715
 240  211.0368
 241  83.18677
 242  217.4942
 243  180.3742
 244  177.4695
 245  214.7281
 246  112.7828
 247  121.0736
 248  -11.39744
 249  173.3238
 250  269.7018
 251  155.5878
 252  133.6337
 253  69.45084
 254  274.9163
 255  333.2945
 256  138.463
 257  168.6502
 258  90.14988
 259  -20.54009
 260  -209.7608
 261  54.92272
 262  174.1832
 263  99.56947
 264  117.297
 265  57.60203
 266  35.08488
 267  223.1645
 268  209.9254
 269  247.5998
 270  297.573
 271  245.0667
 272  99.6303
 273  116.9157
 274  140.1844
 275  18.37349
 276  3.185473
 277  236.5647
 278  234.0658
 279  217.8864
 280  -23.6519
 281  44.80347
 282  156.7177
 283  39.13685
 284  72.16895
 285  -24.93224
 286  69.67733
 287  220.7285
 288  245.8109
 289  334.7704
 290  46.24847
 291  24.85207
 292  213.9809
 293  245.5279
 294  95.23106
 295  126.8443
 296  27.02461
 297  120.3426
 298  126.5677
 299  110.7861
 300  10.63276
 301  38.93081
 302  69.93364
 303  100.7906
 304  77.02471
 305  162.949
 306  264.6915
 307  153.9136
 308  162.0134
 309  137.3648
 310  -1.335392
 311  170.2892
 312  189.4564
 313  281.5902
 314  220.3654
 315  170.9589
 316  145.1124
 317  176.4291
 318  142.5376
 319  100.4003
 320  78.69123
 321  183.8381
 322  124.6103
 323  -67.04013
 324  -3.302371
 325  45.89069
 326  164.2315
 327  196.5381
 328  239.7341
 329  121.1613
 330  63.05774
 331  156.8542
 332  7.052691
 333  154.5999
 334  290.4638
 335  258.7824
 336  38.58761
 337  89.36784
 338  119.2802
 339  -11.30196
 340  65.41956
 341  128.7999
 342  65.12233
 343  38.48298
 344  43.41624
 345  39.56467
 346  37.91642
 347  21.54552
 348  -26.42643
 349  35.48143
 350  128.0841
 351  215.9204
 352  207.3927
 353  162.5223
 354  36.44076
 355  135.6226
 356  116.2752
 357  105.9135
 358  182.9744
 359  85.15121
 360  82.6801
 361  165.6649
 362  33.25758
 363  115.973
 364  31.13432
 365  50.18963
 366  4.179544
 367  86.25946
 368  186.7132
 369  260.8763
 370  178.4734
 371  117.5994
 372  94.61021
 373  105.628
 374  94.6741
 375  185.3509
 376  123.0412
 377  184.172
 378  168.5037
 379  194.2417
 380  251.5843
 381  192.6012
 382  102.2814
 383  90.88853
 384  132.827
 385  104.5413
 386  47.23338
 387  -39.61189
 388  73.25626
 389  154.5141
 390  195.9563
 391  122.3761
 392  145.8612
 393  142.4606
 394  166.7102
 395  104.3321
 396  93.67243
 397  144.1767
 398  202.4376
 399  248.5784
 400  79.17415
 401  -33.04765
 402  -42.87875
 403  -38.0582
 404  66.99184
 405  227.1618
 406  121.4567
 407  186.5379
 408  161.4014
 409  9.183732
 410  -46.1782
 411  -33.48258
 412  -150.8913
 413  -180.3766
 414  -92.72127
 415  -4.237033
 416  -69.27082
 417  -10.78951
 418  -63.30834
 419  23.18398
 420  127.3917
 421  212.9709
 422  97.90412
 423  77.38636
 424  -21.5198
 425  54.7034
 426  98.62385
 427  112.7876
 428  44.35244
 429  -20.13761
 430  -49.11446
 431  66.96719
 432  172.1047
 433  163.0837
 434  206.6108
 435  252.7808
 436  135.2968
 437  163.8054
 438  77.58499
 439  21.95922
 440  86.06661
 441  42.09601
 442  25.43184
 443  213.2347
 444  136.2126
 445  92.69161
 446  150.1322
 447  172.106
 448  122.0039
 449  149.4339
 450  97.08815
 451  100.2997
 452  -11.79876
 453  -49.74838
 454  62.43512
 455  -8.013155
 456  83.03635
 457  242.6469
 458  146.377
 459  64.89114
 460  102.4657
 461  189.9241
 462  81.03839
 463  76.74033
 464  139.996
 465  85.37901
 466  42.32208
 467  81.54267
 468  20.88536
 469  132.5625
 470  259.8239
 471  221.0255
 472  247.0836
 473  255.9084
 474  123.3006
 475  126.3251
 476  215.7077
 477  35.27245
 478  -2.317067
 479  127.2246
 480  243.7173
 481  231.0926
 482  104.5735
 483  -22.74631
 484  -3.826219
 485  164.8393
 486  215.9434
 487  116.8551
 488  9.178989
 489  1.922938
 490  135.1167
 491  204.6198
 492  108.4499
 493  335.7476
 494  315.354
 495  286.1189
 496  180.6775
 497  -46.33545
 498  -29.06
 499  113.0374
 500  163.1188
 501  91.10284
 502  175.5592
 503  302.2912
 504  257.8898
 505  205.0255
 506  165.7142
 507  220.9209
 508  268.7527
 509  381.9353
 510  661.4885
 511  765.4847
