# Input file       =  1189815021.115329_cleaned.dat
# Candidate        =  PSR_0332+5434
# Telescope        =  AR
# Epoch_topo       =  58015.006980501494
# Epoch_bary       =  N/A
# T_sample         =  0.002
# Data Folded      =  7340032
# Data Avg         =  0.00593708035957892
# Data StdDev      =  1.00002876679974 
# Profile Bins     =  512
# Profile Avg      =  84.9087896369496 
# Profile StdDev   =  119.736480713046 
# Reduced chi-sqr  =  1.540
# Prob(Noise)      <  4.43e-14   (~7.5 sigma)
# P_topo (ms)      =  714.467164008812  +/- 0.000292
# P'_topo (s/s)    =  -0                +/- 1.54e-10
# P''_topo (s/s^2) =  0                 +/- 6.8e-14
# P_bary (ms)      =  N/A
# P'_bary (s/s)    =  N/A
# P''_bary (s/s^2) =  N/A
# P_orb (s)        =  N/A
# asin(i)/c (s)    =  N/A
# eccentricity     =  N/A
# w (rad)          =  N/A
# T_peri           =  N/A
######################################################
   0  776.3586
   1  776.6854
   2  511.4501
   3  352.51
   4  251.7245
   5  264.1551
   6  79.78274
   7  -11.8978
   8  -72.55553
   9  75.92611
  10  164.3237
  11  71.2422
  12  28.68866
  13  156.3904
  14  133.5247
  15  148.2537
  16  56.99301
  17  -7.686078
  18  78.29017
  19  74.30139
  20  240.9278
  21  224.9777
  22  101.1273
  23  153.5877
  24  144.5359
  25  125.1934
  26  93.3336
  27  164.2294
  28  195.5679
  29  96.04514
  30  54.99426
  31  86.74068
  32  -22.00434
  33  -67.80219
  34  54.71732
  35  150.0487
  36  85.0435
  37  28.58398
  38  -0.1263764
  39  -4.28426
  40  -61.12257
  41  98.19173
  42  176.9673
  43  95.97543
  44  88.34856
  45  -3.594996
  46  60.45744
  47  154.0343
  48  147.9932
  49  -115.4263
  50  14.90424
  51  86.64366
  52  212.4697
  53  69.99789
  54  215.1403
  55  211.4095
  56  -38.76766
  57  -46.67519
  58  -9.220431
  59  163.9869
  60  170.0999
  61  134.824
  62  -38.16022
  63  -96.48984
  64  199.7923
  65  218.5323
  66  77.70274
  67  52.54719
  68  59.67403
  69  164.854
  70  38.71742
  71  5.675189
  72  69.77659
  73  84.08195
  74  148.1694
  75  119.9695
  76  66.98692
  77  152.0765
  78  38.218
  79  13.07769
  80  24.50508
  81  180.6837
  82  113.9247
  83  71.60448
  84  155.718
  85  157.5117
  86  93.07663
  87  71.35597
  88  122.2562
  89  63.71644
  90  91.98923
  91  65.72575
  92  80.23412
  93  114.8048
  94  21.89774
  95  -44.11172
  96  53.46033
  97  156.7347
  98  201.3514
  99  66.51354
 100  88.21045
 101  170.0397
 102  139.9098
 103  185.5845
 104  -76.63319
 105  -142.8219
 106  -34.31789
 107  95.99919
 108  38.73769
 109  -84.41997
 110  -32.8288
 111  122.2725
 112  33.65128
 113  147.8558
 114  42.61277
 115  -122.2551
 116  16.21183
 117  214.0248
 118  151.7855
 119  123.6067
 120  92.26179
 121  138.1019
 122  47.81503
 123  24.51963
 124  -30.00403
 125  -97.80974
 126  20.58849
 127  28.56343
 128  -19.54477
 129  -49.72643
 130  10.61484
 131  94.83537
 132  -48.59032
 133  98.86324
 134  138.8493
 135  103.3377
 136  11.58589
 137  47.57737
 138  3.078892
 139  146.0605
 140  124.1971
 141  266.5121
 142  142.7556
 143  7.064905
 144  20.6137
 145  62.06165
 146  29.03205
 147  69.1978
 148  -8.841294
 149  52.09126
 150  57.9046
 151  69.78279
 152  97.2542
 153  134.2328
 154  190.5555
 155  -114.2482
 156  -70.29163
 157  58.85269
 158  124.6113
 159  156.2972
 160  105.8591
 161  52.52758
 162  220.2021
 163  137.4329
 164  152.9686
 165  78.07664
 166  -28.48086
 167  97.0798
 168  158.594
 169  237.6082
 170  25.63849
 171  -43.75249
 172  107.7771
 173  91.40187
 174  101.7956
 175  -19.83444
 176  87.09686
 177  88.38141
 178  -22.71222
 179  -22.8817
 180  48.20373
 181  47.55657
 182  -21.25831
 183  58.65615
 184  125.2135
 185  -48.6933
 186  -13.76723
 187  180.9172
 188  92.82225
 189  20.85986
 190  114.0935
 191  122.4903
 192  154.1208
 193  93.23406
 194  240.7912
 195  126.2157
 196  32.26419
 197  -7.392278
 198  127.1076
 199  210.2785
 200  172.3633
 201  95.70573
 202  216.9431
 203  95.11436
 204  111.1326
 205  51.41634
 206  14.09305
 207  -7.412872
 208  -24.21133
 209  -4.523144
 210  -61.79996
 211  -33.52843
 212  -7.599228
 213  72.34321
 214  -4.653755
 215  -5.914627
 216  73.53868
 217  106.4938
 218  5.935346
 219  67.59922
 220  158.5149
 221  120.0343
 222  1.728891
 223  -113.0443
 224  -108.728
 225  79.9677
 226  95.69055
 227  61.50848
 228  70.58864
 229  27.41457
 230  1.814491
 231  52.91576
 232  7.751419
 233  121.9297
 234  20.43354
 235  57.749
 236  89.73481
 237  170.377
 238  104.4713
 239  79.40989
 240  100.9551
 241  73.38747
 242  -5.395073
 243  13.23
 244  111.1622
 245  65.02409
 246  -37.42923
 247  32.19559
 248  132.1049
 249  71.94577
 250  183.0766
 251  169.0107
 252  -47.10966
 253  -5.237104
 254  61.24641
 255  101.8761
 256  28.63925
 257  83.45303
 258  129.4464
 259  57.89159
 260  71.78506
 261  126.6745
 262  32.66211
 263  -20.40142
 264  194.1371
 265  322.2933
 266  245.8043
 267  123.6889
 268  -44.20909
 269  56.10939
 270  -32.56844
 271  -107.7945
 272  68.0817
 273  -8.531717
 274  39.62336
 275  94.57612
 276  1.082892
 277  -20.81335
 278  61.41825
 279  98.12783
 280  89.64705
 281  76.14166
 282  127.7493
 283  147.056
 284  68.90011
 285  111.7163
 286  96.80573
 287  -70.71843
 288  47.89288
 289  56.86164
 290  -150.6518
 291  54.08977
 292  206.2885
 293  196.0668
 294  145.5265
 295  84.48946
 296  51.6641
 297  55.51164
 298  59.72723
 299  29.35286
 300  -71.0349
 301  116.5826
 302  36.3196
 303  -17.69064
 304  72.08061
 305  36.74701
 306  -39.08749
 307  49.33994
 308  116.6229
 309  12.51027
 310  56.89573
 311  -20.31471
 312  -2.481775
 313  23.25918
 314  71.63594
 315  -15.49559
 316  25.42274
 317  71.09314
 318  76.27555
 319  112.5583
 320  151.0362
 321  123.9571
 322  117.0651
 323  80.74986
 324  126.2806
 325  26.28848
 326  63.88508
 327  48.51349
 328  130.6954
 329  140.8712
 330  98.41459
 331  36.76012
 332  127.7681
 333  52.15575
 334  -2.248871
 335  -19.62238
 336  -0.03903298
 337  53.29832
 338  -102.4253
 339  37.59595
 340  164.374
 341  -1.119513
 342  -26.84253
 343  -10.5947
 344  71.552
 345  126.6301
 346  91.7536
 347  142.5116
 348  121.3634
 349  126.7627
 350  74.88735
 351  179.9116
 352  220.0696
 353  181.2338
 354  167.6509
 355  133.2058
 356  91.87386
 357  69.73174
 358  127.3319
 359  146.4456
 360  76.38159
 361  98.30547
 362  222.7804
 363  204.2824
 364  272.8686
 365  179.2278
 366  35.29782
 367  169.9998
 368  175.5663
 369  210.3633
 370  266.2627
 371  175.7908
 372  56.37777
 373  1.012324
 374  -6.321963
 375  22.8195
 376  117.1509
 377  -45.90407
 378  2.802136
 379  12.577
 380  81.14059
 381  82.08839
 382  54.99395
 383  180.6422
 384  114.8344
 385  -0.9479355
 386  37.22945
 387  133.5351
 388  179.6021
 389  126.4222
 390  145.6967
 391  116.252
 392  107.6076
 393  106.4539
 394  78.27463
 395  108.4347
 396  107.4037
 397  -25.7345
 398  86.11807
 399  123.1609
 400  31.65603
 401  -39.765
 402  -7.385019
 403  -16.90983
 404  27.91365
 405  -9.119593
 406  -111.0873
 407  -73.98077
 408  62.12385
 409  108.6069
 410  65.31559
 411  56.95482
 412  -22.77244
 413  92.42744
 414  170.5316
 415  106.0672
 416  68.73806
 417  61.82787
 418  26.9156
 419  -77.49391
 420  81.22247
 421  27.19254
 422  106.9795
 423  194.4391
 424  228.2727
 425  247.8415
 426  86.1262
 427  129.4042
 428  53.04641
 429  173.9269
 430  212.3413
 431  88.89818
 432  167.2774
 433  17.09377
 434  93.09196
 435  77.67922
 436  62.62186
 437  15.81426
 438  41.23621
 439  145.2573
 440  110.3028
 441  -11.07901
 442  18.98833
 443  172.1707
 444  136.3985
 445  43.71021
 446  -14.28171
 447  -28.46718
 448  95.78099
 449  148.6603
 450  101.8818
 451  154.4557
 452  13.11041
 453  -70.39433
 454  -105.1509
 455  23.41789
 456  45.47323
 457  52.11305
 458  186.0355
 459  349.0379
 460  164.6145
 461  56.89368
 462  114.0114
 463  212.8704
 464  124.0606
 465  -9.02628
 466  -19.5309
 467  69.00655
 468  105.1182
 469  33.26064
 470  78.54096
 471  27.78339
 472  -15.87798
 473  20.62606
 474  -32.60249
 475  65.75516
 476  106.9435
 477  60.35421
 478  96.42216
 479  41.44224
 480  20.12818
 481  91.64537
 482  44.84293
 483  114.6562
 484  122.3406
 485  74.68213
 486  141.7734
 487  156.1838
 488  37.54477
 489  9.816999
 490  -55.34346
 491  77.45567
 492  125.9563
 493  124.9859
 494  33.84107
 495  72.29227
 496  29.35396
 497  36.21443
 498  147.4106
 499  183.7684
 500  75.60015
 501  117.062
 502  298.657
 503  262.0952
 504  267.2097
 505  318.0162
 506  271.6326
 507  217.3564
 508  367.574
 509  690.9753
 510  711.3605
 511  767.5759
