# Input file       =  1189470387.118155_cleaned.dat
# Candidate        =  PSR_0332+5434
# Telescope        =  AR
# Epoch_topo       =  58011.018161089756
# Epoch_bary       =  N/A
# T_sample         =  0.002
# Data Folded      =  7340032
# Data Avg         =  0.00349317194816851
# Data StdDev      =  1.00000033422784 
# Profile Bins     =  512
# Profile Avg      =  50.0881748880146 
# Profile StdDev   =  119.73307639488  
# Reduced chi-sqr  =  1.549
# Prob(Noise)      <  1.86e-14   (~7.6 sigma)
# P_topo (ms)      =  714.465882954255  +/- 0.000139
# P'_topo (s/s)    =  -0                +/- 7.33e-11
# P''_topo (s/s^2) =  0                 +/- 3.24e-14
# P_bary (ms)      =  N/A
# P'_bary (s/s)    =  N/A
# P''_bary (s/s^2) =  N/A
# P_orb (s)        =  N/A
# asin(i)/c (s)    =  N/A
# eccentricity     =  N/A
# w (rad)          =  N/A
# T_peri           =  N/A
######################################################
   0  752.6671
   1  673.3024
   2  493.6106
   3  376.6281
   4  155.7172
   5  170.1577
   6  174.2845
   7  35.94859
   8  96.14487
   9  109.8836
  10  103.4696
  11  156.0771
  12  222.6357
  13  223.6295
  14  114.813
  15  66.92348
  16  76.7136
  17  106.469
  18  42.02198
  19  -39.69661
  20  -27.55163
  21  44.26097
  22  -92.78859
  23  -2.534979
  24  16.87383
  25  -93.77458
  26  -143.7201
  27  2.322957
  28  43.8212
  29  -183.9019
  30  -44.82826
  31  37.31685
  32  35.94588
  33  45.81198
  34  138.9027
  35  116.634
  36  0.5653488
  37  -23.52613
  38  82.92491
  39  26.13257
  40  64.17782
  41  105.9614
  42  177.713
  43  86.31963
  44  -142.4618
  45  75.4611
  46  74.38708
  47  117.5421
  48  151.9385
  49  31.52016
  50  -65.41468
  51  -49.33968
  52  -5.330544
  53  61.83256
  54  34.70932
  55  123.6791
  56  259.545
  57  205.1216
  58  -83.42246
  59  -69.70173
  60  69.79386
  61  15.78052
  62  -4.349894
  63  91.77072
  64  -29.482
  65  -66.97749
  66  141.5374
  67  37.87256
  68  87.6936
  69  -8.027497
  70  80.53155
  71  85.23417
  72  212.8333
  73  189.605
  74  166.6504
  75  178.9523
  76  20.11204
  77  38.9721
  78  175.4746
  79  208.2376
  80  210.2457
  81  107.2445
  82  -18.41718
  83  44.01535
  84  170.5743
  85  302.7851
  86  157.3856
  87  124.6437
  88  159.09
  89  66.17191
  90  38.52124
  91  137.9997
  92  67.97623
  93  31.39219
  94  0.347831
  95  27.99591
  96  38.56917
  97  2.707076
  98  42.76897
  99  66.01482
 100  76.86696
 101  61.39732
 102  71.5659
 103  150.4577
 104  96.34874
 105  -34.23993
 106  9.577664
 107  11.0132
 108  -27.64508
 109  34.00698
 110  2.900592
 111  0.07281975
 112  -28.7831
 113  55.04477
 114  -32.71952
 115  3.292014
 116  33.39658
 117  176.5173
 118  131.4361
 119  131.4146
 120  110.8651
 121  -12.66844
 122  48.82495
 123  54.34778
 124  -62.00679
 125  -68.08037
 126  49.44687
 127  106.6762
 128  130.1712
 129  118.8016
 130  -113.5785
 131  -185.1005
 132  -73.80173
 133  -89.42714
 134  -29.8032
 135  -139.3505
 136  112.7609
 137  86.20258
 138  70.59017
 139  0.337643
 140  -0.2407354
 141  -85.43715
 142  -9.681082
 143  -24.9625
 144  -136.4833
 145  34.07521
 146  54.08819
 147  139.0393
 148  59.31949
 149  -110.42
 150  -96.29066
 151  53.72376
 152  49.26796
 153  168.4388
 154  6.512754
 155  -47.4613
 156  84.14537
 157  3.674
 158  40.49855
 159  104.0727
 160  157.8143
 161  150.4547
 162  -61.3892
 163  -14.96728
 164  16.27043
 165  -111.8187
 166  -109.0369
 167  184.316
 168  253.8891
 169  135.2614
 170  37.7574
 171  108.2645
 172  -55.7743
 173  -21.54964
 174  -99.09087
 175  69.76303
 176  79.51483
 177  -7.295568
 178  -43.27869
 179  96.29942
 180  155.1139
 181  0.3545018
 182  -190.4432
 183  -77.03125
 184  155.2268
 185  1.991248
 186  -11.00625
 187  93.67235
 188  171.0809
 189  93.05661
 190  -19.41906
 191  36.94442
 192  -3.713403
 193  118.9142
 194  79.47193
 195  49.20533
 196  -28.22856
 197  152.1056
 198  169.9768
 199  43.16621
 200  -29.93838
 201  14.49218
 202  -29.02393
 203  69.7488
 204  49.15527
 205  46.45008
 206  -18.69698
 207  47.17582
 208  11.18111
 209  71.70513
 210  -63.54569
 211  -24.34362
 212  13.83814
 213  -0.8186682
 214  -84.24626
 215  9.710516
 216  160.9663
 217  98.73232
 218  -48.16401
 219  -114.7213
 220  51.49245
 221  -25.94181
 222  86.80099
 223  46.61851
 224  -13.15799
 225  148.6031
 226  43.89507
 227  31.75564
 228  -41.75031
 229  125.0366
 230  103.3343
 231  117.7486
 232  33.00199
 233  -128.8827
 234  -26.62326
 235  108.5456
 236  45.8619
 237  -74.31965
 238  -31.35464
 239  -13.28209
 240  69.66382
 241  15.5054
 242  21.93748
 243  78.85883
 244  83.50634
 245  -66.50038
 246  -75.20094
 247  -43.22017
 248  -75.6339
 249  -6.567523
 250  67.03525
 251  62.25867
 252  58.23534
 253  -20.95736
 254  115.5729
 255  198.8432
 256  116.1443
 257  107.3266
 258  39.31571
 259  118.7697
 260  20.66534
 261  -44.25082
 262  -22.40904
 263  15.40151
 264  147.5108
 265  124.8504
 266  199.1392
 267  121.7809
 268  14.96869
 269  164.8433
 270  107.1831
 271  172.8434
 272  195.2033
 273  -20.31778
 274  95.66716
 275  71.16545
 276  22.55812
 277  34.90646
 278  -1.880817
 279  -9.595453
 280  -188.0751
 281  -108.5561
 282  51.91165
 283  -80.45425
 284  66.42219
 285  102.1316
 286  -30.36693
 287  139.7525
 288  174.8825
 289  86.39013
 290  12.01187
 291  37.17009
 292  96.11631
 293  -7.870872
 294  110.6439
 295  218.773
 296  146.8837
 297  123.4944
 298  53.97826
 299  39.84267
 300  11.37564
 301  -11.10311
 302  51.6469
 303  70.25491
 304  163.6514
 305  76.29567
 306  84.4438
 307  68.26173
 308  51.92368
 309  113.6184
 310  176.4351
 311  190.2388
 312  45.72267
 313  -31.93588
 314  -65.58968
 315  -85.17612
 316  110.9572
 317  -51.44209
 318  -55.73994
 319  34.06182
 320  13.74682
 321  -54.40643
 322  -95.805
 323  50.24463
 324  132.3643
 325  2.718409
 326  -48.21191
 327  -18.3276
 328  149.7626
 329  -31.15688
 330  -216.6471
 331  -39.52524
 332  -22.33003
 333  19.44492
 334  61.90326
 335  13.37339
 336  -48.62154
 337  -165.2267
 338  -28.56162
 339  106.5032
 340  33.21194
 341  -78.82214
 342  17.6939
 343  46.71864
 344  58.61992
 345  27.35095
 346  65.45608
 347  6.204925
 348  17.46343
 349  -53.21956
 350  77.95724
 351  171.1156
 352  119.3677
 353  10.26796
 354  54.56998
 355  129.2576
 356  114.0088
 357  158.3635
 358  58.69933
 359  -8.699733
 360  93.47791
 361  112.2358
 362  34.7708
 363  89.07166
 364  257.305
 365  73.23898
 366  -118.1031
 367  56.0071
 368  10.37049
 369  49.1406
 370  18.91132
 371  46.54114
 372  148.0214
 373  8.631445
 374  122.0417
 375  112.4283
 376  45.5329
 377  -26.4041
 378  -82.31467
 379  -49.60935
 380  -4.06162
 381  114.53
 382  56.07405
 383  9.017168
 384  114.3326
 385  183.4198
 386  59.79612
 387  47.19866
 388  6.307091
 389  -22.35113
 390  -84.61269
 391  51.97171
 392  38.60946
 393  143.4768
 394  58.82038
 395  8.922887
 396  113.7899
 397  6.261861
 398  -119.9204
 399  34.08161
 400  3.781779
 401  -59.01778
 402  13.48283
 403  9.67012
 404  -109.3746
 405  -43.29499
 406  144.2747
 407  59.71809
 408  -11.46245
 409  173.2606
 410  323.9777
 411  192.6842
 412  60.32419
 413  22.19166
 414  -15.48822
 415  -74.18056
 416  32.21484
 417  72.142
 418  146.3974
 419  -32.44317
 420  -0.9232513
 421  14.58004
 422  54.36976
 423  14.7187
 424  20.76775
 425  18.31241
 426  -7.289414
 427  61.72487
 428  -4.187196
 429  82.56336
 430  51.88804
 431  142.7159
 432  152.2739
 433  8.215022
 434  -19.59964
 435  88.37882
 436  194.1462
 437  96.21181
 438  -28.66407
 439  -39.94825
 440  -30.76745
 441  -46.98013
 442  -30.93524
 443  83.73127
 444  52.43703
 445  -48.64935
 446  -23.55001
 447  -59.4639
 448  -95.90332
 449  -13.86323
 450  42.91524
 451  -82.39781
 452  -94.5691
 453  111.8433
 454  60.17031
 455  -65.95827
 456  -24.06316
 457  123.9826
 458  63.1745
 459  -69.51447
 460  -128.5649
 461  26.93608
 462  107.0056
 463  6.003009
 464  -128.9445
 465  16.32131
 466  -28.26942
 467  33.72374
 468  32.37961
 469  138.3596
 470  78.85991
 471  78.78288
 472  -16.65182
 473  -108.8831
 474  8.307762
 475  93.43735
 476  71.09628
 477  -106.7227
 478  14.65812
 479  62.58456
 480  88.38905
 481  114.3225
 482  -14.03405
 483  69.23953
 484  50.70567
 485  78.54396
 486  49.26173
 487  43.04046
 488  47.23095
 489  46.42589
 490  65.79792
 491  176.5399
 492  101.0711
 493  58.49618
 494  52.99961
 495  84.67509
 496  117.3295
 497  123.85
 498  14.39227
 499  150.3247
 500  128.6744
 501  6.708367
 502  19.30643
 503  55.42929
 504  107.9129
 505  74.67592
 506  168.0465
 507  114.3871
 508  146.7259
 509  404.4581
 510  678.7335
 511  857.7545
