# Input file       =  1189197207.127362_cleaned.dat
# Candidate        =  PSR_0332+5434
# Telescope        =  AR
# Epoch_topo       =  58007.856355640761
# Epoch_bary       =  N/A
# T_sample         =  0.002
# Data Folded      =  7208960
# Data Avg         =  0.0159510115991496
# Data StdDev      =  1.00003732583268 
# Profile Bins     =  512
# Profile Avg      =  224.592035565817 
# Profile StdDev   =  118.663604846073 
# Reduced chi-sqr  =  1.405
# Prob(Noise)      <  3.62e-09   (~5.8 sigma)
# P_topo (ms)      =  714.465048699886  +/- 0.000182
# P'_topo (s/s)    =  -0                +/- 9.76e-11
# P''_topo (s/s^2) =  0                 +/- 4.39e-14
# P_bary (ms)      =  N/A
# P'_bary (s/s)    =  N/A
# P''_bary (s/s^2) =  N/A
# P_orb (s)        =  N/A
# asin(i)/c (s)    =  N/A
# eccentricity     =  N/A
# w (rad)          =  N/A
# T_peri           =  N/A
######################################################
   0  1015.77
   1  827.7914
   2  650.7045
   3  413.1001
   4  332.8535
   5  195.0428
   6  295.1035
   7  269.9849
   8  156.8144
   9  190.5633
  10  378.703
  11  359.6632
  12  338.8146
  13  271.6211
  14  263.4046
  15  271.586
  16  277.7251
  17  251.2942
  18  235.6906
  19  233.881
  20  267.7683
  21  270.4265
  22  118.8792
  23  191.4212
  24  298.5539
  25  226.4477
  26  249.5952
  27  365.3531
  28  386.6237
  29  100.1505
  30  37.55386
  31  211.038
  32  233.331
  33  215.0792
  34  312.0561
  35  285.899
  36  261.6601
  37  221.4475
  38  247.0924
  39  229.3022
  40  215.9653
  41  212.7775
  42  283.4873
  43  141.2184
  44  269.2774
  45  216.2887
  46  182.6055
  47  222.8992
  48  271.3229
  49  253.1833
  50  275.184
  51  264.5682
  52  304.3891
  53  302.9277
  54  191.6818
  55  269.6718
  56  355.5896
  57  245.523
  58  178.0492
  59  141.0408
  60  191.7853
  61  268.7617
  62  164.7828
  63  84.73179
  64  124.8969
  65  313.1052
  66  367.4891
  67  127.5492
  68  32.05109
  69  92.48344
  70  115.0642
  71  228.8933
  72  180.8569
  73  278.0349
  74  267.0283
  75  227.5914
  76  218.6855
  77  173.3556
  78  261.6114
  79  254.5257
  80  170.3909
  81  133.7292
  82  105.422
  83  177.6822
  84  142.4563
  85  164.6589
  86  149.2447
  87  179.966
  88  183.7643
  89  212.2796
  90  233.6848
  91  183.6015
  92  262.4843
  93  324.029
  94  261.062
  95  356.336
  96  247.1984
  97  157.0534
  98  164.1034
  99  349.4065
 100  333.8203
 101  197.15
 102  291.5672
 103  136.8344
 104  213.8275
 105  244.8756
 106  83.42942
 107  253.2896
 108  293.2572
 109  273.9514
 110  234.6604
 111  206.2747
 112  246.8586
 113  321.9638
 114  202.4654
 115  232.7707
 116  301.58
 117  203.8543
 118  110.0023
 119  233.4343
 120  234.612
 121  170.4025
 122  136.6997
 123  229.4589
 124  149.5264
 125  52.83991
 126  76.96825
 127  123.3928
 128  251.22
 129  333.6422
 130  199.7756
 131  160.0302
 132  194.2106
 133  214.8176
 134  274.2181
 135  264.4572
 136  104.7537
 137  184.8893
 138  163.4275
 139  233.7402
 140  310.4945
 141  224.8894
 142  70.58101
 143  177.1706
 144  228.346
 145  110.7774
 146  21.53245
 147  237.8491
 148  259.6887
 149  342.3707
 150  341.8055
 151  314.5575
 152  227.661
 153  180.8415
 154  177.5151
 155  113.4948
 156  140.6168
 157  152.8449
 158  152.1742
 159  61.71593
 160  131.6598
 161  280.9405
 162  147.3659
 163  -9.336361
 164  26.78183
 165  97.14264
 166  127.0144
 167  155.9148
 168  261.4226
 169  167.2139
 170  154.7953
 171  209.7179
 172  203.8961
 173  111.5394
 174  287.2579
 175  325.8665
 176  189.4845
 177  84.17273
 178  231.7701
 179  369.5765
 180  297.5682
 181  238.6287
 182  286.4674
 183  240.2438
 184  224.4676
 185  145.999
 186  232.6854
 187  336.0856
 188  374.8745
 189  378.5829
 190  196.6748
 191  115.9748
 192  95.21625
 193  38.69064
 194  190.0114
 195  277.9589
 196  354.3824
 197  241.0364
 198  191.0488
 199  208.9057
 200  116.8759
 201  48.37305
 202  39.02568
 203  175.904
 204  244.078
 205  300.7896
 206  233.864
 207  174.1402
 208  102.2819
 209  138.76
 210  223.0369
 211  233.256
 212  208.9917
 213  186.9667
 214  235.6986
 215  248.4357
 216  114.2569
 217  197.4815
 218  171.7498
 219  142.7241
 220  136.1818
 221  191.4919
 222  180.9499
 223  109.4335
 224  92.56158
 225  172.3954
 226  206.9131
 227  125.0272
 228  179.2991
 229  243.9093
 230  221.7893
 231  235.1005
 232  183.0371
 233  230.462
 234  311.2381
 235  242.3339
 236  229.6862
 237  186.9425
 238  216.6354
 239  272.4055
 240  265.1217
 241  186.7715
 242  172.1131
 243  359.6982
 244  357.8882
 245  316.6894
 246  259.6181
 247  241.3725
 248  193.9413
 249  135.7836
 250  255.0444
 251  157.8365
 252  165.0066
 253  234.6438
 254  246.3765
 255  286.6385
 256  231.0211
 257  162.9167
 258  206.9082
 259  294.828
 260  233.031
 261  238.0788
 262  226.8703
 263  175.8443
 264  133.8663
 265  46.62979
 266  166.1176
 267  218.5883
 268  151.7709
 269  115.932
 270  145.1275
 271  101.4297
 272  171.4453
 273  119.7885
 274  116.8472
 275  181.1172
 276  177.8408
 277  222.6751
 278  234.4042
 279  256.1946
 280  240.0821
 281  289.3645
 282  232.8261
 283  122.5869
 284  145.5997
 285  306.6784
 286  249.3319
 287  148.7693
 288  103.051
 289  194.4436
 290  92.255
 291  127.6564
 292  220.5886
 293  176.9281
 294  176.8863
 295  214.7063
 296  370.802
 297  358.84
 298  241.2278
 299  133.3043
 300  214.6227
 301  212.9776
 302  153.1291
 303  172.5451
 304  83.52695
 305  190.6213
 306  274.708
 307  169.5249
 308  81.78397
 309  102.7751
 310  248.3671
 311  378.2693
 312  225.9141
 313  82.84475
 314  182.0741
 315  276.7286
 316  170.311
 317  102.018
 318  187.2051
 319  257.7222
 320  286.5734
 321  213.7694
 322  274.6066
 323  163.0299
 324  58.95819
 325  194.2012
 326  280.1347
 327  252.2709
 328  283.9197
 329  246.0947
 330  311.3694
 331  209.9632
 332  293.5678
 333  372.712
 334  314.7702
 335  146.8416
 336  250.3957
 337  207.5627
 338  132.7906
 339  174.1548
 340  331.851
 341  358.2935
 342  437.4271
 343  239.956
 344  167.3912
 345  156.3794
 346  106.4514
 347  90.3541
 348  210.1393
 349  318.9644
 350  356.0769
 351  312.7735
 352  177.1803
 353  261.9127
 354  196.007
 355  213.8131
 356  180.6771
 357  291.877
 358  278.5095
 359  298.1769
 360  189.4341
 361  182.0111
 362  140.9125
 363  62.29434
 364  125.5456
 365  126.8186
 366  237.2415
 367  191.1832
 368  192.0963
 369  258.0634
 370  241.5562
 371  218.0109
 372  210.3977
 373  234.6732
 374  164.7746
 375  254.4924
 376  327.8976
 377  279.4326
 378  230.9235
 379  131.9319
 380  228.1912
 381  305.1379
 382  213.4912
 383  145.5512
 384  178.9967
 385  234.0088
 386  246.3112
 387  317.2323
 388  165.9913
 389  204.8971
 390  251.4219
 391  370.5314
 392  352.3215
 393  79.55379
 394  156.1079
 395  293.1324
 396  317.4725
 397  257.0463
 398  248.5748
 399  253.4369
 400  204.1265
 401  301.049
 402  182.3818
 403  322.9118
 404  393.2543
 405  293.9704
 406  213.7008
 407  308.425
 408  212.7675
 409  228.7522
 410  215.5831
 411  307.3093
 412  293.2827
 413  125.6086
 414  179.756
 415  133.3174
 416  94.7741
 417  213.5838
 418  303.5489
 419  392.7433
 420  329.093
 421  271.5297
 422  272.8736
 423  127.5835
 424  181.6495
 425  159.9027
 426  63.62553
 427  160.1365
 428  299.2966
 429  100.7129
 430  234.8858
 431  226.0822
 432  190.8493
 433  147.6195
 434  129.9164
 435  225.9875
 436  223.8251
 437  203.5841
 438  259.296
 439  232.7615
 440  201.2991
 441  180.6243
 442  218.8211
 443  279.7433
 444  77.00724
 445  188.9401
 446  176.3971
 447  165.7881
 448  107.3291
 449  95.78216
 450  155.6765
 451  349.5229
 452  332.9636
 453  193.3239
 454  259.2401
 455  138.442
 456  317.8222
 457  287.464
 458  176.5173
 459  197.6889
 460  188.0917
 461  222.5437
 462  108.943
 463  140.2485
 464  253.2836
 465  320.0256
 466  263.5405
 467  364.3365
 468  273.1892
 469  163.9956
 470  270.5823
 471  215.9879
 472  151.6443
 473  287.3496
 474  362.6269
 475  275.6297
 476  250.8878
 477  265.5646
 478  241.3479
 479  189.905
 480  113.6369
 481  106.4288
 482  137.9921
 483  395.5238
 484  276.0876
 485  287.4755
 486  222.0373
 487  158.2933
 488  233.5546
 489  108.6298
 490  278.0701
 491  357.1702
 492  347.157
 493  322.859
 494  238.8813
 495  380.9578
 496  282.8714
 497  206.5069
 498  237.9999
 499  222.0347
 500  139.4888
 501  215.0963
 502  276.6414
 503  246.4039
 504  207.3327
 505  226.2356
 506  325.0724
 507  386.3057
 508  416.0685
 509  714.1302
 510  764.7885
 511  909.4657
