# Input file       =  1189657632.118036_cleaned.dat
# Candidate        =  PSR_0332+5434
# Telescope        =  AR
# Epoch_topo       =  58013.185348588377
# Epoch_bary       =  N/A
# T_sample         =  0.002
# Data Folded      =  7340032
# Data Avg         =  0.00938967085490177
# Data StdDev      =  1.00003694520621 
# Profile Bins     =  512
# Profile Avg      =  134.663869741661 
# Profile StdDev   =  119.737459938485 
# Reduced chi-sqr  =  1.180
# Prob(Noise)      <  0.00303   (~2.7 sigma)
# P_topo (ms)      =  714.466879720618  +/- 0.000114
# P'_topo (s/s)    =  -0                +/- 6.01e-11
# P''_topo (s/s^2) =  0                 +/- 2.65e-14
# P_bary (ms)      =  N/A
# P'_bary (s/s)    =  N/A
# P''_bary (s/s^2) =  N/A
# P_orb (s)        =  N/A
# asin(i)/c (s)    =  N/A
# eccentricity     =  N/A
# w (rad)          =  N/A
# T_peri           =  N/A
######################################################
   0  694.7327
   1  621.0255
   2  661.8653
   3  367.8962
   4  236.3523
   5  173.4536
   6  133.9073
   7  101.3549
   8  169.0809
   9  122.393
  10  134.3464
  11  151.852
  12  232.1226
  13  345.987
  14  275.6332
  15  214.4754
  16  110.5261
  17  133.0825
  18  127.9829
  19  10.41483
  20  122.2416
  21  213.2127
  22  273.9136
  23  347.3691
  24  347.7965
  25  167.5378
  26  183.4838
  27  -2.101104
  28  122.782
  29  144.5766
  30  92.34984
  31  155.8745
  32  86.56634
  33  -45.94437
  34  36.77507
  35  107.6577
  36  70.22571
  37  106.3869
  38  146.4755
  39  30.2728
  40  52.93361
  41  135.1557
  42  198.8636
  43  231.179
  44  213.1911
  45  65.75117
  46  97.73331
  47  32.2163
  48  -50.28197
  49  128.5719
  50  140.6437
  51  -42.7134
  52  58.43282
  53  248.2189
  54  305.3472
  55  176.5427
  56  94.00826
  57  26.80863
  58  59.89049
  59  57.64964
  60  67.94807
  61  112.0096
  62  165.6461
  63  227.2872
  64  85.05996
  65  29.63091
  66  185.6115
  67  213.5822
  68  155.6105
  69  26.70703
  70  202.3267
  71  57.17654
  72  44.35122
  73  97.38361
  74  165.2608
  75  76.6323
  76  146.7959
  77  237.9874
  78  114.5763
  79  136.2289
  80  136.8846
  81  188.6684
  82  -19.81416
  83  2.63266
  84  101.4099
  85  269.3958
  86  386.6219
  87  176.9466
  88  132.4687
  89  154.2334
  90  73.70306
  91  -16.67718
  92  17.27322
  93  126.3745
  94  183.5938
  95  272.9855
  96  282.6065
  97  219.1622
  98  76.80679
  99  123.9108
 100  106.4467
 101  72.27332
 102  58.5229
 103  196.4803
 104  55.84597
 105  108.9695
 106  106.8462
 107  107.8292
 108  -33.41795
 109  95.63842
 110  118.9531
 111  116.2308
 112  125.5195
 113  61.72356
 114  53.64304
 115  72.20414
 116  115.5037
 117  138.478
 118  150.1115
 119  147.9464
 120  124.3401
 121  178.514
 122  149.0418
 123  76.56017
 124  140.5532
 125  135.7369
 126  67.27998
 127  1.184956
 128  78.86137
 129  64.82404
 130  108.228
 131  152.9071
 132  144.8261
 133  172.1443
 134  24.66754
 135  160.0982
 136  140.4092
 137  158.4948
 138  257.6377
 139  208.022
 140  125.248
 141  96.25751
 142  60.26913
 143  29.85402
 144  77.9704
 145  156.1659
 146  111.2683
 147  66.69557
 148  192.7952
 149  191.8072
 150  16.27526
 151  1.594414
 152  26.16682
 153  111.8069
 154  141.0115
 155  59.12868
 156  204.3069
 157  241.082
 158  103.3666
 159  126.7908
 160  28.58885
 161  -31.37363
 162  43.56839
 163  99.87769
 164  14.33185
 165  102.2688
 166  295.8792
 167  223.6285
 168  287.3222
 169  83.41868
 170  21.47076
 171  118.9384
 172  125.7418
 173  133.3676
 174  2.225729
 175  31.55686
 176  81.10844
 177  199.105
 178  245.9801
 179  89.62649
 180  36.27542
 181  168.7226
 182  211.1957
 183  155.0139
 184  171.6409
 185  141.3121
 186  109.8482
 187  158.5685
 188  200.7909
 189  244.6154
 190  73.7402
 191  64.46832
 192  147.0723
 193  220.8888
 194  176.6502
 195  127.937
 196  98.28529
 197  91.15221
 198  88.39661
 199  75.41577
 200  185.5101
 201  226.9026
 202  153.2739
 203  58.93796
 204  162.0649
 205  173.7048
 206  88.83025
 207  56.18224
 208  142.0776
 209  151.9794
 210  42.67884
 211  14.04538
 212  25.51304
 213  17.71486
 214  194.0038
 215  168.9947
 216  130.2384
 217  -43.4711
 218  17.66902
 219  36.07444
 220  145.4705
 221  102.4465
 222  145.7054
 223  154.7132
 224  65.92702
 225  55.59348
 226  138.5223
 227  184.0707
 228  128.7394
 229  262.837
 230  159.9654
 231  108.2558
 232  89.90149
 233  64.57207
 234  177.9434
 235  251.1624
 236  147.8918
 237  16.2211
 238  86.48528
 239  92.43571
 240  116.2585
 241  194.3861
 242  149.0396
 243  215.01
 244  220.2
 245  66.80752
 246  235.9547
 247  205.4027
 248  219.879
 249  211.0934
 250  295.6106
 251  220.8497
 252  -35.13199
 253  109.7004
 254  274.7493
 255  213.4987
 256  129.0338
 257  49.73477
 258  204.131
 259  207.9415
 260  238.536
 261  262.2373
 262  175.0957
 263  43.33117
 264  176.4599
 265  258.6397
 266  154.8097
 267  325.3302
 268  356.3502
 269  262.5955
 270  119.5486
 271  126.4272
 272  90.0771
 273  119.112
 274  83.16865
 275  215.4547
 276  184.8072
 277  41.62835
 278  34.87725
 279  86.74549
 280  73.16595
 281  78.86951
 282  191.3106
 283  259.0424
 284  182.5761
 285  91.8657
 286  231.9649
 287  178.7286
 288  163.4885
 289  81.26108
 290  78.00209
 291  215.3755
 292  166.0182
 293  156.8513
 294  221.034
 295  223.6775
 296  141.1701
 297  228.4419
 298  256.1669
 299  194.5903
 300  92.43594
 301  90.86736
 302  135.4822
 303  197.7094
 304  155.1727
 305  90.8367
 306  128.2626
 307  94.65358
 308  135.2557
 309  112.6032
 310  -2.50436
 311  -106.3673
 312  -13.21519
 313  45.53883
 314  153.441
 315  100.4978
 316  0.8568588
 317  104.3366
 318  195.4465
 319  130.5958
 320  119.3331
 321  79.0009
 322  120.8263
 323  131.4079
 324  84.12534
 325  150.0143
 326  204.356
 327  144.339
 328  158.5114
 329  172.3423
 330  159.2147
 331  194.069
 332  171.0307
 333  157.4274
 334  176.1113
 335  143.2787
 336  137.7456
 337  79.33011
 338  15.157
 339  78.04833
 340  143.4281
 341  161.1957
 342  178.433
 343  83.03363
 344  92.8844
 345  158.5529
 346  132.457
 347  178.2683
 348  206.4751
 349  229.6718
 350  114.7727
 351  34.93835
 352  162.3563
 353  154.5534
 354  114.5342
 355  117.1328
 356  167.2496
 357  163.9798
 358  103.6245
 359  -9.436221
 360  60.94947
 361  53.81788
 362  -41.53677
 363  91.8906
 364  50.76477
 365  95.43736
 366  152.2814
 367  18.27616
 368  -11.63263
 369  106.817
 370  172.603
 371  0.2110783
 372  16.11589
 373  185.5295
 374  174.3821
 375  37.29751
 376  88.62277
 377  -38.2537
 378  42.31186
 379  217.4668
 380  327.7831
 381  227.8004
 382  229.1445
 383  228.4775
 384  202.1146
 385  160.7276
 386  148.9488
 387  168.7948
 388  212.3289
 389  219.6131
 390  114.8772
 391  16.67915
 392  -15.75721
 393  56.89764
 394  76.55771
 395  34.85795
 396  99.43378
 397  75.97787
 398  83.05576
 399  129.0538
 400  189.3679
 401  235.7116
 402  178.5515
 403  41.13272
 404  56.38496
 405  42.0783
 406  141.7807
 407  198.1169
 408  147.1289
 409  177.3707
 410  173.9991
 411  180.1849
 412  21.04201
 413  -5.194552
 414  141.5858
 415  147.3214
 416  -4.983688
 417  47.08581
 418  233.4475
 419  297.5894
 420  198.1578
 421  179.5125
 422  150.8838
 423  163.573
 424  155.1435
 425  -2.187035
 426  -47.05653
 427  144.7696
 428  243.3653
 429  114.7911
 430  184.3125
 431  99.44735
 432  59.53977
 433  136.0042
 434  73.13133
 435  18.02174
 436  5.688189
 437  211.3729
 438  299.6865
 439  168.9402
 440  150.5898
 441  141.4683
 442  78.41777
 443  109.0668
 444  104.0711
 445  116.6337
 446  43.67503
 447  44.39499
 448  146.3753
 449  71.9912
 450  92.71344
 451  158.0519
 452  202.3217
 453  95.60124
 454  -28.01369
 455  117.9454
 456  42.4386
 457  -49.68708
 458  -47.38826
 459  -3.687758
 460  36.74394
 461  98.21946
 462  171.7986
 463  131.6201
 464  101.5417
 465  77.74279
 466  192.5093
 467  396.2221
 468  180.6667
 469  93.71288
 470  -1.837045
 471  169.3375
 472  319.6174
 473  196.3981
 474  169.0353
 475  13.10264
 476  97.44714
 477  149.8896
 478  82.6481
 479  161.9679
 480  235.127
 481  243.554
 482  294.8422
 483  151.274
 484  128.3655
 485  170.0761
 486  17.04118
 487  -4.975649
 488  137.3729
 489  145.9938
 490  148.1221
 491  67.88515
 492  95.23411
 493  201.5572
 494  203.5567
 495  246.8006
 496  201.8098
 497  150.9093
 498  15.38458
 499  104.8025
 500  223.4876
 501  145.2547
 502  146.0826
 503  121.637
 504  203.3321
 505  274.9408
 506  130.459
 507  133.7526
 508  191.5718
 509  377.4211
 510  499.8927
 511  580.3634
