# Input file       =  1189800420.117078_cleaned.dat
# Candidate        =  PSR_0332+5434
# Telescope        =  AR
# Epoch_topo       =  58014.837987466184
# Epoch_bary       =  N/A
# T_sample         =  0.002
# Data Folded      =  7143424
# Data Avg         =  0.00794506004875864
# Data StdDev      =  1.00008247292257 
# Profile Bins     =  512
# Profile Avg      =  110.838961566096 
# Profile StdDev   =  118.128326066739 
# Reduced chi-sqr  =  1.535
# Prob(Noise)      <  7.23e-14   (~7.4 sigma)
# P_topo (ms)      =  714.467090016022  +/- 0.000232
# P'_topo (s/s)    =  -0                +/- 1.26e-10
# P''_topo (s/s^2) =  0                 +/- 5.7e-14
# P_bary (ms)      =  N/A
# P'_bary (s/s)    =  N/A
# P''_bary (s/s^2) =  N/A
# P_orb (s)        =  N/A
# asin(i)/c (s)    =  N/A
# eccentricity     =  N/A
# w (rad)          =  N/A
# T_peri           =  N/A
######################################################
   0  901.4742
   1  866.5038
   2  796.9384
   3  442.8517
   4  225.6384
   5  154.9764
   6  111.4621
   7  127.1807
   8  144.1458
   9  131.9597
  10  79.13435
  11  20.34052
  12  201.9443
  13  84.52374
  14  18.23106
  15  143.6265
  16  219.0056
  17  294.5947
  18  192.2165
  19  131.0764
  20  71.11476
  21  75.99502
  22  218.8128
  23  191.3699
  24  82.40593
  25  76.54314
  26  201.9228
  27  330.0565
  28  295.2733
  29  25.07194
  30  -54.59731
  31  159.0543
  32  203.0533
  33  78.80283
  34  32.65302
  35  210.9188
  36  164.2517
  37  128.35
  38  85.0975
  39  162.0574
  40  158.0211
  41  112.2525
  42  79.1183
  43  77.1606
  44  71.34015
  45  165.326
  46  262.7059
  47  127.7477
  48  38.68581
  49  148.5368
  50  55.33892
  51  -16.82034
  52  118.2321
  53  41.28263
  54  20.42756
  55  88.30673
  56  124.5652
  57  25.28119
  58  35.20572
  59  15.71865
  60  181.3097
  61  113.1979
  62  51.75755
  63  22.19251
  64  -58.39157
  65  -83.87454
  66  -45.54009
  67  -89.5148
  68  -5.181037
  69  66.23189
  70  53.66032
  71  121.7831
  72  159.2958
  73  132.5127
  74  76.35792
  75  52.37603
  76  108.4023
  77  31.00942
  78  100.9427
  79  38.48893
  80  68.88952
  81  187.8864
  82  130.088
  83  189.5721
  84  280.1013
  85  179.6693
  86  69.88847
  87  172.3467
  88  82.90546
  89  -35.23529
  90  150.269
  91  221.3457
  92  200.6444
  93  150.122
  94  43.56097
  95  65.29022
  96  130.7843
  97  95.5738
  98  177.9182
  99  70.07417
 100  200.8157
 101  94.01953
 102  15.90409
 103  111.3734
 104  183.7693
 105  49.01254
 106  63.20123
 107  18.84097
 108  62.8005
 109  236.9079
 110  206.4449
 111  5.18687
 112  0.5740715
 113  166.2542
 114  88.10629
 115  73.70641
 116  40.37388
 117  151.5622
 118  51.23081
 119  -15.02059
 120  9.438171
 121  135.8292
 122  218.6152
 123  32.1805
 124  -3.852391
 125  43.69498
 126  50.59814
 127  79.49413
 128  45.90461
 129  77.3866
 130  56.66733
 131  75.47201
 132  47.93794
 133  22.70539
 134  123.4666
 135  54.24529
 136  -13.84126
 137  46.22921
 138  206.1781
 139  157.2354
 140  171.4617
 141  104.5725
 142  131.0267
 143  71.29354
 144  71.23398
 145  76.96274
 146  19.30613
 147  91.26118
 148  149.1689
 149  210.3034
 150  141.4594
 151  3.450145
 152  123.9487
 153  258.8983
 154  185.2395
 155  123.2061
 156  63.48286
 157  -59.99754
 158  75.58006
 159  155.2849
 160  61.98812
 161  152.1871
 162  126.5304
 163  213.1657
 164  198.6494
 165  180.0573
 166  115.7989
 167  260.6451
 168  168.9696
 169  -21.54031
 170  91.64049
 171  27.71285
 172  73.78114
 173  126.8419
 174  113.183
 175  175.6845
 176  216.0569
 177  206.0934
 178  86.05698
 179  86.4581
 180  34.60806
 181  -18.20688
 182  93.73222
 183  180.7573
 184  118.9723
 185  18.07623
 186  -28.11023
 187  67.80428
 188  73.01463
 189  175.2274
 190  72.84163
 191  63.60388
 192  69.84145
 193  153.2909
 194  133.1299
 195  76.0626
 196  118.6852
 197  136.8861
 198  106.0086
 199  186.6118
 200  140.1137
 201  61.89939
 202  27.9933
 203  126.2774
 204  -0.04654912
 205  -43.57164
 206  90.96326
 207  96.85082
 208  90.18019
 209  144.53
 210  86.33762
 211  103.0906
 212  82.55589
 213  35.28988
 214  17.04579
 215  171.3882
 216  192.7686
 217  101.9215
 218  25.16227
 219  79.17546
 220  200.0524
 221  204.2656
 222  90.86177
 223  62.84752
 224  101.4734
 225  127.344
 226  109.546
 227  44.87412
 228  38.00108
 229  123.2063
 230  129.5351
 231  76.37533
 232  70.73151
 233  76.74512
 234  -58.01199
 235  -34.76195
 236  23.02901
 237  114.5702
 238  103.848
 239  192.9536
 240  124.3012
 241  -56.51564
 242  -66.29881
 243  46.78565
 244  66.28539
 245  147.3204
 246  193.9581
 247  192.8073
 248  194.5289
 249  192.5289
 250  130.686
 251  58.6721
 252  -24.01047
 253  39.88439
 254  166.5499
 255  275.9801
 256  206.8634
 257  182.5011
 258  98.60996
 259  -7.057966
 260  100.622
 261  176.8012
 262  156.3559
 263  119.3001
 264  232.2937
 265  148.9897
 266  156.333
 267  141.4197
 268  120.8165
 269  68.88567
 270  -11.57906
 271  115.0786
 272  54.5168
 273  96.53506
 274  122.5856
 275  2.970107
 276  -61.41304
 277  93.8123
 278  152.5928
 279  169.5903
 280  146.7679
 281  137.9033
 282  116.4788
 283  23.57163
 284  95.71384
 285  127.1842
 286  123.3252
 287  154.766
 288  160.9598
 289  89.90476
 290  91.55402
 291  204.244
 292  262.9328
 293  157.2386
 294  33.01596
 295  105.923
 296  231.2632
 297  172.7316
 298  128.6037
 299  105.7912
 300  104.6408
 301  106.3975
 302  48.52504
 303  -13.34336
 304  73.53129
 305  94.88078
 306  -52.89576
 307  48.38803
 308  147.0143
 309  181.2288
 310  178.5425
 311  81.02127
 312  121.3217
 313  202.707
 314  140.5104
 315  22.8367
 316  1.263196
 317  -17.69438
 318  -54.87616
 319  -18.61079
 320  43.93859
 321  174.6233
 322  21.27263
 323  -7.895466
 324  57.13065
 325  -8.909634
 326  -34.35921
 327  91.33376
 328  147.0958
 329  113.817
 330  11.69053
 331  31.27528
 332  73.27998
 333  180.7309
 334  141.7423
 335  189.6484
 336  124.4282
 337  10.55293
 338  109.797
 339  178.4422
 340  194.0546
 341  224.3387
 342  219.5664
 343  163.1263
 344  190.1515
 345  217.004
 346  101.0103
 347  33.81466
 348  160.1429
 349  189.9898
 350  62.91056
 351  62.63795
 352  50.69702
 353  75.0946
 354  15.66175
 355  69.56934
 356  108.1432
 357  166.9555
 358  58.33746
 359  -87.39085
 360  33.54134
 361  252.9404
 362  235.2667
 363  128.4611
 364  228.7175
 365  93.66635
 366  91.63531
 367  138.8504
 368  149.4773
 369  1.228761
 370  12.23357
 371  -1.420838
 372  -71.85959
 373  -76.46866
 374  117.8539
 375  91.59325
 376  -9.594461
 377  41.13125
 378  100.1293
 379  57.85727
 380  90.76427
 381  95.84838
 382  179.3135
 383  216.5636
 384  57.50191
 385  -3.558428
 386  38.14572
 387  136.2527
 388  100.2523
 389  265.7061
 390  297.4581
 391  156.2658
 392  141.5364
 393  172.6743
 394  189.5264
 395  123.6931
 396  210.4268
 397  265.5879
 398  134.8298
 399  161.5877
 400  70.16874
 401  134.6437
 402  189.0574
 403  194.4031
 404  212.3606
 405  130.3829
 406  109.2498
 407  111.6384
 408  91.37049
 409  153.9183
 410  84.97449
 411  142.9279
 412  214.0266
 413  172.2548
 414  71.74844
 415  51.65546
 416  102.1672
 417  47.1539
 418  40.31863
 419  22.5404
 420  51.40582
 421  166.2235
 422  194.3924
 423  115.1141
 424  44.30447
 425  166.7022
 426  110.3919
 427  49.59844
 428  55.19418
 429  84.70924
 430  174.1245
 431  280.1357
 432  252.872
 433  48.23904
 434  24.48962
 435  40.05889
 436  117.4435
 437  86.1698
 438  -57.78926
 439  43.15977
 440  192.2973
 441  213.4967
 442  216.0812
 443  229.2254
 444  128.6991
 445  -67.90514
 446  44.29356
 447  132.4808
 448  232.4022
 449  26.10245
 450  107.632
 451  134.4734
 452  99.66206
 453  124.9379
 454  184.5854
 455  201.2291
 456  198.3497
 457  251.3513
 458  54.41734
 459  230.9153
 460  204.6736
 461  104.844
 462  42.58009
 463  116.358
 464  -1.263314
 465  -162.7792
 466  -83.9081
 467  35.16935
 468  141.6852
 469  118.6256
 470  -24.50043
 471  64.38168
 472  54.23318
 473  -7.277133
 474  53.6159
 475  105.1505
 476  184.7536
 477  177.3116
 478  148.6678
 479  36.94505
 480  -65.81715
 481  121.692
 482  120.0735
 483  94.58929
 484  70.70132
 485  67.73762
 486  -104.2034
 487  -99.11478
 488  29.80453
 489  119.7471
 490  23.71605
 491  -101.7088
 492  17.31533
 493  101.8551
 494  112.4557
 495  142.5494
 496  39.19227
 497  -14.67215
 498  173.661
 499  260.7063
 500  100.6296
 501  63.33325
 502  141.6255
 503  251.5138
 504  207.2492
 505  186.493
 506  157.5983
 507  198.3358
 508  352.141
 509  293.7088
 510  474.3192
 511  826.0291
