# Input file       =  1189211840.114814_cleaned.dat
# Candidate        =  PSR_0332+5434
# Telescope        =  AR
# Epoch_topo       =  58008.025718921461
# Epoch_bary       =  N/A
# T_sample         =  0.002
# Data Folded      =  7340032
# Data Avg         =  0.00234222852608897
# Data StdDev      =  1.00001951963941 
# Profile Bins     =  512
# Profile Avg      =  33.5599548549852 
# Profile StdDev   =  119.735373522462 
# Reduced chi-sqr  =  1.572
# Prob(Noise)      <  2.24e-15   (~7.8 sigma)
# P_topo (ms)      =  714.465101255447  +/- 0.000167
# P'_topo (s/s)    =  -0                +/- 8.8e-11
# P''_topo (s/s^2) =  0                 +/- 3.88e-14
# P_bary (ms)      =  N/A
# P'_bary (s/s)    =  N/A
# P''_bary (s/s^2) =  N/A
# P_orb (s)        =  N/A
# asin(i)/c (s)    =  N/A
# eccentricity     =  N/A
# w (rad)          =  N/A
# T_peri           =  N/A
######################################################
   0  703.1718
   1  638.0925
   2  459.9555
   3  210.4133
   4  26.90873
   5  -98.02862
   6  -80.09653
   7  48.47088
   8  102.7829
   9  24.35594
  10  -0.6012952
  11  -56.01106
  12  8.681309
  13  122.5019
  14  172.1607
  15  96.87238
  16  -32.95493
  17  108.7083
  18  132.0205
  19  55.97789
  20  40.28378
  21  160.8311
  22  154.2433
  23  -74.68259
  24  -71.21853
  25  -105.5217
  26  -45.17828
  27  -45.77589
  28  -23.68166
  29  32.77741
  30  -26.95778
  31  -131.3524
  32  4.038521
  33  10.87049
  34  93.08454
  35  131.6031
  36  108.9934
  37  65.42585
  38  116.7468
  39  105.0188
  40  144.6199
  41  -35.60044
  42  -88.39923
  43  -31.55643
  44  -80.87251
  45  -56.69019
  46  27.31794
  47  195.0663
  48  239.1326
  49  167.6518
  50  130.8128
  51  49.68819
  52  -123.8289
  53  -58.04422
  54  -6.240418
  55  -6.770555
  56  32.74922
  57  -41.94421
  58  -9.946486
  59  111.7268
  60  12.2027
  61  -62.69225
  62  -5.578382
  63  -61.96505
  64  -78.70702
  65  33.38987
  66  -16.168
  67  -30.94161
  68  -39.85983
  69  20.7285
  70  -16.70636
  71  -24.47048
  72  -103.1551
  73  -82.22408
  74  -105.977
  75  10.57123
  76  -73.27101
  77  -2.020309
  78  65.66743
  79  -0.7931328
  80  30.3053
  81  16.34501
  82  33.25537
  83  117.1627
  84  119.6026
  85  -71.06718
  86  -87.78834
  87  -70.0841
  88  -71.57127
  89  -59.33204
  90  94.25259
  91  42.09253
  92  54.71521
  93  68.75571
  94  81.97888
  95  0.599341
  96  79.56559
  97  89.05373
  98  32.20526
  99  -61.88319
 100  35.82072
 101  91.97205
 102  50.09281
 103  -48.76289
 104  64.10747
 105  17.37539
 106  27.9481
 107  187.8755
 108  132.5115
 109  51.737
 110  22.53821
 111  167.4184
 112  49.52443
 113  31.71112
 114  29.74908
 115  95.92212
 116  214.5853
 117  281.9704
 118  173.0475
 119  82.85234
 120  126.4141
 121  -8.564138
 122  48.12578
 123  44.58267
 124  54.05278
 125  1.017603
 126  36.2986
 127  11.17668
 128  30.22945
 129  88.87715
 130  44.87906
 131  114.3712
 132  121.7844
 133  51.89877
 134  22.24891
 135  -194.0282
 136  52.35325
 137  96.61452
 138  61.82624
 139  -18.89514
 140  -103.8681
 141  -53.70748
 142  -167.6872
 143  19.7567
 144  54.97962
 145  6.951536
 146  56.27898
 147  96.80347
 148  -49.53616
 149  26.22101
 150  95.8248
 151  163.3671
 152  138.0815
 153  48.12297
 154  -20.19503
 155  0.4614814
 156  93.48805
 157  115.0253
 158  74.11021
 159  -163.971
 160  -33.22371
 161  -92.24235
 162  -6.474284
 163  -107.8047
 164  7.744007
 165  129.9694
 166  -7.828047
 167  43.44153
 168  101.6533
 169  77.17732
 170  150.1668
 171  113.7627
 172  -58.42961
 173  20.84608
 174  21.85753
 175  -47.43523
 176  86.04416
 177  -21.16537
 178  -45.29809
 179  -58.70486
 180  64.98343
 181  25.17282
 182  -88.63758
 183  -14.86072
 184  4.961068
 185  40.46261
 186  118.9563
 187  0.6009017
 188  39.91587
 189  25.24883
 190  4.595999
 191  -113.6141
 192  24.32085
 193  -30.11504
 194  71.75283
 195  14.51555
 196  -70.75366
 197  -28.85026
 198  26.19432
 199  63.58784
 200  -55.85505
 201  -44.33485
 202  -95.29857
 203  -105.2783
 204  -121.1378
 205  -40.97691
 206  87.89799
 207  128.1209
 208  100.5798
 209  -82.43245
 210  -103.4279
 211  19.97444
 212  25.68791
 213  -23.21477
 214  23.84671
 215  -26.29066
 216  -66.2417
 217  73.61993
 218  65.72983
 219  -52.25374
 220  5.891847
 221  -56.42313
 222  -178.2984
 223  -171.218
 224  4.468537
 225  -63.72758
 226  -164.8045
 227  10.94239
 228  -45.71199
 229  -77.42173
 230  -86.14935
 231  17.4921
 232  -61.0485
 233  31.39782
 234  42.42968
 235  -35.82697
 236  -79.20174
 237  -32.66476
 238  95.62478
 239  183.6623
 240  39.62539
 241  69.4829
 242  30.34871
 243  -24.38085
 244  -176.1609
 245  -92.43591
 246  -163.7215
 247  9.249799
 248  79.52223
 249  -10.03379
 250  2.763478
 251  6.995427
 252  -63.462
 253  -22.53257
 254  -94.78825
 255  -48.24887
 256  -54.96423
 257  85.56185
 258  -13.11131
 259  -70.27098
 260  -3.250152
 261  -83.73895
 262  41.5157
 263  -10.46337
 264  2.000295
 265  21.08889
 266  51.52364
 267  28.03968
 268  100.6723
 269  207.8643
 270  28.85003
 271  -66.40829
 272  -65.38723
 273  10.80806
 274  61.47541
 275  51.40354
 276  -34.14348
 277  -180.3224
 278  -18.14272
 279  127.6001
 280  17.50065
 281  -37.29262
 282  -7.641284
 283  -129.7745
 284  -90.46858
 285  75.79862
 286  113.3413
 287  15.01943
 288  -59.23115
 289  66.18793
 290  163.1946
 291  36.0118
 292  67.9146
 293  116.9315
 294  121.2336
 295  80.62735
 296  108.8656
 297  84.90484
 298  50.75378
 299  131.7157
 300  62.52507
 301  -38.82859
 302  -56.60075
 303  -12.49586
 304  104.8462
 305  119.4809
 306  155.6371
 307  74.03598
 308  -84.61961
 309  -117.2561
 310  -85.35484
 311  -76.87212
 312  -96.38351
 313  -11.81867
 314  156.0311
 315  128.1461
 316  166.0605
 317  27.1011
 318  104.0919
 319  62.56768
 320  143.737
 321  214.7673
 322  58.79248
 323  113.0498
 324  90.03574
 325  63.84763
 326  34.09918
 327  84.39035
 328  39.17832
 329  69.31034
 330  -21.10524
 331  -107.8658
 332  136.7981
 333  55.88482
 334  20.06174
 335  204.1588
 336  284.0629
 337  116.6912
 338  189.0809
 339  167.056
 340  158.7908
 341  124.1202
 342  162.8243
 343  63.89974
 344  77.83833
 345  156.0211
 346  27.31252
 347  0.1430497
 348  162.8697
 349  132.7516
 350  -59.12761
 351  21.3712
 352  165.8306
 353  89.98757
 354  -11.71154
 355  123.1031
 356  205.1677
 357  -23.58026
 358  -85.79882
 359  2.268743
 360  5.725435
 361  43.54671
 362  42.5522
 363  -20.53839
 364  42.9808
 365  67.39832
 366  -41.41785
 367  147.6983
 368  290.9813
 369  156.2164
 370  -59.60616
 371  -117.0928
 372  45.60405
 373  88.39675
 374  73.31835
 375  -27.77752
 376  -1.729496
 377  -106.7356
 378  -112.4327
 379  -12.71934
 380  144.0125
 381  99.39443
 382  -31.28391
 383  24.10429
 384  97.29743
 385  47.40659
 386  8.87432
 387  169.5927
 388  116.5536
 389  156.8031
 390  171.4918
 391  58.72849
 392  60.08693
 393  -2.308927
 394  194.0974
 395  116.2641
 396  -25.3596
 397  54.58703
 398  -4.774494
 399  -9.958546
 400  174.2569
 401  114.4191
 402  120.2493
 403  21.48758
 404  57.23218
 405  52.58118
 406  83.98418
 407  142.1313
 408  165.7177
 409  83.62357
 410  16.50723
 411  -28.58769
 412  72.8256
 413  15.83685
 414  173.0777
 415  88.79443
 416  155.2518
 417  11.80929
 418  -66.91766
 419  -43.22933
 420  39.28061
 421  5.870024
 422  15.68381
 423  75.81684
 424  232.9445
 425  125.5481
 426  46.59846
 427  -13.52895
 428  -106.5967
 429  39.30879
 430  64.70892
 431  26.92959
 432  3.172171
 433  57.43569
 434  99.57443
 435  166.0199
 436  -29.81545
 437  -133.2127
 438  -26.95317
 439  41.75982
 440  61.94622
 441  -57.74298
 442  -16.61385
 443  -42.13035
 444  -103.8213
 445  34.22108
 446  -21.60899
 447  -39.72908
 448  -60.44436
 449  -125.3393
 450  -131.1342
 451  -192.5431
 452  -22.70095
 453  -148.139
 454  -183.7702
 455  -173.7726
 456  -5.919111
 457  33.4825
 458  -55.42228
 459  16.7702
 460  -89.93757
 461  -99.4509
 462  25.12571
 463  2.298924
 464  65.66283
 465  24.44978
 466  -12.22003
 467  -66.71277
 468  -154.1015
 469  -144.0734
 470  -33.63137
 471  -70.26456
 472  83.32215
 473  83.98375
 474  -2.966522
 475  -123.6798
 476  -17.91401
 477  114.6447
 478  52.52607
 479  -7.383353
 480  73.62614
 481  76.70265
 482  -70.56026
 483  99.10834
 484  64.1632
 485  -50.45512
 486  16.6518
 487  -15.42276
 488  8.542779
 489  -17.59782
 490  114.1138
 491  161.3859
 492  39.77643
 493  19.79321
 494  107.8805
 495  163.6974
 496  107.4646
 497  85.586
 498  -42.67205
 499  -82.95005
 500  -26.04157
 501  198.7923
 502  110.2021
 503  102.0251
 504  54.12669
 505  83.5057
 506  183.1221
 507  252.2168
 508  317.8716
 509  368.9205
 510  618.2784
 511  803.1913
