# Input file       =  1189972712.116665_cleaned.dat
# Candidate        =  PSR_0332+5434
# Telescope        =  AR
# Epoch_topo       =  58016.832107831768
# Epoch_bary       =  N/A
# T_sample         =  0.002
# Data Folded      =  7143424
# Data Avg         =  0.0206942292503692
# Data StdDev      =  1.00028399356806 
# Profile Bins     =  512
# Profile Avg      =  288.75209607076  
# Profile StdDev   =  118.152129400129 
# Reduced chi-sqr  =  1.603
# Prob(Noise)      <  1.11e-16   (~8.2 sigma)
# P_topo (ms)      =  714.467829211024  +/- 0.000214
# P'_topo (s/s)    =  -0                +/- 1.16e-10
# P''_topo (s/s^2) =  0                 +/- 5.27e-14
# P_bary (ms)      =  N/A
# P'_bary (s/s)    =  N/A
# P''_bary (s/s^2) =  N/A
# P_orb (s)        =  N/A
# asin(i)/c (s)    =  N/A
# eccentricity     =  N/A
# w (rad)          =  N/A
# T_peri           =  N/A
######################################################
   0  990.3409
   1  999.1126
   2  821.1669
   3  476.0863
   4  344.7578
   5  373.5009
   6  292.6878
   7  287.2188
   8  229.2164
   9  134.6578
  10  17.54754
  11  194.4031
  12  373.5443
  13  377.0257
  14  286.7549
  15  287.1078
  16  267.6971
  17  252.9312
  18  349.6279
  19  407.1762
  20  363.7638
  21  383.3645
  22  306.9436
  23  341.5983
  24  319.884
  25  323.9159
  26  379.6988
  27  226.8309
  28  286.6713
  29  266.351
  30  250.6642
  31  347.1269
  32  392.7156
  33  269.0562
  34  155.9752
  35  308.2311
  36  349.808
  37  388.1077
  38  354.9823
  39  381.1991
  40  334.9623
  41  161.2671
  42  195.5516
  43  298.9892
  44  297.7184
  45  287.6617
  46  361.6235
  47  397.4133
  48  179.4538
  49  140.7714
  50  294.9416
  51  378.2891
  52  382.633
  53  361.4586
  54  299.0419
  55  198.685
  56  210.3533
  57  247.9631
  58  125.5928
  59  213.4488
  60  300.0266
  61  217.7974
  62  249.2942
  63  135.1101
  64  252.2463
  65  205.7633
  66  274.1258
  67  328.923
  68  240.9751
  69  185.9287
  70  290.2805
  71  424.7841
  72  248.766
  73  210.9062
  74  306.6451
  75  305.5074
  76  279.0794
  77  158.5731
  78  301.7859
  79  325.8629
  80  172.9791
  81  161.6292
  82  210.2724
  83  157.1047
  84  188.1477
  85  284.4041
  86  374.3836
  87  318.2722
  88  98.41261
  89  105.5223
  90  188.4049
  91  113.0968
  92  272.2408
  93  351.7551
  94  244.1795
  95  275.7194
  96  317.8593
  97  329.2938
  98  268.4551
  99  294.994
 100  412.2713
 101  463.5943
 102  467.3973
 103  471.0595
 104  313.7222
 105  213.645
 106  149.3501
 107  173.3149
 108  223.7884
 109  367.4725
 110  165.3729
 111  160.8513
 112  285.9702
 113  382.2053
 114  418.8519
 115  360.1175
 116  340.1867
 117  200.3184
 118  84.51525
 119  295.5571
 120  388.7473
 121  293.4379
 122  306.8105
 123  347.2399
 124  356.0347
 125  262.8241
 126  304.1996
 127  427.7483
 128  412.8152
 129  266.1794
 130  337.2144
 131  307.0734
 132  279.3209
 133  318.3209
 134  328.9913
 135  418.5822
 136  324.1267
 137  191.7867
 138  267.0081
 139  243.8237
 140  227.997
 141  273.1513
 142  320.4591
 143  331.3121
 144  286.4285
 145  264.0459
 146  251.5476
 147  293.26
 148  338.4693
 149  281.8484
 150  190.5125
 151  169.4721
 152  250.0255
 153  309.888
 154  282.8058
 155  261.4488
 156  299.2046
 157  281.1678
 158  308.2093
 159  250.2926
 160  400.1081
 161  416.3475
 162  367.3727
 163  326.0347
 164  289.7572
 165  160.0123
 166  238.1893
 167  297.68
 168  211.6733
 169  264.3159
 170  277.0565
 171  260.1723
 172  301.8898
 173  297.851
 174  315.962
 175  210.7363
 176  197.3786
 177  233.9548
 178  251.0356
 179  273.6316
 180  267.1741
 181  214.3396
 182  374.9994
 183  392.7747
 184  285.0812
 185  253.5894
 186  395.2672
 187  402.0406
 188  362.9869
 189  343.9407
 190  358.3391
 191  349.0935
 192  300.8171
 193  250.9127
 194  304.4792
 195  286.1316
 196  176.4545
 197  133.6683
 198  194.0182
 199  282.7644
 200  332.3053
 201  250.1776
 202  298.4794
 203  183.1118
 204  296.9728
 205  425.8488
 206  417.4248
 207  297.4953
 208  213.4702
 209  296.2999
 210  417.3293
 211  405.8205
 212  300.9199
 213  256.9703
 214  184.7147
 215  169.381
 216  264.4642
 217  306.4954
 218  126.9224
 219  186.1801
 220  246.2958
 221  346.4346
 222  329.1382
 223  291.7251
 224  150.9464
 225  141.4517
 226  175.464
 227  209.3587
 228  255.2504
 229  202.3792
 230  307.3148
 231  168.8003
 232  360.206
 233  440.9542
 234  333.7885
 235  339.1047
 236  362.2132
 237  293.3634
 238  308.4904
 239  429.1525
 240  409.799
 241  340.9464
 242  214.8669
 243  215.9393
 244  220.3459
 245  298.4635
 246  324.5798
 247  67.57018
 248  261.959
 249  415.0982
 250  325.1589
 251  382.5847
 252  351.8456
 253  304.3778
 254  274.9352
 255  228.105
 256  110.4384
 257  191.5889
 258  342.295
 259  290.8449
 260  193.8751
 261  312.529
 262  274.8007
 263  313.5679
 264  280.3271
 265  406.8802
 266  308.926
 267  248.2425
 268  238.9766
 269  265.0601
 270  303.0916
 271  265.9306
 272  131.1324
 273  184.9283
 274  268.3917
 275  293.4336
 276  288.8294
 277  282.7835
 278  259.8461
 279  238.1478
 280  277.7359
 281  259.6664
 282  223.4541
 283  213.3471
 284  249.6843
 285  317.0688
 286  328.6026
 287  265.958
 288  179.4732
 289  130.5018
 290  251.2852
 291  371.2365
 292  350.6332
 293  251.7204
 294  249.3447
 295  331.2869
 296  385.9237
 297  455.8257
 298  369.9754
 299  366.2643
 300  315.1182
 301  393.7925
 302  377.2749
 303  189.0597
 304  388.3987
 305  267.6628
 306  175.4732
 307  298.0757
 308  219.6254
 309  211.8869
 310  250.7504
 311  276.7328
 312  315.3679
 313  323.0413
 314  216.7026
 315  245.8276
 316  193.778
 317  236.3741
 318  319.8875
 319  182.3217
 320  354.3835
 321  371.0339
 322  398.1014
 323  368.8036
 324  384.1525
 325  373.9687
 326  237.8363
 327  265.805
 328  356.1122
 329  258.3576
 330  348.8381
 331  363.0808
 332  348.0735
 333  286.2842
 334  269.0776
 335  191.952
 336  343.6023
 337  419.4062
 338  208.4217
 339  169.7321
 340  197.7067
 341  184.0082
 342  236.7752
 343  165.0375
 344  199.2275
 345  294.0138
 346  415.093
 347  269.3911
 348  140.149
 349  245.7789
 350  280.8056
 351  315.2833
 352  418.7641
 353  470.6643
 354  412.8893
 355  382.6827
 356  433.8427
 357  281.2655
 358  224.1619
 359  277.3941
 360  358.5786
 361  287.8755
 362  229.3576
 363  335.0573
 364  356.7441
 365  374.4927
 366  281.312
 367  393.9617
 368  450.7013
 369  449.225
 370  337.973
 371  233.3286
 372  327.6547
 373  358.087
 374  268.7409
 375  224.1084
 376  194.865
 377  216.5193
 378  220.3005
 379  318.2344
 380  432.747
 381  448.5336
 382  232.6284
 383  237.1698
 384  265.2142
 385  221.4233
 386  163.5933
 387  253.7394
 388  225.2412
 389  200.0731
 390  234.7502
 391  171.3046
 392  241.3024
 393  308.3242
 394  387.9253
 395  279.1994
 396  242.2535
 397  360.9474
 398  385.2982
 399  297.8849
 400  180.0644
 401  290.0262
 402  351.4827
 403  261.2735
 404  364.0777
 405  215.0365
 406  250.5676
 407  180.7695
 408  210.4317
 409  511.946
 410  390.7184
 411  186.7687
 412  151.4644
 413  283.4783
 414  301.8139
 415  280.762
 416  87.88297
 417  128.7435
 418  135.8855
 419  219.6064
 420  387.3385
 421  341.8287
 422  300.3455
 423  202.5266
 424  310.2185
 425  241.9508
 426  277.343
 427  238.1526
 428  295.5177
 429  340.2203
 430  246.5986
 431  307.2273
 432  232.2967
 433  111.2301
 434  226.0145
 435  326.3783
 436  269.8437
 437  315.1034
 438  295.8007
 439  279.3265
 440  364.9871
 441  243.1965
 442  318.5959
 443  247.5916
 444  152.4096
 445  161.0662
 446  154.7517
 447  335.3806
 448  264.6604
 449  157.6273
 450  233.1281
 451  347.925
 452  408.7064
 453  358.7987
 454  363.4874
 455  190.6464
 456  85.23639
 457  123.0795
 458  179.8111
 459  213.3895
 460  225.7257
 461  243.9386
 462  240.996
 463  339.7194
 464  235.464
 465  236.5618
 466  252.4979
 467  305.9221
 468  323.1649
 469  312.7549
 470  231.746
 471  282.2706
 472  226.343
 473  183.7067
 474  390.6735
 475  285.9485
 476  249.2768
 477  193.7406
 478  156.4393
 479  104.6066
 480  274.2553
 481  310.0605
 482  244.2542
 483  259.651
 484  211.5593
 485  97.12746
 486  138.5881
 487  145.5043
 488  205.5367
 489  220.4137
 490  282.9224
 491  360.3905
 492  344.7077
 493  353.175
 494  389.5009
 495  262.6752
 496  144.0854
 497  222.04
 498  325.7228
 499  209.1365
 500  206.4989
 501  181.8511
 502  287.8921
 503  397.1051
 504  366.7267
 505  372.2867
 506  489.8343
 507  513.1541
 508  608.0805
 509  778.5225
 510  876.7786
 511  1037.972
