# Input file       =  1189829930.117989_cleaned.dat
# Candidate        =  PSR_0332+5434
# Telescope        =  AR
# Epoch_topo       =  58015.179538402648
# Epoch_bary       =  N/A
# T_sample         =  0.002
# Data Folded      =  7340032
# Data Avg         =  0.00905578671978436
# Data StdDev      =  1.00001489629619 
# Profile Bins     =  512
# Profile Avg      =  129.80410889276  
# Profile StdDev   =  119.73481995554  
# Reduced chi-sqr  =  1.024
# Prob(Noise)      <  0.346   (~0.4 sigma)
# P_topo (ms)      =  714.467560569113  +/- 0.000153
# P'_topo (s/s)    =  -0                +/- 8.07e-11
# P''_topo (s/s^2) =  0                 +/- 3.56e-14
# P_bary (ms)      =  N/A
# P'_bary (s/s)    =  N/A
# P''_bary (s/s^2) =  N/A
# P_orb (s)        =  N/A
# asin(i)/c (s)    =  N/A
# eccentricity     =  N/A
# w (rad)          =  N/A
# T_peri           =  N/A
######################################################
   0  526.9744
   1  634.3289
   2  496.7315
   3  223.7156
   4  129.2174
   5  194.6909
   6  289.0902
   7  143.9186
   8  229.6992
   9  99.19274
  10  89.54598
  11  93.16488
  12  204.9798
  13  198.3545
  14  211.8367
  15  272.0921
  16  190.8597
  17  148.7636
  18  -10.80472
  19  67.80894
  20  143.2801
  21  52.12112
  22  50.4347
  23  -49.93349
  24  -27.6218
  25  72.26965
  26  242.1328
  27  187.7894
  28  115.606
  29  86.43945
  30  133.7368
  31  28.4573
  32  122.7196
  33  181.502
  34  110.6981
  35  -121.8254
  36  26.08288
  37  139.4711
  38  124.5089
  39  209.3646
  40  171.6736
  41  67.8047
  42  49.08049
  43  176.2862
  44  133.5403
  45  25.73827
  46  -53.44294
  47  148.7219
  48  75.02853
  49  92.44997
  50  154.2201
  51  136.8462
  52  89.74192
  53  163.5089
  54  18.7098
  55  43.73222
  56  136.3476
  57  155.1013
  58  187.853
  59  101.9777
  60  163.9123
  61  127.6469
  62  83.19975
  63  56.53464
  64  97.91537
  65  103.2803
  66  100.0138
  67  166.0546
  68  98.77267
  69  10.29428
  70  -61.50273
  71  10.7108
  72  131.4582
  73  167.4911
  74  94.54597
  75  45.98712
  76  81.00105
  77  174.067
  78  115.2925
  79  103.9948
  80  74.42403
  81  38.57591
  82  123.5167
  83  218.7894
  84  228.6244
  85  142.5078
  86  79.55167
  87  152.5998
  88  155.925
  89  187.6745
  90  240.8078
  91  129.7204
  92  122.7935
  93  210.1794
  94  38.11044
  95  111.9508
  96  246.9311
  97  28.81265
  98  -117.5655
  99  109.2003
 100  162.4361
 101  169.1125
 102  178.2351
 103  164.3811
 104  197.2372
 105  119.7349
 106  70.30231
 107  58.33183
 108  240.7554
 109  250.5717
 110  142.5029
 111  109.9167
 112  183.0731
 113  152.8941
 114  163.1616
 115  187.7023
 116  249.4364
 117  51.86387
 118  76.53899
 119  97.97423
 120  117.991
 121  188.9325
 122  144.2193
 123  25.52412
 124  -41.59631
 125  83.93558
 126  93.53189
 127  144.2493
 128  82.10598
 129  -13.54764
 130  23.12565
 131  129.1796
 132  189.8285
 133  221.305
 134  57.4101
 135  82.49163
 136  150.7991
 137  182.4401
 138  198.4901
 139  156.0978
 140  157.0957
 141  33.43433
 142  111.9308
 143  112.544
 144  54.34688
 145  104.4528
 146  100.7469
 147  151.1828
 148  272.8058
 149  250.9558
 150  170.845
 151  113.9559
 152  38.55385
 153  68.69872
 154  9.014605
 155  67.71482
 156  49.77008
 157  -31.26896
 158  42.07309
 159  186.0226
 160  44.3235
 161  85.41803
 162  132.5405
 163  59.4089
 164  165.1762
 165  186.7542
 166  105.7576
 167  -16.26518
 168  140.0902
 169  108.2718
 170  135.3561
 171  187.9819
 172  224.658
 173  290.0345
 174  159.2715
 175  131.105
 176  211.9168
 177  86.21436
 178  115.4155
 179  72.64301
 180  157.3346
 181  64.29962
 182  5.798855
 183  150.843
 184  125.6193
 185  57.5098
 186  36.76286
 187  173.1053
 188  100.9655
 189  -13.91268
 190  104.4945
 191  102.9199
 192  76.58273
 193  145.0968
 194  206.5904
 195  120.7695
 196  66.6146
 197  105.9788
 198  51.12446
 199  222.882
 200  158.2865
 201  104.3963
 202  59.72242
 203  51.98396
 204  163.291
 205  156.7591
 206  183.0113
 207  164.5063
 208  90.95256
 209  100.7381
 210  75.7117
 211  177.4008
 212  255.9849
 213  292.7632
 214  158.3854
 215  121.1171
 216  13.74583
 217  103.8203
 218  104.9624
 219  241.4108
 220  190.2354
 221  128.8431
 222  172.0914
 223  176.8681
 224  1.639393
 225  1.559579
 226  113.6748
 227  229.8144
 228  327.4442
 229  279.8608
 230  178.9564
 231  82.9238
 232  188.973
 233  179.8209
 234  231.0667
 235  162.3705
 236  82.20248
 237  138.2028
 238  28.43204
 239  80.32603
 240  153.5363
 241  133.1523
 242  147.7413
 243  165.3895
 244  168.8597
 245  62.70437
 246  251.1754
 247  148.6671
 248  111.9687
 249  49.10982
 250  98.3859
 251  112.3143
 252  5.42585
 253  123.4934
 254  227.05
 255  158.6686
 256  117.2186
 257  104.4178
 258  284.0119
 259  120.4445
 260  95.24951
 261  178.6029
 262  102.7693
 263  71.97295
 264  91.65038
 265  202.6207
 266  148.3118
 267  159.4151
 268  179.5502
 269  141.1423
 270  140.4534
 271  112.6686
 272  93.79609
 273  107.4561
 274  124.9848
 275  121.0987
 276  171.8341
 277  216.0449
 278  288.7117
 279  215.5754
 280  146.4457
 281  115.8811
 282  139.8589
 283  197.9235
 284  168.1736
 285  209.7846
 286  247.2067
 287  227.2753
 288  201.2958
 289  228.9984
 290  137.7234
 291  -5.474863
 292  43.22005
 293  51.71803
 294  118.1925
 295  81.25182
 296  191.1114
 297  112.4333
 298  97.49244
 299  128.5596
 300  34.50645
 301  132.9915
 302  128.5477
 303  53.02029
 304  -49.33249
 305  131.1728
 306  118.8643
 307  -94.40415
 308  118.3643
 309  146.5542
 310  94.10846
 311  28.35321
 312  4.532136
 313  96.65213
 314  190.6566
 315  139.786
 316  28.8877
 317  104.3743
 318  241.1
 319  155.4386
 320  96.3436
 321  132.6295
 322  58.23868
 323  51.76995
 324  92.33511
 325  201.9845
 326  226.7574
 327  191.8527
 328  134.2137
 329  93.22878
 330  178.4574
 331  172.8631
 332  173.7858
 333  135.6531
 334  -9.99127
 335  -9.745417
 336  248.5333
 337  196.2768
 338  214.9035
 339  128.3523
 340  212.3855
 341  194.9192
 342  73.55337
 343  124.5004
 344  208.9146
 345  58.41156
 346  -20.90277
 347  1.439711
 348  136.7814
 349  220.0524
 350  105.3053
 351  244.2374
 352  190.4667
 353  152.4935
 354  93.15451
 355  75.91961
 356  113.5498
 357  220.644
 358  219.3545
 359  228.3644
 360  182.1752
 361  102.5505
 362  175.2828
 363  59.77731
 364  34.61519
 365  80.34097
 366  96.05798
 367  89.75835
 368  95.15501
 369  64.5646
 370  147.1285
 371  174.4961
 372  208.6224
 373  15.23615
 374  109.243
 375  176.7523
 376  67.17764
 377  108.4399
 378  -16.21164
 379  -74.20235
 380  93.67017
 381  118.0143
 382  174.649
 383  186.0446
 384  191.6391
 385  145.6879
 386  203.2675
 387  189.0773
 388  27.62752
 389  161.9772
 390  233.9942
 391  165.5978
 392  76.18118
 393  183.524
 394  121.7944
 395  -3.422015
 396  106.0626
 397  94.91121
 398  4.481149
 399  10.32722
 400  65.79179
 401  127.5327
 402  389.1827
 403  295.8407
 404  197.3047
 405  93.21638
 406  130.2301
 407  366.5901
 408  299.3254
 409  173.4952
 410  111.6814
 411  113.1046
 412  168.8423
 413  137.1201
 414  207.1601
 415  186.3533
 416  118.72
 417  86.93232
 418  76.29391
 419  77.48723
 420  237.2198
 421  196.121
 422  171.1373
 423  132.0915
 424  152.6564
 425  87.74051
 426  157.2242
 427  161.4583
 428  193.4336
 429  -46.77146
 430  -50.72257
 431  34.57094
 432  166.3573
 433  76.23685
 434  67.64371
 435  119.8374
 436  124.256
 437  138.9908
 438  150.479
 439  117.8395
 440  152.9587
 441  137.6139
 442  194.0904
 443  125.0168
 444  328.2578
 445  76.64735
 446  93.71356
 447  9.054279
 448  -56.17485
 449  49.31147
 450  -42.03537
 451  86.67279
 452  197.111
 453  154.0037
 454  139.3366
 455  48.38969
 456  7.231147
 457  80.39174
 458  199.0931
 459  205.8768
 460  91.78201
 461  183.0456
 462  192.1171
 463  52.82751
 464  64.78693
 465  104.2958
 466  87.2694
 467  32.40107
 468  -19.13371
 469  16.35833
 470  139.1578
 471  102.8165
 472  83.27437
 473  127.7782
 474  19.68433
 475  15.28462
 476  50.60325
 477  -0.9465479
 478  102.849
 479  111.1136
 480  103.1428
 481  240.6384
 482  186.3842
 483  168.6445
 484  224.5474
 485  227.8939
 486  228.3419
 487  299.0221
 488  293.6358
 489  169.7893
 490  70.77249
 491  61.22083
 492  114.2799
 493  177.5378
 494  251.0296
 495  103.4624
 496  2.09493
 497  -7.046972
 498  102.7319
 499  158.697
 500  144.3091
 501  155.1752
 502  92.52299
 503  117.5988
 504  84.23406
 505  244.5702
 506  210.5162
 507  116.1952
 508  356.3797
 509  506.9627
 510  446.2639
 511  479.9074
