# Input file       =  1189987313.102369_cleaned.dat
# Candidate        =  PSR_0332+5434
# Telescope        =  AR
# Epoch_topo       =  58017.001100721864
# Epoch_bary       =  N/A
# T_sample         =  0.002
# Data Folded      =  7340032
# Data Avg         =  0.0102283288035566
# Data StdDev      =  1.00002511264437 
# Profile Bins     =  512
# Profile Avg      =  146.664951347766 
# Profile StdDev   =  119.736043189928 
# Reduced chi-sqr  =  1.583
# Prob(Noise)      <  8.1e-16   (~8.0 sigma)
# P_topo (ms)      =  714.467908061031  +/- 0.000192
# P'_topo (s/s)    =  -0                +/- 1.01e-10
# P''_topo (s/s^2) =  0                 +/- 4.47e-14
# P_bary (ms)      =  N/A
# P'_bary (s/s)    =  N/A
# P''_bary (s/s^2) =  N/A
# P_orb (s)        =  N/A
# asin(i)/c (s)    =  N/A
# eccentricity     =  N/A
# w (rad)          =  N/A
# T_peri           =  N/A
######################################################
   0  947.423
   1  976.9716
   2  803.672
   3  529.0283
   4  299.4938
   5  344.5811
   6  301.0724
   7  74.38075
   8  17.75563
   9  78.61828
  10  196.3967
  11  359.8185
  12  254.8679
  13  147.2544
  14  251.5154
  15  291.0896
  16  206.3106
  17  146.3851
  18  246.3753
  19  146.9978
  20  155.0192
  21  48.75155
  22  45.48547
  23  113.7062
  24  129.1127
  25  105.0533
  26  162.4638
  27  274.3312
  28  134.4449
  29  -7.138047
  30  282.4198
  31  208.2953
  32  79.64681
  33  119.3875
  34  260.8102
  35  192.0093
  36  213.8949
  37  176.4817
  38  207.6684
  39  143.4889
  40  118.6604
  41  104.4155
  42  83.66137
  43  82.32462
  44  166.2701
  45  175.7851
  46  198.4921
  47  -10.61957
  48  22.66224
  49  140.8677
  50  146.6352
  51  315.3776
  52  329.9585
  53  309.2454
  54  221.5063
  55  193.1065
  56  185.983
  57  197.1567
  58  103.0879
  59  225.4206
  60  272.3957
  61  208.522
  62  115.5084
  63  159.5105
  64  176.1927
  65  98.4269
  66  124.8989
  67  267.8652
  68  277.625
  69  171.5229
  70  112.247
  71  149.6579
  72  122.169
  73  81.75756
  74  129.6594
  75  251.5065
  76  173.7142
  77  129.3391
  78  208.3821
  79  161.7295
  80  90.86517
  81  75.04115
  82  98.05116
  83  52.84927
  84  249.953
  85  283.4496
  86  146.3996
  87  125.8365
  88  109.2438
  89  156.3715
  90  182.3539
  91  93.05682
  92  86.99023
  93  16.74713
  94  119.1581
  95  224.7281
  96  219.4078
  97  206.8462
  98  155.5344
  99  46.97943
 100  35.6901
 101  208.0368
 102  109.6865
 103  230.1616
 104  273.6818
 105  210.4843
 106  233.7966
 107  106.296
 108  90.11777
 109  291.8396
 110  123.2928
 111  85.27227
 112  100.972
 113  178.5478
 114  225.7191
 115  198.1347
 116  318.7788
 117  231.9495
 118  210.7034
 119  350.0985
 120  258.1473
 121  164.8929
 122  -33.35389
 123  -9.088206
 124  -59.20565
 125  -187.2564
 126  -5.943763
 127  187.7075
 128  150.7115
 129  149.9532
 130  107.7371
 131  95.05334
 132  34.40273
 133  148.5676
 134  202.6623
 135  101.6336
 136  37.60212
 137  43.89228
 138  88.25147
 139  80.34241
 140  -38.25362
 141  -23.01623
 142  54.27582
 143  58.66199
 144  36.15469
 145  102.6154
 146  155.789
 147  154.607
 148  69.38237
 149  7.505641
 150  135.8845
 151  135.8466
 152  283.0444
 153  279.4547
 154  82.9049
 155  49.6684
 156  165.7966
 157  233.0678
 158  159.5125
 159  218.691
 160  248.6017
 161  224.3536
 162  202.3817
 163  21.96931
 164  57.9622
 165  126.5209
 166  262.3116
 167  297.8134
 168  168.009
 169  227.6106
 170  223.4356
 171  164.198
 172  243.2497
 173  159.0892
 174  106.4496
 175  71.05729
 176  174.4551
 177  164.7511
 178  195.2311
 179  130.9463
 180  108.181
 181  90.34419
 182  75.44545
 183  211.7142
 184  230.3039
 185  248.8796
 186  61.66578
 187  180.6874
 188  295.6334
 189  293.899
 190  238.2667
 191  96.83513
 192  132.1402
 193  156.3048
 194  89.19513
 195  -29.07516
 196  25.68467
 197  99.44354
 198  143.3859
 199  157.0594
 200  97.00524
 201  197.5253
 202  200.5851
 203  68.49091
 204  76.21001
 205  76.72386
 206  51.06036
 207  99.99021
 208  99.48919
 209  69.87898
 210  13.80207
 211  133.0392
 212  29.70627
 213  -2.812104
 214  84.32809
 215  -24.772
 216  6.117687
 217  20.99311
 218  138.7868
 219  225.692
 220  144.7246
 221  80.19829
 222  63.61415
 223  171.2384
 224  45.49708
 225  99.90575
 226  226.7471
 227  201.031
 228  79.80601
 229  36.50137
 230  155.0139
 231  82.7453
 232  141.8701
 233  176.4346
 234  56.55836
 235  104.5211
 236  138.4019
 237  106.6074
 238  69.98428
 239  121.1797
 240  69.1759
 241  55.69527
 242  131.7067
 243  93.37833
 244  154.8352
 245  275.3946
 246  90.01517
 247  -143.1596
 248  53.97241
 249  54.43802
 250  -19.89658
 251  165.1669
 252  300.3164
 253  100.9485
 254  119.9314
 255  182.9508
 256  173.4116
 257  83.25003
 258  148.0074
 259  142.4642
 260  114.8163
 261  265.6695
 262  183.792
 263  197.9018
 264  156.7932
 265  137.3262
 266  156.0582
 267  172.8874
 268  219.603
 269  146.9557
 270  204.2053
 271  170.2798
 272  16.42762
 273  7.172727
 274  54.05353
 275  183.3311
 276  219.2393
 277  177.6859
 278  362.2583
 279  405.7347
 280  312.2674
 281  48.28115
 282  83.24068
 283  238.2887
 284  171.8138
 285  118.6088
 286  250.0928
 287  28.0071
 288  79.05476
 289  206.4821
 290  126.5402
 291  81.79468
 292  150.2923
 293  184.2095
 294  149.0974
 295  76.10645
 296  14.33849
 297  49.01139
 298  -90.58739
 299  108.9043
 300  162.6345
 301  40.3866
 302  -86.52078
 303  43.92397
 304  187.7509
 305  128.2669
 306  222.3058
 307  11.44709
 308  115.0454
 309  209.6684
 310  118.3994
 311  126.1422
 312  82.88277
 313  174.3305
 314  250.7583
 315  99.6574
 316  129.1216
 317  172.4865
 318  73.16455
 319  151.1449
 320  151.7973
 321  104.072
 322  169.7476
 323  109.5883
 324  199.27
 325  155.1331
 326  168.6552
 327  114.8483
 328  -82.58483
 329  33.97269
 330  104.4434
 331  166.0412
 332  97.05952
 333  23.62117
 334  71.1199
 335  85.2903
 336  148.59
 337  58.1571
 338  131.7211
 339  166.056
 340  105.6101
 341  111.3643
 342  67.84527
 343  56.96908
 344  132.6806
 345  226.2489
 346  123.8481
 347  129.1178
 348  149.6622
 349  190.2856
 350  83.87481
 351  146.8564
 352  172.0823
 353  -18.33262
 354  241.9395
 355  181.9756
 356  11.43426
 357  69.17946
 358  90.10429
 359  30.25464
 360  208.7556
 361  120.0711
 362  139.8072
 363  152.1631
 364  225.5065
 365  207.4493
 366  201.2555
 367  91.11287
 368  -0.9928868
 369  96.44263
 370  193.8046
 371  15.96114
 372  10.35012
 373  159.4055
 374  134.2843
 375  51.63197
 376  139.2794
 377  234.0094
 378  170.4075
 379  153.4639
 380  52.10943
 381  1.241835
 382  165.995
 383  152.9918
 384  65.1055
 385  -8.846712
 386  37.09789
 387  83.70453
 388  90.43316
 389  68.74171
 390  47.39002
 391  102.9517
 392  78.05251
 393  110.0833
 394  166.9904
 395  178.7466
 396  49.04294
 397  90.17585
 398  117.633
 399  26.51801
 400  163.5326
 401  122.1919
 402  35.16208
 403  32.55696
 404  -15.32479
 405  71.69849
 406  29.90238
 407  133.5599
 408  153.4157
 409  151.8519
 410  108.5702
 411  100.7243
 412  135.6152
 413  177.6163
 414  42.77485
 415  53.23251
 416  53.36518
 417  136.4937
 418  266.2575
 419  123.4811
 420  58.79828
 421  138.6121
 422  36.99212
 423  -4.189313
 424  25.03142
 425  195.8656
 426  223.1324
 427  128.7941
 428  159.0517
 429  215.9454
 430  109.9139
 431  81.59697
 432  110.8169
 433  131.6786
 434  63.91489
 435  159.5916
 436  200.6439
 437  299.9332
 438  149.9438
 439  204.8723
 440  187.0946
 441  95.93413
 442  100.1867
 443  100.1933
 444  104.5556
 445  183.5486
 446  321.9772
 447  276.9949
 448  155.0049
 449  148.0649
 450  56.54163
 451  96.07578
 452  231.66
 453  219.7871
 454  234.6001
 455  188.8229
 456  127.527
 457  126.8331
 458  11.17667
 459  176.6473
 460  298.412
 461  263.7668
 462  227.8521
 463  207.4139
 464  256.5929
 465  205.8574
 466  218.4685
 467  262.8394
 468  233.4294
 469  97.49742
 470  289.6636
 471  254.5695
 472  231.1769
 473  288.9467
 474  252.2081
 475  214.2896
 476  140.3221
 477  86.93745
 478  107.7923
 479  39.02761
 480  64.78905
 481  220.9664
 482  148.0213
 483  171.22
 484  101.4545
 485  262.532
 486  262.9823
 487  185.7186
 488  210.549
 489  221.9948
 490  169.28
 491  218.1857
 492  193.9321
 493  159.4161
 494  137.38
 495  129.8626
 496  202.0214
 497  142.7568
 498  174.0836
 499  188.3171
 500  165.8488
 501  184.4832
 502  -20.1951
 503  -93.42991
 504  88.50166
 505  147.8186
 506  249.8265
 507  300.5634
 508  263.7184
 509  339.0039
 510  487.1924
 511  742.582
