# Input file       =  1189728850.110648_cleaned.dat
# Candidate        =  PSR_0332+5434
# Telescope        =  AR
# Epoch_topo       =  58014.009630910274
# Epoch_bary       =  N/A
# T_sample         =  0.002
# Data Folded      =  7340032
# Data Avg         =  0.0122934618300557
# Data StdDev      =  1.00001470976705 
# Profile Bins     =  512
# Profile Avg      =  176.27586134778  
# Profile StdDev   =  119.734797621839 
# Reduced chi-sqr  =  1.299
# Prob(Noise)      <  5.78e-06   (~4.4 sigma)
# P_topo (ms)      =  714.466817465814  +/- 0.000146
# P'_topo (s/s)    =  -0                +/- 7.7e-11
# P''_topo (s/s^2) =  0                 +/- 3.4e-14
# P_bary (ms)      =  N/A
# P'_bary (s/s)    =  N/A
# P''_bary (s/s^2) =  N/A
# P_orb (s)        =  N/A
# asin(i)/c (s)    =  N/A
# eccentricity     =  N/A
# w (rad)          =  N/A
# T_peri           =  N/A
######################################################
   0  785.7023
   1  768.0828
   2  719.9173
   3  530.0414
   4  290.6081
   5  320.0328
   6  298.5063
   7  168.9024
   8  148.1433
   9  182.8472
  10  177.6445
  11  205.2196
  12  229.6051
  13  149.4762
  14  136.7681
  15  191.2457
  16  175.0255
  17  166.4196
  18  269.927
  19  180.9157
  20  152.5368
  21  158.8561
  22  358.0061
  23  218.2519
  24  206.4042
  25  151.5037
  26  6.683559
  27  89.00924
  28  177.2726
  29  198.2664
  30  166.8068
  31  256.7073
  32  270.1681
  33  196.1711
  34  160.1917
  35  184.4537
  36  196.2516
  37  105.2831
  38  154.0661
  39  284.7037
  40  276.1762
  41  147.5681
  42  78.67831
  43  109.4006
  44  134.4612
  45  187.2241
  46  207.9049
  47  199.178
  48  157.8134
  49  146.1444
  50  154.7738
  51  225.8094
  52  262.028
  53  292.1186
  54  253.4368
  55  70.78088
  56  192.0939
  57  170.4361
  58  169.4117
  59  255.6074
  60  192.486
  61  141.8072
  62  224.1774
  63  235.2274
  64  110.6507
  65  -35.99356
  66  169.6023
  67  155.5264
  68  175.123
  69  173.0501
  70  -11.23566
  71  20.10171
  72  88.62096
  73  67.51619
  74  15.44062
  75  39.39569
  76  116.5009
  77  119.1945
  78  152.2
  79  229.8915
  80  215.025
  81  276.0473
  82  162.4651
  83  41.63158
  84  303.3466
  85  176.3326
  86  261.4598
  87  236.2057
  88  234.1153
  89  279.0384
  90  161.5988
  91  67.58363
  92  118.9722
  93  162.0794
  94  319.3201
  95  188.6508
  96  143.6579
  97  208.8077
  98  140.856
  99  127.7343
 100  238.5304
 101  275.4536
 102  263.1443
 103  261.5652
 104  233.2936
 105  306.3521
 106  215.7641
 107  116.7955
 108  79.92017
 109  123.471
 110  155.9832
 111  353.2495
 112  329.5467
 113  314.4487
 114  217.5209
 115  154.738
 116  253.7764
 117  207.2337
 118  34.96483
 119  41.26078
 120  101.8196
 121  163.7272
 122  229.8545
 123  218.6034
 124  186.1633
 125  266.4242
 126  64.90836
 127  75.2719
 128  118.6643
 129  154.9339
 130  180.1944
 131  195.7646
 132  282.1442
 133  209.2043
 134  38.39818
 135  115.8244
 136  136.1734
 137  209.017
 138  192.158
 139  92.39767
 140  112.039
 141  113.0088
 142  113.752
 143  135.6003
 144  226.4295
 145  241.9197
 146  195.4253
 147  48.76932
 148  -0.4597219
 149  167.3767
 150  156.1494
 151  189.6501
 152  273.4042
 153  156.6129
 154  107.3577
 155  27.21201
 156  189.332
 157  220.969
 158  173.8966
 159  92.8679
 160  92.01702
 161  204.6879
 162  129.8083
 163  78.16459
 164  -41.18288
 165  138.2009
 166  157.2552
 167  169.9341
 168  67.80741
 169  116.0463
 170  307.2248
 171  277.7534
 172  173.209
 173  234.9607
 174  232.5338
 175  266.1258
 176  276.8444
 177  173.8511
 178  6.222079
 179  -45.98708
 180  114.2998
 181  168.88
 182  208.7415
 183  190.2924
 184  158.0525
 185  129.6774
 186  175.9275
 187  203.3883
 188  109.4514
 189  147.8405
 190  193.529
 191  174.7817
 192  201.2714
 193  226.5784
 194  154.4015
 195  216.0127
 196  223.9117
 197  134.3951
 198  176.3993
 199  364.9546
 200  256.7268
 201  120.7161
 202  131.4057
 203  70.196
 204  84.89813
 205  256.7609
 206  223.1695
 207  50.68909
 208  170.3658
 209  180.7836
 210  108.6972
 211  157.8304
 212  126.584
 213  55.59818
 214  135.246
 215  135.1194
 216  199.3862
 217  217.4329
 218  47.66652
 219  63.93888
 220  117.2811
 221  231.3925
 222  194.885
 223  98.01826
 224  241.89
 225  189.7097
 226  101.015
 227  193.5688
 228  231.9659
 229  100.7609
 230  197.9204
 231  233.3537
 232  162.5014
 233  204.2683
 234  230.1318
 235  255.4633
 236  175.5509
 237  255.5285
 238  336.5554
 239  198.671
 240  97.97614
 241  217.0815
 242  293.6728
 243  325.444
 244  231.1333
 245  102.1105
 246  110.3509
 247  161.6525
 248  120.2322
 249  53.09213
 250  141.8563
 251  104.4908
 252  149.2698
 253  148.4254
 254  222.6982
 255  210.8464
 256  145.0242
 257  140.6742
 258  100.381
 259  236.433
 260  140.3033
 261  311.9009
 262  286.8614
 263  78.05917
 264  57.95783
 265  -43.12982
 266  211.9199
 267  138.1615
 268  250.8955
 269  252.1024
 270  164.5168
 271  195.6911
 272  140.9453
 273  99.87464
 274  204.5756
 275  119.297
 276  165.8738
 277  227.4245
 278  214.6282
 279  61.3577
 280  64.27349
 281  173.9001
 282  297.6103
 283  28.13576
 284  21.38281
 285  201.5047
 286  237.4574
 287  204.082
 288  361.3416
 289  230.341
 290  185.1232
 291  175.5562
 292  166.8445
 293  140.5488
 294  166.4692
 295  237.1115
 296  154.0865
 297  186.5152
 298  248.3033
 299  205.1674
 300  204.569
 301  140.8856
 302  163.7463
 303  169.1671
 304  145.1202
 305  180.9466
 306  178.2123
 307  149.3697
 308  113.4583
 309  248.958
 310  137.3253
 311  127.7246
 312  92.39696
 313  213.5198
 314  72.86202
 315  104.8454
 316  154.3674
 317  189.3622
 318  174.6426
 319  190.4902
 320  180.3589
 321  173.9796
 322  100.8479
 323  12.20019
 324  211.6975
 325  348.7707
 326  220.9676
 327  61.35081
 328  88.33224
 329  187.1744
 330  213.6107
 331  179.5471
 332  214.6739
 333  285.7196
 334  222.6261
 335  169.2606
 336  97.73985
 337  182.2999
 338  192.7952
 339  209.9283
 340  87.31351
 341  216.0249
 342  260.8729
 343  122.245
 344  -1.195442
 345  17.19148
 346  16.89034
 347  33.13183
 348  114.7144
 349  168.2101
 350  69.82418
 351  128.0177
 352  157.2795
 353  190.5266
 354  256.5585
 355  267.029
 356  302.8883
 357  263.292
 358  313.8165
 359  93.26889
 360  139.2886
 361  199.6767
 362  72.17515
 363  155.6637
 364  108.6625
 365  88.96203
 366  217.1585
 367  173.6982
 368  202.0682
 369  169.166
 370  120.6333
 371  176.5135
 372  174.3526
 373  240.027
 374  321.5118
 375  160.3575
 376  270.7149
 377  257.902
 378  107.9298
 379  163.8248
 380  72.8913
 381  158.2825
 382  220.8194
 383  335.5827
 384  136.0387
 385  204.1588
 386  169.5919
 387  178.7258
 388  160.1724
 389  209.4924
 390  259.1638
 391  135.6736
 392  195.4095
 393  110.3934
 394  130.5203
 395  116.7755
 396  182.3935
 397  345.1362
 398  221.0699
 399  7.848385
 400  70.30312
 401  125.1237
 402  73.35829
 403  116.4717
 404  139.1489
 405  5.231524
 406  117.5898
 407  146.2825
 408  151.2584
 409  153.6175
 410  333.2584
 411  290.8636
 412  246.771
 413  150.1862
 414  115.4202
 415  135.8831
 416  -0.6572407
 417  95.29649
 418  120.1895
 419  150.8626
 420  195.7946
 421  246.2507
 422  303.8096
 423  33.72619
 424  121.7206
 425  202.1847
 426  156.5842
 427  66.48255
 428  34.69327
 429  93.93529
 430  154.0313
 431  184.9083
 432  165.8504
 433  119.4699
 434  29.92142
 435  100.6294
 436  322.0468
 437  189.7642
 438  231.1338
 439  149.4411
 440  143.8607
 441  123.0187
 442  273.0161
 443  365.3926
 444  159.8711
 445  33.82005
 446  150.4072
 447  269.5824
 448  6.501424
 449  -20.06834
 450  54.23999
 451  207.459
 452  163.121
 453  111.2159
 454  282.2911
 455  281.8378
 456  186.999
 457  5.282611
 458  39.62425
 459  112.2593
 460  88.61147
 461  99.84699
 462  201.1533
 463  344.8904
 464  276.3377
 465  192.2799
 466  166.0036
 467  63.4556
 468  63.49333
 469  146.9303
 470  193.2354
 471  231.2613
 472  215.9389
 473  84.92053
 474  85.2919
 475  188.9955
 476  76.1115
 477  192.689
 478  249.1794
 479  259.2948
 480  206.1295
 481  292.388
 482  229.713
 483  74.02598
 484  245.0188
 485  91.6795
 486  210.3169
 487  287.6102
 488  68.68146
 489  149.4704
 490  111.0392
 491  79.03262
 492  173.4567
 493  183.4448
 494  215.2509
 495  186.461
 496  326.9036
 497  170.9801
 498  129.8066
 499  192.9879
 500  30.89064
 501  29.63696
 502  151.6458
 503  368.8419
 504  194.4535
 505  123.7674
 506  387.9901
 507  402.3407
 508  358.8206
 509  417.6252
 510  562.8043
 511  795.7815
