# Input file       =  1189369560.126245_cleaned.dat
# Candidate        =  PSR_0332+5434
# Telescope        =  AR
# Epoch_topo       =  58009.851182016726
# Epoch_bary       =  N/A
# T_sample         =  0.002
# Data Folded      =  7208960
# Data Avg         =  0.00727684848580209
# Data StdDev      =  1.00004745263436 
# Profile Bins     =  512
# Profile Avg      =  102.45708513256  
# Profile StdDev   =  118.664806484013 
# Reduced chi-sqr  =  1.658
# Prob(Noise)      <  4.78e-19   (~8.8 sigma)
# P_topo (ms)      =  714.465546534836  +/- 0.000237
# P'_topo (s/s)    =  -0                +/- 1.27e-10
# P''_topo (s/s^2) =  0                 +/- 5.72e-14
# P_bary (ms)      =  N/A
# P'_bary (s/s)    =  N/A
# P''_bary (s/s^2) =  N/A
# P_orb (s)        =  N/A
# asin(i)/c (s)    =  N/A
# eccentricity     =  N/A
# w (rad)          =  N/A
# T_peri           =  N/A
######################################################
   0  847.2318
   1  808.0929
   2  741.501
   3  519.25
   4  244.9435
   5  138.7816
   6  22.24852
   7  84.65443
   8  56.01059
   9  124.4162
  10  152.3671
  11  152.9661
  12  179.9466
  13  298.1447
  14  255.929
  15  193.058
  16  94.00708
  17  123.8428
  18  122.2004
  19  167.022
  20  0.7194649
  21  22.70693
  22  169.7028
  23  20.13119
  24  11.25616
  25  -44.5108
  26  35.52458
  27  -58.68342
  28  -45.83214
  29  180.41
  30  206.5695
  31  141.7933
  32  136.1144
  33  208.5733
  34  225.7815
  35  249.3555
  36  117.0154
  37  124.6986
  38  58.83996
  39  98.82925
  40  222.9374
  41  316.1447
  42  257.5604
  43  174.4825
  44  144.1635
  45  137.0732
  46  68.17656
  47  177.4848
  48  194.0702
  49  67.4557
  50  127.9004
  51  149.8532
  52  227.0838
  53  116.4225
  54  -8.149189
  55  -49.16011
  56  -25.81622
  57  62.65528
  58  179.3445
  59  151.5871
  60  175.4617
  61  75.77513
  62  104.2983
  63  103.3063
  64  213.4075
  65  209.0634
  66  79.01817
  67  21.06971
  68  26.53047
  69  108.1647
  70  137.6266
  71  245.9015
  72  310.3906
  73  68.20005
  74  120.4504
  75  54.9398
  76  -24.57036
  77  40.73398
  78  127.491
  79  5.240796
  80  56.46257
  81  224.8723
  82  220.313
  83  94.4944
  84  41.12704
  85  44.07772
  86  110.3475
  87  160.1021
  88  135.5729
  89  58.16743
  90  45.87318
  91  104.1228
  92  34.10274
  93  85.71486
  94  6.328883
  95  57.54191
  96  70.26376
  97  -35.36988
  98  27.82805
  99  -29.54654
 100  67.02855
 101  142.9289
 102  128.2115
 103  102.2939
 104  187.459
 105  3.501071
 106  80.23056
 107  119.5568
 108  156.718
 109  287.1024
 110  68.99902
 111  85.37907
 112  90.66747
 113  -19.82213
 114  27.54509
 115  253.1028
 116  135.7347
 117  -11.52201
 118  -9.551045
 119  -41.4473
 120  -90.05219
 121  -49.66311
 122  107.7315
 123  214.8986
 124  58.41159
 125  -12.91975
 126  -20.89479
 127  157.3692
 128  131.2653
 129  120.7611
 130  -5.283106
 131  25.16565
 132  117.129
 133  122.9628
 134  99.06625
 135  110.0047
 136  197.5566
 137  245.9793
 138  197.3251
 139  183.0615
 140  2.881495
 141  75.97356
 142  115.0097
 143  221.6751
 144  171.922
 145  88.87048
 146  57.63266
 147  53.02742
 148  -144.506
 149  -63.39146
 150  21.85575
 151  75.53999
 152  1.610121
 153  -68.35953
 154  -55.55119
 155  -4.157006
 156  216.4993
 157  107.495
 158  66.0592
 159  139.3837
 160  73.44434
 161  147.0925
 162  95.19579
 163  42.23109
 164  157.7567
 165  240.0976
 166  251.7574
 167  -36.39177
 168  -96.18264
 169  -37.93048
 170  107.3779
 171  224.5947
 172  162.6776
 173  69.04217
 174  38.11695
 175  127.0881
 176  91.13419
 177  55.7592
 178  35.31141
 179  -24.26057
 180  -79.63515
 181  -84.34344
 182  -10.06245
 183  82.81194
 184  199.7163
 185  207.0284
 186  56.91959
 187  155.2299
 188  88.18219
 189  64.36659
 190  57.67641
 191  171.7481
 192  170.0009
 193  75.78593
 194  12.4389
 195  96.17342
 196  48.6957
 197  27.46926
 198  75.50317
 199  147.757
 200  114.5551
 201  113.1709
 202  71.53712
 203  122.8522
 204  120.7925
 205  99.86379
 206  82.51099
 207  30.21276
 208  122.8989
 209  66.67923
 210  72.03168
 211  120.2077
 212  146.9617
 213  269.2722
 214  243.6645
 215  27.18785
 216  -31.93416
 217  6.228502
 218  232.7151
 219  292.0159
 220  35.62605
 221  146.0459
 222  160.1118
 223  59.8736
 224  234.9807
 225  146.8169
 226  33.58446
 227  93.08308
 228  205.8172
 229  112.0258
 230  11.63073
 231  169.2065
 232  194.761
 233  196.6521
 234  155.0577
 235  107.7318
 236  9.892408
 237  150.3714
 238  84.54848
 239  11.01956
 240  35.25546
 241  -20.98319
 242  159.7708
 243  242.8917
 244  157.0731
 245  180.1125
 246  166.1323
 247  72.2654
 248  -33.78539
 249  68.54086
 250  -48.80342
 251  9.912799
 252  119.5305
 253  101.081
 254  172.6449
 255  17.20386
 256  -9.977704
 257  -33.30434
 258  11.27341
 259  180.5225
 260  179.2051
 261  27.90326
 262  44.22598
 263  119.6328
 264  102.9696
 265  63.32485
 266  105.6902
 267  104.9199
 268  151.3635
 269  122.3951
 270  60.54312
 271  166.0947
 272  250.3933
 273  139.7188
 274  -87.35381
 275  189.9206
 276  340.2385
 277  147.4384
 278  -6.081451
 279  193.1315
 280  261.9096
 281  147.8751
 282  81.56063
 283  107.5349
 284  235.2204
 285  87.06817
 286  105.9753
 287  -34.26434
 288  -31.71478
 289  -63.84965
 290  28.57586
 291  118.449
 292  218.1039
 293  -5.44284
 294  8.178432
 295  139.3609
 296  222.3943
 297  264.6901
 298  216.9954
 299  11.52196
 300  42.84473
 301  203.0586
 302  242.1683
 303  248.3965
 304  247.3625
 305  195.0511
 306  121.8134
 307  107.0289
 308  180.9896
 309  105.0015
 310  -28.03955
 311  61.68461
 312  112.3664
 313  -12.03497
 314  -146.0543
 315  -144.55
 316  63.15984
 317  110.6406
 318  159.8267
 319  199.8514
 320  209.745
 321  124.682
 322  10.2087
 323  40.70847
 324  257.9981
 325  155.2082
 326  73.49245
 327  41.09363
 328  113.5913
 329  18.59301
 330  -11.59736
 331  14.56924
 332  -23.79214
 333  26.27625
 334  107.9799
 335  71.56734
 336  192.6335
 337  130.6198
 338  16.1941
 339  10.1163
 340  89.67042
 341  129.9803
 342  168.4391
 343  189.9284
 344  71.23051
 345  4.539806
 346  4.143017
 347  -23.70671
 348  118.8904
 349  86.10187
 350  122.6955
 351  62.62177
 352  -49.68483
 353  3.372457
 354  35.24411
 355  106.7
 356  71.06471
 357  145.7152
 358  136.1874
 359  -78.33722
 360  74.73226
 361  55.93617
 362  92.3324
 363  95.48212
 364  61.71955
 365  -91.6198
 366  -185.4349
 367  -83.43913
 368  100.3146
 369  85.99672
 370  102.3354
 371  69.27139
 372  139.0493
 373  43.51199
 374  -21.18992
 375  -22.87284
 376  99.78134
 377  136.0199
 378  206.4352
 379  136.8049
 380  94.38139
 381  115.5955
 382  91.9955
 383  39.95081
 384  4.370231
 385  40.67929
 386  85.96718
 387  114.0181
 388  153.3525
 389  157.0761
 390  71.36782
 391  130.2007
 392  142.9952
 393  190.0074
 394  128.7615
 395  36.44426
 396  91.70709
 397  36.37873
 398  124.8688
 399  147.5335
 400  109.9344
 401  135.0796
 402  116.1482
 403  96.76475
 404  42.25135
 405  85.46022
 406  57.87348
 407  72.46449
 408  124.7319
 409  20.90146
 410  -43.96185
 411  61.38919
 412  116.0773
 413  83.36818
 414  43.26876
 415  52.98904
 416  206.3932
 417  237.504
 418  119.0842
 419  174.6964
 420  145.9475
 421  -24.31754
 422  16.16792
 423  266.6346
 424  332.5895
 425  272.6989
 426  223.479
 427  108.4751
 428  3.129925
 429  49.60171
 430  49.30862
 431  21.18525
 432  88.27012
 433  163.0476
 434  111.5577
 435  54.56293
 436  180.8455
 437  181.0131
 438  142.3792
 439  117.0093
 440  111.8191
 441  95.04126
 442  150.3151
 443  40.84635
 444  -71.43282
 445  -19.70708
 446  87.38969
 447  101.483
 448  -18.91258
 449  -10.59321
 450  -2.919386
 451  103.6663
 452  -4.920228
 453  88.85574
 454  -43.93429
 455  -8.499312
 456  -45.71714
 457  -21.8018
 458  65.33846
 459  34.85381
 460  64.14571
 461  115.3281
 462  190.0336
 463  261.8072
 464  141.5281
 465  73.50949
 466  98.06889
 467  -14.58466
 468  1.926617
 469  107.8372
 470  127.2798
 471  39.37707
 472  16.57846
 473  4.281453
 474  -16.9036
 475  -45.87079
 476  62.58788
 477  23.0782
 478  39.38966
 479  23.21285
 480  57.9762
 481  74.39069
 482  138.9507
 483  45.22045
 484  4.008816
 485  144.8038
 486  117.9423
 487  217.3662
 488  105.436
 489  113.3267
 490  111.0834
 491  130.0843
 492  186.2089
 493  182.3777
 494  124.4442
 495  60.72764
 496  41.20707
 497  107.5174
 498  105.627
 499  62.49779
 500  45.47594
 501  109.9967
 502  143.6646
 503  220.3999
 504  82.92106
 505  173.5888
 506  255.007
 507  330.9617
 508  298.1679
 509  391.8924
 510  525.7599
 511  803.0915
