# Input file       =  1189470387.118155_cleaned.dat
# Candidate        =  PSR_0332+5434
# Telescope        =  AR
# Epoch_topo       =  58011.018161089756
# Epoch_bary       =  N/A
# T_sample         =  0.002
# Data Folded      =  7340032
# Data Avg         =  0.00349317194816851
# Data StdDev      =  1.00000033422784 
# Profile Bins     =  512
# Profile Avg      =  50.0881749807987 
# Profile StdDev   =  119.73307639488  
# Reduced chi-sqr  =  1.547
# Prob(Noise)      <  2.33e-14   (~7.5 sigma)
# P_topo (ms)      =  714.465882944999  +/- 0.000148
# P'_topo (s/s)    =  -0                +/- 7.82e-11
# P''_topo (s/s^2) =  0                 +/- 3.45e-14
# P_bary (ms)      =  N/A
# P'_bary (s/s)    =  N/A
# P''_bary (s/s^2) =  N/A
# P_orb (s)        =  N/A
# asin(i)/c (s)    =  N/A
# eccentricity     =  N/A
# w (rad)          =  N/A
# T_peri           =  N/A
######################################################
   0  694.8957
   1  577.3171
   2  425.256
   3  266.1144
   4  122.7125
   5  222.6463
   6  65.96422
   7  62.24041
   8  105.8767
   9  98.2888
  10  135.1513
  11  185.2068
  12  249.3044
  13  165.3223
  14  83.20939
  15  51.19651
  16  105.946
  17  70.77964
  18  3.650332
  19  -44.13734
  20  24.61557
  21  -14.67368
  22  -100.6065
  23  65.25059
  24  -65.30531
  25  -125.1144
  26  -95.34104
  27  90.27528
  28  -101.0066
  29  -146.9741
  30  36.08572
  31  17.02326
  32  45.40441
  33  101.794
  34  143.9914
  35  62.09992
  36  -47.88319
  37  45.16455
  38  63.569
  39  14.69523
  40  111.0562
  41  103.6489
  42  198.5519
  43  -92.10773
  44  -19.87215
  45  109.8953
  46  87.98869
  47  141.0467
  48  104.3934
  49  -52.95797
  50  -45.20107
  51  -43.68167
  52  43.26328
  53  41.2256
  54  67.76717
  55  212.2156
  56  267.1306
  57  33.19137
  58  -123.6425
  59  18.69337
  60  81.60794
  61  -37.01735
  62  72.19296
  63  34.19453
  64  -87.67332
  65  61.55035
  66  101.3723
  67  46.5481
  68  44.09076
  69  32.81834
  70  70.40521
  71  163.024
  72  210.6761
  73  169.1125
  74  189.7134
  75  99.36599
  76  2.02377
  77  120.0824
  78  215.9129
  79  198.6033
  80  182.9484
  81  2.683528
  82  11.01541
  83  99.06871
  84  275.161
  85  226.7374
  86  118.3881
  87  150.1377
  88  130.1261
  89  20.10623
  90  99.8862
  91  120.4662
  92  34.37187
  93  30.45799
  94  5.10699
  95  35.79259
  96  13.5038
  97  7.346446
  98  68.64131
  99  77.42081
 100  62.28369
 101  66.33894
 102  100.6751
 103  153.5851
 104  0.996563
 105  -14.97963
 106  26.04361
 107  -7.799269
 108  -0.3210913
 109  26.59441
 110  -21.99826
 111  -5.565958
 112  10.48499
 113  28.27108
 114  -28.1513
 115  -0.6361793
 116  131.598
 117  157.2806
 118  126.2785
 119  131.6988
 120  48.28513
 121  -28.3317
 122  100.1781
 123  -39.32053
 124  -54.66454
 125  -34.13511
 126  122.7101
 127  98.17986
 128  169.6383
 129  -1.413505
 130  -211.5981
 131  -100.4653
 132  -105.4542
 133  -10.70552
 134  -131.174
 135  1.528162
 136  126.9523
 137  69.06006
 138  30.5538
 139  -4.664828
 140  -40.34052
 141  -82.20969
 142  50.82646
 143  -142.3394
 144  -31.51189
 145  43.376
 146  97.29867
 147  128.0427
 148  -53.3194
 149  -124.1102
 150  8.066753
 151  41.20332
 152  107.6931
 153  116.9802
 154  -80.03838
 155  52.97745
 156  47.14646
 157  14.52224
 158  74.59847
 159  137.1846
 160  164.1307
 161  53.72834
 162  -91.33839
 163  43.08516
 164  -62.78333
 165  -152.1951
 166  63.02091
 167  257.1631
 168  210.6881
 169  39.72303
 170  117.6474
 171  11.6267
 172  -48.79765
 173  -89.69053
 174  -7.283862
 175  104.9508
 176  34.61689
 177  -60.16777
 178  29.12128
 179  154.5462
 180  98.67827
 181  -112.1726
 182  -174.6008
 183  74.69328
 184  96.51831
 185  -49.58894
 186  68.72524
 187  126.6977
 188  167.8372
 189  -16.19264
 190  38.34327
 191  -24.10491
 192  86.24358
 193  106.3582
 194  60.01813
 195  -5.014026
 196  51.80081
 197  207.5966
 198  105.4837
 199  -27.6335
 200  -1.612437
 201  -17.78781
 202  18.25098
 203  73.09675
 204  61.84771
 205  -4.462855
 206  39.92202
 207  -4.305052
 208  59.09421
 209  -5.325687
 210  -60.30958
 211  14.67109
 212  16.98716
 213  -48.16028
 214  -45.44007
 215  100.9244
 216  146.7853
 217  13.51671
 218  -128.5342
 219  4.889335
 220  4.87512
 221  28.84357
 222  82.84796
 223  -5.393406
 224  69.94437
 225  133.486
 226  9.083681
 227  -4.492941
 228  14.57643
 229  152.5345
 230  82.66782
 231  123.7777
 232  -85.53277
 233  -103.703
 234  70.91124
 235  92.62884
 236  -24.05924
 237  -66.43004
 238  -20.31116
 239  37.85943
 240  28.09929
 241  27.66061
 242  41.02536
 243  120.5658
 244  6.617504
 245  -97.30014
 246  -53.88856
 247  -67.16599
 248  -52.08407
 249  39.59257
 250  87.71363
 251  52.01677
 252  30.60796
 253  4.010421
 254  214.1694
 255  137.2292
 256  111.7245
 257  62.97967
 258  84.01871
 259  82.81392
 260  -25.19821
 261  -53.60095
 262  0.383956
 263  75.13306
 264  164.5829
 265  147.0294
 266  200.9497
 267  7.862838
 268  117.7412
 269  137.5326
 270  133.1129
 271  218.3577
 272  64.94854
 273  6.839433
 274  124.1985
 275  10.85325
 276  52.61784
 277  -4.028725
 278  22.13265
 279  -113.4811
 280  -187.2305
 281  13.12853
 282  -14.2567
 283  -42.48357
 284  153.5976
 285  -12.24739
 286  60.30291
 287  185.1235
 288  123.2908
 289  36.36119
 290  -5.842112
 291  95.71889
 292  40.80893
 293  24.73476
 294  198.3809
 295  184.3647
 296  139.2062
 297  94.56058
 298  32.0787
 299  47.5344
 300  -49.36388
 301  55.08614
 302  31.53665
 303  151.0063
 304  120.9477
 305  59.96453
 306  105.4063
 307  31.50642
 308  92.98978
 309  138.3849
 310  200.0375
 311  122.1306
 312  -19.75048
 313  -32.60214
 314  -107.9812
 315  56.12518
 316  30.13187
 317  -72.97382
 318  -15.20849
 319  51.56656
 320  -44.21987
 321  -91.85959
 322  -36.93584
 323  149.4085
 324  59.28077
 325  -42.01674
 326  -54.18029
 327  82.39867
 328  115.5362
 329  -194.705
 330  -117.3356
 331  -22.89701
 332  -21.33035
 333  62.42543
 334  34.66563
 335  -8.593165
 336  -132.4455
 337  -115.0329
 338  93.57317
 339  64.11108
 340  -31.5736
 341  -55.41848
 342  44.14083
 343  67.98311
 344  27.6316
 345  61.5135
 346  34.90064
 347  6.316173
 348  -1.194511
 349  -18.66404
 350  162.2759
 351  135.8777
 352  60.79684
 353  15.99209
 354  101.088
 355  125.3148
 356  134.1318
 357  123.5646
 358  -11.21284
 359  52.57621
 360  107.3264
 361  91.4257
 362  10.7241
 363  212.1005
 364  217.6776
 365  -111.6538
 366  5.109174
 367  19.38258
 368  44.61667
 369  40.09188
 370  14.96093
 371  123.4207
 372  51.44855
 373  55.30769
 374  149.9686
 375  77.07803
 376  9.022198
 377  -71.31973
 378  -75.10454
 379  -46.67925
 380  96.26556
 381  85.79935
 382  36.76112
 383  23.05779
 384  205.7873
 385  104.5123
 386  47.07175
 387  28.50371
 388  -23.23344
 389  -60.55595
 390  -10.22524
 391  49.92975
 392  111.4957
 393  95.96422
 394  17.58758
 395  58.73192
 396  95.76837
 397  -91.63316
 398  -60.42961
 399  68.19606
 400  -76.14769
 401  7.863539
 402  9.523405
 403  -59.4562
 404  -130.4591
 405  94.02813
 406  151.2573
 407  -12.14464
 408  73.84204
 409  267.3367
 410  268.2102
 411  94.54504
 412  50.03093
 413  4.833856
 414  -55.667
 415  -21.24339
 416  54.95412
 417  128.6678
 418  62.24917
 419  -50.60645
 420  22.01969
 421  31.70769
 422  54.57585
 423  1.614772
 424  36.41149
 425  -13.48715
 426  36.66494
 427  26.26582
 428  36.72107
 429  67.97289
 430  95.42283
 431  159.443
 432  100.6557
 433  -54.18708
 434  60.97768
 435  129.4265
 436  204.5631
 437  -41.24273
 438  5.989571
 439  -77.75345
 440  -5.935593
 441  -72.47378
 442  38.13699
 443  101.5334
 444  -22.29141
 445  -36.48252
 446  -31.23152
 447  -94.53953
 448  -72.88354
 449  53.17117
 450  -11.73315
 451  -118.3313
 452  16.29636
 453  117.3046
 454  -23.30105
 455  -83.79281
 456  93.27921
 457  96.33813
 458  0.8833653
 459  -118.7161
 460  -74.92529
 461  104.993
 462  55.1717
 463  -93.08552
 464  -46.03397
 465  4.014277
 466  1.834605
 467  28.43715
 468  87.38621
 469  113.7533
 470  64.5961
 471  69.55743
 472  -103.309
 473  -46.95621
 474  67.16132
 475  83.90965
 476  -32.85261
 477  -70.52221
 478  81.54874
 479  57.4385
 480  129.7418
 481  20.39704
 482  23.3237
 483  68.39238
 484  60.17775
 485  73.19595
 486  33.87639
 487  60.05692
 488  43.04166
 489  45.04408
 490  121.0045
 491  171.3923
 492  42.97213
 493  77.55981
 494  59.02314
 495  101.7842
 496  124.746
 497  61.0721
 498  65.8287
 499  192.4535
 500  22.41725
 501  20.99033
 502  29.12699
 503  103.0847
 504  77.56765
 505  128.9968
 506  150.1652
 507  111.6774
 508  260.3703
 509  590.8035
 510  778.7772
 511  834.6575
