# Input file       =  1189226738.107004_cleaned.dat
# Candidate        =  PSR_0332+5434
# Telescope        =  AR
# Epoch_topo       =  58008.198149386619
# Epoch_bary       =  N/A
# T_sample         =  0.002
# Data Folded      =  7340032
# Data Avg         =  0.00789069542371925
# Data StdDev      =  1.0000060837787  
# Profile Bins     =  512
# Profile Avg      =  113.091563873963 
# Profile StdDev   =  119.733764806062 
# Reduced chi-sqr  =  1.454
# Prob(Noise)      <  7.9e-11   (~6.4 sigma)
# P_topo (ms)      =  714.465476361084  +/- 0.000116
# P'_topo (s/s)    =  -0                +/- 6.12e-11
# P''_topo (s/s^2) =  0                 +/- 2.7e-14
# P_bary (ms)      =  N/A
# P'_bary (s/s)    =  N/A
# P''_bary (s/s^2) =  N/A
# P_orb (s)        =  N/A
# asin(i)/c (s)    =  N/A
# eccentricity     =  N/A
# w (rad)          =  N/A
# T_peri           =  N/A
######################################################
   0  937.8592
   1  770.8023
   2  558.7287
   3  362.2785
   4  394.6837
   5  169.3255
   6  134.2984
   7  119.7462
   8  20.48263
   9  -61.8134
  10  92.26774
  11  284.518
  12  136.0201
  13  218.2083
  14  327.3922
  15  202.7323
  16  166.5425
  17  219.428
  18  219.3396
  19  115.2757
  20  10.19641
  21  58.81736
  22  181.1047
  23  149.5699
  24  178.0303
  25  162.7158
  26  123.6975
  27  -36.89305
  28  -16.28382
  29  265.4992
  30  66.78396
  31  65.83601
  32  73.98789
  33  74.43227
  34  131.4693
  35  96.39261
  36  14.10176
  37  67.3592
  38  178.0038
  39  7.616322
  40  0.2462855
  41  120.8649
  42  76.88061
  43  20.3867
  44  159.2043
  45  244.751
  46  47.21262
  47  9.771877
  48  -54.42357
  49  4.882463
  50  109.5828
  51  151.4208
  52  101.718
  53  37.65152
  54  74.94234
  55  142.0428
  56  86.64021
  57  54.26522
  58  54.21485
  59  -54.44358
  60  80.73141
  61  78.01858
  62  211.5809
  63  151.3674
  64  112.6619
  65  51.90377
  66  19.48053
  67  199.9203
  68  89.51416
  69  154.1956
  70  191.7996
  71  291.8261
  72  265.8387
  73  100.1409
  74  123.0975
  75  59.07582
  76  169.9478
  77  262.5791
  78  282.9083
  79  101.0771
  80  110.1289
  81  266.448
  82  85.43094
  83  2.547598
  84  182.382
  85  292.6451
  86  194.7129
  87  128.0022
  88  48.62657
  89  -0.04375432
  90  -17.80004
  91  -34.56667
  92  107.7211
  93  231.539
  94  51.18686
  95  -40.66632
  96  70.02496
  97  79.99804
  98  -39.13942
  99  162.0867
 100  264.1029
 101  181.6704
 102  102.839
 103  55.8226
 104  56.70385
 105  108.4807
 106  104.0634
 107  91.17296
 108  13.5255
 109  288.8376
 110  125.3165
 111  0.3539611
 112  85.73746
 113  53.88427
 114  82.66179
 115  72.57553
 116  134.6141
 117  52.19607
 118  102.9478
 119  246.2925
 120  183.7599
 121  -67.73849
 122  38.70045
 123  88.37889
 124  87.66166
 125  -44.52765
 126  48.32383
 127  321.6379
 128  225.1093
 129  -21.39116
 130  78.01152
 131  20.46555
 132  -31.19972
 133  -89.82
 134  191.3857
 135  111.4575
 136  -65.06476
 137  89.71024
 138  42.97727
 139  58.9356
 140  187.6227
 141  162.659
 142  180.3591
 143  155.7341
 144  162.1642
 145  197.3769
 146  183.2518
 147  208.0249
 148  201.9598
 149  184.6049
 150  93.21223
 151  49.09428
 152  159.2908
 153  237.4524
 154  201.1328
 155  93.27865
 156  71.49284
 157  91.53881
 158  120.8171
 159  81.01291
 160  202.0924
 161  275.6854
 162  111.8266
 163  110.9872
 164  53.52707
 165  -40.26325
 166  20.54876
 167  111.4292
 168  174.2907
 169  171.6746
 170  108.3873
 171  152.6447
 172  72.31418
 173  81.21232
 174  140.1641
 175  167.4002
 176  232.2039
 177  211.7205
 178  121.2196
 179  215.8471
 180  -12.63212
 181  21.45032
 182  122.2664
 183  -55.49698
 184  -4.095894
 185  158.7709
 186  212.2138
 187  -5.802218
 188  -30.14193
 189  36.91611
 190  93.12527
 191  108.0358
 192  225.7944
 193  178.8238
 194  141.321
 195  174.5887
 196  -23.05738
 197  -84.40833
 198  26.45372
 199  98.46392
 200  93.66162
 201  217.5291
 202  20.87064
 203  120.3092
 204  145.7442
 205  -10.87418
 206  -88.55872
 207  -62.75462
 208  102.0436
 209  122.0077
 210  95.26342
 211  107.8519
 212  98.40134
 213  41.61585
 214  77.40563
 215  103.2063
 216  163.4536
 217  -9.665318
 218  19.16597
 219  111.1815
 220  76.90961
 221  152.9387
 222  -155.3826
 223  -81.25755
 224  52.7291
 225  96.98137
 226  15.79349
 227  67.22108
 228  93.38441
 229  85.78027
 230  101.3211
 231  139.8631
 232  81.9106
 233  76.12361
 234  115.8424
 235  117.4212
 236  111.1874
 237  140.3672
 238  109.6634
 239  -38.20409
 240  182.7256
 241  183.9812
 242  170.6616
 243  50.03802
 244  12.91189
 245  153.489
 246  134.3434
 247  177.1529
 248  42.18512
 249  87.30828
 250  103.216
 251  38.40285
 252  209.3205
 253  142.555
 254  113.4692
 255  155.5302
 256  172.8197
 257  113.2867
 258  77.75385
 259  98.32228
 260  170.064
 261  233.6651
 262  83.60022
 263  139.9456
 264  164.4038
 265  -24.5868
 266  -25.56166
 267  110.3413
 268  -6.859317
 269  -32.7453
 270  17.15262
 271  32.59938
 272  33.11143
 273  139.8095
 274  24.49131
 275  -39.62808
 276  84.9245
 277  124.8761
 278  205.758
 279  182.0794
 280  164.431
 281  -6.782588
 282  -53.80569
 283  62.3768
 284  151.5867
 285  2.059052
 286  156.0405
 287  193.6558
 288  102.9219
 289  176.3894
 290  146.857
 291  37.73895
 292  35.30768
 293  18.53609
 294  40.56271
 295  35.96408
 296  50.39447
 297  203.7296
 298  209.0225
 299  193.2854
 300  64.00867
 301  65.82384
 302  166.3105
 303  146.3061
 304  172.042
 305  109.993
 306  207.8143
 307  203.0763
 308  151.3642
 309  88.29309
 310  149.953
 311  79.04714
 312  -88.28163
 313  95.96935
 314  150.59
 315  253.7472
 316  245.4054
 317  79.52021
 318  62.73963
 319  113.5569
 320  77.49178
 321  58.87576
 322  -0.4317843
 323  149.431
 324  157.1518
 325  246.379
 326  221.2452
 327  122.7939
 328  60.01135
 329  103.9866
 330  69.48611
 331  187.0785
 332  165.649
 333  106.9926
 334  113.7305
 335  -53.37673
 336  33.05048
 337  35.72038
 338  -22.75437
 339  -23.26222
 340  67.21611
 341  95.04727
 342  4.101746
 343  80.93709
 344  275.9354
 345  162.7684
 346  112.0628
 347  62.93891
 348  105.5393
 349  21.99557
 350  149.0691
 351  197.8261
 352  99.34498
 353  61.81658
 354  92.83414
 355  103.7474
 356  121.044
 357  4.225031
 358  -0.03622057
 359  -47.2099
 360  99.35059
 361  84.13424
 362  60.14357
 363  205.7363
 364  91.37286
 365  35.87469
 366  23.70669
 367  31.79199
 368  9.71286
 369  94.63307
 370  229.4233
 371  82.00001
 372  -79.2605
 373  3.952502
 374  64.19428
 375  64.21104
 376  209.6843
 377  164.3447
 378  63.37612
 379  82.69399
 380  127.4252
 381  218.0488
 382  94.11208
 383  10.04158
 384  115.1757
 385  136.9134
 386  122.1101
 387  -11.33356
 388  4.368056
 389  166.0339
 390  85.07389
 391  39.61038
 392  -5.111602
 393  141.7735
 394  59.22425
 395  125.3443
 396  162.3442
 397  30.46094
 398  160.055
 399  253.3864
 400  134.1459
 401  10.77634
 402  102.8749
 403  -9.877615
 404  66.55128
 405  84.10725
 406  72.90395
 407  115.8314
 408  122.5026
 409  105.9952
 410  174.2656
 411  164.7492
 412  249.7409
 413  96.44037
 414  151.0621
 415  115.3377
 416  147.2719
 417  189.5582
 418  200.1865
 419  159.8181
 420  135.1442
 421  93.57655
 422  33.51663
 423  96.60661
 424  137.9902
 425  82.39555
 426  96.34178
 427  105.6224
 428  93.80433
 429  93.97608
 430  86.06045
 431  144.3566
 432  211.0422
 433  165.2134
 434  -40.54221
 435  -39.88699
 436  79.74426
 437  193.2983
 438  151.6085
 439  217.2946
 440  226.2909
 441  114.5741
 442  48.02657
 443  6.886032
 444  -33.1996
 445  -68.17554
 446  98.7188
 447  102.4372
 448  142.2807
 449  123.7983
 450  85.75265
 451  109.1365
 452  164.187
 453  153.4432
 454  101.8802
 455  186.2476
 456  223.0266
 457  260.9047
 458  61.15776
 459  107.814
 460  216.2403
 461  210.5908
 462  255.4216
 463  340.5216
 464  230.1551
 465  141.2524
 466  294.8866
 467  99.16115
 468  13.78477
 469  120.0544
 470  224.1526
 471  171.8724
 472  25.91198
 473  174.5869
 474  201.2634
 475  215.5219
 476  11.70476
 477  -6.93731
 478  12.2244
 479  51.93533
 480  60.56241
 481  121.5717
 482  181.0552
 483  27.82561
 484  48.72755
 485  38.57544
 486  50.26234
 487  136.2577
 488  56.86726
 489  34.31215
 490  74.25465
 491  196.8055
 492  79.97866
 493  106.462
 494  188.6595
 495  148.8201
 496  73.89745
 497  162.4148
 498  309.591
 499  171.3435
 500  79.50035
 501  152.635
 502  123.0191
 503  207.9887
 504  238.1857
 505  209.1415
 506  142.3921
 507  197.7437
 508  270.7856
 509  233.5947
 510  563.9567
 511  767.8414
