# Input file       =  1189901180.110496_cleaned.dat
# Candidate        =  PSR_0332+5434
# Telescope        =  AR
# Epoch_topo       =  58016.004191093707
# Epoch_bary       =  N/A
# T_sample         =  0.002
# Data Folded      =  7340032
# Data Avg         =  0.00722516777183705
# Data StdDev      =  1.00010807261668 
# Profile Bins     =  512
# Profile Avg      =  103.646111887933 
# Profile StdDev   =  119.745976239311 
# Reduced chi-sqr  =  1.546
# Prob(Noise)      <  2.55e-14   (~7.5 sigma)
# P_topo (ms)      =  714.467527832747  +/- 0.00022
# P'_topo (s/s)    =  -0                +/- 1.16e-10
# P''_topo (s/s^2) =  0                 +/- 5.13e-14
# P_bary (ms)      =  N/A
# P'_bary (s/s)    =  N/A
# P''_bary (s/s^2) =  N/A
# P_orb (s)        =  N/A
# asin(i)/c (s)    =  N/A
# eccentricity     =  N/A
# w (rad)          =  N/A
# T_peri           =  N/A
######################################################
   0  902.7869
   1  727.3298
   2  394.2274
   3  312.5404
   4  136.6551
   5  42.7807
   6  161.5318
   7  56.0183
   8  213.951
   9  241.1233
  10  94.77512
  11  116.8032
  12  117.0844
  13  91.72285
  14  88.55906
  15  184.9658
  16  108.4314
  17  91.46411
  18  189.7832
  19  112.337
  20  -11.44444
  21  11.2282
  22  218.4569
  23  53.84327
  24  116.0424
  25  191.7775
  26  190.2163
  27  162.4888
  28  181.7475
  29  132.9296
  30  56.74526
  31  54.26657
  32  252.2635
  33  281.8608
  34  54.23402
  35  102.8114
  36  126.129
  37  95.63511
  38  48.76368
  39  118.9118
  40  118.5138
  41  14.01153
  42  -5.651535
  43  58.81068
  44  84.27733
  45  13.50343
  46  147.697
  47  165.4198
  48  141.6196
  49  62.50517
  50  188.0962
  51  304.219
  52  150.3696
  53  85.31086
  54  117.7336
  55  134.111
  56  180.0791
  57  246.9685
  58  102.5395
  59  -40.71312
  60  6.487908
  61  139.2414
  62  -51.50359
  63  -183.5602
  64  79.24316
  65  194.7248
  66  131.5186
  67  188.2569
  68  177.9266
  69  94.32336
  70  200.3362
  71  305.0757
  72  44.99191
  73  122.5811
  74  201.1115
  75  106.5301
  76  49.30618
  77  167.3844
  78  203.5479
  79  119.4769
  80  92.9
  81  158.1619
  82  77.87436
  83  147.5629
  84  199.9573
  85  150.7406
  86  209.4082
  87  334.5344
  88  220.1513
  89  214.3776
  90  177.6391
  91  84.00053
  92  199.7054
  93  226.0013
  94  236.9548
  95  149.7665
  96  91.21561
  97  139.923
  98  150.4288
  99  81.26564
 100  94.15965
 101  86.00376
 102  72.7216
 103  35.88367
 104  151.1411
 105  147.5027
 106  263.6328
 107  244.0584
 108  171.7188
 109  131.6442
 110  176.2186
 111  104.5378
 112  116.9246
 113  137.378
 114  178.4293
 115  190.7115
 116  200.7997
 117  52.26965
 118  34.88816
 119  104.1905
 120  84.21408
 121  88.1487
 122  92.73498
 123  283.0206
 124  248.3224
 125  43.41407
 126  229.2756
 127  17.81861
 128  -59.46782
 129  69.22288
 130  68.0173
 131  108.9626
 132  39.86925
 133  130.8585
 134  77.43498
 135  -169.1883
 136  -20.936
 137  144.6871
 138  80.4053
 139  0.8034105
 140  173.12
 141  176.555
 142  254.0629
 143  136.4004
 144  147.9781
 145  184.8615
 146  94.70514
 147  27.12959
 148  -18.17243
 149  87.41252
 150  101.3268
 151  4.607212
 152  46.80846
 153  5.16829
 154  -21.78972
 155  127.2516
 156  244.25
 157  165.9333
 158  -32.38414
 159  -87.11788
 160  85.16827
 161  146.0154
 162  78.4936
 163  234.0886
 164  138.3668
 165  31.64082
 166  64.87096
 167  91.48968
 168  178.6937
 169  55.59042
 170  77.23369
 171  82.4278
 172  97.73607
 173  87.7619
 174  275.8293
 175  205.7241
 176  152.2741
 177  183.0916
 178  122.2383
 179  23.99813
 180  106.9051
 181  65.99397
 182  127.496
 183  131.5714
 184  35.42489
 185  -34.74378
 186  -90.38675
 187  61.28194
 188  108.3925
 189  87.41354
 190  77.1711
 191  89.92503
 192  9.643265
 193  60.19722
 194  122.4145
 195  65.1541
 196  40.21903
 197  -15.08191
 198  42.78974
 199  59.76121
 200  -9.897025
 201  197.9234
 202  142.8606
 203  93.65939
 204  167.3487
 205  124.3579
 206  162.3886
 207  245.6187
 208  122.7998
 209  37.83175
 210  -20.77302
 211  -38.51753
 212  42.47723
 213  -73.24678
 214  -101.5453
 215  -30.59578
 216  60.2892
 217  49.39991
 218  151.9898
 219  44.15299
 220  -27.92669
 221  48.35328
 222  109.483
 223  58.80924
 224  -7.626274
 225  82.0951
 226  165.4696
 227  49.72868
 228  29.61869
 229  -20.64752
 230  65.94726
 231  159.5329
 232  15.96421
 233  -56.13345
 234  80.1792
 235  153.5332
 236  82.93291
 237  112.6105
 238  68.89603
 239  87.85531
 240  241.7684
 241  221.6033
 242  219.3545
 243  145.9369
 244  76.44473
 245  65.76948
 246  77.40726
 247  260.1638
 248  145.1706
 249  32.49718
 250  27.88452
 251  -53.80424
 252  5.865955
 253  140.913
 254  141.1575
 255  53.29005
 256  17.08568
 257  46.45602
 258  111.7777
 259  177.5408
 260  138.9468
 261  53.54971
 262  31.51245
 263  229.6558
 264  157.7552
 265  60.67379
 266  91.85397
 267  98.56357
 268  60.46037
 269  -10.44371
 270  141.5039
 271  182.2498
 272  125.852
 273  14.66434
 274  81.7903
 275  163.5949
 276  79.33689
 277  98.47516
 278  122.164
 279  243.9561
 280  263.123
 281  92.01836
 282  18.70239
 283  109.0844
 284  165.0154
 285  28.81311
 286  -53.61655
 287  -9.609748
 288  42.46897
 289  -113.8325
 290  -23.88842
 291  55.16083
 292  -39.75926
 293  -14.59964
 294  14.74589
 295  169.0833
 296  139.1812
 297  50.31704
 298  171.9125
 299  173.6083
 300  31.02028
 301  -59.98768
 302  32.67327
 303  116.8517
 304  109.5821
 305  81.4856
 306  60.57736
 307  -74.66026
 308  -44.16393
 309  73.02585
 310  44.24748
 311  88.47723
 312  34.90373
 313  47.44905
 314  72.297
 315  152.845
 316  186.2246
 317  125.4835
 318  93.46613
 319  134.457
 320  -49.39032
 321  126.4235
 322  88.43658
 323  34.56178
 324  -96.8908
 325  -54.37759
 326  48.72528
 327  121.3207
 328  148.2618
 329  56.70556
 330  63.19727
 331  70.90566
 332  -129.6005
 333  -5.85796
 334  -0.9329128
 335  48.17545
 336  -21.45045
 337  16.05828
 338  15.46325
 339  101.0316
 340  117.99
 341  163.5245
 342  126.4808
 343  30.04804
 344  131.6223
 345  68.02796
 346  110.5337
 347  84.39901
 348  21.23785
 349  39.32185
 350  -76.18712
 351  -71.16724
 352  17.86246
 353  63.03129
 354  110.2786
 355  124.1983
 356  149.0661
 357  142.9202
 358  -6.237701
 359  -64.99987
 360  10.32472
 361  -111.1142
 362  -44.25871
 363  109.3768
 364  79.32729
 365  113.3039
 366  71.26775
 367  89.87099
 368  120.0501
 369  117.3504
 370  237.2297
 371  199.7373
 372  215.2952
 373  203.0818
 374  212.2844
 375  168.416
 376  114.6452
 377  -23.05026
 378  -117.4002
 379  41.76775
 380  211.2883
 381  180.1682
 382  109.1198
 383  21.28173
 384  101.0886
 385  137.7455
 386  -29.98236
 387  2.093271
 388  31.00451
 389  108.005
 390  55.85422
 391  5.449374
 392  100.9797
 393  171.5372
 394  243.8254
 395  91.96337
 396  -70.54733
 397  57.61631
 398  54.05556
 399  190.3081
 400  -73.02802
 401  -76.89748
 402  58.31396
 403  60.2558
 404  16.79381
 405  -103.4142
 406  -80.39686
 407  -4.221857
 408  71.63574
 409  146.2699
 410  106.3113
 411  83.46658
 412  14.00624
 413  7.422494
 414  -52.09682
 415  129.8581
 416  31.26838
 417  160.183
 418  278.1083
 419  118.2589
 420  142.9882
 421  215.9845
 422  172.9416
 423  35.01397
 424  -5.743567
 425  179.9084
 426  151.5659
 427  -56.93085
 428  146.5142
 429  294.0969
 430  239.2077
 431  150.9622
 432  59.36471
 433  132.2914
 434  119.5196
 435  131.6609
 436  -100.5381
 437  62.27026
 438  87.72253
 439  15.80238
 440  144.2871
 441  133.5744
 442  116.1055
 443  98.43533
 444  154.6205
 445  98.64373
 446  24.55843
 447  66.54031
 448  33.46291
 449  74.33734
 450  204.2847
 451  282.7562
 452  62.33289
 453  9.247675
 454  140.868
 455  98.78819
 456  171.5721
 457  182.6325
 458  161.3811
 459  107.819
 460  99.92805
 461  101.7261
 462  68.15188
 463  102.8671
 464  157.5641
 465  25.82988
 466  104.0594
 467  103.6706
 468  34.46925
 469  -110.1932
 470  135.2939
 471  253.1214
 472  196.743
 473  193.8053
 474  117.114
 475  -19.15843
 476  22.01567
 477  168.897
 478  72.9368
 479  -50.46173
 480  165.6192
 481  166.5846
 482  75.88103
 483  69.5187
 484  70.19283
 485  50.85696
 486  207.7848
 487  292.6579
 488  190.4544
 489  173.8056
 490  128.0608
 491  82.61867
 492  183.5995
 493  182.3895
 494  217.9908
 495  297.5241
 496  67.84708
 497  94.31129
 498  4.583109
 499  222.0603
 500  104.4795
 501  192.5533
 502  230.8311
 503  9.251017
 504  108.5929
 505  220.7588
 506  203.3272
 507  243.3536
 508  344.0305
 509  516.6926
 510  677.2786
 511  757.549
