# Input file       =  1189714279.113872_cleaned.dat
# Candidate        =  PSR_0332+5434
# Telescope        =  AR
# Epoch_topo       =  58013.840985114257
# Epoch_bary       =  N/A
# T_sample         =  0.002
# Data Folded      =  7143424
# Data Avg         =  0.0149003593947262
# Data StdDev      =  1.00013939412714 
# Profile Bins     =  512
# Profile Avg      =  207.881713138501 
# Profile StdDev   =  118.13504951885  
# Reduced chi-sqr  =  1.602
# Prob(Noise)      <  1.32e-16   (~8.2 sigma)
# P_topo (ms)      =  714.466746225875  +/- 0.000115
# P'_topo (s/s)    =  -0                +/- 6.21e-11
# P''_topo (s/s^2) =  0                 +/- 2.82e-14
# P_bary (ms)      =  N/A
# P'_bary (s/s)    =  N/A
# P''_bary (s/s^2) =  N/A
# P_orb (s)        =  N/A
# asin(i)/c (s)    =  N/A
# eccentricity     =  N/A
# w (rad)          =  N/A
# T_peri           =  N/A
######################################################
   0  946.6301
   1  1017.198
   2  834.5818
   3  392.2808
   4  203.587
   5  220.6331
   6  103.8886
   7  182.7044
   8  299.6013
   9  332.4881
  10  302.659
  11  307.1446
  12  213.9002
  13  112.2493
  14  150.8136
  15  161.6991
  16  257.382
  17  373.986
  18  304.3907
  19  249.6331
  20  291.0104
  21  266.1386
  22  259.2139
  23  328.6283
  24  393.0617
  25  376.6307
  26  233.6031
  27  225.1185
  28  136.3155
  29  186.7502
  30  177.1032
  31  150.5878
  32  199.3716
  33  382.3367
  34  300.3824
  35  205.67
  36  191.8543
  37  198.1181
  38  268.7761
  39  160.09
  40  259.3045
  41  395.1852
  42  385.802
  43  241.9376
  44  220.1061
  45  155.0625
  46  222.4846
  47  192.5665
  48  185.8208
  49  204.0176
  50  158.5391
  51  205.1838
  52  224.3894
  53  68.70051
  54  61.04204
  55  -26.10905
  56  184.9311
  57  132.4325
  58  161.149
  59  225.6772
  60  321.5418
  61  288.4782
  62  174.9316
  63  223.257
  64  411.8843
  65  312.9657
  66  151.7358
  67  109.4246
  68  144.777
  69  147.5426
  70  323.6683
  71  244.0253
  72  117.4683
  73  61.46352
  74  138.8815
  75  239.2318
  76  287.4029
  77  289.1884
  78  304.6287
  79  146.7612
  80  198.3817
  81  195.5574
  82  360.7024
  83  121.305
  84  157.7175
  85  153.4452
  86  149.6346
  87  62.65437
  88  123.3742
  89  247.9805
  90  323.1933
  91  225.2931
  92  133.2305
  93  74.82413
  94  79.54109
  95  203.7408
  96  126.8753
  97  299.8561
  98  182.7712
  99  305.3726
 100  351.4196
 101  302.5021
 102  323.5177
 103  296.1877
 104  114.6816
 105  246.3156
 106  191.9272
 107  181.1836
 108  315.1014
 109  304.5586
 110  227.7415
 111  213.5519
 112  314.4051
 113  134.582
 114  116.0696
 115  138.3078
 116  221.9485
 117  208.4995
 118  282.0909
 119  358.7904
 120  192.6334
 121  169.2047
 122  77.06761
 123  145.4316
 124  200.739
 125  165.7596
 126  194.8443
 127  282.402
 128  218.5147
 129  104.6646
 130  280.7471
 131  297.6033
 132  343.5262
 133  386.2873
 134  334.7268
 135  192.6975
 136  264.5627
 137  156.464
 138  123.3713
 139  260.4788
 140  402.2648
 141  340.5628
 142  258.3522
 143  351.2442
 144  316.9782
 145  236.5465
 146  107.5468
 147  269.0325
 148  318.8829
 149  256.801
 150  231.6044
 151  239.3245
 152  248.4075
 153  199.6701
 154  44.18218
 155  113.9977
 156  102.2208
 157  209.2874
 158  186.7235
 159  166.2119
 160  103.1984
 161  136.8984
 162  314.9081
 163  198.6118
 164  178.3258
 165  267.8473
 166  244.8788
 167  283.9619
 168  130.3027
 169  154.2411
 170  238.3284
 171  223.1948
 172  188.3121
 173  242.3844
 174  150.252
 175  205.8539
 176  207.9554
 177  120.0036
 178  204.481
 179  249.5473
 180  221.0821
 181  302.191
 182  175.5492
 183  107.6716
 184  236.6274
 185  139.5641
 186  127.655
 187  85.05573
 188  166.5053
 189  221.233
 190  132.182
 191  122.0214
 192  145.8653
 193  236.7149
 194  227.648
 195  208.8112
 196  56.16005
 197  86.26687
 198  174.7582
 199  281.0604
 200  273.5372
 201  246.3364
 202  308.9283
 203  284.5346
 204  228.8275
 205  229.9811
 206  157.0589
 207  182.5867
 208  165.6583
 209  131.168
 210  165.1512
 211  172.537
 212  144.4115
 213  224.7754
 214  317.4366
 215  313.1002
 216  124.6642
 217  104.5235
 218  46.03567
 219  99.6312
 220  160.1541
 221  90.05329
 222  120.1461
 223  123.9705
 224  147.9903
 225  145.2928
 226  158.561
 227  102.5576
 228  20.07817
 229  -109.9854
 230  39.37531
 231  228.3778
 232  307.8504
 233  251.932
 234  177.153
 235  92.74792
 236  72.54922
 237  127.4518
 238  68.40854
 239  19.45931
 240  54.1506
 241  192.2548
 242  209.6483
 243  118.9459
 244  144.3642
 245  212.1633
 246  177.9988
 247  83.73883
 248  268.5774
 249  177.1013
 250  188.501
 251  210.7689
 252  78.57233
 253  170.7853
 254  207.6184
 255  300.7141
 256  204.6477
 257  132.4303
 258  49.91631
 259  246.6159
 260  352.7773
 261  301.1352
 262  229.3612
 263  146.8088
 264  69.88033
 265  119.9218
 266  319.7412
 267  231.1361
 268  73.2286
 269  53.16261
 270  68.96575
 271  118.9701
 272  116.6447
 273  222.4747
 274  108.761
 275  20.00885
 276  70.71024
 277  165.3454
 278  65.16925
 279  199.9724
 280  317.6913
 281  332.8138
 282  374.4548
 283  287.3044
 284  194.8881
 285  245.7911
 286  162.53
 287  95.24839
 288  150.5057
 289  338.4529
 290  313.7809
 291  210.7374
 292  103.4777
 293  10.94037
 294  92.95113
 295  159.096
 296  190.7273
 297  68.71936
 298  262.5441
 299  308.7768
 300  283.744
 301  117.3453
 302  45.43863
 303  149.7921
 304  179.143
 305  156.3938
 306  285.7133
 307  315.014
 308  150.4768
 309  180.8386
 310  159.9076
 311  241.3143
 312  124.2367
 313  218.5863
 314  131.7624
 315  61.18406
 316  182.7445
 317  174.1673
 318  200.4247
 319  188.3897
 320  154.5343
 321  2.149095
 322  234.4222
 323  231.3043
 324  159.4151
 325  154.8399
 326  171.2174
 327  220.2585
 328  128.3608
 329  231.7419
 330  232.8847
 331  183.6421
 332  276.702
 333  177.8537
 334  135.3183
 335  137.2056
 336  36.70543
 337  149.6935
 338  63.01056
 339  -13.83904
 340  84.39221
 341  202.4489
 342  177.1589
 343  166.6798
 344  178.043
 345  119.5632
 346  121.7941
 347  183.917
 348  146.4272
 349  113.9851
 350  156.3004
 351  205.3342
 352  190.051
 353  230.4072
 354  151.8933
 355  225.9196
 356  285.9988
 357  120.5532
 358  70.88071
 359  256.1452
 360  224.1575
 361  213.7356
 362  307.4276
 363  296.7165
 364  114.9288
 365  42.05495
 366  217.3824
 367  277.8143
 368  280.0897
 369  93.10258
 370  123.2673
 371  128.6873
 372  154.1574
 373  189.7364
 374  145.7254
 375  195.7554
 376  166.065
 377  208.1503
 378  183.0334
 379  219.9229
 380  208.5206
 381  123.4055
 382  139.7599
 383  154.6722
 384  122.9459
 385  194.8965
 386  244.2023
 387  243.6987
 388  176.9569
 389  183.8472
 390  232.4385
 391  190.5998
 392  240.3393
 393  174.5098
 394  200.6928
 395  358.4262
 396  197.8225
 397  175.8964
 398  236.1058
 399  282.1902
 400  139.4127
 401  99.71244
 402  230.0969
 403  211.4633
 404  207.6022
 405  300.6979
 406  249.8879
 407  189.454
 408  256.7645
 409  157.3771
 410  234.9205
 411  218.3392
 412  226.142
 413  274.4634
 414  224.0685
 415  302.7437
 416  215.9393
 417  238.5977
 418  197.205
 419  178.6422
 420  200.7104
 421  195.9544
 422  369.2457
 423  312.5963
 424  134.2235
 425  205.2148
 426  170.298
 427  127.2134
 428  188.4898
 429  188.2763
 430  344.1223
 431  343.4662
 432  371.822
 433  373.8536
 434  242.0088
 435  129.9568
 436  103.8516
 437  122.0426
 438  177.7454
 439  295.8735
 440  322.4006
 441  158.0874
 442  106.855
 443  143.3242
 444  38.09554
 445  214.5378
 446  286.644
 447  260.6488
 448  231.6417
 449  185.431
 450  201.7613
 451  247.8712
 452  272.5684
 453  314.3856
 454  349.1617
 455  307.5085
 456  145.326
 457  181.6678
 458  188.3886
 459  224.2209
 460  239.1332
 461  221.8366
 462  223.7608
 463  354.5198
 464  363.3368
 465  226.5075
 466  194.2217
 467  101.6648
 468  253.1198
 469  220.0867
 470  244.7012
 471  300.9676
 472  294.21
 473  242.3454
 474  320.7856
 475  389.5153
 476  362.2044
 477  147.8905
 478  80.57153
 479  191.8379
 480  163.5886
 481  222.4559
 482  149.2803
 483  171.8949
 484  187.7453
 485  154.2977
 486  60.29156
 487  133.3925
 488  196.2412
 489  192.5504
 490  41.48969
 491  82.28812
 492  118.5285
 493  88.9953
 494  173.1149
 495  296.8656
 496  334.0025
 497  91.82664
 498  195.4201
 499  104.0951
 500  245.0758
 501  331.286
 502  293.4829
 503  316.7542
 504  257.9602
 505  343.0487
 506  376.616
 507  323.8864
 508  437.023
 509  453.8013
 510  612.9322
 511  890.8646
