# Input file       =  1189800420.117078_cleaned.dat
# Candidate        =  PSR_0332+5434
# Telescope        =  AR
# Epoch_topo       =  58014.837987466184
# Epoch_bary       =  N/A
# T_sample         =  0.002
# Data Folded      =  7143424
# Data Avg         =  0.00794506004875864
# Data StdDev      =  1.00008247292257 
# Profile Bins     =  512
# Profile Avg      =  110.838961551366 
# Profile StdDev   =  118.128326066739 
# Reduced chi-sqr  =  1.535
# Prob(Noise)      <  7.12e-14   (~7.4 sigma)
# P_topo (ms)      =  714.467089834663  +/- 0.000236
# P'_topo (s/s)    =  -0                +/- 1.28e-10
# P''_topo (s/s^2) =  0                 +/- 5.81e-14
# P_bary (ms)      =  N/A
# P'_bary (s/s)    =  N/A
# P''_bary (s/s^2) =  N/A
# P_orb (s)        =  N/A
# asin(i)/c (s)    =  N/A
# eccentricity     =  N/A
# w (rad)          =  N/A
# T_peri           =  N/A
######################################################
   0  890.9504
   1  841.3573
   2  631.0274
   3  278.4106
   4  187.1022
   5  115.244
   6  118.1556
   7  132.7749
   8  151.8877
   9  108.3936
  10  20.8017
  11  132.573
  12  163.1306
  13  20.55188
  14  75.25696
  15  181.6619
  16  285.1715
  17  234.9496
  18  158.4905
  19  92.04602
  20  52.01665
  21  168.185
  22  221.6939
  23  124.6869
  24  64.01277
  25  143.2036
  26  274.3455
  27  347.8715
  28  157.5973
  29  -74.60878
  30  79.27448
  31  187.0301
  32  175.4868
  33  4.958043
  34  146.1901
  35  192.1797
  36  135.1841
  37  101.3059
  38  114.5704
  39  180.4269
  40  132.3545
  41  78.33649
  42  90.67074
  43  57.89597
  44  135.1703
  45  208.8265
  46  220.8528
  47  25.50819
  48  120.1296
  49  135.2998
  50  -27.58523
  51  72.00598
  52  89.3419
  53  7.790996
  54  61.7721
  55  120.0869
  56  72.89528
  57  24.40565
  58  2.352122
  59  130.0481
  60  141.983
  61  101.0842
  62  6.103189
  63  15.38593
  64  -118.7874
  65  -40.48763
  66  -84.95878
  67  -50.61119
  68  40.72725
  69  66.89973
  70  79.47996
  71  160.4197
  72  137.6609
  73  110.0627
  74  51.53495
  75  101.5589
  76  67.36773
  77  35.42749
  78  106.2695
  79  3.377636
  80  178.839
  81  129.3385
  82  161.1332
  83  239.3072
  84  265.1418
  85  83.33154
  86  125.8252
  87  165.0266
  88  -10.47421
  89  47.01017
  90  225.6008
  91  190.5847
  92  194.758
  93  71.8561
  94  37.73333
  95  126.331
  96  96.75864
  97  158.3176
  98  98.72008
  99  133.4764
 100  175.5364
 101  18.26545
 102  79.67162
 103  154.1143
 104  132.2468
 105  19.79819
 106  76.26018
 107  -9.254379
 108  187.9168
 109  240.689
 110  105.313
 111  -61.46661
 112  134.3438
 113  116.5951
 114  104.9985
 115  21.70839
 116  123.7358
 117  107.3669
 118  -2.190906
 119  -15.93938
 120  68.92346
 121  193.2249
 122  142.2302
 123  -29.43463
 124  46.59986
 125  31.26306
 126  75.43478
 127  59.62521
 128  66.7446
 129  67.81321
 130  67.83172
 131  74.44296
 132  4.286023
 133  91.68433
 134  109.3776
 135  -2.674884
 136  -9.637975
 137  162.7395
 138  170.1987
 139  176.2888
 140  120.1499
 141  137.3904
 142  91.45721
 143  59.90668
 144  77.15684
 145  57.34602
 146  48.15867
 147  144.0965
 148  166.3128
 149  202.692
 150  42.70835
 151  37.86882
 152  221.1831
 153  227.3922
 154  148.0164
 155  104.73
 156  -15.26426
 157  -16.53632
 158  156.3847
 159  77.85622
 160  113.3211
 161  140.8958
 162  185.793
 163  205.9569
 164  208.6201
 165  123.1646
 166  174.8911
 167  256.696
 168  33.84509
 169  36.65218
 170  82.03367
 171  18.87486
 172  119.8412
 173  98.55372
 174  158.8904
 175  180.5042
 176  245.1022
 177  126.2535
 178  82.32483
 179  80.48301
 180  -18.47326
 181  50.11736
 182  134.5845
 183  179.959
 184  63.06155
 185  -32.75763
 186  35.03315
 187  40.75015
 188  162.5543
 189  120.6034
 190  51.49251
 191  76.80853
 192  101.3107
 193  183.8909
 194  63.03631
 195  105.8716
 196  128.5729
 197  115.1966
 198  154.8263
 199  168.8808
 200  117.2399
 201  -10.292
 202  98.17155
 203  72.68569
 204  -56.18753
 205  43.6691
 206  108.9268
 207  80.6944
 208  134.18
 209  110.7958
 210  98.45955
 211  75.23898
 212  87.35878
 213  -26.05915
 214  123.7621
 215  181.302
 216  179.0955
 217  32.55019
 218  47.46003
 219  137.1332
 220  232.9272
 221  143.5579
 222  60.70081
 223  79.92412
 224  120.6241
 225  127.6695
 226  64.11735
 227  39.7311
 228  68.3133
 229  146.6087
 230  102.6537
 231  64.35626
 232  95.74628
 233  -3.716466
 234  -65.75957
 235  -3.796834
 236  75.47818
 237  110.946
 238  150.62
 239  190.8878
 240  4.263439
 241  -89.31247
 242  9.21866
 243  60.36935
 244  111.2672
 245  168.4507
 246  210.1788
 247  178.6937
 248  217.3614
 249  157.1951
 250  97.30075
 251  -2.85913
 252  -14.32974
 253  121.8997
 254  231.8881
 255  249.8384
 256  180.3978
 257  138.1465
 258  43.18049
 259  27.32597
 260  163.9847
 261  162.1719
 262  120.0635
 263  194.7079
 264  207.3978
 265  141.1902
 266  148.654
 267  130.9846
 268  98.46327
 269  7.17741
 270  62.95621
 271  100.8499
 272  58.66837
 273  119.5903
 274  81.27567
 275  -73.63475
 276  17.18247
 277  140.6483
 278  154.6275
 279  178.3108
 280  125.7841
 281  137.9039
 282  67.472
 283  34.68276
 284  137.7948
 285  103.8386
 286  148.2153
 287  175.2036
 288  117.1805
 289  80.01727
 290  134.9327
 291  260.6555
 292  213.2069
 293  84.84739
 294  61.28498
 295  187.9597
 296  213.7162
 297  137.1863
 298  109.4217
 299  117.3118
 300  86.79059
 301  100.6812
 302  -6.901542
 303  19.36608
 304  120.9883
 305  -6.775631
 306  -3.968604
 307  97.24575
 308  182.4691
 309  172.3909
 310  149.3541
 311  62.53609
 312  203.8032
 313  165.1961
 314  78.32729
 315  -15.1943
 316  18.35697
 317  -61.28794
 318  -30.38989
 319  -14.50164
 320  151.5783
 321  113.4617
 322  -24.97244
 323  37.54006
 324  17.24867
 325  -28.87809
 326  9.762322
 327  143.4964
 328  122.4344
 329  74.59612
 330  14.72495
 331  65.6656
 332  119.9616
 333  171.4521
 334  142.9068
 335  191.9649
 336  21.43601
 337  76.19558
 338  156.6578
 339  193.9122
 340  195.3803
 341  243.1062
 342  181.9087
 343  159.5713
 344  213.5352
 345  158.2977
 346  50.51046
 347  86.24334
 348  219.893
 349  104.5307
 350  55.46905
 351  54.18757
 352  75.12852
 353  42.07684
 354  28.70997
 355  105.5319
 356  149.4215
 357  139.9611
 358  -46.69947
 359  -66.55151
 360  175.0402
 361  289.8967
 362  121.397
 363  210.567
 364  147.0034
 365  81.31628
 366  113.3959
 367  160.6514
 368  72.49236
 369  6.66555
 370  11.78377
 371  -31.94919
 372  -114.2254
 373  35.61154
 374  130.7013
 375  25.94729
 376  2.230654
 377  104.0989
 378  57.09877
 379  78.91458
 380  89.61709
 381  140.3902
 382  222.0881
 383  135.3264
 384  -2.85213
 385  21.22673
 386  81.80505
 387  142.3956
 388  138.4954
 389  350.6322
 390  177.7424
 391  159.5568
 392  125.0816
 393  225.5958
 394  122.5576
 395  181.9345
 396  264.5063
 397  189.8935
 398  135.0525
 399  116.0047
 400  87.75381
 401  186.5014
 402  197.5981
 403  198.7966
 404  188.763
 405  78.35625
 406  143.4346
 407  66.60641
 408  148.0908
 409  98.04208
 410  125.6415
 411  181.5638
 412  222.6215
 413  90.44401
 414  45.06381
 415  99.11752
 416  64.49843
 417  35.54292
 418  19.00797
 419  45.64439
 420  116.8179
 421  200.0212
 422  142.0427
 423  54.2352
 424  105.9017
 425  172.9914
 426  63.7227
 427  43.11507
 428  73.33285
 429  131.1632
 430  232.7081
 431  313.2475
 432  121.579
 433  25.01039
 434  26.73844
 435  62.84715
 436  154.3705
 437  -34.79248
 438  -18.71897
 439  141.7033
 440  221.1303
 441  214.7747
 442  214.8052
 443  214.9667
 444  -24.17035
 445  -7.053398
 446  64.41756
 447  254.1106
 448  87.99992
 449  67.87868
 450  130.4026
 451  108.7971
 452  98.74673
 453  160.6815
 454  215.2567
 455  174.4809
 456  266.6829
 457  113.874
 458  142.7012
 459  244.9881
 460  159.4511
 461  39.26201
 462  103.6161
 463  70.16765
 464  -115.122
 465  -147.6401
 466  -20.46843
 467  110.3846
 468  143.0454
 469  44.97453
 470  -10.45372
 471  94.44348
 472  -0.1665374
 473  25.42374
 474  81.70924
 475  145.3946
 476  181.4027
 477  166.4762
 478  118.2017
 479  -48.14164
 480  20.02383
 481  151.3392
 482  101.983
 483  70.30924
 484  98.94172
 485  -34.99707
 486  -116.3403
 487  -49.03606
 488  96.89159
 489  89.83924
 490  -74.7049
 491  -41.13296
 492  66.70935
 493  121.2583
 494  135.1355
 495  103.8771
 496  -23.74679
 497  65.01979
 498  278.1477
 499  166.1668
 500  62.10435
 501  104.9299
 502  202.3833
 503  237.4885
 504  171.7804
 505  185.4906
 506  144.8643
 507  311.5145
 508  329.9355
 509  347.8659
 510  693.9922
 511  888.7753
