# Input file       =  1189197207.127362_cleaned.dat
# Candidate        =  PSR_0332+5434
# Telescope        =  AR
# Epoch_topo       =  58007.856355640761
# Epoch_bary       =  N/A
# T_sample         =  0.002
# Data Folded      =  7208960
# Data Avg         =  0.0159510115991496
# Data StdDev      =  1.00003732583268 
# Profile Bins     =  512
# Profile Avg      =  224.592035528125 
# Profile StdDev   =  118.663604846073 
# Reduced chi-sqr  =  1.424
# Prob(Noise)      <  8.72e-10   (~6.0 sigma)
# P_topo (ms)      =  714.465048775972  +/- 0.000177
# P'_topo (s/s)    =  -0                +/- 9.51e-11
# P''_topo (s/s^2) =  0                 +/- 4.27e-14
# P_bary (ms)      =  N/A
# P'_bary (s/s)    =  N/A
# P''_bary (s/s^2) =  N/A
# P_orb (s)        =  N/A
# asin(i)/c (s)    =  N/A
# eccentricity     =  N/A
# w (rad)          =  N/A
# T_peri           =  N/A
######################################################
   0  969.6458
   1  958.9721
   2  755.6785
   3  519.1414
   4  400.5115
   5  231.6276
   6  245.1878
   7  284.2937
   8  243.7003
   9  125.4151
  10  280.8299
  11  386.8666
  12  345.5387
  13  324.5385
  14  257.7775
  15  264.0927
  16  280.6888
  17  261.4724
  18  239.1909
  19  231.6099
  20  248.4528
  21  287.9027
  22  201.3648
  23  117.7195
  24  269.3767
  25  261.1243
  26  216.8014
  27  295.9248
  28  430.5452
  29  269.347
  30  8.837262
  31  115.4529
  32  250.4644
  33  227.0448
  34  239.5306
  35  319.923
  36  261.6154
  37  248.441
  38  234.8901
  39  238.5375
  40  240.5497
  41  174.0579
  42  284.4009
  43  204.1035
  44  201.0409
  45  254.7806
  46  191.2004
  47  185.9391
  48  257.8492
  49  261.8014
  50  254.8909
  51  278.3727
  52  259.499
  53  341.4902
  54  225.9327
  55  221.7991
  56  323.5141
  57  330.3542
  58  209.1911
  59  149.2285
  60  136.7336
  61  258.8927
  62  220.085
  63  130.9213
  64  64.54037
  65  213.6771
  66  374.5277
  67  266.2374
  68  62.19212
  69  50.76315
  70  100.5676
  71  156.3614
  72  239.1992
  73  197.1289
  74  314.2335
  75  216.964
  76  247.0767
  77  179.8063
  78  209.6298
  79  266.9529
  80  236.4087
  81  135.1298
  82  137.5064
  83  110.6499
  84  196.2491
  85  131.8143
  86  179.7582
  87  129.5168
  88  197.5875
  89  159.2256
  90  250.7116
  91  214.4381
  92  177.6095
  93  335.9877
  94  260.3
  95  342.4684
  96  303.2554
  97  215.8987
  98  130.9116
  99  228.962
 100  409.0383
 101  228.572
 102  277.7554
 103  203.5347
 104  133.1967
 105  251.9607
 106  177.8867
 107  119.3739
 108  327.8322
 109  263.7323
 110  270.933
 111  215.799
 112  199.2408
 113  294.3993
 114  277.2458
 115  192.0649
 116  281.0721
 117  282.8433
 118  140.3692
 119  149.4761
 120  245.6656
 121  208.9688
 122  148.884
 123  189.0172
 124  202.8557
 125  99.61227
 126  42.26968
 127  124.4455
 128  135.0437
 129  339.4861
 130  252.8918
 131  195.7641
 132  159.0204
 133  220.8135
 134  213.2945
 135  312.5691
 136  175.4959
 137  127.3776
 138  188.4055
 139  157.5913
 140  295.3412
 141  277.0291
 142  162.4244
 143  79.72592
 144  243.6825
 145  175.759
 146  51.72534
 147  85.76842
 148  286.287
 149  275.8696
 150  368.0915
 151  328.0631
 152  267.214
 153  203.0429
 154  183.9028
 155  151.1293
 156  116.7248
 157  163.9571
 158  158.6248
 159  116.7366
 160  39.99666
 161  222.4221
 162  255.3613
 163  43.00966
 164  11.56901
 165  34.48653
 166  165.6225
 167  87.23244
 168  227.4102
 169  223.0302
 170  151.2016
 171  188.2309
 172  214.3371
 173  145.2527
 174  157.4009
 175  343.1202
 176  281.5284
 177  125.7597
 178  132.1619
 179  316.0677
 180  358.8257
 181  249.3906
 182  262.4947
 183  265.7832
 184  226.112
 185  204.3498
 186  150.5462
 187  299.1055
 188  322.314
 189  434.5782
 190  279.1752
 191  172.6433
 192  78.12966
 193  73.96793
 194  80.90714
 195  234.2037
 196  334.5617
 197  307.9003
 198  218.8628
 199  194.4535
 200  196.7504
 201  61.77823
 202  20.34198
 203  97.11021
 204  215.5427
 205  276.8985
 206  290.1494
 207  177.4406
 208  169.6048
 209  104.3678
 210  186.9734
 211  228.6658
 212  203.8526
 213  218.6294
 214  185.7895
 215  284.8165
 216  161.4646
 217  138.5701
 218  205.3483
 219  144.1954
 220  142.8173
 221  159.2195
 222  191.4392
 223  168.0063
 224  65.28012
 225  136.2892
 226  199.7697
 227  170.8479
 228  142.2699
 229  209.23
 230  246.3712
 231  205.8883
 232  229.0086
 233  187.2829
 234  290.4687
 235  291.1277
 236  221.907
 237  209.6651
 238  191.8441
 239  235.4421
 240  299.7968
 241  213.0068
 242  157.9374
 243  244.7933
 244  417.6372
 245  313.7799
 246  308.5541
 247  217.2691
 248  246.6759
 249  139.2569
 250  199.0792
 251  230.2292
 252  138.8039
 253  214.142
 254  240.2462
 255  260.2598
 256  280.3477
 257  184.9469
 258  165.7113
 259  250.7524
 260  290.5669
 261  204.2207
 262  276.9051
 263  183.5153
 264  171.0742
 265  68.40788
 266  77.1651
 267  215.9492
 268  186.9778
 269  120.6635
 270  138.6812
 271  124.7346
 272  133.9033
 273  153.0777
 274  108.891
 275  141.4285
 276  189.5272
 277  193.5222
 278  243.4473
 279  227.6187
 280  240.4244
 281  272.7708
 282  284.8068
 283  189.0551
 284  97.17734
 285  218.513
 286  318.0652
 287  205.2407
 288  97.63544
 289  158.8391
 290  151.113
 291  87.69538
 292  172.994
 293  209.5049
 294  187.8004
 295  165.9995
 296  294.6989
 297  389.7849
 298  321.1513
 299  161.3819
 300  153.7451
 301  231.7434
 302  186.7852
 303  167.6678
 304  137.6832
 305  101.493
 306  243.5503
 307  244.6255
 308  111.775
 309  90.59312
 310  147.4751
 311  330.2955
 312  335.6572
 313  138.4302
 314  105.296
 315  246.8444
 316  262.6434
 317  83.12946
 318  160.4878
 319  186.0467
 320  329.1995
 321  222.2016
 322  253.4753
 323  223.317
 324  105.4382
 325  106.409
 326  253.214
 327  279.821
 328  243.1263
 329  271.5829
 330  264.7883
 331  292.4705
 332  206.6747
 333  364.7413
 334  364.0345
 335  219.6598
 336  180.2827
 337  246.5758
 338  184.9382
 339  104.8801
 340  286.9092
 341  299.2804
 342  442.357
 343  345.8559
 344  199.4211
 345  154.8051
 346  142.6864
 347  84.48412
 348  126.4426
 349  276.1366
 350  329.7974
 351  376.3552
 352  226.0847
 353  208.9334
 354  245.1103
 355  190.9384
 356  208.1058
 357  213.6095
 358  311.6907
 359  275.4173
 360  267.2829
 361  158.9865
 362  178.4149
 363  84.52222
 364  97.702
 365  133.0991
 366  165.1735
 367  245.4136
 368  153.1561
 369  247.1107
 370  244.3875
 371  246.5505
 372  192.9639
 373  228.1211
 374  215.5862
 375  159.8418
 376  349.5516
 377  272.6573
 378  294.6815
 379  157.5715
 380  150.9358
 381  296.8211
 382  267.4695
 383  177.5621
 384  141.1362
 385  203.6929
 386  232.1034
 387  292.8962
 388  261.4891
 389  163.8402
 390  230.9514
 391  293.3466
 392  403.9059
 393  237.3893
 394  46.12918
 395  258.9023
 396  303.8231
 397  283.92
 398  252.3524
 399  247.4938
 400  235.7119
 401  233.4093
 402  271.8665
 403  196.7584
 404  411.0882
 405  344.5893
 406  243.2281
 407  234.1712
 408  310.0535
 409  180.5529
 410  242.5184
 411  220.4005
 412  357.6031
 413  179.8333
 414  157.755
 415  155.0302
 416  145.5013
 417  96.23233
 418  297.9344
 419  304.8258
 420  429.4777
 421  245.103
 422  319.4908
 423  191.4193
 424  137.784
 425  193.1536
 426  99.26173
 427  87.75918
 428  242.4425
 429  221.3661
 430  115.8076
 431  278.0483
 432  192.1921
 433  189.8786
 434  130.1172
 435  159.4463
 436  258.8916
 437  183.3048
 438  248.9623
 439  255.0685
 440  188.5779
 441  206.5294
 442  162.3818
 443  300.4843
 444  163.1273
 445  114.9577
 446  188.92
 447  202.8405
 448  114.9717
 449  103.267
 450  98.53816
 451  239.3882
 452  408.0537
 453  224.5699
 454  247.6169
 455  184.9431
 456  215.1684
 457  328.8518
 458  231.452
 459  172.6465
 460  198.8335
 461  212.3843
 462  176.163
 463  97.15294
 464  174.5763
 465  301.2479
 466  278.6652
 467  332.3341
 468  349.9325
 469  217.2475
 470  183.3222
 471  271.7004
 472  177.1866
 473  192.3976
 474  361.4507
 475  316.9686
 476  263.5435
 477  245.3448
 478  265.2271
 479  197.4616
 480  168.9298
 481  102.4737
 482  85.72961
 483  269.7253
 484  360.1105
 485  279.2547
 486  271.5252
 487  180.568
 488  183.5839
 489  184.9802
 490  150.2966
 491  348.7693
 492  359.2729
 493  338.3271
 494  284.6232
 495  278.3489
 496  377.5252
 497  212.5372
 498  220.0944
 499  248.1585
 500  188.1872
 501  146.6687
 502  276.2257
 503  243.7785
 504  243.4104
 505  201.7761
 506  253.6564
 507  396.4759
 508  323.7202
 509  592.1006
 510  726.5305
 511  837.1606
