# Input file       =  1189140557.120794_cleaned.dat
# Candidate        =  PSR_0332+5434
# Telescope        =  AR
# Epoch_topo       =  58007.200684268450
# Epoch_bary       =  N/A
# T_sample         =  0.002
# Data Folded      =  7340032
# Data Avg         =  0.00839931845431312
# Data StdDev      =  1.00002819310591 
# Profile Bins     =  512
# Profile Avg      =  120.335634084387 
# Profile StdDev   =  119.736412022942 
# Reduced chi-sqr  =  1.230
# Prob(Noise)      <  0.000283   (~3.4 sigma)
# P_topo (ms)      =  714.465245956446  +/- 0.000336
# P'_topo (s/s)    =  -0                +/- 1.77e-10
# P''_topo (s/s^2) =  0                 +/- 7.83e-14
# P_bary (ms)      =  N/A
# P'_bary (s/s)    =  N/A
# P''_bary (s/s^2) =  N/A
# P_orb (s)        =  N/A
# asin(i)/c (s)    =  N/A
# eccentricity     =  N/A
# w (rad)          =  N/A
# T_peri           =  N/A
######################################################
   0  608.5839
   1  614.2343
   2  454.1199
   3  391.3084
   4  267.6612
   5  154.4381
   6  176.5612
   7  252.9604
   8  299.2977
   9  14.74829
  10  170.8274
  11  232.1366
  12  263.4459
  13  210.2547
  14  177.5945
  15  99.37306
  16  193.6362
  17  110.5535
  18  32.15231
  19  223.4396
  20  315.5161
  21  188.6496
  22  18.75793
  23  68.38384
  24  56.83686
  25  187.37
  26  220.9297
  27  185.879
  28  40.97759
  29  30.99405
  30  219.598
  31  324.2372
  32  147.6321
  33  201.2
  34  56.64116
  35  135.7491
  36  161.2112
  37  87.0816
  38  119.2455
  39  164.9351
  40  218.8578
  41  219.0412
  42  134.5212
  43  92.04678
  44  206.0454
  45  134.6711
  46  49.43615
  47  291.7817
  48  239.6421
  49  225.443
  50  250.4885
  51  47.34285
  52  -45.92289
  53  -43.6747
  54  44.52942
  55  114.0314
  56  -9.684595
  57  37.08699
  58  124.8718
  59  48.70652
  60  -29.11701
  61  85.52946
  62  138.2711
  63  153.7014
  64  -31.97425
  65  -17.34318
  66  -27.46576
  67  132.4324
  68  129.3623
  69  83.81081
  70  7.342937
  71  19.48122
  72  27.53518
  73  -88.75603
  74  -112.017
  75  -70.3933
  76  85.35401
  77  79.91769
  78  92.66148
  79  148.873
  80  123.729
  81  89.8176
  82  -5.376437
  83  58.83957
  84  -44.29268
  85  81.63907
  86  217.881
  87  155.4403
  88  231.0758
  89  230.8185
  90  81.39486
  91  125.2515
  92  76.32489
  93  184.4977
  94  121.2471
  95  -14.11159
  96  70.11158
  97  82.21249
  98  -38.05322
  99  65.89181
 100  129.778
 101  6.010365
 102  -36.15541
 103  -8.513898
 104  78.76172
 105  218.4614
 106  150.1097
 107  153.9645
 108  50.11794
 109  98.85307
 110  8.630086
 111  100.934
 112  88.55721
 113  126.9116
 114  138.7924
 115  75.54707
 116  122.7384
 117  178.4373
 118  183.0158
 119  233.7282
 120  234.7161
 121  213.882
 122  123.5949
 123  110.1094
 124  126.4954
 125  86.84889
 126  120.6895
 127  160.9017
 128  222.6261
 129  159.2782
 130  141.3419
 131  106.6532
 132  73.07597
 133  117.3203
 134  -77.57583
 135  -54.5604
 136  88.23653
 137  132.6248
 138  5.357126
 139  9.436283
 140  144.964
 141  60.72961
 142  -38.4173
 143  7.463706
 144  67.42773
 145  63.60949
 146  25.09865
 147  104.6763
 148  250.1336
 149  147.3062
 150  8.951657
 151  192.5819
 152  261.9239
 153  176.5716
 154  188.4904
 155  146.9555
 156  247.0052
 157  63.84983
 158  158.2051
 159  167.7776
 160  15.12107
 161  90.24204
 162  217.1701
 163  110.5678
 164  136.3068
 165  147.226
 166  196.5126
 167  1.477291
 168  20.84059
 169  131.4591
 170  218.1445
 171  225.2909
 172  75.90415
 173  91.0778
 174  -37.17907
 175  79.09554
 176  211.0359
 177  195.0309
 178  117.3913
 179  14.0096
 180  70.57782
 181  100.6264
 182  -6.690293
 183  30.34782
 184  167.5443
 185  158.8255
 186  144.3324
 187  196.4658
 188  182.4999
 189  96.83772
 190  162.6175
 191  96.92314
 192  106.8438
 193  276.9324
 194  228.9048
 195  185.4049
 196  9.042113
 197  -12.46951
 198  148.5123
 199  147.0009
 200  -1.513339
 201  75.11653
 202  130.942
 203  119.6809
 204  88.35889
 205  121.1977
 206  198.734
 207  204.6399
 208  17.93652
 209  103.0173
 210  -32.26757
 211  -32.87585
 212  118.1486
 213  84.31152
 214  172.7718
 215  43.52715
 216  80.08201
 217  109.809
 218  54.86882
 219  54.89014
 220  3.638147
 221  46.45882
 222  71.26202
 223  176.124
 224  141.6181
 225  189.403
 226  54.75794
 227  120.6026
 228  136.2651
 229  28.73916
 230  -34.18269
 231  64.19903
 232  181.5644
 233  187.5988
 234  229.071
 235  -21.41425
 236  116.4302
 237  174.6016
 238  206.9779
 239  58.69782
 240  -31.60509
 241  131.443
 242  150.8974
 243  50.31617
 244  95.68785
 245  194.4573
 246  126.0751
 247  79.53539
 248  110.0092
 249  46.6817
 250  39.54298
 251  231.5022
 252  119.3232
 253  69.71389
 254  168.1438
 255  145.0343
 256  111.2037
 257  78.09418
 258  200.6703
 259  170.3417
 260  114.6345
 261  261.8011
 262  84.41043
 263  7.605466
 264  182.5038
 265  202.9943
 266  207.3588
 267  226.5432
 268  164.3026
 269  196.9725
 270  236.5186
 271  235.9647
 272  208.1378
 273  137.4106
 274  123.3956
 275  189.0564
 276  255.8123
 277  96.19581
 278  -59.60969
 279  35.53264
 280  84.94387
 281  252.4136
 282  234.9509
 283  9.214279
 284  -48.00348
 285  16.43461
 286  56.31687
 287  139.1417
 288  105.5583
 289  74.50234
 290  -41.59879
 291  47.53245
 292  -18.55486
 293  34.22555
 294  37.17928
 295  114.3824
 296  79.67468
 297  262.7908
 298  187.6328
 299  -8.880347
 300  80.57288
 301  107.2976
 302  243.3479
 303  173.4264
 304  136.4279
 305  255.9154
 306  82.02452
 307  75.57832
 308  100.5629
 309  157.3724
 310  216.8426
 311  146.0717
 312  85.36793
 313  98.22242
 314  143.8154
 315  244.2112
 316  128.3529
 317  52.18265
 318  273.0942
 319  265.492
 320  185.4899
 321  99.76546
 322  -3.475731
 323  108.5104
 324  208.0842
 325  126.0128
 326  78.61172
 327  77.03647
 328  181.3577
 329  84.19926
 330  149.0548
 331  181.7475
 332  93.75092
 333  199.243
 334  297.9859
 335  258.7509
 336  147.371
 337  55.12167
 338  139.9713
 339  165.1417
 340  165.9677
 341  139.3352
 342  85.41434
 343  35.45451
 344  -40.22002
 345  -33.35018
 346  -121.293
 347  -44.09657
 348  -17.29351
 349  107.7101
 350  101.8061
 351  77.97763
 352  104.2613
 353  -12.77443
 354  15.73458
 355  -20.79612
 356  -24.1635
 357  117.5608
 358  203.5241
 359  99.31644
 360  58.40708
 361  11.10703
 362  231.9314
 363  199.9295
 364  142.2945
 365  91.65749
 366  86.27895
 367  184.9234
 368  137.6141
 369  21.81009
 370  117.8642
 371  128.6751
 372  97.76307
 373  79.77268
 374  116.5209
 375  13.29316
 376  139.6098
 377  178.0525
 378  43.25344
 379  190.94
 380  239.6564
 381  189.5948
 382  221.5289
 383  105.53
 384  97.60013
 385  121.2293
 386  117.7652
 387  165.3029
 388  186.3395
 389  96.64739
 390  74.45519
 391  39.69255
 392  -30.13399
 393  39.47964
 394  240.7634
 395  186.3776
 396  60.22937
 397  130.5107
 398  128.1121
 399  111.9468
 400  97.18339
 401  290.891
 402  236.1069
 403  144.375
 404  63.17758
 405  -146.2802
 406  38.29899
 407  110.7921
 408  168.4401
 409  127.3316
 410  152.7734
 411  174.3499
 412  133.5459
 413  188.9588
 414  247.5718
 415  237.4256
 416  167.1245
 417  148.6409
 418  57.46629
 419  8.818825
 420  118.6839
 421  74.56826
 422  196.1167
 423  167.8319
 424  216.1558
 425  -54.81568
 426  64.70267
 427  150.7664
 428  115.9369
 429  138.7964
 430  153.6544
 431  132.0318
 432  -11.10625
 433  149.9194
 434  138.6924
 435  17.33154
 436  181.22
 437  133.6544
 438  157.6613
 439  66.30177
 440  158.565
 441  80.25642
 442  -33.28791
 443  -83.55794
 444  16.15912
 445  132.7111
 446  130.9038
 447  235.9844
 448  217.494
 449  -9.91955
 450  95.3884
 451  184.4119
 452  176.8315
 453  63.20709
 454  -56.45166
 455  76.0028
 456  216.3313
 457  90.11787
 458  155.4886
 459  258.7539
 460  247.3489
 461  161.6709
 462  78.40154
 463  85.17267
 464  39.54974
 465  241.3517
 466  147.0301
 467  174.7714
 468  107.9788
 469  99.40182
 470  65.79427
 471  257.1707
 472  227.6128
 473  -2.154037
 474  75.88879
 475  50.31623
 476  172.8826
 477  71.75734
 478  -50.79552
 479  -6.875453
 480  48.85866
 481  152.3091
 482  267.4908
 483  141.0654
 484  -11.88759
 485  -4.876443
 486  109.7011
 487  143.8485
 488  60.27075
 489  -33.99946
 490  52.43231
 491  174.3333
 492  156.8105
 493  35.73256
 494  95.28828
 495  124.6322
 496  211.9151
 497  53.12177
 498  95.4081
 499  154.7359
 500  144.8954
 501  264.7441
 502  308.8282
 503  257.4706
 504  228.5867
 505  212.1161
 506  241.1936
 507  263.6528
 508  258.1868
 509  201.1767
 510  484.2894
 511  569.3837
