# Input file       =  1189312948.110782_cleaned.dat
# Candidate        =  PSR_0332+5434
# Telescope        =  AR
# Epoch_topo       =  58009.195950356276
# Epoch_bary       =  N/A
# T_sample         =  0.002
# Data Folded      =  7340032
# Data Avg         =  0.0087696844626375
# Data StdDev      =  1.00002303379882 
# Profile Bins     =  512
# Profile Avg      =  125.789237940692 
# Profile StdDev   =  119.735794283438 
# Reduced chi-sqr  =  1.514
# Prob(Noise)      <  4.67e-13   (~7.1 sigma)
# P_topo (ms)      =  714.465724104387  +/- 0.000134
# P'_topo (s/s)    =  -0                +/- 7.05e-11
# P''_topo (s/s^2) =  0                 +/- 3.11e-14
# P_bary (ms)      =  N/A
# P'_bary (s/s)    =  N/A
# P''_bary (s/s^2) =  N/A
# P_orb (s)        =  N/A
# asin(i)/c (s)    =  N/A
# eccentricity     =  N/A
# w (rad)          =  N/A
# T_peri           =  N/A
######################################################
   0  701.4896
   1  633.0337
   2  485.2369
   3  332.5133
   4  187.8743
   5  197.8474
   6  45.52188
   7  43.89452
   8  164.543
   9  205.8949
  10  233.663
  11  164.7681
  12  100.1088
  13  239.3436
  14  385.3543
  15  372.4167
  16  365.3528
  17  201.9782
  18  55.54999
  19  5.85303
  20  -21.00704
  21  67.02852
  22  2.455317
  23  151.2482
  24  306.9552
  25  265.9171
  26  200.8194
  27  119.15
  28  83.89022
  29  101.6357
  30  259.5636
  31  145.5489
  32  30.65037
  33  -56.66182
  34  55.64389
  35  63.36395
  36  94.94064
  37  197.0352
  38  163.3587
  39  121.7105
  40  65.0743
  41  96.03849
  42  18.07981
  43  0.1333049
  44  24.30277
  45  89.29567
  46  73.49895
  47  -13.72504
  48  59.27538
  49  37.49936
  50  -73.87812
  51  54.3495
  52  131.5354
  53  131.3008
  54  139.2112
  55  216.935
  56  113.3546
  57  -9.950141
  58  -10.72193
  59  54.23985
  60  243.9629
  61  163.4298
  62  171.2088
  63  148.467
  64  67.81633
  65  44.95192
  66  41.69886
  67  81.94628
  68  116.1615
  69  279.1059
  70  274.1942
  71  101.409
  72  126.8154
  73  82.11144
  74  87.9422
  75  200.366
  76  173.1519
  77  153.5257
  78  33.1982
  79  -76.7151
  80  70.48369
  81  31.86855
  82  -25.34409
  83  173.2971
  84  140.2259
  85  76.04961
  86  69.79942
  87  150.5936
  88  197.8199
  89  105.6979
  90  61.72477
  91  135.301
  92  173.2855
  93  80.38435
  94  197.0423
  95  218.5605
  96  200.3641
  97  112.8852
  98  17.46763
  99  -9.293797
 100  -46.98664
 101  142.7783
 102  219.327
 103  161.0069
 104  210.2733
 105  94.41164
 106  172.0438
 107  217.1165
 108  153.0202
 109  79.2695
 110  18.34846
 111  203.7819
 112  109.2021
 113  45.86641
 114  34.22374
 115  167.9162
 116  95.35941
 117  135.707
 118  109.9891
 119  99.60505
 120  182.0312
 121  162.3516
 122  112.3662
 123  34.87682
 124  50.57146
 125  -14.35127
 126  110.0977
 127  203.469
 128  269.8221
 129  241.1539
 130  147.4855
 131  67.42426
 132  112.9242
 133  105.7313
 134  49.9403
 135  117.2964
 136  3.31761
 137  65.13132
 138  208.9059
 139  187.9731
 140  207.9054
 141  165.0508
 142  107.5517
 143  93.26591
 144  181.1401
 145  142.4449
 146  55.63485
 147  230.6666
 148  251.2302
 149  174.9129
 150  46.71444
 151  83.37713
 152  148.2205
 153  160.1889
 154  100.6329
 155  137.644
 156  129.0503
 157  74.77215
 158  58.4244
 159  90.40456
 160  70.08107
 161  190.5165
 162  174.6389
 163  55.14088
 164  1.656858
 165  85.14555
 166  115.3812
 167  176.5546
 168  51.41125
 169  18.46353
 170  55.78566
 171  184.0466
 172  101.1407
 173  146.0838
 174  165.6907
 175  178.0253
 176  253.9955
 177  245.6986
 178  180.4226
 179  48.93098
 180  75.86745
 181  -20.77236
 182  54.50847
 183  224.6764
 184  163.3249
 185  226.1051
 186  117.6436
 187  96.60303
 188  142.7087
 189  125.3359
 190  -25.4576
 191  13.87983
 192  210.861
 193  207.3639
 194  82.12614
 195  31.3154
 196  59.70801
 197  266.7878
 198  230.3158
 199  147.6371
 200  35.93023
 201  167.8104
 202  209.1685
 203  114.325
 204  29.07262
 205  113.7758
 206  28.34652
 207  -28.76674
 208  32.44201
 209  166.5954
 210  50.97354
 211  176.5883
 212  353.8904
 213  144.4189
 214  23.55217
 215  54.59977
 216  166.2493
 217  107.1104
 218  29.96333
 219  185.4611
 220  169.9095
 221  211.9339
 222  167.0155
 223  273.9633
 224  241.2849
 225  174.8272
 226  105.8277
 227  146.1375
 228  197.4802
 229  210.6444
 230  146.081
 231  118.2925
 232  21.13945
 233  22.16055
 234  159.1308
 235  233.5034
 236  119.5435
 237  71.42855
 238  250.8847
 239  326.909
 240  93.65923
 241  140.2724
 242  221.0924
 243  142.7152
 244  243.6055
 245  138.7655
 246  139.0608
 247  30.90226
 248  49.50822
 249  269.7233
 250  208.6901
 251  145.5453
 252  94.31946
 253  151.609
 254  365.5165
 255  218.6202
 256  132.9411
 257  133.5482
 258  45.10271
 259  -163.1579
 260  -94.78043
 261  168.1092
 262  132.553
 263  116.1661
 264  93.56927
 265  15.94662
 266  136.2757
 267  245.3817
 268  204.1294
 269  289.3559
 270  282.2303
 271  176.9228
 272  68.69312
 273  159.1712
 274  72.90002
 275  -17.58663
 276  131.4936
 277  264.2887
 278  221.7511
 279  95.76685
 280  -45.77174
 281  144.0484
 282  92.98073
 283  60.77149
 284  31.71011
 285  -21.30551
 286  180.7382
 287  217.598
 288  338.6861
 289  187.0502
 290  -20.59754
 291  124.5377
 292  264.6414
 293  143.4914
 294  130.6308
 295  65.80822
 296  54.96845
 297  146.3979
 298  117.1479
 299  62.00262
 300  5.701889
 301  71.3345
 302  79.58201
 303  103.8898
 304  87.93237
 305  263.7586
 306  193.7961
 307  137.2843
 308  174.484
 309  37.63405
 310  95.61538
 311  183.4679
 312  246.1726
 313  253.7149
 314  210.8141
 315  136.1796
 316  163.5762
 317  152.7898
 318  128.8416
 319  70.5565
 320  149.0569
 321  159.9996
 322  29.3142
 323  -81.57244
 324  53.24712
 325  82.11713
 326  212.4608
 327  214.8018
 328  215.825
 329  37.27923
 330  142.2388
 331  51.64111
 332  68.41586
 333  232.0822
 334  324.4313
 335  120.0745
 336  30.44671
 337  155.0216
 338  23.74542
 339  33.67945
 340  94.61403
 341  133.0313
 342  8.221614
 343  54.02367
 344  32.01486
 345  39.19053
 346  45.96093
 347  -31.279
 348  22.40794
 349  63.38609
 350  206.7111
 351  194.0847
 352  209.7554
 353  70.88996
 354  84.36377
 355  157.1788
 356  75.34526
 357  175.8106
 358  128.5606
 359  56.83737
 360  151.0097
 361  75.27155
 362  83.74689
 363  73.56641
 364  33.45365
 365  35.57201
 366  18.73841
 367  161.955
 368  224.4212
 369  239.0131
 370  139.6876
 371  91.72231
 372  108.8922
 373  76.49462
 374  162.585
 375  153.7055
 376  146.1996
 377  177.8781
 378  165.5726
 379  254.9968
 380  233.7669
 381  131.2763
 382  56.54501
 383  151.3518
 384  117.4393
 385  89.93441
 386  -36.48741
 387  10.43584
 388  145.3835
 389  169.8979
 390  179.9379
 391  101.1304
 392  163.7939
 393  143.1445
 394  146.6131
 395  81.58862
 396  130.3034
 397  166.7993
 398  242.5038
 399  168.2343
 400  -1.529186
 401  -37.26044
 402  -48.23129
 403  1.466613
 404  189.1923
 405  176.86
 406  153.8214
 407  161.3414
 408  94.21375
 409  -74.23717
 410  9.439865
 411  -92.87607
 412  -197.3515
 413  -128.6565
 414  -31.3153
 415  -37.72651
 416  -48.76241
 417  -40.59118
 418  -12.43826
 419  62.82012
 420  217.8409
 421  113.8095
 422  119.2276
 423  7.227223
 424  18.67035
 425  79.41491
 426  94.61331
 427  93.58566
 428  -9.927502
 429  -26.28961
 430  -15.20309
 431  166.8344
 432  143.6096
 433  194.5089
 434  232.4673
 435  214.1257
 436  124.2466
 437  140.8278
 438  4.173638
 439  59.57785
 440  98.71976
 441  -22.21218
 442  171.8473
 443  178.3106
 444  118.1244
 445  93.33211
 446  199.5398
 447  126.2437
 448  136.6087
 449  123.142
 450  88.29646
 451  69.26852
 452  -77.50305
 453  22.38842
 454  41.61145
 455  -5.442761
 456  205.4383
 457  210.1243
 458  71.64914
 459  82.5758
 460  162.7641
 461  151.815
 462  38.92257
 463  131.3126
 464  122.911
 465  64.36371
 466  68.1664
 467  40.92099
 468  25.49851
 469  247.2585
 470  223.1037
 471  257.0393
 472  241.7323
 473  215.571
 474  54.85463
 475  235.4999
 476  83.79896
 477  24.62683
 478  40.93447
 479  238.3859
 480  235.4479
 481  193.3311
 482  -1.933399
 483  -42.37986
 484  65.32553
 485  225.3765
 486  176.2523
 487  57.39633
 488  -10.74697
 489  64.16858
 490  223.2991
 491  114.3601
 492  224.9857
 493  362.132
 494  272.2359
 495  273.2261
 496  23.29612
 497  -51.60077
 498  28.71315
 499  186.4534
 500  108.9869
 501  116.2489
 502  264.2119
 503  291.9485
 504  229.1599
 505  169.032
 506  170.8267
 507  265.7361
 508  303.0594
 509  541.6133
 510  768.8392
 511  698.2355
