# Input file       =  1189916087.11515_cleaned.dat
# Candidate        =  PSR_0332+5434
# Telescope        =  AR
# Epoch_topo       =  58016.176725869795
# Epoch_bary       =  N/A
# T_sample         =  0.002
# Data Folded      =  7340032
# Data Avg         =  0.00832182326050672
# Data StdDev      =  1.00002692641139 
# Profile Bins     =  512
# Profile Avg      =  119.279212532792 
# Profile StdDev   =  119.736260357761 
# Reduced chi-sqr  =  1.142
# Prob(Noise)      <  0.0143   (~2.2 sigma)
# P_topo (ms)      =  714.467927184719  +/- 0.000148
# P'_topo (s/s)    =  -0                +/- 7.81e-11
# P''_topo (s/s^2) =  0                 +/- 3.45e-14
# P_bary (ms)      =  N/A
# P'_bary (s/s)    =  N/A
# P''_bary (s/s^2) =  N/A
# P_orb (s)        =  N/A
# asin(i)/c (s)    =  N/A
# eccentricity     =  N/A
# w (rad)          =  N/A
# T_peri           =  N/A
######################################################
   0  731.8425
   1  628.6794
   2  489.0439
   3  398.2411
   4  266.1506
   5  134.5139
   6  54.36193
   7  112.615
   8  155.8909
   9  72.99934
  10  106.6412
  11  137.0192
  12  184.4352
  13  138.7024
  14  171.4463
  15  164.9831
  16  115.6574
  17  109.4643
  18  213.6514
  19  136.1303
  20  78.33627
  21  80.2701
  22  189.0473
  23  197.3977
  24  27.1762
  25  -45.11642
  26  13.86502
  27  127.8266
  28  74.49203
  29  152.1325
  30  52.52889
  31  93.35799
  32  117.2992
  33  136.4256
  34  -120.3202
  35  -71.0682
  36  44.75876
  37  82.36675
  38  111.3792
  39  124.2954
  40  32.84891
  41  181.1498
  42  203.9108
  43  27.68153
  44  -75.57968
  45  -53.95858
  46  64.93943
  47  49.78352
  48  270.7102
  49  251.465
  50  231.7533
  51  118.672
  52  34.27227
  53  -33.56257
  54  100.46
  55  72.7144
  56  273.9742
  57  207.8077
  58  129.3558
  59  124.955
  60  192.9841
  61  196.2892
  62  184.7288
  63  174.5991
  64  151.9518
  65  37.71642
  66  81.71225
  67  164.3367
  68  223.0915
  69  191.1557
  70  203.3048
  71  186.5336
  72  29.62813
  73  -63.07099
  74  -128.8229
  75  94.69223
  76  193.8944
  77  36.188
  78  -15.72497
  79  23.26786
  80  103.1376
  81  129.0286
  82  207.0186
  83  207.9123
  84  72.06017
  85  141.6224
  86  143.6531
  87  15.67552
  88  60.99244
  89  101.9484
  90  170.7326
  91  235.2786
  92  120.4954
  93  78.55128
  94  108.5196
  95  178.6302
  96  80.37953
  97  180.1733
  98  173.2034
  99  80.64795
 100  118.8994
 101  163.7912
 102  219.6807
 103  184.6876
 104  131.792
 105  164.0136
 106  181.0594
 107  134.8938
 108  27.08617
 109  -33.19237
 110  155.6922
 111  155.7933
 112  79.89458
 113  69.50039
 114  -57.93513
 115  40.83422
 116  -16.81468
 117  -21.69758
 118  6.851804
 119  87.24686
 120  115.2136
 121  228.2994
 122  122.4644
 123  148.4713
 124  280.253
 125  139.0673
 126  142.4077
 127  73.93584
 128  127.1984
 129  156.4703
 130  139.3552
 131  128.4466
 132  49.6907
 133  163.7519
 134  275.9559
 135  163.9488
 136  74.67587
 137  155.2148
 138  169.5385
 139  141.5573
 140  58.34343
 141  19.17544
 142  172.457
 143  250.2812
 144  167.8036
 145  103.1706
 146  120.2809
 147  151.969
 148  110.2375
 149  124.8813
 150  203.8656
 151  128.481
 152  137.6326
 153  194.7173
 154  157.705
 155  -91.61045
 156  14.21449
 157  97.14581
 158  175.1346
 159  148.8621
 160  0.5914567
 161  -3.173571
 162  29.27051
 163  62.18229
 164  217.8993
 165  221.6619
 166  243.7059
 167  170.515
 168  -33.23289
 169  123.5793
 170  47.74931
 171  121.7356
 172  125.2513
 173  96.66322
 174  -14.37616
 175  59.78969
 176  108.2172
 177  238.4746
 178  165.4182
 179  46.31643
 180  59.79708
 181  101.1175
 182  94.58146
 183  58.4288
 184  84.92078
 185  64.94012
 186  102.0586
 187  151.3641
 188  75.20805
 189  87.98339
 190  129.7294
 191  129.6124
 192  62.0512
 193  -69.61496
 194  11.3123
 195  126.5493
 196  81.75317
 197  82.87231
 198  40.47657
 199  180.131
 200  131.1182
 201  109.4312
 202  165.3896
 203  171.4834
 204  129.0992
 205  172.0247
 206  196.2894
 207  293.3047
 208  89.98943
 209  127.5389
 210  220.0233
 211  136.1895
 212  136.2625
 213  41.89942
 214  106.3524
 215  92.44857
 216  174.2478
 217  153.6218
 218  133.7704
 219  132.0919
 220  94.16705
 221  50.33932
 222  67.74677
 223  99.88715
 224  156.3204
 225  45.88869
 226  139.6198
 227  119.2167
 228  17.74851
 229  98.90415
 230  58.28176
 231  156.9752
 232  169.2234
 233  140.514
 234  233.8864
 235  26.04194
 236  -37.01595
 237  120.6064
 238  -2.332047
 239  -21.51292
 240  -4.036438
 241  108.8934
 242  68.71501
 243  145.2701
 244  143.1456
 245  81.35021
 246  103.5444
 247  67.32284
 248  -19.20635
 249  45.47272
 250  76.5235
 251  83.34467
 252  165.2256
 253  127.0636
 254  146.4381
 255  73.60379
 256  123.1531
 257  256.7823
 258  241.5437
 259  216.2092
 260  77.44588
 261  107.0176
 262  44.6013
 263  -10.70822
 264  22.52926
 265  -72.75709
 266  12.23742
 267  155.1465
 268  213.5346
 269  141.4316
 270  150.0109
 271  123.7473
 272  184.5277
 273  198.9911
 274  161.2519
 275  182.6488
 276  44.3792
 277  124.3173
 278  177.2588
 279  204.9301
 280  157.7233
 281  133.7235
 282  144.7273
 283  127.7867
 284  62.9623
 285  114.6824
 286  -5.209795
 287  50.4987
 288  83.28149
 289  195.0792
 290  128.1484
 291  205.7995
 292  176.9557
 293  11.12152
 294  39.14818
 295  144.5433
 296  198.1931
 297  -56.26219
 298  13.54048
 299  146.8719
 300  257.9997
 301  130.714
 302  116.0365
 303  257.3706
 304  96.19545
 305  77.48902
 306  166.0892
 307  93.30296
 308  3.879783
 309  -8.233096
 310  -16.53299
 311  99.9535
 312  -12.68969
 313  113.3605
 314  100.219
 315  59.41021
 316  90.35556
 317  162.2749
 318  243.9226
 319  96.92565
 320  104.4855
 321  148.1537
 322  204.8998
 323  251.2126
 324  242.4666
 325  111.5586
 326  60.71703
 327  26.47856
 328  199.8458
 329  105.7566
 330  64.27034
 331  -13.77954
 332  244.6201
 333  97.78117
 334  0.6961668
 335  59.24698
 336  77.94424
 337  106.9161
 338  39.47181
 339  -29.9485
 340  31.12774
 341  178.9005
 342  105.2652
 343  126.4275
 344  51.77294
 345  -24.48387
 346  198.8564
 347  221.8475
 348  121.8951
 349  56.23974
 350  46.91376
 351  122.9084
 352  64.91737
 353  91.9285
 354  -0.8127183
 355  73.58682
 356  93.32877
 357  65.07706
 358  -23.10439
 359  47.26684
 360  316.293
 361  177.6535
 362  126.8114
 363  246.7269
 364  114.2742
 365  102.1488
 366  223.4301
 367  146.6914
 368  110.0283
 369  128.7401
 370  9.840006
 371  82.2459
 372  170.7953
 373  157.1553
 374  -86.08276
 375  -2.860538
 376  73.05952
 377  92.78017
 378  196.0776
 379  60.81586
 380  4.094336
 381  35.26231
 382  167.4501
 383  185.9601
 384  104.1126
 385  12.82542
 386  39.53845
 387  71.55105
 388  122.2944
 389  141.5304
 390  181.229
 391  166.0281
 392  97.63147
 393  122.0758
 394  33.58191
 395  84.37339
 396  172.378
 397  106.0329
 398  66.875
 399  15.19366
 400  108.5427
 401  123.192
 402  100.878
 403  272.4692
 404  206.6489
 405  109.915
 406  144.9761
 407  182.2317
 408  67.93491
 409  127.7897
 410  133.4417
 411  90.2608
 412  138.6207
 413  299.489
 414  249.8196
 415  190.2797
 416  215.1185
 417  250.5569
 418  206.6816
 419  234.9684
 420  151.0856
 421  88.42583
 422  140.4044
 423  245.7708
 424  239.0858
 425  231.3136
 426  185.1152
 427  62.63577
 428  139.8279
 429  -6.902861
 430  -111.9258
 431  40.57352
 432  169.985
 433  210.5011
 434  274.2733
 435  277.8331
 436  121.4638
 437  50.6886
 438  170.5477
 439  91.29414
 440  -37.66737
 441  -24.8472
 442  24.47106
 443  92.25906
 444  65.96491
 445  67.17046
 446  -16.77623
 447  73.58427
 448  127.6074
 449  25.17527
 450  9.934441
 451  102.4568
 452  255.866
 453  218.2444
 454  185.8923
 455  68.57657
 456  -13.37043
 457  60.93604
 458  8.688834
 459  62.72312
 460  43.47059
 461  60.40595
 462  75.61703
 463  185.2815
 464  206.047
 465  142.122
 466  21.7183
 467  83.5092
 468  224.2012
 469  115.2966
 470  74.03328
 471  228.9402
 472  315.6603
 473  208.929
 474  233.8833
 475  203.8339
 476  42.72394
 477  -29.46401
 478  40.03783
 479  72.68124
 480  126.8961
 481  60.30933
 482  67.45467
 483  225.3095
 484  175.8814
 485  86.5807
 486  80.97195
 487  141.1468
 488  158.8709
 489  117.4899
 490  -19.06894
 491  19.13583
 492  53.13816
 493  159.3086
 494  118.0918
 495  106.4086
 496  164.195
 497  199.1262
 498  164.2757
 499  122.2265
 500  197.5052
 501  209.1423
 502  111.0075
 503  233.3694
 504  192.9482
 505  250.8058
 506  262.6347
 507  340.2987
 508  221.0635
 509  316.3398
 510  439.3523
 511  499.8303
