# Input file       =  1190612441.145066_cleaned.dat
# Candidate        =  PSR_0332+5434
# Telescope        =  AR
# Epoch_topo       =  58024.236378993817
# Epoch_bary       =  N/A
# T_sample         =  0.002
# Data Folded      =  7340032
# Data Avg         =  0.00572439857757228
# Data StdDev      =  1.00001252845649 
# Profile Bins     =  512
# Profile Avg      =  81.9929962904626 
# Profile StdDev   =  119.734536446902 
# Reduced chi-sqr  =  1.784
# Prob(Noise)      <  5.36e-25   (~10.3 sigma)
# P_topo (ms)      =  714.471664070539  +/- 0.000205
# P'_topo (s/s)    =  -0                +/- 1.08e-10
# P''_topo (s/s^2) =  0                 +/- 4.77e-14
# P_bary (ms)      =  N/A
# P'_bary (s/s)    =  N/A
# P''_bary (s/s^2) =  N/A
# P_orb (s)        =  N/A
# asin(i)/c (s)    =  N/A
# eccentricity     =  N/A
# w (rad)          =  N/A
# T_peri           =  N/A
######################################################
   0  950.1163
   1  812.0814
   2  578.9915
   3  354.6522
   4  143.7107
   5  5.860159
   6  -8.676619
   7  -21.50628
   8  22.84387
   9  105.7827
  10  297.0697
  11  262.368
  12  203.9915
  13  179.7684
  14  265.6809
  15  267.1236
  16  69.6551
  17  -38.29332
  18  46.98747
  19  15.33023
  20  51.14025
  21  62.39932
  22  116.7773
  23  150.5427
  24  95.3074
  25  113.6347
  26  143.4099
  27  121.4484
  28  63.6857
  29  231.2092
  30  250.2714
  31  131.1003
  32  133.8022
  33  199.1708
  34  122.4144
  35  99.41618
  36  124.3032
  37  295.1154
  38  212.898
  39  178.5464
  40  82.52983
  41  27.77166
  42  74.0985
  43  76.60967
  44  85.56847
  45  -9.571815
  46  33.98428
  47  42.93747
  48  134.4385
  49  113.1605
  50  147.2598
  51  113.626
  52  172.9875
  53  169.6977
  54  109.291
  55  71.41216
  56  92.18044
  57  80.66209
  58  62.7457
  59  120.6774
  60  161.5143
  61  115.782
  62  47.54075
  63  72.58356
  64  146.2456
  65  53.31322
  66  -27.48526
  67  1.552501
  68  77.44997
  69  172.835
  70  172.6049
  71  114.6187
  72  42.80581
  73  -54.53428
  74  34.24169
  75  51.27332
  76  8.343926
  77  -17.72132
  78  232.5969
  79  164.291
  80  117.8851
  81  70.08117
  82  121.2913
  83  76.89931
  84  81.41006
  85  -26.37861
  86  -6.286609
  87  121.9585
  88  63.65562
  89  -39.93049
  90  -82.71893
  91  114.9226
  92  115.304
  93  78.77144
  94  -9.290942
  95  -17.37366
  96  -21.78008
  97  37.85785
  98  -35.32436
  99  -75.9624
 100  -14.00019
 101  93.77054
 102  104.3323
 103  98.06199
 104  168.2868
 105  346.0528
 106  267.3698
 107  121.3944
 108  79.85773
 109  22.70457
 110  147.7007
 111  101.6724
 112  -36.56343
 113  85.66045
 114  180.803
 115  50.50145
 116  79.03612
 117  4.503439
 118  36.01194
 119  109.9266
 120  180.0497
 121  159.5847
 122  54.20905
 123  186.0301
 124  76.1589
 125  149.4418
 126  252.4448
 127  224.4978
 128  111.9679
 129  61.72264
 130  116.8119
 131  260.8127
 132  39.87157
 133  26.72069
 134  190.5035
 135  221.1388
 136  146.1635
 137  -2.459219
 138  -0.4205258
 139  9.409003
 140  66.107
 141  42.40948
 142  150.2514
 143  3.696554
 144  110.9149
 145  149.294
 146  13.10533
 147  -8.772143
 148  -28.16114
 149  80.07941
 150  125.4081
 151  76.9621
 152  163.3388
 153  18.45576
 154  12.77489
 155  -74.01686
 156  -21.98898
 157  76.89406
 158  72.86022
 159  50.24997
 160  31.27732
 161  -121.9315
 162  -1.219563
 163  73.04498
 164  4.688879
 165  97.28229
 166  141.3283
 167  179.7407
 168  77.05763
 169  -49.59818
 170  74.67365
 171  -28.6298
 172  5.982142
 173  224.2004
 174  256.3891
 175  236.7935
 176  123.6681
 177  84.11193
 178  131.3167
 179  -41.32697
 180  1.365977
 181  83.92444
 182  11.67136
 183  -36.41956
 184  104.4459
 185  121.635
 186  -33.49905
 187  156.7245
 188  203.7219
 189  94.9035
 190  23.27662
 191  62.46669
 192  134.9697
 193  55.30293
 194  42.08039
 195  112.3145
 196  70.82666
 197  173.4259
 198  25.3906
 199  44.72083
 200  129.6512
 201  -15.50462
 202  71.90572
 203  55.20737
 204  7.00922
 205  -3.804499
 206  13.94577
 207  101.8116
 208  160.9356
 209  20.20172
 210  98.87119
 211  -23.98007
 212  -72.32175
 213  29.34027
 214  59.59116
 215  87.5174
 216  261.6116
 217  199.7383
 218  154.1224
 219  91.87067
 220  157.9737
 221  165.8408
 222  34.21592
 223  46.10809
 224  61.58255
 225  87.15904
 226  183.6244
 227  76.46861
 228  -18.73348
 229  -100.2133
 230  -55.54213
 231  71.42563
 232  262.9943
 233  85.46941
 234  6.720926
 235  -21.9881
 236  56.7954
 237  1.297424
 238  29.05341
 239  -12.27328
 240  -71.93532
 241  -49.55357
 242  -10.99053
 243  123.7812
 244  202.4726
 245  123.1511
 246  125.3098
 247  176.8739
 248  73.25514
 249  140.5922
 250  147.9255
 251  152.083
 252  184.9843
 253  244.0976
 254  202.5479
 255  43.61565
 256  93.28323
 257  117.0675
 258  8.781189
 259  -35.34315
 260  49.79493
 261  77.10574
 262  -160.7601
 263  -44.39338
 264  151.1655
 265  171.3291
 266  47.4653
 267  12.06534
 268  -41.54977
 269  61.44312
 270  144.2843
 271  -55.16659
 272  40.79054
 273  3.830555
 274  -51.78419
 275  -44.52379
 276  133.5984
 277  208.5728
 278  159.5383
 279  121.5887
 280  126.9753
 281  88.90781
 282  72.67536
 283  -15.30153
 284  24.62607
 285  -28.27454
 286  69.34253
 287  174.6196
 288  118.9645
 289  -60.40528
 290  -46.06139
 291  138.8806
 292  210.5231
 293  233.3044
 294  256.5917
 295  216.5796
 296  14.42879
 297  49.24199
 298  104.5193
 299  -6.379985
 300  11.29168
 301  -6.583509
 302  -152.1973
 303  -143.8975
 304  3.235505
 305  43.97095
 306  6.815299
 307  -96.73274
 308  84.15789
 309  91.83079
 310  -72.64172
 311  1.785783
 312  57.29537
 313  133.3827
 314  19.89787
 315  -18.83046
 316  70.36703
 317  0.8772695
 318  1.334628
 319  62.55166
 320  64.35168
 321  -11.53897
 322  -11.2445
 323  -43.7855
 324  -3.433521
 325  84.07113
 326  30.09824
 327  -133.4812
 328  -44.6581
 329  192.928
 330  189.3393
 331  227.4273
 332  80.2443
 333  189.072
 334  89.38084
 335  93.72575
 336  171.7448
 337  45.6185
 338  5.577265
 339  38.87417
 340  46.58051
 341  -47.77906
 342  54.98044
 343  207.8923
 344  151.875
 345  83.14502
 346  151.8531
 347  183.8286
 348  117.5968
 349  49.83421
 350  132.0325
 351  26.01513
 352  -12.98804
 353  -85.87388
 354  237.3567
 355  115.3645
 356  138.1586
 357  60.38396
 358  98.48579
 359  34.22145
 360  -44.40276
 361  -70.85498
 362  -75.13267
 363  16.72708
 364  73.12046
 365  55.13187
 366  48.60401
 367  42.13073
 368  -100.2816
 369  91.36459
 370  223.2975
 371  50.77573
 372  34.83657
 373  -6.060217
 374  85.92664
 375  80.66239
 376  56.99905
 377  143.874
 378  131.7812
 379  176.9196
 380  47.49856
 381  -6.113597
 382  73.70296
 383  59.29898
 384  148.5167
 385  186.0742
 386  58.27691
 387  -51.26244
 388  -16.12717
 389  -29.32389
 390  166.6378
 391  190.0128
 392  78.51922
 393  24.9509
 394  11.11926
 395  41.86472
 396  237.4724
 397  168.782
 398  127.7531
 399  114.1464
 400  13.00745
 401  141.8323
 402  132.0649
 403  163.5721
 404  78.72965
 405  66.79367
 406  27.54245
 407  -12.62875
 408  6.34719
 409  1.488819
 410  -11.63949
 411  -71.7994
 412  -20.47528
 413  128.6127
 414  138.4606
 415  -18.51588
 416  -29.50101
 417  128.4504
 418  162.0734
 419  55.93371
 420  87.10272
 421  92.12656
 422  125.4166
 423  130.0058
 424  91.6448
 425  -77.92283
 426  -118.6212
 427  -44.35508
 428  -0.2892112
 429  6.682581
 430  30.77698
 431  -4.347397
 432  -130.7894
 433  -57.0282
 434  39.20871
 435  45.35619
 436  17.1753
 437  19.19768
 438  61.02308
 439  -54.69125
 440  -216.3982
 441  -177.9963
 442  -70.73696
 443  72.41901
 444  132.5495
 445  13.39388
 446  -13.38095
 447  -138.3652
 448  -79.7503
 449  123.0127
 450  214.4681
 451  138.0343
 452  238.4661
 453  217.3781
 454  155.1914
 455  65.37636
 456  157.3362
 457  184.2141
 458  71.17108
 459  40.73277
 460  26.11292
 461  46.98661
 462  105.4458
 463  207.89
 464  262.4174
 465  87.51846
 466  28.0035
 467  57.80635
 468  159.0428
 469  106.9163
 470  279.0927
 471  154.3877
 472  -12.10853
 473  -10.85825
 474  106.9268
 475  126.6091
 476  148.2231
 477  6.67858
 478  82.50232
 479  -10.01148
 480  19.59988
 481  24.26585
 482  21.45668
 483  -56.76849
 484  -88.77534
 485  144.8227
 486  200.3651
 487  34.52166
 488  16.68013
 489  21.92658
 490  -123.7682
 491  -114.2558
 492  42.63213
 493  175.2247
 494  36.07677
 495  -83.63982
 496  18.62131
 497  246.158
 498  146.5322
 499  155.5882
 500  236.3692
 501  126.7397
 502  52.6348
 503  216.1425
 504  147.9794
 505  242.2557
 506  115.2069
 507  305.777
 508  345.6804
 509  419.2877
 510  692.5563
 511  798.7993
