# Input file       =  1190920557.109346_cleaned.dat
# Candidate        =  PSR_0332+5434
# Telescope        =  AR
# Epoch_topo       =  58027.802535987801
# Epoch_bary       =  N/A
# T_sample         =  0.002
# Data Folded      =  7143424
# Data Avg         =  0.0220768573940137
# Data StdDev      =  1.00005260078624 
# Profile Bins     =  512
# Profile Avg      =  307.978304194344 
# Profile StdDev   =  118.12479761228  
# Reduced chi-sqr  =  1.504
# Prob(Noise)      <  1.14e-12   (~7.0 sigma)
# P_topo (ms)      =  714.473034823301  +/- 0.000187
# P'_topo (s/s)    =  -0                +/- 1.01e-10
# P''_topo (s/s^2) =  0                 +/- 4.59e-14
# P_bary (ms)      =  N/A
# P'_bary (s/s)    =  N/A
# P''_bary (s/s^2) =  N/A
# P_orb (s)        =  N/A
# asin(i)/c (s)    =  N/A
# eccentricity     =  N/A
# w (rad)          =  N/A
# T_peri           =  N/A
######################################################
   0  1079.52
   1  1015.051
   2  707.7776
   3  424.3715
   4  236.5553
   5  232.9962
   6  289.5006
   7  341.7708
   8  252.1175
   9  290.4118
  10  269.0583
  11  420.2465
  12  403.2162
  13  396.1292
  14  365.1138
  15  422.6776
  16  407.0045
  17  407.8009
  18  419.3109
  19  257.5204
  20  260.835
  21  313.1588
  22  383.8167
  23  306.2099
  24  256.1666
  25  317.7446
  26  392.4045
  27  390.291
  28  351.3346
  29  349.371
  30  378.9987
  31  190.4584
  32  394.6909
  33  500.8174
  34  270.907
  35  191.0518
  36  317.2762
  37  316.2704
  38  283.8686
  39  285.0783
  40  281.2037
  41  299.7812
  42  413.2176
  43  390.0389
  44  271.2242
  45  306.5845
  46  322.1885
  47  350.8162
  48  342.7714
  49  371.9023
  50  470.1493
  51  338.8337
  52  231.4333
  53  229.5489
  54  289.7206
  55  205.2299
  56  272.6505
  57  389.8187
  58  280.1161
  59  265.6166
  60  257.1251
  61  265.8898
  62  283.7231
  63  322.0809
  64  279.3067
  65  295.3358
  66  165.8972
  67  63.24059
  68  359.0791
  69  504.9534
  70  429.8317
  71  272.0865
  72  258.9156
  73  223.3642
  74  260.4279
  75  228.6122
  76  299.9762
  77  285.3661
  78  337.9626
  79  316.4921
  80  237.0054
  81  216.3724
  82  208.2529
  83  189.6496
  84  234.1388
  85  348.4306
  86  393.8603
  87  354.2408
  88  252.9467
  89  204.9253
  90  126.2345
  91  145.8023
  92  250.1479
  93  370.4492
  94  394.6537
  95  400.0933
  96  251.5506
  97  160.7231
  98  269.7079
  99  274.9307
 100  251.5676
 101  355.6315
 102  283.5214
 103  165.6497
 104  247.4391
 105  270.0115
 106  319.1905
 107  220.1362
 108  229.7228
 109  222.9162
 110  264.4549
 111  311.9818
 112  212.9913
 113  196.2657
 114  249.3682
 115  250.5762
 116  227.4141
 117  251.1493
 118  296.158
 119  235.742
 120  200.7719
 121  313.8738
 122  530.9761
 123  450.8254
 124  261.6231
 125  151.0017
 126  237.3486
 127  333.3842
 128  344.7927
 129  288.7749
 130  279.6872
 131  189.8577
 132  174.4869
 133  228.9642
 134  134.1494
 135  174.7736
 136  175.9503
 137  342.2086
 138  297.4625
 139  297.195
 140  357.4149
 141  418.2984
 142  187.5249
 143  169.8367
 144  269.6548
 145  292.9135
 146  219.5731
 147  349.2053
 148  338.5544
 149  430.831
 150  361.1797
 151  165.2313
 152  279.6384
 153  309.0741
 154  245.5941
 155  272.7482
 156  192.1604
 157  287.5185
 158  272.8708
 159  386.475
 160  311.0079
 161  308.0319
 162  417.9901
 163  237.7983
 164  130.0913
 165  141.3408
 166  325.4564
 167  400.5419
 168  330.8466
 169  335.8229
 170  283.8524
 171  334.7568
 172  461.1463
 173  369.5211
 174  340.6156
 175  241.1756
 176  248.4754
 177  143.1344
 178  219.3323
 179  252.0604
 180  372.5076
 181  463.6645
 182  452.0677
 183  261.9084
 184  248.6533
 185  209.3151
 186  277.607
 187  385.6404
 188  360.9102
 189  338.6727
 190  232.9709
 191  228.2787
 192  321.9509
 193  255.7235
 194  203.0957
 195  248.3635
 196  338.9538
 197  353.7462
 198  258.0343
 199  175.34
 200  300.2861
 201  417.9771
 202  283.1564
 203  252.438
 204  288.911
 205  223.5544
 206  212.6699
 207  198.5564
 208  201.2672
 209  312.6576
 210  181.1082
 211  294.6454
 212  174.0732
 213  261.101
 214  441.0435
 215  393.1381
 216  341.1778
 217  351.5914
 218  263.3017
 219  243.9086
 220  221.4101
 221  340.6514
 222  338.3919
 223  368.7362
 224  378.2305
 225  256.3066
 226  351.9742
 227  236.122
 228  391.5917
 229  365.7116
 230  336.5123
 231  320.0042
 232  227.422
 233  250.7925
 234  255.5072
 235  458.3657
 236  518.1945
 237  414.1763
 238  292.9648
 239  282.7365
 240  245.4099
 241  283.4744
 242  366.3642
 243  423.3953
 244  281.5654
 245  372.8037
 246  356.2837
 247  393.1729
 248  416.2529
 249  347.1548
 250  358.7695
 251  393.0587
 252  381.0312
 253  289.0996
 254  343.1482
 255  432.8469
 256  272.6718
 257  148.3194
 258  263.7085
 259  278.3376
 260  246.8705
 261  280.017
 262  393.1071
 263  458.9734
 264  328.3674
 265  355.9161
 266  329.8643
 267  308.1835
 268  151.9273
 269  226.7331
 270  256.6705
 271  265.0735
 272  262.3762
 273  322.5761
 274  218.8077
 275  138.8599
 276  234.2001
 277  215.0073
 278  276.3279
 279  222.3104
 280  176.256
 281  261.5164
 282  325.5448
 283  229.2477
 284  381.1961
 285  255.1068
 286  257.5473
 287  265.6667
 288  369.3347
 289  209.7239
 290  173.5853
 291  263.415
 292  442.4566
 293  411.0311
 294  309.6968
 295  261.3469
 296  307.277
 297  252.2573
 298  375.8254
 299  386.6411
 300  351.2659
 301  364.3979
 302  411.5002
 303  323.6411
 304  304.7665
 305  292.416
 306  342.5648
 307  325.2664
 308  372.752
 309  225.5951
 310  101.8666
 311  213.2939
 312  206.3107
 313  276.811
 314  313.3667
 315  311.3491
 316  286.8437
 317  362.1497
 318  274.799
 319  228.1786
 320  380.4926
 321  418.034
 322  340.0623
 323  291.1586
 324  386.4773
 325  468.4693
 326  393.9917
 327  453.1395
 328  402.4314
 329  290.5562
 330  388.7263
 331  399.8261
 332  220.1816
 333  139.6292
 334  242.9887
 335  323.0693
 336  324.5307
 337  204.6402
 338  319.5888
 339  378.0108
 340  380.8889
 341  277.7792
 342  193.7794
 343  220.1724
 344  219.8151
 345  312.9464
 346  276.9489
 347  240.6888
 348  241.73
 349  348.0161
 350  259.3359
 351  383.9445
 352  253.1874
 353  278.2171
 354  331.149
 355  163.497
 356  217.4477
 357  271.1241
 358  386.1713
 359  393.8756
 360  148.0873
 361  179.6711
 362  246.627
 363  335.545
 364  271.0658
 365  294.8756
 366  360.2599
 367  358.0157
 368  298.7981
 369  237.4612
 370  259.7266
 371  373.7219
 372  397.6632
 373  389.3737
 374  388.7799
 375  305.2194
 376  388.0308
 377  150.6906
 378  98.21004
 379  213.5949
 380  190.6519
 381  248.4683
 382  392.2978
 383  433.4836
 384  372.1516
 385  230.691
 386  260.2522
 387  253.1129
 388  330.2242
 389  379.3604
 390  373.7834
 391  288.9345
 392  343.8296
 393  373.5431
 394  342.5172
 395  303.2935
 396  363.7796
 397  350.5975
 398  210.8212
 399  202.4756
 400  191.2554
 401  338.6274
 402  438.1169
 403  436.7224
 404  306.8922
 405  286.8242
 406  295.8068
 407  270.7545
 408  241.866
 409  409.5132
 410  401.5182
 411  302.455
 412  346.3858
 413  467.2431
 414  272.9305
 415  276.6924
 416  262.3389
 417  426.6473
 418  289.5357
 419  316.1295
 420  333.5794
 421  293.7196
 422  247.0263
 423  321.8127
 424  400.5493
 425  323.3605
 426  195.0222
 427  346.3575
 428  369.6606
 429  407.3951
 430  303.8654
 431  306.5914
 432  181.3366
 433  243.3367
 434  190.8878
 435  219.513
 436  237.6573
 437  257.9333
 438  371.9157
 439  356.6192
 440  425.339
 441  488.6677
 442  425.7856
 443  361.4875
 444  256.5443
 445  195.2464
 446  189.7761
 447  229.9277
 448  250.8447
 449  249.4091
 450  169.4846
 451  222.6206
 452  419.3214
 453  225.9721
 454  186.1042
 455  343.3389
 456  364.8656
 457  343.8146
 458  172.1836
 459  176.5801
 460  243.2049
 461  190.1386
 462  259.3062
 463  347.6429
 464  350.1812
 465  406.7836
 466  447.5839
 467  446.9591
 468  406.2708
 469  223.1773
 470  217.3885
 471  228.0758
 472  311.7331
 473  463.1985
 474  437.4151
 475  204.3486
 476  183.5245
 477  157.4008
 478  163.6835
 479  228.9467
 480  351.0266
 481  374.9969
 482  356.8956
 483  377.2332
 484  271.6879
 485  268.3473
 486  281.7646
 487  189.5342
 488  312.628
 489  413.901
 490  416.4957
 491  376.7663
 492  262.7596
 493  330.4204
 494  240.5294
 495  320.8595
 496  337.7668
 497  277.3857
 498  169.7846
 499  262.5569
 500  401.905
 501  367.946
 502  450.0558
 503  354.6561
 504  465.1203
 505  470.97
 506  411.0432
 507  394.6725
 508  555.1585
 509  589.9614
 510  852.2039
 511  1033.344
