# Input file       =  1190677245.097413_cleaned.dat
# Candidate        =  PSR_0332+5434
# Telescope        =  AR
# Epoch_topo       =  58024.986424738578
# Epoch_bary       =  N/A
# T_sample         =  0.002
# Data Folded      =  7340032
# Data Avg         =  0.0108679952016192
# Data StdDev      =  1.000020954176   
# Profile Bins     =  512
# Profile Avg      =  155.897218191302 
# Profile StdDev   =  119.735545283883 
# Reduced chi-sqr  =  2.003
# Prob(Noise)      <  1.55e-36   (~12.6 sigma)
# P_topo (ms)      =  714.471548194462  +/- 0.000141
# P'_topo (s/s)    =  -0                +/- 7.45e-11
# P''_topo (s/s^2) =  0                 +/- 3.29e-14
# P_bary (ms)      =  N/A
# P'_bary (s/s)    =  N/A
# P''_bary (s/s^2) =  N/A
# P_orb (s)        =  N/A
# asin(i)/c (s)    =  N/A
# eccentricity     =  N/A
# w (rad)          =  N/A
# T_peri           =  N/A
######################################################
   0  1074.05
   1  1007.368
   2  802.3008
   3  446.471
   4  243.1155
   5  169.8015
   6  234.765
   7  225.287
   8  93.63692
   9  170.0162
  10  154.0564
  11  224.5751
  12  69.94849
  13  129.3837
  14  161.6811
  15  80.71586
  16  95.90241
  17  109.9817
  18  -74.94225
  19  47.10552
  20  74.94846
  21  131.9884
  22  151.269
  23  228.2336
  24  183.7774
  25  88.49926
  26  -135.0279
  27  -43.26699
  28  64.2157
  29  195.3705
  30  281.1011
  31  363.9112
  32  220.0281
  33  183.1203
  34  195.0701
  35  78.6558
  36  193.8292
  37  357.6941
  38  372.6399
  39  110.3241
  40  143.8752
  41  89.78555
  42  -80.01353
  43  -14.87881
  44  84.42484
  45  74.32483
  46  18.58529
  47  48.04392
  48  136.0463
  49  186.9792
  50  242.5397
  51  170.1704
  52  154.51
  53  156.8177
  54  216.9022
  55  147.1676
  56  143.9115
  57  192.7581
  58  103.8357
  59  156.8666
  60  228.5719
  61  210.6168
  62  195.8488
  63  79.78986
  64  44.97186
  65  223.7129
  66  179.5955
  67  152.1036
  68  100.7225
  69  98.13911
  70  103.389
  71  84.74212
  72  174.5058
  73  219.7586
  74  89.63648
  75  14.06702
  76  77.4466
  77  211.5244
  78  136.702
  79  123.9824
  80  270.1223
  81  216.6742
  82  224.6689
  83  106.7692
  84  173.4659
  85  -31.04205
  86  -0.09936105
  87  16.14869
  88  122.8427
  89  114.0517
  90  125.9777
  91  47.43776
  92  44.43236
  93  191.2781
  94  112.7893
  95  146.0761
  96  127.2887
  97  38.98285
  98  33.74374
  99  104.7748
 100  115.5623
 101  -14.84813
 102  -20.38809
 103  57.18576
 104  161.117
 105  206.7836
 106  308.0339
 107  69.56736
 108  -20.35147
 109  60.87852
 110  214.4185
 111  191.9676
 112  -68.58607
 113  -24.27448
 114  161.4178
 115  123.1134
 116  167.1131
 117  57.20205
 118  2.991884
 119  58.7706
 120  120.8313
 121  143.7788
 122  186.8476
 123  243.2775
 124  232.3817
 125  202.509
 126  195.4799
 127  194.4248
 128  178.6055
 129  152.1423
 130  221.0383
 131  161.5362
 132  159.7428
 133  228.2938
 134  132.1075
 135  191.3254
 136  299.5033
 137  304.6017
 138  164.4256
 139  119.1792
 140  147.525
 141  265.7135
 142  101.0267
 143  116.1068
 144  135.7641
 145  190.0253
 146  230.311
 147  169.9898
 148  85.82821
 149  72.62918
 150  207.8445
 151  179.8747
 152  126.1047
 153  221.6317
 154  155.4782
 155  161.608
 156  160.2599
 157  160.1134
 158  142.0103
 159  163.0459
 160  33.97363
 161  -78.26913
 162  99.64848
 163  231.8753
 164  286.7703
 165  272.066
 166  260.2844
 167  133.5333
 168  126.7764
 169  119.1068
 170  61.28233
 171  180.1673
 172  270.1954
 173  307.8288
 174  244.5826
 175  207.8878
 176  218.64
 177  88.96143
 178  58.9792
 179  130.347
 180  240.9207
 181  100.7308
 182  160.9644
 183  43.14478
 184  82.89672
 185  44.75984
 186  -50.69129
 187  111.9901
 188  237.4202
 189  216.0657
 190  203.0341
 191  133.2314
 192  76.65124
 193  46.85756
 194  183.2832
 195  188.6066
 196  24.71443
 197  103.7588
 198  254.7567
 199  176.6634
 200  167.5551
 201  50.49297
 202  55.74685
 203  172.0121
 204  358.9603
 205  214.6052
 206  229.8574
 207  241.2481
 208  170.9205
 209  140.4113
 210  285.9154
 211  166.0985
 212  105.2484
 213  72.38354
 214  -65.24763
 215  -12.75339
 216  128.9346
 217  167.8215
 218  128.2736
 219  211.2816
 220  293.7077
 221  104.8836
 222  79.38978
 223  159.7642
 224  168.6631
 225  114.3903
 226  105.5231
 227  142.1812
 228  222.931
 229  309.5598
 230  208.0874
 231  186.2697
 232  57.67284
 233  58.91879
 234  14.37254
 235  4.36778
 236  122.5513
 237  59.47113
 238  63.1177
 239  136.5743
 240  12.95232
 241  25.25191
 242  -34.02916
 243  135.2422
 244  227.0441
 245  302.0872
 246  112.0513
 247  155.207
 248  138.1945
 249  62.53965
 250  51.49075
 251  122.7034
 252  211.4492
 253  221.8516
 254  111.5507
 255  30.30475
 256  183.74
 257  348.6451
 258  167.3223
 259  169.6579
 260  190.7075
 261  101.41
 262  158.7962
 263  131.843
 264  175.6085
 265  49.3676
 266  19.32054
 267  102.4627
 268  93.74544
 269  82.66927
 270  117.4889
 271  188.7215
 272  221.3284
 273  203.7643
 274  62.65596
 275  112.5938
 276  109.5841
 277  75.58514
 278  159.5293
 279  101.9157
 280  164.4665
 281  180.7478
 282  183.4478
 283  153.2977
 284  65.357
 285  114.7512
 286  156.4171
 287  173.0759
 288  276.6988
 289  197.3415
 290  162.2296
 291  236.0665
 292  185.8675
 293  229.1975
 294  285.0107
 295  270.9236
 296  209.1694
 297  244.9816
 298  271.7045
 299  252.0691
 300  88.31593
 301  -11.40746
 302  125.9979
 303  79.3053
 304  79.79639
 305  174.0219
 306  316.3929
 307  227.5169
 308  122.4084
 309  209.9041
 310  267.5031
 311  239.1967
 312  88.8382
 313  129.573
 314  107.9082
 315  137.1684
 316  188.109
 317  242.8564
 318  141.4401
 319  49.75257
 320  220.4734
 321  340.4826
 322  170.0406
 323  112.5655
 324  -0.6269203
 325  63.43408
 326  113.8971
 327  118.7492
 328  140.3996
 329  267.2448
 330  306.0275
 331  113.3191
 332  94.29254
 333  135.0384
 334  82.76951
 335  167.7348
 336  170.178
 337  55.59087
 338  126.8709
 339  243.1138
 340  119.6043
 341  25.14665
 342  233.2013
 343  258.1481
 344  115.4929
 345  -50.98169
 346  104.6624
 347  139.954
 348  239.9211
 349  268.4039
 350  152.4938
 351  -7.868451
 352  123.4215
 353  209.3281
 354  201.845
 355  210.7368
 356  66.33852
 357  289.7436
 358  220.7292
 359  65.47802
 360  90.78133
 361  229.0786
 362  193.2096
 363  89.90308
 364  74.72871
 365  284.0188
 366  168.1947
 367  83.93918
 368  205.8986
 369  127.8063
 370  156.4572
 371  132.381
 372  191.0796
 373  166.0149
 374  99.98533
 375  155.8389
 376  140.2339
 377  184.7876
 378  166.7471
 379  150.7307
 380  86.20634
 381  35.02945
 382  127.4955
 383  208.637
 384  204.2119
 385  212.1931
 386  64.2305
 387  109.438
 388  246.4908
 389  247.5865
 390  236.7298
 391  201.8231
 392  279.3219
 393  99.82071
 394  34.56594
 395  -33.8913
 396  148.8381
 397  181.522
 398  163.1371
 399  178.5574
 400  99.7635
 401  110.6924
 402  233.3714
 403  181.9959
 404  201.2932
 405  137.9135
 406  121.8818
 407  80.90343
 408  116.1561
 409  359.7123
 410  273.0811
 411  58.31777
 412  71.6329
 413  103.6584
 414  255.2259
 415  219.3419
 416  162.3464
 417  60.37456
 418  89.37415
 419  161.6699
 420  200.8596
 421  -155.5814
 422  -151.8333
 423  38.72812
 424  188.6459
 425  244.4517
 426  192.1192
 427  345.6337
 428  255.6864
 429  133.4451
 430  112.7165
 431  70.05538
 432  92.6815
 433  131.9899
 434  272.4287
 435  166.3753
 436  77.06544
 437  8.953224
 438  111.4442
 439  31.15828
 440  -45.24706
 441  103.3703
 442  214.9718
 443  219.8523
 444  162.0466
 445  41.34167
 446  40.009
 447  51.38827
 448  138.2728
 449  151.829
 450  62.2753
 451  66.86816
 452  36.57092
 453  147.1461
 454  54.41298
 455  141.4085
 456  140.0685
 457  144.6179
 458  105.5302
 459  144.6543
 460  96.26149
 461  47.90707
 462  99.42403
 463  81.70478
 464  119.3175
 465  172.879
 466  44.06139
 467  154.0847
 468  123.8941
 469  86.8252
 470  190.0103
 471  221.0679
 472  183.8138
 473  135.347
 474  178.5806
 475  205.2373
 476  105.2449
 477  213.8149
 478  271.9683
 479  244.5446
 480  128.0232
 481  199.03
 482  184.4835
 483  248.9637
 484  156.3233
 485  206.1404
 486  326.383
 487  147.0213
 488  32.44205
 489  14.31528
 490  142.3167
 491  203.4292
 492  333.5204
 493  355.4115
 494  183.7689
 495  251.8596
 496  166.7979
 497  34.23416
 498  28.89942
 499  192.9871
 500  299.6811
 501  165.5979
 502  119.4031
 503  200.0409
 504  234.3482
 505  342.4383
 506  337.1816
 507  241.6033
 508  343.2115
 509  631.0461
 510  996.379
 511  1086.438
