# Input file       =  1190662343.095806_cleaned.dat
# Candidate        =  PSR_0332+5434
# Telescope        =  AR
# Epoch_topo       =  58024.813947868126
# Epoch_bary       =  N/A
# T_sample         =  0.002
# Data Folded      =  7340032
# Data Avg         =  0.00715333898885063
# Data StdDev      =  1.00010809957798 
# Profile Bins     =  512
# Profile Avg      =  102.541208507253 
# Profile StdDev   =  119.745979467468 
# Reduced chi-sqr  =  1.517
# Prob(Noise)      <  3.47e-13   (~7.2 sigma)
# P_topo (ms)      =  714.471433389064  +/- 0.000186
# P'_topo (s/s)    =  -0                +/- 9.79e-11
# P''_topo (s/s^2) =  0                 +/- 4.32e-14
# P_bary (ms)      =  N/A
# P'_bary (s/s)    =  N/A
# P''_bary (s/s^2) =  N/A
# P_orb (s)        =  N/A
# asin(i)/c (s)    =  N/A
# eccentricity     =  N/A
# w (rad)          =  N/A
# T_peri           =  N/A
######################################################
   0  924.9749
   1  820.2896
   2  613.1975
   3  399.5594
   4  124.8975
   5  143.6754
   6  145.1067
   7  220.7048
   8  185.4921
   9  152.9576
  10  117.1448
  11  -12.26786
  12  -31.80668
  13  -63.90133
  14  -123.1556
  15  13.87331
  16  163.5074
  17  245.1967
  18  161.7005
  19  69.24754
  20  91.59785
  21  87.09154
  22  238.5435
  23  197.5852
  24  52.117
  25  35.51329
  26  102.675
  27  101.8386
  28  12.87496
  29  54.72204
  30  35.0062
  31  113.654
  32  146.4384
  33  15.00796
  34  -21.04191
  35  43.97575
  36  120.9105
  37  123.7224
  38  159.3826
  39  40.78706
  40  -37.01813
  41  -22.21618
  42  123.722
  43  37.28646
  44  24.47092
  45  -6.362818
  46  84.52139
  47  101.6869
  48  62.35963
  49  49.27959
  50  96.6721
  51  16.83488
  52  36.19049
  53  -13.23898
  54  84.53367
  55  63.74459
  56  139.1846
  57  85.22302
  58  34.57872
  59  228.1956
  60  114.62
  61  120.7575
  62  6.668535
  63  89.64738
  64  73.31051
  65  64.64012
  66  36.81381
  67  28.88513
  68  -2.404212
  69  78.77303
  70  59.57471
  71  57.20981
  72  132.211
  73  177.7759
  74  123.3102
  75  -10.48378
  76  -53.53999
  77  -9.938083
  78  177.3449
  79  121.1574
  80  154.9226
  81  92.91619
  82  70.1696
  83  221.3251
  84  116.3074
  85  -50.04478
  86  32.64165
  87  127.1157
  88  129.237
  89  79.44999
  90  61.17612
  91  67.94862
  92  62.08535
  93  158.5689
  94  212.1335
  95  60.05002
  96  19.82938
  97  102.0419
  98  143.9433
  99  81.19327
 100  179.7507
 101  295.9258
 102  175.7575
 103  71.20938
 104  161.5369
 105  140.2538
 106  116.9739
 107  144.2338
 108  199.8833
 109  175.4244
 110  184.7453
 111  286.1002
 112  169.784
 113  -33.62097
 114  100.9591
 115  129.6616
 116  167.5594
 117  134.1956
 118  53.86321
 119  152.2858
 120  153.1955
 121  56.75857
 122  49.11657
 123  25.20582
 124  5.725323
 125  -49.95826
 126  -1.18737
 127  228.7632
 128  152.0706
 129  -14.3666
 130  21.52998
 131  47.56505
 132  -6.970511
 133  71.62464
 134  106.9242
 135  69.69743
 136  134.8578
 137  195.965
 138  209.3182
 139  183.3088
 140  118.4951
 141  183.8518
 142  177.1327
 143  -23.96045
 144  33.55842
 145  -25.45416
 146  88.5762
 147  144.1018
 148  145.0048
 149  171.6515
 150  189.1883
 151  36.45786
 152  79.11292
 153  124.8306
 154  161.3277
 155  78.935
 156  37.21095
 157  67.73971
 158  129.8745
 159  37.8616
 160  174.7772
 161  160.3399
 162  55.60681
 163  34.12013
 164  105.3538
 165  86.34617
 166  77.81644
 167  204.4521
 168  191.4324
 169  158.5096
 170  172.557
 171  179.3384
 172  155.6767
 173  55.07257
 174  94.70802
 175  53.19613
 176  -4.373397
 177  -38.25842
 178  69.52687
 179  3.085951
 180  128.4997
 181  265.7914
 182  135.9349
 183  141.1661
 184  122.5075
 185  132.2111
 186  88.78535
 187  -0.230895
 188  72.06258
 189  178.3483
 190  111.1378
 191  -24.63167
 192  37.02283
 193  137.2704
 194  176.0872
 195  54.95346
 196  131.8372
 197  50.27256
 198  -58.82522
 199  4.594111
 200  118.4226
 201  52.23699
 202  15.36112
 203  166.1028
 204  99.91327
 205  13.69321
 206  101.4981
 207  215.7622
 208  159.5541
 209  160.962
 210  152.0296
 211  12.17377
 212  111.3274
 213  144.4745
 214  198.5696
 215  76.12807
 216  65.96441
 217  59.50827
 218  96.54033
 219  252.7086
 220  185.5857
 221  75.65305
 222  76.41665
 223  26.83876
 224  -36.75528
 225  -10.1905
 226  73.34368
 227  153.3631
 228  162.3499
 229  63.4976
 230  71.02647
 231  166.6839
 232  244.9376
 233  301.0065
 234  109.4359
 235  24.88671
 236  -97.19343
 237  -30.32376
 238  176.5155
 239  220.6192
 240  177.3208
 241  158.7531
 242  186.7134
 243  58.32007
 244  145.6977
 245  195.701
 246  199.7702
 247  108.9554
 248  131.4571
 249  -1.49494
 250  72.91141
 251  -16.01557
 252  -66.67393
 253  -14.28675
 254  34.04227
 255  99.26479
 256  162.6701
 257  4.329787
 258  -12.30836
 259  -17.8033
 260  162.9004
 261  155.8407
 262  58.88446
 263  131.251
 264  -46.04753
 265  3.644864
 266  257.39
 267  265.6553
 268  62.77777
 269  63.27683
 270  110.4667
 271  -19.13378
 272  56.96797
 273  177.6323
 274  156.1855
 275  23.96605
 276  74.92725
 277  130.9187
 278  146.5438
 279  142.174
 280  144.5154
 281  188.268
 282  170.2859
 283  92.24481
 284  -44.60289
 285  34.22912
 286  169.8769
 287  139.1909
 288  201.9451
 289  158.03
 290  84.66576
 291  107.9898
 292  162.5544
 293  135.5786
 294  212.81
 295  165.166
 296  250.7968
 297  219.9316
 298  156.9933
 299  66.60152
 300  95.258
 301  14.66087
 302  118.2613
 303  26.92903
 304  204.2574
 305  205.2794
 306  195.1967
 307  84.79379
 308  -32.3585
 309  -17.77304
 310  117.634
 311  168.4746
 312  121.2007
 313  152.8296
 314  44.26646
 315  4.256253
 316  220.635
 317  191.4324
 318  155.1152
 319  221.2353
 320  231.9041
 321  112.9868
 322  146.2562
 323  131.0123
 324  152.4022
 325  36.01946
 326  50.24257
 327  121.2302
 328  174.1731
 329  100.7285
 330  72.18018
 331  43.71886
 332  104.9624
 333  77.28168
 334  -17.72207
 335  80.39616
 336  60.46319
 337  31.58381
 338  18.86305
 339  -24.38401
 340  109.637
 341  125.0247
 342  153.1468
 343  158.3802
 344  70.62567
 345  22.44084
 346  -8.776938
 347  -31.37736
 348  19.92985
 349  96.29877
 350  52.20206
 351  146.2489
 352  218.6199
 353  201.1493
 354  142.9705
 355  154.69
 356  173.1751
 357  98.34451
 358  49.6927
 359  165.085
 360  182.0603
 361  118.563
 362  82.12345
 363  229.2199
 364  108.9721
 365  20.11893
 366  81.27103
 367  -20.65069
 368  13.9955
 369  28.65615
 370  -8.955567
 371  126.2993
 372  228.4991
 373  59.02738
 374  31.21493
 375  68.51377
 376  67.65615
 377  2.600399
 378  -33.84435
 379  104.2546
 380  232.4603
 381  140.3523
 382  2.042739
 383  139.304
 384  61.84501
 385  76.64084
 386  58.14148
 387  149.2537
 388  49.82701
 389  -36.01281
 390  68.86948
 391  48.2818
 392  74.9274
 393  70.22162
 394  60.42009
 395  -13.90804
 396  12.10994
 397  58.92845
 398  148.1726
 399  87.64967
 400  37.67014
 401  7.916642
 402  39.47138
 403  15.57051
 404  -119.3361
 405  -73.60917
 406  7.919739
 407  -128.0423
 408  41.91988
 409  52.87649
 410  189.1422
 411  127.736
 412  62.35457
 413  114.7503
 414  22.54318
 415  55.96227
 416  139.5951
 417  139.4605
 418  121.7435
 419  159.8878
 420  81.56248
 421  44.32632
 422  -0.6232284
 423  -36.36964
 424  -131.0972
 425  -60.06308
 426  37.56181
 427  86.60561
 428  149.8777
 429  170.3707
 430  210.1028
 431  223.0949
 432  138.6587
 433  114.8722
 434  103.1086
 435  123.174
 436  86.0671
 437  -3.493191
 438  32.45301
 439  123.3856
 440  125.4215
 441  143.0047
 442  61.53582
 443  3.274815
 444  160.7625
 445  124.8399
 446  94.9057
 447  131.7399
 448  199.3781
 449  70.91518
 450  -67.72757
 451  -45.73876
 452  58.34369
 453  105.2181
 454  49.2807
 455  55.06211
 456  63.74307
 457  66.9618
 458  182.1208
 459  64.89732
 460  176.0355
 461  151.6469
 462  199.6685
 463  174.4329
 464  -100.7751
 465  20.77186
 466  194.0508
 467  239.1743
 468  272.7337
 469  259.8798
 470  128.3962
 471  81.18869
 472  155.3437
 473  95.38664
 474  85.20252
 475  2.450168
 476  81.85622
 477  -52.03702
 478  -20.08548
 479  55.4371
 480  170.4429
 481  204.3334
 482  101.7242
 483  3.315774
 484  102.5692
 485  37.07835
 486  -73.35925
 487  -50.66304
 488  27.32705
 489  69.27319
 490  -18.18663
 491  -54.61133
 492  128.202
 493  205.9803
 494  43.78765
 495  60.703
 496  100.7886
 497  84.93695
 498  22.02861
 499  182.35
 500  173.6272
 501  58.50923
 502  188.1712
 503  258.1804
 504  209.1832
 505  194.8464
 506  234.0688
 507  265.317
 508  353.2635
 509  491.9094
 510  636.1268
 511  851.3181
