# Input file       =  1190950050.106759_cleaned.dat
# Candidate        =  PSR_0332+5434
# Telescope        =  AR
# Epoch_topo       =  58028.143890124527
# Epoch_bary       =  N/A
# T_sample         =  0.002
# Data Folded      =  7340032
# Data Avg         =  0.00849786868308844
# Data StdDev      =  1.00025844162852 
# Profile Bins     =  512
# Profile Avg      =  121.870276537455 
# Profile StdDev   =  119.763980377675 
# Reduced chi-sqr  =  1.504
# Prob(Noise)      <  1.09e-12   (~7.0 sigma)
# P_topo (ms)      =  714.473573755076  +/- 0.00021
# P'_topo (s/s)    =  -0                +/- 1.11e-10
# P''_topo (s/s^2) =  0                 +/- 4.9e-14
# P_bary (ms)      =  N/A
# P'_bary (s/s)    =  N/A
# P''_bary (s/s^2) =  N/A
# P_orb (s)        =  N/A
# asin(i)/c (s)    =  N/A
# eccentricity     =  N/A
# w (rad)          =  N/A
# T_peri           =  N/A
######################################################
   0  717.8999
   1  717.1481
   2  645.147
   3  427.8729
   4  458.1584
   5  399.2532
   6  216.7593
   7  144.9294
   8  213.1547
   9  224.8863
  10  120.7428
  11  84.81828
  12  188.9228
  13  205.713
  14  301.6088
  15  316.2652
  16  355.5118
  17  218.4872
  18  149.3332
  19  179.3628
  20  195.5389
  21  126.0335
  22  149.7696
  23  17.36786
  24  -22.40233
  25  -35.12036
  26  47.64096
  27  38.77785
  28  65.27041
  29  169.5688
  30  100.5034
  31  34.04339
  32  128.2075
  33  233.8157
  34  116.5347
  35  177.9644
  36  92.4978
  37  32.68452
  38  37.66245
  39  144.281
  40  63.27505
  41  209.6013
  42  233.1709
  43  158.053
  44  153.7541
  45  65.38505
  46  2.798066
  47  77.74487
  48  118.1968
  49  184.9825
  50  206.41
  51  111.7208
  52  117.0814
  53  144.3156
  54  44.79314
  55  124.2458
  56  109.4766
  57  84.19983
  58  112.7165
  59  89.98547
  60  18.08705
  61  97.8549
  62  111.4751
  63  58.96286
  64  145.5912
  65  67.56979
  66  -11.0626
  67  58.72854
  68  147.5511
  69  194.0954
  70  196.0445
  71  197.1695
  72  192.0485
  73  36.48285
  74  131.3435
  75  26.28053
  76  -65.72878
  77  67.93398
  78  184.473
  79  190.8062
  80  211.2064
  81  70.52616
  82  31.37133
  83  128.3592
  84  263.5556
  85  168.0846
  86  56.21723
  87  109.5345
  88  235.031
  89  194.4662
  90  211.359
  91  226.3316
  92  130.9978
  93  104.2374
  94  108.121
  95  72.06145
  96  147.9636
  97  108.7423
  98  19.54043
  99  111.0133
 100  49.16468
 101  156.4989
 102  152.356
 103  142.2981
 104  138.5824
 105  98.97957
 106  15.86359
 107  85.71124
 108  166.1935
 109  234.5273
 110  292.0978
 111  52.01433
 112  -84.16299
 113  -63.49693
 114  171.9047
 115  140.5055
 116  73.97977
 117  207.3154
 118  200.5616
 119  136.1242
 120  212.2858
 121  73.72346
 122  31.43509
 123  102.1851
 124  130.2116
 125  48.88663
 126  113.8968
 127  36.96017
 128  -7.300289
 129  59.96427
 130  196.112
 131  158.5439
 132  74.83014
 133  125.9382
 134  213.1015
 135  203.915
 136  162.4616
 137  71.12832
 138  39.29719
 139  91.94828
 140  99.37968
 141  146.3759
 142  219.5438
 143  -8.388954
 144  -48.72538
 145  -51.3929
 146  8.659818
 147  87.86621
 148  19.63476
 149  156.1139
 150  121.3425
 151  68.80276
 152  53.4839
 153  96.99442
 154  120.7481
 155  46.88447
 156  106.9472
 157  198.8799
 158  42.20615
 159  4.848034
 160  161.4147
 161  130.3598
 162  80.23904
 163  96.20579
 164  63.60281
 165  130.1939
 166  -14.13941
 167  -62.81881
 168  17.72705
 169  51.5145
 170  110.0563
 171  118.4812
 172  187.6897
 173  165.0832
 174  103.3402
 175  112.5859
 176  121.0088
 177  40.57006
 178  107.9651
 179  153.363
 180  -51.85128
 181  -110.2176
 182  71.14049
 183  194.3197
 184  88.68938
 185  42.99326
 186  138.8687
 187  -11.4923
 188  56.04071
 189  79.36414
 190  110.8712
 191  129.5254
 192  14.38536
 193  117.7522
 194  178.4032
 195  157.1421
 196  143.1214
 197  -88.43287
 198  42.98849
 199  114.3299
 200  -27.0078
 201  39.31866
 202  -57.58023
 203  -17.30359
 204  44.53787
 205  -32.83453
 206  -38.56424
 207  17.0587
 208  81.60226
 209  -72.57042
 210  15.06034
 211  165.1828
 212  172.1162
 213  -52.34875
 214  65.54861
 215  105.0517
 216  104.6628
 217  -86.93194
 218  -68.82963
 219  71.86034
 220  183.9693
 221  204.5874
 222  116.6418
 223  10.61469
 224  7.406075
 225  -69.19708
 226  -118.4017
 227  21.18825
 228  175.444
 229  116.6563
 230  91.46965
 231  30.80757
 232  -30.47878
 233  -90.44855
 234  -19.85508
 235  194.7657
 236  163.7479
 237  60.89767
 238  3.679419
 239  51.90813
 240  62.04729
 241  130.8816
 242  115.5274
 243  80.13799
 244  179.944
 245  99.77086
 246  121.2155
 247  82.29974
 248  7.867068
 249  -44.25311
 250  -69.83308
 251  4.566917
 252  77.05382
 253  16.85579
 254  -42.55256
 255  67.56464
 256  16.84403
 257  80.36462
 258  57.00717
 259  175.4328
 260  42.08302
 261  59.13955
 262  164.6819
 263  173.4125
 264  148.5046
 265  186.6686
 266  167.6953
 267  183.9442
 268  187.44
 269  191.7031
 270  94.39606
 271  21.9609
 272  101.4028
 273  42.48503
 274  118.0369
 275  183.2449
 276  166.0505
 277  170.3534
 278  131.506
 279  124.9594
 280  183.1183
 281  173.1613
 282  81.21835
 283  127.7885
 284  118.5098
 285  135.1241
 286  128.2731
 287  151.0716
 288  44.09119
 289  -82.7364
 290  48.73787
 291  208.5116
 292  247.5304
 293  87.87364
 294  132.2486
 295  158.4562
 296  135.4059
 297  61.69713
 298  10.89573
 299  91.0471
 300  125.8847
 301  166.8326
 302  334.5247
 303  160.3462
 304  -13.7909
 305  134.5617
 306  159.4006
 307  142.1329
 308  234.2243
 309  79.9901
 310  4.123685
 311  56.84426
 312  154.7205
 313  193.8797
 314  193.0486
 315  256.4625
 316  214.0924
 317  226.6293
 318  101.3441
 319  54.16643
 320  36.7868
 321  108.5267
 322  -73.16512
 323  13.24704
 324  32.86681
 325  63.75414
 326  -13.00965
 327  128.7518
 328  83.63241
 329  42.96017
 330  87.22311
 331  276.3877
 332  188.052
 333  279.1174
 334  263.1462
 335  45.88324
 336  73.06794
 337  57.60322
 338  36.9567
 339  -27.56572
 340  43.98764
 341  121.996
 342  222.1015
 343  181.2013
 344  282.2576
 345  163.489
 346  41.1021
 347  91.79545
 348  136.3247
 349  111.551
 350  188.6091
 351  250.4479
 352  225.3831
 353  197.1038
 354  102.6223
 355  93.61915
 356  235.2045
 357  216.9667
 358  196.2793
 359  156.8957
 360  336.8351
 361  239.5932
 362  148.3839
 363  51.64265
 364  180.5413
 365  168.7112
 366  36.78109
 367  59.06697
 368  209.6364
 369  315.5423
 370  149.0823
 371  54.48337
 372  150.8052
 373  188.1534
 374  87.77849
 375  100.116
 376  72.7931
 377  137.4874
 378  197.7555
 379  290.7943
 380  202.4541
 381  150.7534
 382  178.1541
 383  165.7286
 384  218.2513
 385  183.7347
 386  284.9041
 387  200.8208
 388  74.7762
 389  196.3248
 390  114.7907
 391  93.30871
 392  71.19069
 393  124.7754
 394  166.008
 395  88.92828
 396  81.17165
 397  121.4766
 398  72.6122
 399  107.298
 400  158.5286
 401  281.6218
 402  106.0803
 403  -60.85184
 404  68.98174
 405  169.9296
 406  124.3605
 407  218.9104
 408  262.4239
 409  292.1637
 410  89.64722
 411  172.1334
 412  254.1762
 413  77.65319
 414  42.25356
 415  158.7937
 416  48.41526
 417  168.8168
 418  186.3697
 419  86.83666
 420  120.6536
 421  80.62604
 422  159.1421
 423  116.0498
 424  69.78394
 425  6.840977
 426  21.27771
 427  -10.98835
 428  132.6228
 429  172.2929
 430  304.8019
 431  236.1701
 432  225.8371
 433  179.9194
 434  58.55075
 435  30.92897
 436  -4.349682
 437  -11.83947
 438  102.5694
 439  138.3193
 440  111.8763
 441  216.8772
 442  246.6083
 443  177.9306
 444  215.4017
 445  135.9225
 446  109.3689
 447  178.9721
 448  101.4165
 449  101.1425
 450  122.6375
 451  63.82772
 452  -17.96544
 453  -131.9321
 454  3.667247
 455  178.1669
 456  132.1094
 457  169.9296
 458  138.7141
 459  66.04527
 460  15.39188
 461  38.99047
 462  83.82272
 463  205.474
 464  153.8549
 465  147.1258
 466  266.7148
 467  370.7013
 468  314.1981
 469  97.64558
 470  164.3155
 471  130.8588
 472  157.139
 473  121.5713
 474  11.49842
 475  69.43137
 476  72.55157
 477  105.9043
 478  88.77367
 479  86.27112
 480  62.62144
 481  130.9842
 482  79.56414
 483  53.93897
 484  126.3764
 485  160.5026
 486  105.4852
 487  73.96446
 488  86.31738
 489  68.0278
 490  14.505
 491  116.35
 492  201.2269
 493  174.927
 494  57.95635
 495  161.3096
 496  239.504
 497  160.9931
 498  8.179018
 499  103.5557
 500  267.5379
 501  252.2169
 502  308.107
 503  318.7487
 504  252.067
 505  222.754
 506  222.7256
 507  98.38116
 508  188.4938
 509  351.8972
 510  556.205
 511  850.78
