# Input file       =  1190662343.095806_cleaned.dat
# Candidate        =  PSR_0332+5434
# Telescope        =  AR
# Epoch_topo       =  58024.813947868126
# Epoch_bary       =  N/A
# T_sample         =  0.002
# Data Folded      =  7340032
# Data Avg         =  0.00715333898885063
# Data StdDev      =  1.00010809957798 
# Profile Bins     =  512
# Profile Avg      =  102.541208500494 
# Profile StdDev   =  119.745979467468 
# Reduced chi-sqr  =  1.521
# Prob(Noise)      <  2.47e-13   (~7.2 sigma)
# P_topo (ms)      =  714.471433526727  +/- 0.000187
# P'_topo (s/s)    =  -0                +/- 9.87e-11
# P''_topo (s/s^2) =  0                 +/- 4.36e-14
# P_bary (ms)      =  N/A
# P'_bary (s/s)    =  N/A
# P''_bary (s/s^2) =  N/A
# P_orb (s)        =  N/A
# asin(i)/c (s)    =  N/A
# eccentricity     =  N/A
# w (rad)          =  N/A
# T_peri           =  N/A
######################################################
   0  908.2828
   1  892.108
   2  730.9556
   3  539.6032
   4  262.3606
   5  105.2173
   6  143.9028
   7  164.9531
   8  230.6135
   9  149.1925
  10  161.6799
  11  50.69916
  12  -27.34182
  13  -38.13092
  14  -96.27312
  15  -84.39647
  16  86.73158
  17  213.6847
  18  233.0955
  19  94.88248
  20  90.864
  21  67.22832
  22  163.3864
  23  253.3897
  24  118.2749
  25  38.7466
  26  47.40568
  27  134.9126
  28  31.59961
  29  50.92027
  30  29.58484
  31  64.27158
  32  130.7537
  33  118.5225
  34  -44.78343
  35  41.3088
  36  61.56297
  37  133.9025
  38  142.9734
  39  106.702
  40  5.424228
  41  -61.50552
  42  65.26738
  43  96.59075
  44  24.10022
  45  13.4563
  46  26.29962
  47  107.5162
  48  88.88689
  49  44.67452
  50  67.88241
  51  84.93573
  52  -4.997289
  53  42.37464
  54  4.015195
  55  95.30058
  56  68.22083
  57  137.7115
  58  42.27986
  59  114.8516
  60  199.0553
  61  110.4159
  62  65.07391
  63  38.36365
  64  97.79491
  65  64.70723
  66  60.79171
  67  45.80857
  68  -18.03101
  69  51.82993
  70  45.8019
  71  88.32595
  72  56.52335
  73  184.14
  74  167.7107
  75  49.48992
  76  -28.49012
  77  -69.42786
  78  91.14506
  79  169.224
  80  109.1035
  81  168.6593
  82  34.76404
  83  154.0288
  84  208.2041
  85  37.62888
  86  -61.71379
  87  102.2692
  88  126.8841
  89  126.2537
  90  40.52378
  91  74.99556
  92  51.19755
  93  98.04132
  94  226.9206
  95  131.8989
  96  21.97201
  97  45.73912
  98  151.1153
  99  99.50347
 100  124.4088
 101  230.1564
 102  292.4951
 103  81.88844
 104  110.4627
 105  170.9509
 106  112.6484
 107  136.6244
 108  169.0228
 109  196.8808
 110  158.5203
 111  231.207
 112  286.2749
 113  35.85575
 114  23.49951
 115  111.5586
 116  161.8385
 117  145.3254
 118  102.2478
 119  65.69519
 120  190.2394
 121  96.23714
 122  50.27886
 123  52.1923
 124  13.54159
 125  -19.44469
 126  -69.61792
 127  121.0225
 128  240.2052
 129  62.18335
 130  -25.77267
 131  49.96351
 132  28.13769
 133  13.28604
 134  109.4784
 135  68.60294
 136  103.4661
 137  167.3249
 138  217.0075
 139  196.3921
 140  140.0661
 141  130.1699
 142  213.6094
 143  78.88544
 144  -12.71917
 145  24.1428
 146  5.9393
 147  141.8315
 148  129.7606
 149  144.1775
 150  199.7689
 151  118.6063
 152  42.61337
 153  95.72145
 154  145.2903
 155  137.7599
 156  50.48767
 157  58.78477
 158  91.05715
 159  112.8677
 160  56.11609
 161  214.7016
 162  88.91289
 163  38.71232
 164  57.119
 165  115.7156
 166  58.07528
 167  140.7327
 168  215.7632
 169  177.9053
 170  151.8291
 171  190.5389
 172  169.9936
 173  104.2146
 174  63.76294
 175  84.63503
 176  39.57811
 177  -37.54728
 178  5.869458
 179  41.22045
 180  20.15235
 181  214.2333
 182  228.9086
 183  120.7278
 184  148.3175
 185  126.9837
 186  122.3909
 187  59.46221
 188  -3.412438
 189  153.7157
 190  136.8639
 191  60.77642
 192  -44.62445
 193  117.323
 194  143.5749
 195  140.1858
 196  52.28124
 197  147.4421
 198  -23.44177
 199  -49.7567
 200  62.31207
 201  111.5142
 202  9.52774
 203  95.08798
 204  160.1319
 205  52.97956
 206  29.77025
 207  172.8243
 208  202.0611
 209  121.9023
 210  199.0373
 211  56.63447
 212  54.41856
 213  132.1488
 214  184.8041
 215  153.6087
 216  48.03206
 217  59.37177
 218  65.68327
 219  178.8683
 220  246.2919
 221  136.5402
 222  53.2694
 223  77.60162
 224  -27.49618
 225  -33.88754
 226  15.75807
 227  126.8652
 228  171.1665
 229  111.6808
 230  59.75791
 231  102.677
 232  213.8686
 233  290.1645
 234  226.9324
 235  54.97312
 236  -32.92837
 237  -101.343
 238  54.48604
 239  246.4489
 240  194.3835
 241  164.1462
 242  179.7783
 243  121.5311
 244  81.58379
 245  177.2477
 246  208.6494
 247  141.0551
 248  136.5676
 249  66.23513
 250  16.32102
 251  51.90128
 252  -55.76701
 253  -46.60731
 254  11.75393
 255  61.53046
 256  139.8641
 257  112.3478
 258  -41.57323
 259  -4.340851
 260  24.79589
 261  233.0655
 262  64.72954
 263  125.2341
 264  56.62296
 265  -79.5605
 266  133.5405
 267  297.8961
 268  204.4556
 269  1.821074
 270  116.7269
 271  31.81845
 272  -24.74953
 273  130.549
 274  209.1266
 275  82.19527
 276  48.65228
 277  78.41469
 278  150.3594
 279  138.5405
 280  157.0296
 281  155.2763
 282  191.0342
 283  128.1102
 284  32.68409
 285  -24.85899
 286  103.4025
 287  180.2843
 288  120.1462
 289  217.1586
 290  108.2922
 291  82.78884
 292  169.4928
 293  132.5954
 294  185.8654
 295  176.3387
 296  200.4751
 297  234.3279
 298  221.8885
 299  90.1271
 300  96.62666
 301  45.28967
 302  55.58537
 303  101.141
 304  66.48856
 305  237.0653
 306  188.0645
 307  174.951
 308  6.538164
 309  -33.58076
 310  21.50183
 311  191.4422
 312  110.3762
 313  162.9255
 314  111.0038
 315  2.51593
 316  94.49068
 317  230.4227
 318  168.2307
 319  176.0252
 320  246.8244
 321  174.0455
 322  110.8279
 323  148.6922
 324  149.6292
 325  106.5928
 326  20.69294
 327  78.73265
 328  158.2552
 329  148.8336
 330  75.64914
 331  63.85555
 332  37.05886
 333  141.7384
 334  -1.34346
 335  33.42778
 336  92.41543
 337  24.64191
 338  63.4215
 339  -45.12786
 340  51.09996
 341  109.6246
 342  148.0596
 343  162.4691
 344  123.834
 345  42.31802
 346  3.331889
 347  -12.4385
 348  -24.29949
 349  62.13256
 350  80.26515
 351  55.61763
 352  227.2438
 353  196.7369
 354  205.1243
 355  107.9569
 356  186.4562
 357  128.6753
 358  69.17936
 359  96.8327
 360  196.7997
 361  145.0648
 362  80.69119
 363  148.2445
 364  208.4673
 365  42.59653
 366  46.45484
 367  63.72829
 368  -42.82865
 369  42.79652
 370  3.589737
 371  29.44622
 372  209.7249
 373  143.2875
 374  31.67049
 375  33.84514
 376  100.2602
 377  29.8625
 378  -12.59646
 379  8.14184
 380  172.8868
 381  231.2455
 382  35.24669
 383  83.4927
 384  95.24413
 385  89.17178
 386  34.66026
 387  134.6418
 388  104.2418
 389  -5.860649
 390  -11.12055
 391  88.92717
 392  44.53412
 393  79.36112
 394  69.11441
 395  22.32608
 396  -24.79575
 397  34.93953
 398  110.3614
 399  127.7294
 400  73.46754
 401  -10.10704
 402  72.67303
 403  6.907902
 404  -12.56241
 405  -190.4313
 406  44.96146
 407  -93.38957
 408  -33.47118
 409  42.22357
 410  116.4078
 411  189.6951
 412  77.01773
 413  82.82822
 414  90.62316
 415  -4.325177
 416  115.5426
 417  139.6003
 418  134.4572
 419  129.0389
 420  148.8282
 421  56.61411
 422  35.23711
 423  -27.5905
 424  -90.95248
 425  -112.0751
 426  -5.460915
 427  60.09954
 428  111.4219
 429  166.9767
 430  188.1497
 431  217.0463
 432  195.2477
 433  111.4869
 434  126.0376
 435  101.573
 436  108.3986
 437  49.22734
 438  -9.038578
 439  85.42848
 440  124.4861
 441  127.0591
 442  131.3239
 443  1.024338
 444  81.85648
 445  175.0097
 446  88.74217
 447  107.7804
 448  168.9081
 449  170.6496
 450  -5.131152
 451  -80.05712
 452  4.28701
 453  93.73261
 454  87.55009
 455  34.4061
 456  59.13741
 457  43.13051
 458  134.09
 459  152.395
 460  94.46356
 461  176.7287
 462  174.739
 463  197.2301
 464  78.30186
 465  -129.5625
 466  135.6109
 467  208.3553
 468  254.4373
 469  259.666
 470  228.2959
 471  60.0805
 472  163.1623
 473  100.3659
 474  119.0244
 475  21.00563
 476  68.63437
 477  29.12771
 478  -69.46587
 479  18.20235
 480  97.61407
 481  207.1491
 482  170.4552
 483  45.2804
 484  28.43197
 485  118.1441
 486  -52.19452
 487  -62.20971
 488  -27.59312
 489  67.3982
 490  36.27287
 491  -64.75359
 492  18.27632
 493  189.6533
 494  145.9183
 495  23.7888
 496  87.40059
 497  117.8042
 498  38.30304
 499  92.06383
 500  197.0816
 501  110.4813
 502  83.01828
 503  265.8157
 504  225.2455
 505  204.4078
 506  188.9303
 507  267.1193
 508  275.4235
 509  428.5655
 510  538.8984
 511  737.7462
