# Input file       =  1190834350.096258_cleaned.dat
# Candidate        =  PSR_0332+5434
# Telescope        =  AR
# Epoch_topo       =  58026.804769632618
# Epoch_bary       =  N/A
# T_sample         =  0.002
# Data Folded      =  7208960
# Data Avg         =  0.00634339545647085
# Data StdDev      =  1.00004403759971 
# Profile Bins     =  512
# Profile Avg      =  89.336882994052  
# Profile StdDev   =  118.664401258816 
# Reduced chi-sqr  =  1.445
# Prob(Noise)      <  1.64e-10   (~6.3 sigma)
# P_topo (ms)      =  714.47248779082   +/- 0.000183
# P'_topo (s/s)    =  -0                +/- 9.83e-11
# P''_topo (s/s^2) =  0                 +/- 4.42e-14
# P_bary (ms)      =  N/A
# P'_bary (s/s)    =  N/A
# P''_bary (s/s^2) =  N/A
# P_orb (s)        =  N/A
# asin(i)/c (s)    =  N/A
# eccentricity     =  N/A
# w (rad)          =  N/A
# T_peri           =  N/A
######################################################
   0  790.8271
   1  856.5632
   2  711.5795
   3  526.0034
   4  197.0959
   5  75.45702
   6  26.2686
   7  152.5022
   8  89.32902
   9  88.67221
  10  98.5788
  11  109.3654
  12  95.69297
  13  84.37542
  14  117.3173
  15  184.7376
  16  137.8074
  17  234.8182
  18  220.0537
  19  118.8076
  20  116.4649
  21  42.38477
  22  201.1447
  23  244.4636
  24  178.6687
  25  133.8138
  26  111.3424
  27  48.93627
  28  42.04507
  29  185.0971
  30  100.2771
  31  110.5907
  32  63.54747
  33  63.53569
  34  184.7396
  35  205.745
  36  84.31312
  37  -41.32901
  38  70.68057
  39  -52.00261
  40  16.25483
  41  29.13524
  42  16.00553
  43  69.16724
  44  3.134979
  45  -68.56822
  46  -19.70131
  47  141.8664
  48  232.0552
  49  76.57343
  50  30.5893
  51  4.847489
  52  2.914171
  53  119.9211
  54  246.3898
  55  210.7374
  56  92.26068
  57  15.94896
  58  151.5184
  59  105.669
  60  102.1255
  61  199.3922
  62  94.70032
  63  70.01943
  64  103.348
  65  -4.231039
  66  -59.59564
  67  -60.64879
  68  175.8066
  69  269.7599
  70  148.878
  71  135.8305
  72  70.22212
  73  61.54676
  74  114.4803
  75  121.8763
  76  182.5691
  77  213.9577
  78  9.57427
  79  168.6759
  80  112.1586
  81  76.42344
  82  8.506249
  83  60.04457
  84  190.7278
  85  214.8867
  86  246.8362
  87  276.9511
  88  148.7389
  89  -25.63711
  90  19.44641
  91  121.3148
  92  45.5448
  93  -16.61396
  94  31.02929
  95  10.93747
  96  30.77362
  97  146.2041
  98  114.8145
  99  82.95736
 100  62.36096
 101  240.5992
 102  166.5644
 103  77.43649
 104  181.2877
 105  160.0494
 106  48.14844
 107  23.26015
 108  81.33878
 109  66.8092
 110  16.89497
 111  137.8385
 112  75.79996
 113  136.9099
 114  164.7624
 115  200.5093
 116  139.431
 117  164.095
 118  209.9736
 119  166.7472
 120  30.84951
 121  126.4771
 122  5.187826
 123  69.77679
 124  152.4903
 125  71.28713
 126  -4.20084
 127  24.67078
 128  136.384
 129  88.75806
 130  35.32605
 131  93.57437
 132  111.6003
 133  80.31395
 134  105.0572
 135  111.9015
 136  179.5845
 137  179.6852
 138  -21.54965
 139  -15.56481
 140  35.59553
 141  46.24139
 142  46.89919
 143  4.690857
 144  168.7927
 145  40.84094
 146  47.13829
 147  134.7123
 148  173.054
 149  15.90132
 150  -24.78856
 151  134.6261
 152  138.5675
 153  5.96742
 154  133.2499
 155  94.83474
 156  66.59293
 157  80.15146
 158  75.76837
 159  97.61091
 160  129.152
 161  124.0452
 162  46.5678
 163  49.40182
 164  115.023
 165  213.475
 166  305.9712
 167  100.6871
 168  -6.153026
 169  7.733694
 170  -61.81192
 171  54.57862
 172  170.7026
 173  63.3517
 174  170.052
 175  298.2444
 176  139.4853
 177  42.23097
 178  48.97185
 179  105.86
 180  151.6768
 181  136.9644
 182  179.0988
 183  160.5121
 184  176.9725
 185  232.7879
 186  255.1705
 187  136.1381
 188  33.56591
 189  -77.9979
 190  18.76615
 191  32.6857
 192  44.69848
 193  178.606
 194  170.8914
 195  90.37091
 196  51.27766
 197  2.632807
 198  98.66323
 199  86.89986
 200  -12.28115
 201  -2.256892
 202  62.57304
 203  193.5487
 204  44.30569
 205  20.37639
 206  16.19969
 207  -25.88196
 208  24.52755
 209  106.5576
 210  151.7403
 211  187.6171
 212  80.5629
 213  36.72566
 214  -8.111335
 215  110.5199
 216  207.3997
 217  -29.54405
 218  46.29581
 219  91.1341
 220  55.95598
 221  107.3744
 222  38.05954
 223  97.34904
 224  229.7299
 225  30.10371
 226  110.2353
 227  76.24946
 228  128.6122
 229  68.82431
 230  66.19872
 231  130.9233
 232  140.9913
 233  124.4805
 234  156.4546
 235  16.6163
 236  57.65755
 237  58.2323
 238  79.53259
 239  128.1585
 240  57.3519
 241  111.6978
 242  52.31025
 243  122.3151
 244  30.11693
 245  31.60113
 246  62.78423
 247  30.2683
 248  16.07185
 249  5.163933
 250  -61.88948
 251  5.925774
 252  79.28504
 253  75.95737
 254  -40.01626
 255  -72.86186
 256  -38.96156
 257  -33.32956
 258  36.65562
 259  78.71977
 260  68.04188
 261  65.26112
 262  7.199623
 263  -51.40974
 264  87.48837
 265  110.2008
 266  44.5716
 267  51.03423
 268  -23.92836
 269  104.5738
 270  135.7173
 271  48.95985
 272  113.1492
 273  138.4545
 274  93.44873
 275  3.215904
 276  111.7491
 277  68.77098
 278  181.488
 279  193.705
 280  72.13624
 281  -6.015461
 282  37.12253
 283  42.04464
 284  134.6083
 285  85.8054
 286  124.8951
 287  7.48892
 288  15.08587
 289  44.44202
 290  129.9269
 291  108.7726
 292  85.00013
 293  169.298
 294  61.31774
 295  46.08311
 296  21.8559
 297  -49.78551
 298  72.7837
 299  167.1117
 300  46.31802
 301  -94.74716
 302  41.65068
 303  93.88514
 304  89.99297
 305  4.537334
 306  23.45984
 307  49.09525
 308  66.8342
 309  45.13265
 310  14.78018
 311  17.35892
 312  78.56081
 313  -56.89845
 314  -131.7962
 315  145.4944
 316  103.0731
 317  -107.0245
 318  -171.4138
 319  -28.4153
 320  41.83408
 321  36.57824
 322  89.06056
 323  63.21057
 324  -32.44313
 325  92.11366
 326  92.46931
 327  31.95518
 328  0.3786376
 329  -53.4803
 330  -32.51289
 331  165.969
 332  174.978
 333  229.0005
 334  34.37388
 335  -36.25666
 336  48.65787
 337  27.44539
 338  61.86831
 339  169.2469
 340  185.2927
 341  183.6902
 342  48.26272
 343  38.39914
 344  -3.472691
 345  -25.72071
 346  21.8966
 347  26.52979
 348  4.623799
 349  -5.143429
 350  -0.1591843
 351  -82.09477
 352  32.71473
 353  93.27628
 354  76.13673
 355  75.19316
 356  79.46094
 357  160.7038
 358  147.1623
 359  67.67719
 360  9.272225
 361  90.82729
 362  -1.04189
 363  81.55873
 364  157.8105
 365  204.785
 366  251.4383
 367  77.95654
 368  56.94131
 369  -19.77135
 370  6.41443
 371  58.83529
 372  114.0254
 373  -14.94897
 374  -85.22269
 375  -41.68636
 376  -25.36486
 377  -22.86124
 378  -12.99529
 379  9.656529
 380  0.2750109
 381  22.86003
 382  8.06069
 383  171.4337
 384  269.0345
 385  257.7537
 386  111.2046
 387  17.30897
 388  2.815907
 389  68.28315
 390  168.0318
 391  113.1098
 392  56.39144
 393  -97.22034
 394  -40.58071
 395  153.0193
 396  71.1286
 397  66.55193
 398  57.00241
 399  20.32579
 400  -92.69172
 401  97.35128
 402  127.1287
 403  73.54967
 404  52.29198
 405  -39.74488
 406  72.23821
 407  156.0476
 408  43.45495
 409  -15.24551
 410  44.8665
 411  93.28236
 412  52.93996
 413  47.8399
 414  160.2521
 415  127.7188
 416  18.1502
 417  71.07275
 418  5.561614
 419  108.3483
 420  202.2364
 421  69.5937
 422  64.19781
 423  199.4646
 424  117.0756
 425  50.96697
 426  102.7568
 427  -84.35819
 428  -88.29553
 429  -11.67301
 430  118.6485
 431  111.1849
 432  146.5346
 433  136.2813
 434  128.5359
 435  193.3166
 436  244.7422
 437  111.3428
 438  136.2489
 439  185.9656
 440  157.0393
 441  45.95328
 442  115.7369
 443  29.83576
 444  -81.06579
 445  -34.75481
 446  95.37565
 447  69.99659
 448  40.9587
 449  168.7135
 450  212.3599
 451  163.2493
 452  135.657
 453  101.2516
 454  90.90504
 455  -31.38455
 456  -68.79894
 457  69.33196
 458  289.4428
 459  216.3132
 460  -13.93154
 461  -15.46644
 462  -4.128006
 463  110.9329
 464  176.239
 465  163.9828
 466  70.61636
 467  10.51992
 468  17.59473
 469  74.13227
 470  124.4389
 471  298.4435
 472  244.4397
 473  180.691
 474  96.48055
 475  53.31962
 476  -36.85804
 477  -8.473109
 478  48.68785
 479  57.63468
 480  41.07937
 481  -8.611566
 482  56.92787
 483  24.6285
 484  5.756986
 485  174.2954
 486  193.4457
 487  188.247
 488  138.7688
 489  118.6524
 490  -12.24208
 491  -44.63963
 492  68.72034
 493  123.2359
 494  95.81757
 495  209.0523
 496  181.5314
 497  29.49719
 498  207.3428
 499  184.6671
 500  67.85605
 501  137.6666
 502  138.6358
 503  97.8472
 504  99.74443
 505  203.1842
 506  267.8767
 507  307.168
 508  275.4108
 509  322.7327
 510  424.2329
 511  643.4178
