# Input file       =  1190612441.145066_cleaned.dat
# Candidate        =  PSR_0332+5434
# Telescope        =  AR
# Epoch_topo       =  58024.236378993817
# Epoch_bary       =  N/A
# T_sample         =  0.002
# Data Folded      =  7340032
# Data Avg         =  0.00572439857757228
# Data StdDev      =  1.00001252845649 
# Profile Bins     =  512
# Profile Avg      =  81.9929962987863 
# Profile StdDev   =  119.734536446902 
# Reduced chi-sqr  =  1.768
# Prob(Noise)      <  3.15e-24   (~10.1 sigma)
# P_topo (ms)      =  714.471663984042  +/- 0.000204
# P'_topo (s/s)    =  -0                +/- 1.07e-10
# P''_topo (s/s^2) =  0                 +/- 4.74e-14
# P_bary (ms)      =  N/A
# P'_bary (s/s)    =  N/A
# P''_bary (s/s^2) =  N/A
# P_orb (s)        =  N/A
# asin(i)/c (s)    =  N/A
# eccentricity     =  N/A
# w (rad)          =  N/A
# T_peri           =  N/A
######################################################
   0  872.087
   1  921.9196
   2  688.9012
   3  501.8203
   4  243.1636
   5  73.76851
   6  -23.68009
   7  -0.9624802
   8  -19.11567
   9  78.1114
  10  160.6619
  11  335.5128
  12  205.2753
  13  204.1954
  14  200.7516
  15  291.8936
  16  199.7145
  17  -15.80504
  18  10.91541
  19  27.91527
  20  36.98991
  21  60.69474
  22  76.63052
  23  135.4503
  24  124.6474
  25  92.13292
  26  129.1081
  27  157.7184
  28  67.53024
  29  133.6975
  30  262.6373
  31  214.4135
  32  93.74761
  33  174.1097
  34  163.3554
  35  117.6241
  36  94.67105
  37  209.2391
  38  286.532
  39  176.8013
  40  158.2578
  41  34.85698
  42  44.19989
  43  77.20943
  44  94.36353
  45  27.37044
  46  8.985251
  47  19.09737
  48  103.901
  49  126.2103
  50  143.9711
  51  132.5073
  52  122.8278
  53  183.6981
  54  147.6262
  55  87.90321
  56  59.99952
  57  99.4965
  58  61.1999
  59  99.38647
  60  119.0127
  61  187.0138
  62  41.8074
  63  79.62926
  64  84.7187
  65  132.5101
  66  4.86083
  67  -13.04769
  68  27.01903
  69  117.4266
  70  192.9569
  71  151.238
  72  91.18849
  73  -29.82367
  74  -25.39304
  75  60.53047
  76  61.94676
  77  -51.46992
  78  100.3825
  79  221.7005
  80  132.3198
  81  90.55029
  82  104.7023
  83  99.9742
  84  101.6522
  85  31.37449
  86  -45.96416
  87  39.8476
  88  128.6464
  89  -4.525733
  90  -58.13554
  91  -10.42688
  92  139.5843
  93  110.6038
  94  23.99309
  95  7.330559
  96  -49.5625
  97  37.47985
  98  -5.996069
  99  -50.98282
 100  -86.77793
 101  63.66378
 102  109.9225
 103  82.16413
 104  107.5393
 105  247.8153
 106  355.9281
 107  196.1214
 108  90.38647
 109  67.42851
 110  46.1986
 111  169.1347
 112  5.968115
 113  4.291852
 114  152.2631
 115  139.9576
 116  32.83967
 117  73.7901
 118  -26.05184
 119  84.4582
 120  142.514
 121  192.5396
 122  98.02592
 123  97.36375
 124  173.4767
 125  65.91235
 126  231.7378
 127  240.0204
 128  187.5192
 129  76.07471
 130  57.70755
 131  211.0671
 132  182.362
 133  -20.52941
 134  106.8002
 135  215.4771
 136  222.4403
 137  62.43325
 138  -18.54887
 139  2.993663
 140  40.47988
 141  53.74563
 142  91.98552
 143  97.81203
 144  16.68772
 145  159.3952
 146  98.04591
 147  -19.22739
 148  -11.35875
 149  14.92348
 150  128.6348
 151  87.88401
 152  116.1472
 153  115.3181
 154  -10.65025
 155  -16.61886
 156  -59.25728
 157  9.988771
 158  114.8316
 159  32.71156
 160  77.10254
 161  -58.68842
 162  -99.9548
 163  60.21253
 164  32.31327
 165  34.53261
 166  124.4083
 167  176.6668
 168  157.86
 169  -14.44415
 170  -3.932312
 171  66.41656
 172  -47.17769
 173  104.6191
 174  252.6676
 175  239.9031
 176  212.5661
 177  52.67662
 178  136.8945
 179  45.37082
 180  -35.221
 181  50.94213
 182  68.60843
 183  -32.60044
 184  10.69641
 185  162.4762
 186  25.43156
 187  26.03688
 188  206.4767
 189  175.6321
 190  39.20725
 191  43.77637
 192  94.36798
 193  118.5272
 194  17.56365
 195  100.6246
 196  79.43048
 197  129.4413
 198  105.2778
 199  2.917096
 200  99.02637
 201  93.11346
 202  -25.49135
 203  113.7476
 204  -4.080754
 205  25.27004
 206  -8.020769
 207  31.85846
 208  155.5834
 209  87.86244
 210  57.08263
 211  69.56436
 212  -69.78397
 213  -50.30537
 214  74.47353
 215  36.7021
 216  178.2507
 217  258.9556
 218  165.294
 219  132.1274
 220  105.416
 221  182.1775
 222  124.8283
 223  3.621088
 224  62.32613
 225  52.64792
 226  138.809
 227  162.287
 228  39.32873
 229  -74.59258
 230  -72.53093
 231  -29.78508
 232  186.4565
 233  203.5089
 234  31.90958
 235  -17.11736
 236  8.762156
 237  37.92959
 238  4.271212
 239  32.16866
 240  -38.0659
 241  -78.88042
 242  -28.16729
 243  30.60291
 244  182.6097
 245  178.0948
 246  92.38036
 247  166.0115
 248  136.3964
 249  81.66701
 250  166.9303
 251  139.5788
 252  163.9895
 253  222.9516
 254  236.3882
 255  131.6826
 256  38.30283
 257  134.8116
 258  59.97598
 259  -17.8042
 260  -26.73409
 261  114.9217
 262  -36.2677
 263  -144.3966
 264  56.22675
 265  183.6796
 266  101.3876
 267  25.19019
 268  -8.241657
 269  -20.30593
 270  137.1451
 271  56.9683
 272  -47.6083
 273  59.363
 274  -22.93405
 275  -74.70967
 276  27.79035
 277  185.0742
 278  201.1573
 279  126.0053
 280  124.2044
 281  111.4944
 282  82.73426
 283  34.18174
 284  -20.73782
 285  29.75548
 286  -20.7339
 287  138.3939
 288  164.4872
 289  53.24598
 290  -96.85398
 291  50.95942
 292  171.511
 293  223.1225
 294  249.9636
 295  233.4033
 296  158.8432
 297  -32.23211
 298  125.367
 299  38.07827
 300  -21.1877
 301  43.7455
 302  -77.36217
 303  -155.7097
 304  -102.5593
 305  41.15024
 306  41.82245
 307  -56.44244
 308  -13.44699
 309  109.0925
 310  24.24015
 311  -89.8211
 312  46.78749
 313  97.69253
 314  101.5215
 315  -30.71284
 316  35.35626
 317  36.6506
 318  -20.21611
 319  22.56277
 320  79.71995
 321  42.89334
 322  -20.27197
 323  -21.83874
 324  -23.75066
 325  8.041883
 326  116.5435
 327  -74.99676
 328  -111.1989
 329  54.06166
 330  210.61
 331  210.296
 332  165.1298
 333  111.7006
 334  171.3645
 335  62.13372
 336  147.3889
 337  136.3058
 338  6.106331
 339  27.20583
 340  49.63151
 341  8.911655
 342  -47.18606
 343  156.2079
 344  185.2245
 345  115.2402
 346  106.7358
 347  178.1055
 348  180.4293
 349  38.9911
 350  100.8733
 351  96.64573
 352  9.303464
 353  -75.40099
 354  44.79349
 355  253.3725
 356  62.43264
 357  160.7796
 358  3.926569
 359  133.9276
 360  -45.85371
 361  -38.87992
 362  -82.77616
 363  -52.25021
 364  77.85667
 365  49.99686
 366  64.93327
 367  38.08537
 368  8.00871
 369  -87.0702
 370  219.7715
 371  119.6978
 372  45.84102
 373  14.84816
 374  37.35539
 375  107.1178
 376  58.14846
 377  89.95763
 378  141.1191
 379  159.3901
 380  134.6521
 381  -0.7115154
 382  20.04392
 383  78.62669
 384  74.64272
 385  200.757
 386  130.5779
 387  6.039127
 388  -55.46166
 389  -16.53063
 390  39.35763
 391  220.3799
 392  133.3757
 393  42.82081
 394  22.25214
 395  2.067803
 396  117.1184
 397  241.8791
 398  124.3536
 399  149.487
 400  51.61926
 401  65.37244
 402  159.42
 403  136.0784
 404  141.0419
 405  51.73994
 406  65.75057
 407  -8.082328
 408  4.844744
 409  2.63758
 410  4.639772
 411  -53.99074
 412  -66.46557
 413  54.07298
 414  166.4866
 415  66.86235
 416  -51.27433
 417  43.18167
 418  165.5486
 419  105.7838
 420  65.55657
 421  90.72682
 422  113.9989
 423  127.092
 424  119.6863
 425  37.24635
 426  -139.6964
 427  -83.43016
 428  -32.88914
 429  -3.388462
 430  21.64353
 431  47.84674
 432  -74.48382
 433  -119.2958
 434  -1.581946
 435  61.14075
 436  32.15456
 437  -9.303661
 438  51.0246
 439  22.09325
 440  -129.683
 441  -222.0383
 442  -116.7982
 443  -18.69677
 444  124.782
 445  67.99273
 446  -3.35267
 447  -53.56627
 448  -152.6693
 449  26.51427
 450  187.1371
 451  162.3474
 452  167.9678
 453  251.9755
 454  213.7877
 455  111.8496
 456  82.49342
 457  180.7029
 458  138.7942
 459  52.57402
 460  30.93286
 461  29.76746
 462  45.9059
 463  157.976
 464  251.3891
 465  206.628
 466  33.11476
 467  29.01172
 468  105.6815
 469  139.6026
 470  174.0934
 471  277.0865
 472  53.17035
 473  -35.47413
 474  28.92696
 475  136.3163
 476  139.9969
 477  104.0406
 478  2.719068
 479  88.92728
 480  -33.30687
 481  51.89539
 482  12.59709
 483  -0.3620306
 484  -105.2419
 485  11.4995
 486  220.9901
 487  114.825
 488  -1.245407
 489  28.76024
 490  -26.87982
 491  -144.0148
 492  -54.25998
 493  130.3388
 494  135.7341
 495  -46.70945
 496  -72.47009
 497  128.8069
 498  244.3316
 499  119.8924
 500  204.7806
 501  213.7691
 502  47.44179
 503  136.5865
 504  197.9905
 505  184.6583
 506  197.4417
 507  150.1853
 508  382.778
 509  318.4915
 510  563.991
 511  743.146
