# Input file       =  1190935138.10484_cleaned.dat
# Candidate        =  PSR_0332+5434
# Telescope        =  AR
# Epoch_topo       =  58027.971297509721
# Epoch_bary       =  N/A
# T_sample         =  0.002
# Data Folded      =  7340032
# Data Avg         =  0.0105106573669268
# Data StdDev      =  1.00003098244734 
# Profile Bins     =  512
# Profile Avg      =  150.956893196017 
# Profile StdDev   =  119.736745999261 
# Reduced chi-sqr  =  1.399
# Prob(Noise)      <  5.87e-09   (~5.7 sigma)
# P_topo (ms)      =  714.473142634832  +/- 0.000212
# P'_topo (s/s)    =  -0                +/- 1.12e-10
# P''_topo (s/s^2) =  0                 +/- 4.95e-14
# P_bary (ms)      =  N/A
# P'_bary (s/s)    =  N/A
# P''_bary (s/s^2) =  N/A
# P_orb (s)        =  N/A
# asin(i)/c (s)    =  N/A
# eccentricity     =  N/A
# w (rad)          =  N/A
# T_peri           =  N/A
######################################################
   0  810.449
   1  662.8339
   2  504.0672
   3  279.2355
   4  126.5927
   5  165.8224
   6  78.48871
   7  115.7305
   8  5.874171
   9  151.2053
  10  290.6466
  11  359.3799
  12  382.5363
  13  197.5041
  14  341.946
  15  353.084
  16  241.6037
  17  114.2252
  18  73.24189
  19  156.5687
  20  157.386
  21  204.4159
  22  188.9953
  23  118.3237
  24  161.8644
  25  88.29565
  26  108.8599
  27  219.3743
  28  83.45711
  29  104.7585
  30  261.8048
  31  294.1618
  32  228.1702
  33  47.12728
  34  -72.67194
  35  8.68624
  36  116.0612
  37  170.1421
  38  87.00889
  39  132.8868
  40  65.90943
  41  -21.9205
  42  126.2693
  43  152.4888
  44  141.1856
  45  166.1207
  46  100.9608
  47  75.42914
  48  130.8398
  49  72.52476
  50  2.395234
  51  -57.7159
  52  199.4902
  53  204.0683
  54  194.787
  55  234.3268
  56  96.04378
  57  146.19
  58  74.34506
  59  116.4867
  60  176.054
  61  46.6953
  62  77.54266
  63  157.6078
  64  120.2646
  65  129.2765
  66  156.5417
  67  120.6674
  68  244.1168
  69  231.6475
  70  291.0738
  71  145.9545
  72  210.1381
  73  184.5947
  74  173.0086
  75  116.9356
  76  176.8967
  77  142.8506
  78  -6.259391
  79  27.45536
  80  136.6716
  81  95.93729
  82  29.67158
  83  46.02111
  84  82.29892
  85  92.14524
  86  19.9703
  87  60.17111
  88  147.2668
  89  166.5719
  90  130.9766
  91  133.2118
  92  135.7736
  93  74.95776
  94  83.39713
  95  103.5197
  96  32.71151
  97  105.823
  98  119.356
  99  51.33812
 100  17.96046
 101  79.22823
 102  96.50948
 103  95.0297
 104  204.3924
 105  146.2079
 106  118.089
 107  230.6814
 108  295.1617
 109  129.0835
 110  39.09791
 111  150.4317
 112  202.6352
 113  263.5119
 114  402.8265
 115  186.7022
 116  29.4035
 117  89.60508
 118  128.5081
 119  67.93716
 120  87.64846
 121  99.28178
 122  171.8617
 123  166.9931
 124  168.4194
 125  95.45675
 126  156.6822
 127  255.4358
 128  179.9363
 129  72.15822
 130  25.94201
 131  18.40548
 132  154.1075
 133  253.4933
 134  130.3067
 135  181.423
 136  324.1888
 137  202.1015
 138  165.2565
 139  187.583
 140  284.8774
 141  70.506
 142  19.84484
 143  167.0476
 144  113.1036
 145  243.71
 146  194.3543
 147  126.0073
 148  122.3075
 149  170.5979
 150  218.9177
 151  171.4422
 152  180.2456
 153  190.8652
 154  202.4881
 155  153.1693
 156  227.2665
 157  175.9689
 158  231.798
 159  239.4656
 160  92.99886
 161  182.6308
 162  259.7703
 163  289.5577
 164  98.71877
 165  -35.19577
 166  131.8953
 167  91.30991
 168  60.27449
 169  156.4614
 170  23.17896
 171  127.5043
 172  125.2978
 173  129.7218
 174  122.5774
 175  102.0622
 176  130.1377
 177  231.5388
 178  209.0314
 179  139.6679
 180  113.9094
 181  108.0765
 182  193.8331
 183  103.8554
 184  -33.51413
 185  114.9958
 186  87.2129
 187  153.2208
 188  302.9475
 189  168.3917
 190  142.2433
 191  99.33762
 192  108.9957
 193  22.09201
 194  117.7178
 195  175.9064
 196  184.0395
 197  146.8362
 198  218.7433
 199  168.9634
 200  230.5625
 201  265.2314
 202  216.1696
 203  192.288
 204  272.6946
 205  190.5651
 206  68.60736
 207  33.08828
 208  32.22903
 209  110.066
 210  214.8905
 211  151.4446
 212  81.43142
 213  87.75547
 214  15.31419
 215  162.5147
 216  323.6284
 217  340.8384
 218  315.3511
 219  204.9409
 220  105.0473
 221  127.4766
 222  125.1162
 223  76.32783
 224  105.8634
 225  101.4212
 226  16.85489
 227  48.29069
 228  205.9238
 229  352.8592
 230  218.999
 231  17.5247
 232  86.08171
 233  12.25718
 234  17.70219
 235  103.0133
 236  143.0248
 237  100.5967
 238  55.01583
 239  144.6656
 240  209.7518
 241  132.7434
 242  217.1853
 243  324.6092
 244  204.8042
 245  232.7984
 246  154.2349
 247  80.90348
 248  150.7627
 249  243.2585
 250  246.0531
 251  271.0824
 252  339.7316
 253  201.6281
 254  122.1193
 255  217.8636
 256  132.9881
 257  180.3334
 258  229.0213
 259  182.2895
 260  229.618
 261  296.6809
 262  197.1456
 263  64.58878
 264  31.04448
 265  85.31929
 266  125.2366
 267  182.0664
 268  125.3711
 269  133.3403
 270  135.6982
 271  306.4718
 272  137.5976
 273  117.9677
 274  252.1352
 275  238.1844
 276  189.3968
 277  117.337
 278  117.1164
 279  192.3618
 280  282.8733
 281  66.51928
 282  199.2892
 283  259.281
 284  250.4694
 285  187.8871
 286  217.8877
 287  145.1846
 288  137.6146
 289  142.871
 290  192.3362
 291  106.4245
 292  229.0045
 293  184.8608
 294  20.55173
 295  11.46745
 296  101.2882
 297  261.5299
 298  306.8032
 299  180.0189
 300  82.1584
 301  192.238
 302  152.1335
 303  129.7288
 304  139.6757
 305  125.1218
 306  64.65856
 307  139.9106
 308  77.2917
 309  147.8804
 310  267.5945
 311  278.0499
 312  183.7304
 313  70.89087
 314  125.9323
 315  133.9292
 316  188.2528
 317  153.3607
 318  103.3836
 319  194.9762
 320  272.1772
 321  262.9073
 322  210.6617
 323  127.8494
 324  167.0144
 325  69.73375
 326  154.3302
 327  141.7839
 328  236.6966
 329  232.8803
 330  156.9221
 331  136.948
 332  145.8018
 333  209.3799
 334  128.2296
 335  152.4539
 336  64.16399
 337  91.38665
 338  0.2760537
 339  99.52104
 340  9.578037
 341  99.47839
 342  189.7607
 343  354.9073
 344  281.8272
 345  187.8107
 346  212.3656
 347  133.1708
 348  36.42936
 349  68.25089
 350  116.6076
 351  200.325
 352  133.5521
 353  267.5014
 354  265.4259
 355  160.4019
 356  83.59794
 357  133.0781
 358  258.5069
 359  203.8692
 360  209.2859
 361  253.4749
 362  109.5965
 363  174.6225
 364  176.5099
 365  157.5815
 366  212.0069
 367  121.2521
 368  109.038
 369  207.7657
 370  235.1604
 371  188.8255
 372  146.916
 373  -60.01818
 374  -47.74245
 375  74.38225
 376  142.386
 377  157.8129
 378  32.69392
 379  -46.59055
 380  157.2134
 381  116.3642
 382  91.82922
 383  124.3796
 384  78.54279
 385  -66.36909
 386  170.406
 387  175.3504
 388  167.5947
 389  287.4752
 390  113.4418
 391  115.1555
 392  57.0242
 393  124.952
 394  163.7152
 395  222.1851
 396  275.5112
 397  139.6219
 398  58.44479
 399  27.89313
 400  84.86892
 401  217.4335
 402  117.7879
 403  61.31474
 404  49.06321
 405  206.5273
 406  233.9818
 407  89.56455
 408  133.5626
 409  146.157
 410  119.809
 411  32.03399
 412  -38.00864
 413  1.791126
 414  8.949368
 415  219.8327
 416  360.4494
 417  198.1305
 418  42.95317
 419  88.46756
 420  140.3879
 421  148.7775
 422  175.3213
 423  220.2311
 424  135.2426
 425  140.5784
 426  109.3422
 427  231.2469
 428  186.5141
 429  125.8902
 430  86.61175
 431  100.5248
 432  101.2353
 433  61.94864
 434  46.83895
 435  80.43926
 436  118.3805
 437  135.0883
 438  -70.17592
 439  -61.78307
 440  89.83415
 441  142.58
 442  110.6812
 443  29.43793
 444  75.52549
 445  1.985601
 446  -7.501081
 447  155.8136
 448  182.0215
 449  195.2406
 450  101.7374
 451  64.15203
 452  24.87214
 453  201.0519
 454  180.2075
 455  123.6545
 456  52.01004
 457  97.34985
 458  -4.850903
 459  51.68608
 460  166.1309
 461  157.7101
 462  34.52809
 463  164.3313
 464  71.22038
 465  111.0194
 466  101.0244
 467  33.36514
 468  26.54718
 469  137.9594
 470  260.3283
 471  271.4439
 472  36.18341
 473  121.5096
 474  114.0594
 475  116.1294
 476  45.70678
 477  29.29372
 478  23.38847
 479  175.6112
 480  219.0527
 481  155.7381
 482  114.2481
 483  187.3018
 484  171.8215
 485  41.58416
 486  91.10294
 487  152.5377
 488  158.6903
 489  164.7102
 490  121.2839
 491  196.3482
 492  106.9893
 493  180.9328
 494  243.1547
 495  37.97055
 496  12.84733
 497  135.5612
 498  172.6409
 499  178.3632
 500  208.7253
 501  179.8094
 502  216.829
 503  270.1192
 504  312.0964
 505  296.7141
 506  253.5104
 507  321.3777
 508  490.6214
 509  604.2712
 510  673.3556
 511  844.6663
