# Input file       =  1190920557.109346_cleaned.dat
# Candidate        =  PSR_0332+5434
# Telescope        =  AR
# Epoch_topo       =  58027.802535987801
# Epoch_bary       =  N/A
# T_sample         =  0.002
# Data Folded      =  7143424
# Data Avg         =  0.0220768573940137
# Data StdDev      =  1.00005260078624 
# Profile Bins     =  512
# Profile Avg      =  307.978304361301 
# Profile StdDev   =  118.12479761228  
# Reduced chi-sqr  =  1.508
# Prob(Noise)      <  8.18e-13   (~7.1 sigma)
# P_topo (ms)      =  714.473034728402  +/- 0.000179
# P'_topo (s/s)    =  -0                +/- 9.71e-11
# P''_topo (s/s^2) =  0                 +/- 4.4e-14
# P_bary (ms)      =  N/A
# P'_bary (s/s)    =  N/A
# P''_bary (s/s^2) =  N/A
# P_orb (s)        =  N/A
# asin(i)/c (s)    =  N/A
# eccentricity     =  N/A
# w (rad)          =  N/A
# T_peri           =  N/A
######################################################
   0  1056.734
   1  1082.609
   2  915.8961
   3  573.9995
   4  317.4939
   5  218.8168
   6  243.301
   7  328.1514
   8  297.2952
   9  277.2418
  10  273.0191
  11  331.5556
  12  427.1764
  13  382.3405
  14  397.0492
  15  364.959
  16  463.0952
  17  363.9037
  18  449.3038
  19  331.1383
  20  242.1341
  21  284.8513
  22  351.8353
  23  371.2587
  24  261.9422
  25  292.459
  26  333.127
  27  420.384
  28  344.9178
  29  353.5359
  30  372.8749
  31  301.5371
  32  236.3136
  33  489.6254
  34  427.5833
  35  176.7198
  36  260.1036
  37  329.2955
  38  293.1522
  39  292.1685
  40  284.3356
  41  284.7814
  42  340.5121
  43  416.4252
  44  344.608
  45  263.5756
  46  342.8237
  47  313.0392
  48  366.0618
  49  314.8141
  50  454.0803
  51  419.4503
  52  279.2135
  53  195.2485
  54  275.9696
  55  262.3698
  56  211.3217
  57  352.0895
  58  350.1217
  59  254.7867
  60  269.3901
  61  249.1169
  62  287.3189
  63  287.862
  64  321.2474
  65  272.3601
  66  273.5532
  67  63.96463
  68  177.0009
  69  466.4709
  70  498.7646
  71  349.7083
  72  257.6957
  73  235.7057
  74  252.9944
  75  228.3916
  76  259.0035
  77  311.8092
  78  283.0167
  79  362.1936
  80  257.0801
  81  230.5622
  82  222.0668
  83  192.4343
  84  188.4454
  85  279.0978
  86  382.2943
  87  402.3899
  88  293.5555
  89  241.7151
  90  158.7723
  91  142.2046
  92  162.4756
  93  348.9966
  94  341.7344
  95  436.2918
  96  335.8896
  97  193.6817
  98  179.9519
  99  312.8661
 100  220.2258
 101  343.73
 102  313.2118
 103  245.8292
 104  161.5096
 105  268.8436
 106  273.8969
 107  296.5044
 108  213.4809
 109  247.0371
 110  223.0406
 111  295.6834
 112  290.0804
 113  191.7043
 114  215.4689
 115  262.0132
 116  226.0263
 117  233.1152
 118  285.8282
 119  255.9892
 120  236.5087
 121  206.4101
 122  430.0282
 123  523.0894
 124  358.6089
 125  219.6157
 126  141.1157
 127  304.9342
 128  336.3819
 129  329.2999
 130  291.0703
 131  245.7679
 132  170.6743
 133  212.6846
 134  186.0898
 135  134.6986
 136  155.3977
 137  245.0606
 138  363.752
 139  273.6804
 140  325.9582
 141  392.3408
 142  333.4899
 143  150.4724
 144  229.5204
 145  302.7007
 146  236.9228
 147  263.5165
 148  360.0011
 149  364.3163
 150  435.5069
 151  257.5242
 152  192.7222
 153  324.9234
 154  271.9097
 155  263.984
 156  231.1087
 157  225.5273
 158  274.5594
 159  323.5504
 160  385.3072
 161  262.8568
 162  372.3754
 163  376.2036
 164  153.6506
 165  132.7621
 166  202.4976
 167  388.6516
 168  381.3544
 169  321.1691
 170  328.2484
 171  265.8887
 172  422.7994
 173  421.1822
 174  350.5119
 175  304.0546
 176  229.7696
 177  231.9877
 178  125.6702
 179  261.5733
 180  269.5767
 181  434.2495
 182  486.1711
 183  373.2315
 184  224.6176
 185  253.3222
 186  193.7459
 187  373.5846
 188  353.2849
 189  365.1241
 190  284.3096
 191  230.6147
 192  268.1043
 193  324.3257
 194  190.2657
 195  228.1757
 196  281.4015
 197  367.8545
 198  327.7576
 199  197.2142
 200  217.2525
 201  353.4901
 202  399.6485
 203  223.824
 204  296.7314
 205  257.6115
 206  211.9702
 207  209.0688
 208  167.5788
 209  279.8802
 210  246.0074
 211  236.1341
 212  249.9682
 213  182.4899
 214  353.4095
 215  447.5055
 216  349.09
 217  355.9211
 218  330.2032
 219  220.3764
 220  252.7021
 221  231.9621
 222  391.8064
 223  310.8226
 224  408.3341
 225  306.325
 226  298.6375
 227  312.672
 228  276.8166
 229  421.8168
 230  337.9322
 231  351.7162
 232  262.4109
 233  215.4277
 234  262.6144
 235  323.6323
 236  526.8556
 237  485.3179
 238  330.8697
 239  290.6481
 240  245.0452
 241  268.5215
 242  314.5526
 243  415.5571
 244  359.5126
 245  310.9806
 246  382.2502
 247  357.6548
 248  417.8637
 249  381.9157
 250  337.1471
 251  363.754
 252  402.8953
 253  355.9803
 254  292.3873
 255  395.4339
 256  377.7849
 257  189.2788
 258  178.8219
 259  295.8325
 260  254.6083
 261  273.9177
 262  331.209
 263  441.1277
 264  382.6308
 265  319.962
 266  352.8646
 267  332.1264
 268  247.0309
 269  154.2908
 270  262.5385
 271  250.7546
 272  262.7196
 273  297.5381
 274  305.9991
 275  150.8256
 276  181.1204
 277  227.1731
 278  249.3651
 279  267.1193
 280  174.7764
 281  195.1224
 282  316.511
 283  264.9263
 284  308.8263
 285  341.3061
 286  256.7592
 287  232.9807
 288  329.9059
 289  321.2375
 290  156.5758
 291  201.2074
 292  351.646
 293  459.9266
 294  350.4203
 295  272.0211
 296  299.0037
 297  277.0926
 298  296.1439
 299  393.8784
 300  369.3804
 301  348.9457
 302  396.632
 303  390.7324
 304  308.5106
 305  287.2089
 306  306.011
 307  330.9198
 308  349.5342
 309  361.717
 310  110.7917
 311  166.2561
 312  212.7942
 313  242.7838
 314  288.3312
 315  306.2293
 316  284.584
 317  329.4444
 318  353.6762
 319  233.3945
 320  275.1243
 321  436.9883
 322  375.6894
 323  324.6229
 324  300.7168
 325  448.0669
 326  430.487
 327  406.5089
 328  464.8774
 329  316.8037
 330  317.5576
 331  432.3975
 332  325.1789
 333  165.5377
 334  171.2292
 335  283.8179
 336  343.7485
 337  272.1012
 338  225.7759
 339  383.781
 340  365.6386
 341  358.8758
 342  214.1711
 343  214.5151
 344  229.3382
 345  239.7459
 346  316.6711
 347  244.6794
 348  221.0766
 349  307.464
 350  299.7084
 351  316.5198
 352  344.6438
 353  246.0331
 354  330.9397
 355  280.0992
 356  121.6575
 357  272.0653
 358  285.5099
 359  444.5042
 360  274.0068
 361  129.047
 362  210.2571
 363  293.3259
 364  322.564
 365  259.1139
 366  339.1887
 367  363.8022
 368  348.7954
 369  250.2512
 370  247.4624
 371  301.3544
 372  411.4564
 373  352.4557
 374  423.1502
 375  319.0268
 376  373.4672
 377  297.5864
 378  77.65965
 379  175.9633
 380  198.9894
 381  196.9797
 382  321.2163
 383  429.9463
 384  413.7491
 385  297.9419
 386  227.4843
 387  269.7216
 388  265.4082
 389  374.4227
 390  400.0504
 391  317.8676
 392  325.5314
 393  337.8167
 394  385.1671
 395  299.007
 396  325.1871
 397  376.2615
 398  298.6336
 399  186.1714
 400  203.5063
 401  228.1693
 402  399.8283
 403  435.438
 404  412.002
 405  255.9112
 406  317.9478
 407  270.8561
 408  255.6658
 409  304.6063
 410  436.45
 411  355.5668
 412  275.8943
 413  437.9655
 414  397.5426
 415  256.9359
 416  255.4537
 417  342.2778
 418  387.7385
 419  280.4894
 420  330.0212
 421  326.4215
 422  258.8827
 423  282.7809
 424  352.3849
 425  411.4291
 426  211.2462
 427  265.5258
 428  378.3316
 429  380.7681
 430  364.3716
 431  300.8727
 432  246.1097
 433  211.0102
 434  216.5784
 435  189.979
 436  238.0134
 437  241.1869
 438  318.322
 439  374.2626
 440  367.2119
 441  467.8333
 442  453.8359
 443  423.3419
 444  303.3841
 445  255.4571
 446  146.9334
 447  219.6116
 448  232.0084
 449  261.4369
 450  224.767
 451  132.8413
 452  348.5322
 453  378.0859
 454  140.2217
 455  283.1264
 456  340.1361
 457  410.452
 458  245.9994
 459  163.4188
 460  200.6622
 461  230.6836
 462  198.2585
 463  304.8646
 464  359.0373
 465  360.0539
 466  436.5132
 467  444.7112
 468  456.5333
 469  319.4331
 470  200.1211
 471  217.5108
 472  250.7602
 473  382.9038
 474  478.1695
 475  347.7047
 476  154.3087
 477  212.601
 478  127.0219
 479  193.4531
 480  272.5259
 481  374.0683
 482  364.6586
 483  368.1398
 484  342.1151
 485  248.6619
 486  286.4434
 487  249.9726
 488  203.5977
 489  400.2005
 490  390.6372
 491  436.393
 492  280.2748
 493  321.8684
 494  273.5715
 495  272.0511
 496  337.292
 497  327.3861
 498  231.9603
 499  181.812
 500  339.9866
 501  392.8054
 502  393.0901
 503  421.807
 504  372.9381
 505  501.0942
 506  439.4934
 507  377.5877
 508  456.9753
 509  584.001
 510  670.0501
 511  961.9827
