# Input file       =  1190692150.109053_cleaned.dat
# Candidate        =  PSR_0332+5434
# Telescope        =  AR
# Epoch_topo       =  58025.158936447369
# Epoch_bary       =  N/A
# T_sample         =  0.002
# Data Folded      =  7340032
# Data Avg         =  0.0105510571140097
# Data StdDev      =  1.00001822044993 
# Profile Bins     =  512
# Profile Avg      =  151.281658640851 
# Profile StdDev   =  119.73521796656  
# Reduced chi-sqr  =  1.090
# Prob(Noise)      <  0.0779   (~1.4 sigma)
# P_topo (ms)      =  714.471978996205  +/- 0.000127
# P'_topo (s/s)    =  -0                +/- 6.72e-11
# P''_topo (s/s^2) =  0                 +/- 2.97e-14
# P_bary (ms)      =  N/A
# P'_bary (s/s)    =  N/A
# P''_bary (s/s^2) =  N/A
# P_orb (s)        =  N/A
# asin(i)/c (s)    =  N/A
# eccentricity     =  N/A
# w (rad)          =  N/A
# T_peri           =  N/A
######################################################
   0  622.8993
   1  595.8817
   2  412.9164
   3  266.9288
   4  205.3146
   5  247.4335
   6  212.6416
   7  155.5276
   8  111.9378
   9  168.8447
  10  255.2312
  11  300.3678
  12  326.3773
  13  337.6139
  14  171.4476
  15  78.85551
  16  95.18295
  17  201.8679
  18  109.0153
  19  77.05537
  20  261.43
  21  260.3864
  22  277.4958
  23  135.3847
  24  138.8383
  25  85.42044
  26  115.9518
  27  157.8451
  28  208.5329
  29  201.4492
  30  281.0272
  31  261.6165
  32  173.8445
  33  123.9671
  34  109.0932
  35  211.5962
  36  141.4452
  37  2.355122
  38  116.2376
  39  77.73712
  40  68.51626
  41  75.47156
  42  126.4905
  43  345.8726
  44  350.9737
  45  292.0846
  46  113.8929
  47  145.8154
  48  231.2016
  49  183.2072
  50  234.4794
  51  248.3087
  52  277.1493
  53  90.33081
  54  39.01686
  55  64.01248
  56  101.0886
  57  127.8316
  58  162.3206
  59  36.11766
  60  61.04221
  61  -3.034436
  62  107.8301
  63  177.3656
  64  248.2534
  65  216.9988
  66  276.4059
  67  248.7083
  68  238.6042
  69  226.2772
  70  188.2645
  71  53.36824
  72  116.1274
  73  124.8304
  74  157.6866
  75  182.1335
  76  269.4945
  77  295.9562
  78  172.5825
  79  93.80962
  80  231.2513
  81  296.0812
  82  237.6218
  83  103.2942
  84  72.93874
  85  105.3386
  86  201.3448
  87  253.1417
  88  227.402
  89  300.4058
  90  155.9442
  91  152.3184
  92  116.6361
  93  133.3201
  94  206.7011
  95  227.1573
  96  290.8513
  97  157.9769
  98  144.3571
  99  199.4611
 100  105.589
 101  137.0962
 102  151.592
 103  160.7753
 104  105.0564
 105  130.8312
 106  73.99606
 107  68.85677
 108  62.75679
 109  95.37966
 110  131.338
 111  192.4259
 112  209.5802
 113  203.4443
 114  224.8023
 115  38.82374
 116  95.38083
 117  170.5065
 118  109.9673
 119  161.3644
 120  118.507
 121  131.2563
 122  113.0246
 123  165.3812
 124  134.0504
 125  26.57322
 126  57.13547
 127  12.55055
 128  198.2528
 129  249.7974
 130  102.1814
 131  136.1819
 132  196.3121
 133  52.98239
 134  18.38879
 135  96.2503
 136  -6.681254
 137  41.37034
 138  107.0809
 139  225.3856
 140  165.433
 141  128.4166
 142  -13.03212
 143  155.2738
 144  163.7166
 145  207.3649
 146  200.0786
 147  236.8598
 148  170.5332
 149  110.5114
 150  128.626
 151  237.6189
 152  193.9856
 153  85.49419
 154  129.3446
 155  203.5351
 156  191.4363
 157  229.3824
 158  155.6854
 159  87.60059
 160  168.8271
 161  101.994
 162  94.9841
 163  205.74
 164  184.8152
 165  65.57858
 166  147.4527
 167  295.0635
 168  192.8963
 169  93.27816
 170  17.03187
 171  112.7063
 172  190.5182
 173  229.8793
 174  136.2414
 175  138.857
 176  147.855
 177  83.54689
 178  188.5693
 179  225.1175
 180  212.7273
 181  167.1842
 182  -20.06199
 183  54.16529
 184  124.6719
 185  171.5785
 186  129.8848
 187  -24.92434
 188  146.4625
 189  256.1694
 190  218.4267
 191  327.8858
 192  172.0201
 193  142.2025
 194  226.6858
 195  226.0727
 196  210.614
 197  66.64552
 198  151.856
 199  166.4644
 200  0.1929049
 201  189.4191
 202  278.616
 203  139.7938
 204  47.72497
 205  127.9339
 206  182.3878
 207  197.996
 208  33.29092
 209  45.91834
 210  191.8354
 211  196.5825
 212  38.01665
 213  278.5274
 214  124.8422
 215  103.5839
 216  201.9293
 217  284.1903
 218  215.4804
 219  125.2485
 220  183.0788
 221  175.0657
 222  202.4548
 223  234.0415
 224  228.0989
 225  233.9258
 226  154.8367
 227  162.5119
 228  103.6242
 229  91.88604
 230  117.9906
 231  42.69866
 232  152.7639
 233  184.9296
 234  148.0968
 235  78.86701
 236  173.1395
 237  210.3253
 238  196.7904
 239  111.9473
 240  101.6122
 241  84.61282
 242  0.88015
 243  123.8926
 244  90.24482
 245  278.1827
 246  170.5602
 247  83.68949
 248  153.8756
 249  176.3099
 250  135.2052
 251  160.4367
 252  82.98066
 253  292.1079
 254  113.7616
 255  169.5736
 256  218.5492
 257  229.0365
 258  133.1759
 259  63.57069
 260  88.83405
 261  199.3306
 262  222.3205
 263  30.07693
 264  87.62288
 265  139.692
 266  105.2525
 267  198.9611
 268  96.18658
 269  139.6221
 270  162.0517
 271  99.60723
 272  41.487
 273  54.3059
 274  -10.93317
 275  -2.734839
 276  57.83796
 277  86.00328
 278  36.10081
 279  118.7589
 280  187.507
 281  201.3091
 282  263.1646
 283  128.7434
 284  136.1381
 285  234.0187
 286  212.6362
 287  107.5157
 288  104.7311
 289  224.3372
 290  170.9131
 291  151.7389
 292  176.442
 293  238.3022
 294  191.6664
 295  94.9212
 296  95.79685
 297  88.99412
 298  60.62578
 299  113.6964
 300  172.9577
 301  29.55445
 302  89.3289
 303  149.5764
 304  119.581
 305  114.7598
 306  114.9747
 307  128.8964
 308  172.7221
 309  147.4426
 310  118.7923
 311  262.7917
 312  239.9432
 313  110.3931
 314  99.39903
 315  217.9408
 316  133.4907
 317  183.3437
 318  152.9038
 319  295.2434
 320  360.2588
 321  211.3186
 322  104.7331
 323  122.7923
 324  128.6183
 325  148.8867
 326  163.2972
 327  258.8312
 328  171.8311
 329  120.3618
 330  133.6351
 331  186.6322
 332  265.9509
 333  199.2118
 334  159.7391
 335  251.194
 336  160.9818
 337  189.6314
 338  166.215
 339  209.4623
 340  203.0891
 341  160.0108
 342  159.7936
 343  299.3837
 344  80.91772
 345  -36.67304
 346  160.0364
 347  144.2822
 348  151.4292
 349  100.3792
 350  176.592
 351  76.84079
 352  122.6172
 353  72.4745
 354  160.2826
 355  161.0607
 356  -16.24079
 357  42.15086
 358  116.3027
 359  124.1081
 360  212.6796
 361  156.7195
 362  144.4942
 363  164.0126
 364  169.1444
 365  53.87382
 366  252.9958
 367  194.6169
 368  267.2139
 369  119.2768
 370  69.616
 371  21.09542
 372  169.5813
 373  145.297
 374  125.5269
 375  107.9755
 376  234.9192
 377  249.9822
 378  214.2737
 379  179.2084
 380  16.12584
 381  48.27602
 382  67.78763
 383  138.0239
 384  188.6405
 385  224.9547
 386  43.83485
 387  135.8776
 388  193.8552
 389  237.1284
 390  141.5497
 391  -8.70523
 392  43.33006
 393  60.67955
 394  -8.06937
 395  3.465205
 396  87.53864
 397  163.4374
 398  311.1256
 399  216.0175
 400  204.2462
 401  199.1652
 402  174.1412
 403  149.3707
 404  99.7598
 405  119.3565
 406  80.68257
 407  90.13151
 408  219.6973
 409  228.4479
 410  55.98009
 411  9.833087
 412  61.43006
 413  133.3056
 414  94.19972
 415  99.48953
 416  104.7906
 417  213.0573
 418  377.491
 419  284.9198
 420  167.142
 421  183.1605
 422  84.83347
 423  78.45679
 424  38.8476
 425  140.4812
 426  234.0121
 427  198.0387
 428  302.6231
 429  182.9704
 430  40.11198
 431  16.3623
 432  29.25302
 433  233.4349
 434  149.44
 435  159.6049
 436  158.0223
 437  212.6436
 438  146.1966
 439  53.10735
 440  82.33849
 441  167.5911
 442  202.0523
 443  325.9888
 444  285.2443
 445  195.1819
 446  65.66045
 447  27.63344
 448  89.18526
 449  144.6747
 450  158.3523
 451  121.5478
 452  125.1271
 453  110.4675
 454  103.2437
 455  23.06793
 456  -55.72961
 457  105.97
 458  2.691402
 459  -39.9043
 460  225.9576
 461  100.9154
 462  206.6756
 463  208.6036
 464  147.8414
 465  109.1821
 466  -65.44449
 467  49.29481
 468  206.2618
 469  66.89761
 470  -16.50953
 471  89.49112
 472  114.7185
 473  28.40631
 474  100.6092
 475  144.0925
 476  94.88446
 477  -11.10916
 478  21.33036
 479  94.20535
 480  101.2218
 481  176.2892
 482  132.0633
 483  95.54552
 484  45.11861
 485  81.29329
 486  194.5528
 487  220.1783
 488  111.9194
 489  -28.63499
 490  73.56092
 491  74.92862
 492  155.7206
 493  199.4576
 494  129.3569
 495  110.4521
 496  120.3829
 497  -6.152043
 498  85.46806
 499  195.4348
 500  128.6118
 501  138.9807
 502  56.8084
 503  241.4705
 504  227.4362
 505  152.5979
 506  32.9524
 507  155.0022
 508  330.6079
 509  528.0366
 510  561.7004
 511  702.1431
