# Input file       =  1190597543.081682_cleaned.dat
# Candidate        =  PSR_0332+5434
# Telescope        =  AR
# Epoch_topo       =  58024.063947704650
# Epoch_bary       =  N/A
# T_sample         =  0.002
# Data Folded      =  7340032
# Data Avg         =  0.0138530518428798
# Data StdDev      =  1.00005242082475 
# Profile Bins     =  512
# Profile Avg      =  198.583930620891 
# Profile StdDev   =  119.739312881283 
# Reduced chi-sqr  =  1.406
# Prob(Noise)      <  3.5e-09   (~5.8 sigma)
# P_topo (ms)      =  714.471205378965  +/- 0.000181
# P'_topo (s/s)    =  -0                +/- 9.54e-11
# P''_topo (s/s^2) =  0                 +/- 4.21e-14
# P_bary (ms)      =  N/A
# P'_bary (s/s)    =  N/A
# P''_bary (s/s^2) =  N/A
# P_orb (s)        =  N/A
# asin(i)/c (s)    =  N/A
# eccentricity     =  N/A
# w (rad)          =  N/A
# T_peri           =  N/A
######################################################
   0  928.4131
   1  1004.306
   2  804.8207
   3  415.5178
   4  282.1396
   5  276.2802
   6  208.9003
   7  239.2663
   8  287.1555
   9  274.6417
  10  279.1541
  11  227.9271
  12  214.1653
  13  149.1909
  14  284.7987
  15  433.2925
  16  335.8801
  17  124.9069
  18  163.3291
  19  229.6626
  20  348.3426
  21  243.7885
  22  105.229
  23  151.3974
  24  252.1821
  25  249.9767
  26  191.0657
  27  245.588
  28  240.2032
  29  197.3159
  30  91.42332
  31  114.8875
  32  318.9064
  33  231.8704
  34  162.4781
  35  145.4287
  36  222.394
  37  117.7067
  38  140.1972
  39  200.3764
  40  200.4644
  41  184.2112
  42  217.8846
  43  178.6837
  44  52.84636
  45  17.89614
  46  139.9229
  47  224.3453
  48  263.2789
  49  171.6467
  50  278.2943
  51  162.7166
  52  67.16669
  53  130.5406
  54  270.1491
  55  266.1179
  56  151.6198
  57  186.3333
  58  175.6651
  59  130.11
  60  165.0613
  61  175.1654
  62  190.1326
  63  146.986
  64  271.4527
  65  159.5079
  66  314.8428
  67  260.5691
  68  269.3159
  69  233.7
  70  258.6106
  71  135.3978
  72  86.27171
  73  161.0959
  74  196.5028
  75  130.2397
  76  152.1116
  77  136.751
  78  99.67978
  79  132.8249
  80  165.6424
  81  182.832
  82  154.9638
  83  209.301
  84  238.3473
  85  254.6704
  86  341.325
  87  140.8581
  88  60.27998
  89  34.67879
  90  78.50038
  91  105.5309
  92  73.15061
  93  121.3095
  94  104.9918
  95  190.6993
  96  329.0864
  97  336.7923
  98  224.3938
  99  118.7162
 100  104.7877
 101  229.8908
 102  93.41415
 103  127.122
 104  142.5394
 105  169.4366
 106  259.9664
 107  174.2803
 108  132.8858
 109  186.9826
 110  368.3273
 111  248.9443
 112  84.78719
 113  96.78094
 114  182.2933
 115  317.2067
 116  377.5008
 117  165.1624
 118  81.28588
 119  -20.83789
 120  114.0628
 121  50.53683
 122  182.9254
 123  278.3751
 124  279.5604
 125  364.0825
 126  356.5049
 127  164.7412
 128  131.432
 129  347.4375
 130  223.6187
 131  244.5272
 132  136.9748
 133  171.849
 134  214.5469
 135  269.58
 136  175.997
 137  146.0613
 138  165.5069
 139  167.431
 140  163.0467
 141  189.9806
 142  174.1909
 143  154.4024
 144  281.9409
 145  184.8896
 146  77.79948
 147  163.4788
 148  268.4406
 149  268.7007
 150  306.7051
 151  285.5662
 152  59.40391
 153  214.8668
 154  188.838
 155  289.5473
 156  288.9786
 157  309.8074
 158  225.8476
 159  187.6631
 160  213.347
 161  213.536
 162  217.1083
 163  202.7868
 164  259.3414
 165  286.4533
 166  282.4492
 167  253.4273
 168  265.2143
 169  329.4091
 170  301.7329
 171  210.5219
 172  149.4661
 173  279.7754
 174  356.8337
 175  247.2799
 176  256.7027
 177  280.2006
 178  201.5025
 179  163.8538
 180  82.37838
 181  137.1936
 182  111.4287
 183  220.2788
 184  253.9353
 185  201.4562
 186  262.0056
 187  356.23
 188  217.2457
 189  345.5605
 190  344.5438
 191  250.8701
 192  208.4739
 193  143.2536
 194  252.2578
 195  143.1729
 196  205.4924
 197  256.5982
 198  217.0869
 199  216.8194
 200  220.1008
 201  194.4397
 202  242.3996
 203  153.9739
 204  212.7309
 205  190.8129
 206  184.2219
 207  159.623
 208  175.1176
 209  104.2047
 210  74.43149
 211  102.2512
 212  117.2273
 213  28.53683
 214  55.87476
 215  152.9487
 216  203.2521
 217  237.4136
 218  163.2782
 219  174.0014
 220  210.7088
 221  189.1621
 222  194.1989
 223  71.48875
 224  215.1304
 225  216.9352
 226  305.3951
 227  442.1706
 228  269.562
 229  68.79042
 230  138.5821
 231  260.1509
 232  299.4792
 233  167.6003
 234  180.768
 235  184.7991
 236  53.48679
 237  78.33655
 238  256.3968
 239  201.5562
 240  137.9041
 241  156.3046
 242  236.9066
 243  170.8735
 244  57.68294
 245  127.9232
 246  233.3367
 247  145.7053
 248  303.1145
 249  219.7233
 250  154.3104
 251  72.74812
 252  43.96208
 253  99.55022
 254  70.59532
 255  195.7627
 256  377.3281
 257  236.2111
 258  181.0213
 259  113.8777
 260  162.1626
 261  28.56961
 262  159.2445
 263  151.4823
 264  172.8881
 265  184.41
 266  229.1695
 267  161.5374
 268  230.5811
 269  213.7516
 270  196.1717
 271  148.6831
 272  215.9613
 273  221.085
 274  186.7545
 275  202.1156
 276  125.0884
 277  183.2168
 278  274.7935
 279  194.8996
 280  256.5162
 281  280.0991
 282  177.483
 283  -18.9932
 284  49.719
 285  123.5804
 286  105.157
 287  140.8759
 288  155.9552
 289  182.4294
 290  50.8963
 291  -33.13651
 292  97.11608
 293  212.3161
 294  173.1399
 295  146.8848
 296  167.7356
 297  151.2419
 298  114.4833
 299  97.24048
 300  144.4567
 301  158.5951
 302  76.40452
 303  254.4528
 304  224.7071
 305  238.4262
 306  198.293
 307  330.9667
 308  218.0797
 309  198.6248
 310  225.0336
 311  106.2828
 312  67.94526
 313  132.3391
 314  120.9607
 315  219.3388
 316  115.7755
 317  102.8023
 318  27.24467
 319  37.64987
 320  254.7926
 321  198.6098
 322  186.7668
 323  249.5583
 324  199.058
 325  55.63197
 326  114.7124
 327  182.6419
 328  278.171
 329  142.1245
 330  -8.670745
 331  186.4918
 332  201.0524
 333  191.8242
 334  223.9755
 335  115.1618
 336  90.87244
 337  185.4515
 338  102.2481
 339  108.872
 340  58.41834
 341  106.7097
 342  209.0558
 343  231.976
 344  152.4687
 345  100.2199
 346  182.315
 347  117.5645
 348  106.7647
 349  84.77558
 350  25.1185
 351  132.4279
 352  249.3401
 353  142.0891
 354  143.4766
 355  196.1829
 356  210.7491
 357  188.7576
 358  181.9847
 359  226.8725
 360  185.5424
 361  26.40569
 362  103.2535
 363  240.4628
 364  299.132
 365  273.7554
 366  170.409
 367  85.65871
 368  199.3952
 369  183.4172
 370  176.5691
 371  225.1136
 372  226.9418
 373  200.5684
 374  162.5045
 375  174.3648
 376  124.3
 377  140.9516
 378  184.042
 379  186.7377
 380  198.7976
 381  187.2522
 382  314.0128
 383  388.2613
 384  254.9287
 385  108.9871
 386  153.0207
 387  241.5037
 388  149.2969
 389  -15.25623
 390  181.8231
 391  267.5956
 392  356.1805
 393  237.6321
 394  112.9172
 395  207.187
 396  144.7068
 397  209.8945
 398  238.2966
 399  203.7416
 400  143.5295
 401  157.41
 402  145.2817
 403  162.8212
 404  169.3185
 405  205.7437
 406  229.3792
 407  210.0781
 408  146.8997
 409  155.6468
 410  268.3995
 411  236.85
 412  250.2031
 413  193.2336
 414  181.7692
 415  232.2265
 416  274.9649
 417  275.2884
 418  94.95741
 419  134.8386
 420  120.3887
 421  212.1051
 422  271.3543
 423  246.7523
 424  277.6871
 425  243.6087
 426  261.8557
 427  194.8451
 428  250.2126
 429  319.9601
 430  208.1578
 431  252.6996
 432  255.2811
 433  139.3464
 434  115.6102
 435  261.4895
 436  216.2488
 437  123.6622
 438  208.8168
 439  82.46863
 440  146.1297
 441  154.881
 442  254.5971
 443  309.0299
 444  213.9116
 445  137.4997
 446  140.6125
 447  230.445
 448  276.2047
 449  189.1929
 450  147.2646
 451  230.6279
 452  185.5234
 453  253.3152
 454  207.655
 455  155.1319
 456  269.3215
 457  214.1951
 458  188.2179
 459  315.7811
 460  205.063
 461  208.0961
 462  214.4431
 463  231.9327
 464  228.3678
 465  266.002
 466  300.2399
 467  216.2422
 468  126.1738
 469  214.7625
 470  286.9176
 471  135.3365
 472  39.75727
 473  22.18294
 474  -4.05898
 475  53.6035
 476  79.98579
 477  176.5274
 478  108.2961
 479  160.351
 480  308.6847
 481  201.5045
 482  224.9612
 483  115.3444
 484  147.3172
 485  152.8594
 486  257.7022
 487  208.557
 488  122.1391
 489  153.0147
 490  128.5085
 491  221.845
 492  231.6766
 493  359.4884
 494  233.2475
 495  81.15559
 496  224.2336
 497  280.3725
 498  243.7402
 499  301.6184
 500  261.1767
 501  199.3086
 502  234.6469
 503  298.7092
 504  248.0733
 505  269.7478
 506  394.5923
 507  382.6375
 508  515.3472
 509  576.0066
 510  596.4531
 511  767.6512
