# Input file       =  1190849001.1267_cleaned.dat
# Candidate        =  PSR_0332+5434
# Telescope        =  AR
# Epoch_topo       =  58026.974341744215
# Epoch_bary       =  N/A
# T_sample         =  0.002
# Data Folded      =  7340032
# Data Avg         =  0.0109819949694096
# Data StdDev      =  1.00009389504714 
# Profile Bins     =  512
# Profile Avg      =  157.568121050183 
# Profile StdDev   =  119.744278715861 
# Reduced chi-sqr  =  1.553
# Prob(Noise)      <  1.35e-14   (~7.6 sigma)
# P_topo (ms)      =  714.472593676082  +/- 0.00012
# P'_topo (s/s)    =  -0                +/- 6.31e-11
# P''_topo (s/s^2) =  0                 +/- 2.79e-14
# P_bary (ms)      =  N/A
# P'_bary (s/s)    =  N/A
# P''_bary (s/s^2) =  N/A
# P_orb (s)        =  N/A
# asin(i)/c (s)    =  N/A
# eccentricity     =  N/A
# w (rad)          =  N/A
# T_peri           =  N/A
######################################################
   0  835.164
   1  894.725
   2  718.3223
   3  458.8256
   4  271.7573
   5  134.0061
   6  181.3656
   7  180.1164
   8  210.2105
   9  260.2128
  10  213.8062
  11  155.3518
  12  193.3869
  13  200.9779
  14  180.2991
  15  208.2431
  16  298.4688
  17  98.92213
  18  27.49447
  19  84.43143
  20  180.9019
  21  139.4958
  22  214.2341
  23  118.1503
  24  69.04684
  25  128.2765
  26  149.4828
  27  285.6662
  28  386.5194
  29  289.274
  30  235.9609
  31  63.09027
  32  -41.48873
  33  149.0991
  34  174.4263
  35  236.9698
  36  233.5512
  37  245.5425
  38  205.8625
  39  163.8308
  40  202.6519
  41  241.8203
  42  180.1864
  43  193.7834
  44  191.0056
  45  210.0095
  46  172.9868
  47  121.9068
  48  295.3444
  49  408.4535
  50  366.1469
  51  252.6986
  52  125.2356
  53  229.7932
  54  160.3234
  55  139.5617
  56  93.55388
  57  83.74015
  58  159.0132
  59  127.9857
  60  90.29748
  61  50.99788
  62  108.7057
  63  52.14759
  64  31.84561
  65  116.9286
  66  59.12994
  67  192.4392
  68  213.0451
  69  250.5867
  70  178.5073
  71  48.7008
  72  105.7022
  73  44.55719
  74  62.4833
  75  134.0701
  76  193.1796
  77  164.9484
  78  179.8504
  79  63.9912
  80  169.9261
  81  128.2745
  82  110.4467
  83  78.87553
  84  158.7197
  85  220.1249
  86  247.9977
  87  181.7639
  88  54.94151
  89  104.1928
  90  197.7045
  91  96.77537
  92  139.2016
  93  165.4919
  94  127.771
  95  162.9138
  96  37.0339
  97  154.9823
  98  93.95142
  99  107.6196
 100  58.42376
 101  100.7301
 102  179.3173
 103  111.3265
 104  93.90712
 105  159.3522
 106  159.9072
 107  155.359
 108  15.99236
 109  121.153
 110  306.2637
 111  120.8031
 112  55.16162
 113  209.4227
 114  294.5287
 115  205.7445
 116  213.5514
 117  209.9236
 118  195.4823
 119  97.93788
 120  87.23463
 121  113.9948
 122  -1.201833
 123  59.85584
 124  117.5882
 125  189.6738
 126  189.7344
 127  183.7817
 128  87.87229
 129  -7.224285
 130  148.7177
 131  201.825
 132  109.8994
 133  242.3992
 134  272.2404
 135  273.9992
 136  224.3949
 137  171.3997
 138  133.9611
 139  -8.960893
 140  -46.55925
 141  195.5046
 142  260.3602
 143  145.3232
 144  266.4757
 145  199.2268
 146  207.2753
 147  44.16639
 148  -35.98071
 149  56.06408
 150  40.82573
 151  108.3378
 152  48.89861
 153  26.25406
 154  46.4492
 155  113.2081
 156  -8.710557
 157  47.85375
 158  51.57895
 159  119.752
 160  80.94616
 161  137.9548
 162  168.0679
 163  101.7518
 164  -42.51291
 165  24.47744
 166  94.38266
 167  69.67493
 168  35.62107
 169  117.0773
 170  170.4347
 171  180.9635
 172  82.65833
 173  34.64381
 174  169.4695
 175  184.2714
 176  106.8133
 177  112.6357
 178  159.781
 179  104.9342
 180  122.4012
 181  48.71099
 182  119.1988
 183  131.4464
 184  150.0183
 185  266.3865
 186  221.2943
 187  123.0348
 188  112.901
 189  200.8935
 190  281.4957
 191  183.3193
 192  104.8876
 193  98.03602
 194  90.12611
 195  87.61523
 196  184.5581
 197  225.3277
 198  214.295
 199  226.7304
 200  196.9915
 201  191.2095
 202  169.17
 203  75.21728
 204  68.60247
 205  123.8836
 206  189.4657
 207  73.5185
 208  165.3114
 209  308.0313
 210  126.7386
 211  97.90243
 212  167.0349
 213  216.5602
 214  225.1856
 215  225.5913
 216  157.6076
 217  156.6184
 218  328.9568
 219  258.5533
 220  210.3188
 221  189.7563
 222  225.1104
 223  173.2973
 224  121.6481
 225  205.6394
 226  232.5347
 227  272.0978
 228  298.4306
 229  235.1192
 230  206.006
 231  105.7647
 232  160.1361
 233  269.6271
 234  217.2822
 235  245.2537
 236  204.1025
 237  141.8761
 238  219.9754
 239  149.8155
 240  108.2191
 241  101.1957
 242  75.29772
 243  153.6463
 244  136.8989
 245  212.1874
 246  205.9315
 247  158.4645
 248  65.0651
 249  220.2585
 250  122.8741
 251  51.73394
 252  25.5443
 253  49.84891
 254  96.69556
 255  52.91851
 256  137.3232
 257  148.3174
 258  -68.20738
 259  -75.45641
 260  107.6904
 261  126.4167
 262  233.7374
 263  329.507
 264  264.3484
 265  13.53849
 266  123.7326
 267  154.7442
 268  92.14121
 269  159.3797
 270  69.64165
 271  102.2932
 272  97.95295
 273  145.5543
 274  133.4677
 275  183.0929
 276  223.6385
 277  134.3972
 278  153.4659
 279  245.215
 280  305.8469
 281  184.3877
 282  300.0066
 283  313.881
 284  275.8548
 285  211.8236
 286  168.6568
 287  230.7131
 288  25.4939
 289  -13.72568
 290  137.5211
 291  97.89645
 292  153.9282
 293  140.5209
 294  308.1376
 295  288.5699
 296  206.4675
 297  159.3465
 298  241.6738
 299  195.9189
 300  102.4985
 301  162.8468
 302  157.9349
 303  149.6186
 304  84.90692
 305  124.8689
 306  280.7428
 307  193.07
 308  67.17384
 309  64.15505
 310  -23.84554
 311  16.41408
 312  19.96878
 313  13.22914
 314  91.22318
 315  195.2622
 316  196.8087
 317  134.189
 318  32.54744
 319  -14.9509
 320  126.667
 321  -16.29251
 322  12.72261
 323  52.36691
 324  114.2799
 325  134.1393
 326  187.4325
 327  133.6671
 328  53.16901
 329  122.9553
 330  127.5872
 331  10.53211
 332  259.5546
 333  227.2571
 334  49.90406
 335  125.6846
 336  177.6754
 337  155.4744
 338  97.97858
 339  210.5745
 340  266.0524
 341  78.96975
 342  75.39662
 343  63.68415
 344  44.01887
 345  62.57375
 346  85.71229
 347  115.0281
 348  87.14903
 349  30.17805
 350  63.63905
 351  21.60011
 352  55.76296
 353  34.97148
 354  -37.69996
 355  21.39096
 356  177.1651
 357  15.73619
 358  54.18743
 359  159.1924
 360  181.5919
 361  132.042
 362  159.5322
 363  134.658
 364  143.0412
 365  303.3276
 366  307.7242
 367  320.4536
 368  208.4213
 369  112.4429
 370  14.34624
 371  201.5539
 372  148.1839
 373  -25.49755
 374  82.7477
 375  95.00906
 376  227.9981
 377  381.7678
 378  157.6646
 379  50.84304
 380  84.5779
 381  134.1375
 382  106.0895
 383  222.7227
 384  229.9366
 385  194.3687
 386  151.4696
 387  77.69744
 388  120.0256
 389  74.16543
 390  109.2215
 391  125.3137
 392  198.6836
 393  164.3321
 394  72.07538
 395  190.3728
 396  222.947
 397  83.06916
 398  69.171
 399  266.34
 400  354.0532
 401  228.8841
 402  -14.14136
 403  131.2701
 404  207.43
 405  117.0597
 406  106.4853
 407  208.7127
 408  329.7412
 409  3.751033
 410  13.26766
 411  235.8842
 412  420.0714
 413  100.0524
 414  -60.87961
 415  132.3263
 416  328.5843
 417  169.3572
 418  122.6671
 419  114.1384
 420  171.9925
 421  248.2112
 422  266.9732
 423  252.4895
 424  154.5839
 425  148.7369
 426  124.3663
 427  76.84003
 428  44.01879
 429  123.5016
 430  181.987
 431  144.2289
 432  115.0901
 433  205.0591
 434  58.03246
 435  -86.63491
 436  100.713
 437  196.3956
 438  231.3885
 439  173.4684
 440  215.4479
 441  137.2874
 442  109.3724
 443  37.72405
 444  94.50412
 445  117.3072
 446  216.5134
 447  291.1772
 448  162.2839
 449  61.73135
 450  284.5296
 451  352.7009
 452  145.6878
 453  98.43124
 454  107.2208
 455  256.343
 456  157.2362
 457  273.5235
 458  283.6366
 459  127.5141
 460  113.7038
 461  90.9609
 462  172.9406
 463  170.2478
 464  178.8956
 465  252.301
 466  311.4075
 467  245.3427
 468  120.527
 469  150.1379
 470  159.579
 471  125.9949
 472  125.4806
 473  64.34856
 474  72.54588
 475  175.7089
 476  204.625
 477  131.848
 478  106.169
 479  148.8912
 480  105.2906
 481  216.0469
 482  231.2341
 483  93.4788
 484  101.6757
 485  120.1527
 486  141.0474
 487  179.8781
 488  350.4319
 489  208.4555
 490  149.7409
 491  34.14637
 492  48.61825
 493  231.2234
 494  182.774
 495  203.7087
 496  188.7659
 497  146.8895
 498  116.2188
 499  94.09444
 500  96.03357
 501  114.3214
 502  232.7473
 503  220.7582
 504  348.7715
 505  399.454
 506  305.5544
 507  302.238
 508  485.7431
 509  579.9967
 510  685.8992
 511  695.1537
