# Input file       =  1190950050.106759_cleaned.dat
# Candidate        =  PSR_0332+5434
# Telescope        =  AR
# Epoch_topo       =  58028.143890124527
# Epoch_bary       =  N/A
# T_sample         =  0.002
# Data Folded      =  7340032
# Data Avg         =  0.00849786868308844
# Data StdDev      =  1.00025844162852 
# Profile Bins     =  512
# Profile Avg      =  121.870276569807 
# Profile StdDev   =  119.763980377675 
# Reduced chi-sqr  =  1.511
# Prob(Noise)      <  6e-13   (~7.1 sigma)
# P_topo (ms)      =  714.473573917229  +/- 0.000207
# P'_topo (s/s)    =  -0                +/- 1.09e-10
# P''_topo (s/s^2) =  0                 +/- 4.82e-14
# P_bary (ms)      =  N/A
# P'_bary (s/s)    =  N/A
# P''_bary (s/s^2) =  N/A
# P_orb (s)        =  N/A
# asin(i)/c (s)    =  N/A
# eccentricity     =  N/A
# w (rad)          =  N/A
# T_peri           =  N/A
######################################################
   0  700.2574
   1  712.5479
   2  519.2062
   3  416.278
   4  450.4878
   5  286.2245
   6  153.2682
   7  176.5694
   8  235.7951
   9  186.842
  10  64.27426
  11  161.0565
  12  176.9117
  13  277.2469
  14  291.9221
  15  359.9867
  16  284.0459
  17  173.9286
  18  149.2273
  19  214.6997
  20  133.4847
  21  154.4174
  22  104.749
  23  -36.57319
  24  -24.60991
  25  -2.143522
  26  63.93387
  27  24.19104
  28  130.0892
  29  147.1705
  30  59.30477
  31  45.81493
  32  236.8354
  33  140.9296
  34  173.1418
  35  135.2691
  36  54.98361
  37  11.817
  38  110.9897
  39  92.06667
  40  130.2204
  41  255.0264
  42  191.3421
  43  154.3976
  44  120.8426
  45  -0.4835095
  46  39.14749
  47  106.7505
  48  140.6887
  49  224.4044
  50  153.9074
  51  94.36422
  52  156.0399
  53  66.93745
  54  93.60779
  55  130.2318
  56  86.38884
  57  101.2509
  58  114.9398
  59  36.55803
  60  33.93104
  61  144.6374
  62  49.41409
  63  127.4023
  64  113.322
  65  19.74935
  66  11.66459
  67  107.3296
  68  184.6786
  69  192.752
  70  200.3645
  71  210.2343
  72  104.1581
  73  63.96864
  74  110.1503
  75  -66.64278
  76  4.317816
  77  158.235
  78  167.2268
  79  221.06
  80  129.7882
  81  37.01419
  82  51.75711
  83  233.1933
  84  245.5699
  85  100.8885
  86  42.5043
  87  196.2551
  88  224.5327
  89  205.395
  90  213.651
  91  186.2003
  92  91.83924
  93  125.9275
  94  82.97023
  95  111.2722
  96  146.7272
  97  30.76138
  98  69.28626
  99  71.02482
 100  121.9548
 101  156.2692
 102  162.2269
 103  124.5247
 104  146.981
 105  28.67029
 106  32.08158
 107  146.0981
 108  185.1713
 109  318.0258
 110  164.7809
 111  -46.08088
 112  -112.0443
 113  74.3505
 114  198.5939
 115  63.40881
 116  144.6861
 117  230.8163
 118  164.9949
 119  181.8922
 120  150.0216
 121  19.36897
 122  57.97069
 123  153.4648
 124  58.31339
 125  83.32342
 126  74.66283
 127  20.717
 128  -0.5787964
 129  171.806
 130  180.3034
 131  106.6377
 132  80.8225
 133  174.1455
 134  236.3323
 135  178.5604
 136  115.3743
 137  28.07764
 138  78.03664
 139  97.92372
 140  112.2579
 141  206.591
 142  112.7402
 143  -75.07449
 144  -28.44258
 145  -77.72571
 146  108.8919
 147  31.35267
 148  101.5933
 149  170.72
 150  79.47667
 151  68.43891
 152  47.50895
 153  120.8661
 154  75.95283
 155  61.85317
 156  187.951
 157  129.1137
 158  -24.57153
 159  99.49573
 160  178.741
 161  81.39166
 162  110.5687
 163  47.65718
 164  111.2758
 165  76.6398
 166  -65.49986
 167  -14.44603
 168  24.67293
 169  79.82175
 170  122.8984
 171  159.1633
 172  190.1731
 173  133.5219
 174  81.88992
 175  136.3762
 176  62.0977
 177  56.1519
 178  162.901
 179  46.68141
 180  -112.8266
 181  -18.42446
 182  172.6196
 183  153.942
 184  22.4515
 185  123.8413
 186  61.8515
 187  1.859169
 188  85.52839
 189  88.00938
 190  143.7705
 191  63.35584
 192  14.71991
 193  185.5109
 194  148.6303
 195  187.8032
 196  5.796558
 197  -57.6469
 198  135.8734
 199  3.662552
 200  22.82336
 201  -6.244597
 202  -69.50658
 203  28.62382
 204  15.74202
 205  -33.73689
 206  -37.4011
 207  91.3328
 208  -32.79701
 209  -17.53719
 210  87.36179
 211  232.2921
 212  13.34968
 213  -4.208366
 214  94.85521
 215  128.4704
 216  -11.68445
 217  -99.95644
 218  -3.571622
 219  155.5341
 220  200.5321
 221  174.2668
 222  33.60294
 223  16.29019
 224  -44.62856
 225  -95.594
 226  -73.51211
 227  130.6522
 228  156.8112
 229  89.51364
 230  93.4398
 231  -21.94022
 232  -65.05632
 233  -97.14135
 234  125.2031
 235  192.5417
 236  124.1338
 237  -10.27394
 238  55.84666
 239  42.2283
 240  105.5272
 241  136.2237
 242  78.51498
 243  156.9025
 244  136.6784
 245  105.5732
 246  96.54956
 247  50.50348
 248  -28.11054
 249  -45.68908
 250  -53.48965
 251  60.88779
 252  48.48936
 253  -39.06457
 254  30.79445
 255  36.04847
 256  67.63998
 257  34.218
 258  137.7174
 259  117.5863
 260  19.61967
 261  125.8149
 262  181.1289
 263  148.6962
 264  185.846
 265  174.2673
 266  172.5797
 267  174.3165
 268  217.4922
 269  128.3075
 270  54.96687
 271  50.20504
 272  100.7537
 273  46.00746
 274  178.2267
 275  154.78
 276  177.2468
 277  156.7212
 278  121.5519
 279  148.3062
 280  210.5388
 281  89.7227
 282  114.9837
 283  113.5299
 284  135.184
 285  122.6281
 286  139.838
 287  121.1524
 288  -51.11813
 289  -31.92594
 290  147.2954
 291  258.9554
 292  152.2419
 293  96.63705
 294  158.2456
 295  148.0909
 296  93.14483
 297  27.3898
 298  43.03651
 299  138.3217
 300  108.7753
 301  280.9273
 302  277.4956
 303  32.31396
 304  48.99723
 305  190.3919
 306  110.1167
 307  225.7462
 308  160.1326
 309  9.668492
 310  8.490615
 311  128.9785
 312  175.3835
 313  193.4906
 314  225.3797
 315  256.3756
 316  209.7258
 317  183.0478
 318  58.06711
 319  32.8048
 320  89.80991
 321  12.56093
 322  -55.46421
 323  38.32366
 324  61.59288
 325  1.544814
 326  75.46586
 327  107.556
 328  62.30204
 329  39.14758
 330  215.6305
 331  242.8422
 332  204.2109
 333  327.6404
 334  117.8396
 335  52.5284
 336  52.98491
 337  75.18743
 338  -29.39497
 339  26.1848
 340  67.99152
 341  190.6484
 342  202.8212
 343  226.8655
 344  250.6899
 345  59.87939
 346  50.6569
 347  139.9142
 348  88.55757
 349  170.0063
 350  223.181
 351  274.1656
 352  184.3403
 353  167.3378
 354  55.53523
 355  199.1266
 356  223.0371
 357  230.22
 358  132.3649
 359  280.0192
 360  296.971
 361  181.202
 362  83.20203
 363  91.60786
 364  222.1494
 365  85.88718
 366  26.50847
 367  134.3588
 368  294.1633
 369  249.4665
 370  72.59915
 371  82.8433
 372  203.254
 373  114.9929
 374  106.8779
 375  66.24931
 376  128.7826
 377  143.8425
 378  279.8871
 379  239.0803
 380  156.4976
 381  173.504
 382  160.7953
 383  206.9081
 384  187.1785
 385  258.0123
 386  265.435
 387  110.6418
 388  118.9914
 389  173.0162
 390  86.52328
 391  85.35361
 392  98.15573
 393  161.7958
 394  122.731
 395  72.90266
 396  103.8284
 397  100.7319
 398  83.35332
 399  134.0374
 400  234.3923
 401  218.9043
 402  -25.26159
 403  -16.6802
 404  165.8535
 405  136.5714
 406  180.8673
 407  230.8673
 408  299.1628
 409  194.3457
 410  68.33016
 411  278.4989
 412  145.6288
 413  27.53492
 414  132.8947
 415  94.18032
 416  95.19442
 417  206.3838
 418  120.8551
 419  94.62683
 420  122.565
 421  109.2537
 422  139.4806
 423  99.89632
 424  11.64016
 425  49.03969
 426  -46.3175
 427  83.28822
 428  137.7431
 429  269.9935
 430  269.6769
 431  215.7279
 432  223.1984
 433  97.90884
 434  46.00375
 435  16.11114
 436  -5.182057
 437  31.43784
 438  140.2001
 439  109.6867
 440  169.8
 441  261.0931
 442  197.6049
 443  192.9041
 444  186.9491
 445  92.84656
 446  170.2113
 447  142.1915
 448  82.87214
 449  125.3985
 450  89.80336
 451  33.82338
 452  -102.7929
 453  -92.88078
 454  136.0366
 455  151.0719
 456  141.9894
 457  175.7159
 458  87.39046
 459  43.17126
 460  15.39709
 461  57.73029
 462  163.6458
 463  207.6257
 464  109.1868
 465  209.1414
 466  307.5594
 467  388.9384
 468  184.2355
 469  112.3741
 470  166.1639
 471  124.7668
 472  166.2184
 473  51.26235
 474  20.11589
 475  97.42233
 476  57.46949
 477  123.5354
 478  78.24217
 479  71.44017
 480  117.5905
 481  99.80872
 482  67.70191
 483  68.36781
 484  163.2944
 485  138.8644
 486  63.98386
 487  96.8074
 488  72.21143
 489  43.11579
 490  65.45648
 491  176.7225
 492  190.4372
 493  104.5034
 494  77.00594
 495  248.0615
 496  194.0121
 497  83.36044
 498  13.57831
 499  222.9877
 500  256.8341
 501  285.3744
 502  321.5461
 503  298.13
 504  197.3564
 505  249.2842
 506  148.4124
 507  118.2535
 508  291.9379
 509  427.3092
 510  765.8586
 511  799.4773
