# Input file       =  1190935138.10484_cleaned.dat
# Candidate        =  PSR_0332+5434
# Telescope        =  AR
# Epoch_topo       =  58027.971297509721
# Epoch_bary       =  N/A
# T_sample         =  0.002
# Data Folded      =  7340032
# Data Avg         =  0.0105106573669268
# Data StdDev      =  1.00003098244734 
# Profile Bins     =  512
# Profile Avg      =  150.956893055465 
# Profile StdDev   =  119.736745999261 
# Reduced chi-sqr  =  1.398
# Prob(Noise)      <  6.09e-09   (~5.7 sigma)
# P_topo (ms)      =  714.473142836238  +/- 0.00021
# P'_topo (s/s)    =  -0                +/- 1.11e-10
# P''_topo (s/s^2) =  0                 +/- 4.89e-14
# P_bary (ms)      =  N/A
# P'_bary (s/s)    =  N/A
# P''_bary (s/s^2) =  N/A
# P_orb (s)        =  N/A
# asin(i)/c (s)    =  N/A
# eccentricity     =  N/A
# w (rad)          =  N/A
# T_peri           =  N/A
######################################################
   0  885.951
   1  731.1635
   2  612.2744
   3  404.0941
   4  184.7327
   5  129.1713
   6  143.1265
   7  85.05261
   8  89.10471
   9  17.07372
  10  239.2226
  11  293.55
  12  428.1622
  13  280.8118
  14  254.9714
  15  358.334
  16  312.896
  17  173.2912
  18  78.78144
  19  124.886
  20  154.0174
  21  181.5924
  22  193.7355
  23  160.6509
  24  127.2784
  25  157.3672
  26  68.03296
  27  173.5962
  28  188.2233
  29  33.82084
  30  189.2367
  31  272.0253
  32  288.8271
  33  160.4559
  34  -39.07403
  35  -25.7369
  36  26.62009
  37  168.989
  38  122.8914
  39  86.03825
  40  152.8707
  41  1.240057
  42  44.92431
  43  174.0921
  44  110.6842
  45  163.6829
  46  131.8772
  47  85.33012
  48  104.0971
  49  122.8975
  50  42.25814
  51  -55.40623
  52  42.32338
  53  249.4993
  54  155.5249
  55  237.369
  56  166.7419
  57  120.9408
  58  133.5516
  59  71.32402
  60  166.9262
  61  123.2533
  62  26.35953
  63  127.0941
  64  136.2545
  65  117.9411
  66  154.7237
  67  131.5712
  68  174.9926
  69  240.5984
  70  262.6181
  71  241.4315
  72  138.5644
  73  232.8002
  74  168.375
  75  164.5209
  76  123.516
  77  169.4133
  78  76.09367
  79  -25.80857
  80  96.84332
  81  129.4197
  82  53.96057
  83  42.16092
  84  51.31938
  85  123.7645
  86  37.5427
  87  38.65073
  88  91.31946
  89  175.6401
  90  139.4567
  91  118.9771
  92  133.464
  93  106.4214
  94  79.40073
  95  102.8789
  96  92.21981
  97  23.47099
  98  147.7172
  99  83.23058
 100  21.72015
 101  42.93636
 102  93.91738
 103  70.48387
 104  168.8544
 105  192.4059
 106  134.1049
 107  140.8613
 108  285.1185
 109  236.8441
 110  48.08805
 111  88.24364
 112  181.0998
 113  225.3636
 114  350.926
 115  340.4121
 116  73.16748
 117  27.38172
 118  134.9981
 119  112.0475
 120  69.05079
 121  87.87332
 122  119.4616
 123  178.8177
 124  179.1023
 125  142.6926
 126  99.4189
 127  208.8266
 128  246.5875
 129  111.3654
 130  66.21271
 131  -15.66604
 132  77.29803
 133  206.5894
 134  217.3206
 135  108.064
 136  287.8987
 137  275.3452
 138  186.3149
 139  147.7945
 140  265.8009
 141  207.4623
 142  -12.57479
 143  98.84386
 144  145.2309
 145  162.6306
 146  258.8197
 147  138.6831
 148  128.4846
 149  121.3216
 150  223.1884
 151  177.739
 152  196.4228
 153  165.6133
 154  229.4975
 155  159.5325
 156  187.9738
 157  209.2141
 158  178.2514
 159  267.8959
 160  157.7991
 161  124.6784
 162  225.8075
 163  272.842
 164  245.6713
 165  -20.26719
 166  42.72238
 167  139.2835
 168  42.88963
 169  144.1545
 170  77.1824
 171  66.44764
 172  128.002
 173  133.5646
 174  130.5863
 175  106.6789
 176  109.1568
 177  165.8387
 178  251.1144
 179  165.1034
 180  142.0608
 181  73.94006
 182  161.5771
 183  180.752
 184  21.27745
 185  7.85374
 186  138.1239
 187  71.3887
 188  257.3125
 189  257.3984
 190  140.4942
 191  125.8257
 192  101.9872
 193  59.44036
 194  53.8531
 195  148.0359
 196  207.2587
 197  128.852
 198  199.2994
 199  198.6629
 200  192.6447
 201  246.7199
 202  257.2394
 203  191.0574
 204  221.5558
 205  278.035
 206  105.8425
 207  57.82404
 208  22.89837
 209  50.55429
 210  174.5861
 211  203.9661
 212  107.6789
 213  88.1147
 214  47.20222
 215  51.63343
 216  270.1957
 217  329.7253
 218  338.9756
 219  282.0739
 220  140.5517
 221  127.5544
 222  110.4219
 223  124.9244
 224  51.47372
 225  137.4305
 226  58.64251
 227  25.01972
 228  90.69405
 229  292.4315
 230  323.0796
 231  97.96587
 232  27.30681
 233  88.6848
 234  -9.616508
 235  75.91101
 236  110.1638
 237  136.4677
 238  54.4257
 239  98.39454
 240  173.757
 241  198.2394
 242  118.8732
 243  316.8131
 244  266.4522
 245  198.4791
 246  230.9607
 247  79.66373
 248  122.6378
 249  184.5809
 250  272.5238
 251  226.69
 252  332.2949
 253  285.0041
 254  141.6586
 255  153.3978
 256  211.7021
 257  122.4627
 258  214.2943
 259  214.654
 260  172.659
 261  299.4532
 262  248.5272
 263  146.2155
 264  26.06568
 265  74.19028
 266  80.42798
 267  172.2082
 268  128.0211
 269  151.25
 270  123.8379
 271  225.64
 272  271.5408
 273  66.58698
 274  197.6054
 275  259.5746
 276  209.7278
 277  152.5388
 278  109.5023
 279  145.0778
 280  253.8687
 281  206.579
 282  65.42478
 283  275.1433
 284  227.803
 285  240.7099
 286  183.9283
 287  203.6012
 288  121.743
 289  136.2909
 290  186.5571
 291  149.1657
 292  135.3067
 293  247.4805
 294  111.0163
 295  -6.908395
 296  48.80106
 297  160.2123
 298  308.4365
 299  254.5404
 300  128.9004
 301  107.8452
 302  204.1871
 303  128.4688
 304  136.7997
 305  160.3724
 306  48.15469
 307  123.6027
 308  94.73586
 309  115.7451
 310  189.13
 311  298.5251
 312  242.515
 313  113.8326
 314  85.35928
 315  134.4832
 316  166.2787
 317  171.6422
 318  147.5527
 319  107.9937
 320  270.7471
 321  253.4883
 322  254.4061
 323  159.518
 324  152.6485
 325  122.2423
 326  89.48908
 327  156.8369
 328  158.7323
 329  267.0844
 330  202.3486
 331  149.9071
 332  129.0426
 333  168.6901
 334  182.8607
 335  133.8574
 336  125.8607
 337  70.03513
 338  59.85185
 339  19.59852
 340  97.23116
 341  3.40162
 342  160.9682
 343  242.0389
 344  369.7661
 345  199.6849
 346  222.3357
 347  164.1224
 348  103.497
 349  27.39975
 350  115.4085
 351  135.1896
 352  180.4679
 353  180.1264
 354  306.2564
 355  212.6269
 356  116.1666
 357  68.08759
 358  212.5146
 359  247.8875
 360  181.4464
 361  267.4942
 362  164.9216
 363  143.2296
 364  172.8762
 365  182.3931
 366  159.7121
 367  190.4349
 368  87.65146
 369  133.6987
 370  265.8781
 371  198.5912
 372  194.0514
 373  46.89418
 374  -93.31693
 375  10.50148
 376  119.6961
 377  166.0112
 378  119.0245
 379  -35.61814
 380  29.02828
 381  188.4314
 382  74.01051
 383  91.97404
 384  147.479
 385  -36.87527
 386  36.58999
 387  200.1606
 388  151.245
 389  246.403
 390  214.2907
 391  108.7852
 392  79.15966
 393  86.79191
 394  131.2662
 395  202.4894
 396  244.5797
 397  250.6633
 398  74.0481
 399  50.44779
 400  24.65022
 401  158.0739
 402  198.1629
 403  79.71075
 404  51.14301
 405  110.137
 406  230.1625
 407  176.9302
 408  77.9154
 409  158.4702
 410  145.4138
 411  74.61019
 412  4.179443
 413  -25.0379
 414  -12.6411
 415  94.33813
 416  302.0808
 417  342.9462
 418  60.67157
 419  63.52396
 420  113.2668
 421  176.0822
 422  135.6807
 423  213.2931
 424  170.1834
 425  130.2651
 426  125.781
 427  151.2523
 428  242.3882
 429  163.3172
 430  98.51125
 431  101.9934
 432  105.5589
 433  71.38861
 434  50.29396
 435  46.22234
 436  114.8358
 437  140.6341
 438  54.89141
 439  -110.3595
 440  12.03137
 441  127.8317
 442  127.9742
 443  79.22559
 444  32.41724
 445  86.5303
 446  -57.3616
 447  86.95081
 448  163.4284
 449  194.5231
 450  152.189
 451  84.51902
 452  29.93935
 453  87.71828
 454  246.0052
 455  139.6552
 456  102.4518
 457  48.76903
 458  67.29471
 459  -5.345185
 460  98.26475
 461  209.878
 462  69.86354
 463  101.486
 464  130.4809
 465  70.12547
 466  119.6769
 467  65.18829
 468  20.99383
 469  70.02785
 470  186.9563
 471  310.853
 472  148.657
 473  48.61281
 474  140.1982
 475  117.6549
 476  74.47869
 477  55.52038
 478  -12.28935
 479  122.9744
 480  181.7657
 481  217.1634
 482  108.3766
 483  136.2913
 484  213.1417
 485  100.2564
 486  48.56221
 487  139.9268
 488  147.4495
 489  173.2817
 490  130.0069
 491  153.9399
 492  178.8544
 493  103.5402
 494  244.6602
 495  157.9916
 496  -1.957933
 497  68.0462
 498  172.7763
 499  172.6006
 500  191.556
 501  209.8873
 502  169.4581
 503  256.0622
 504  273.6101
 505  306.1219
 506  279.7068
 507  250.7501
 508  424.4005
 509  527.0025
 510  647.8231
 511  724.3919
