# Input file       =  1191179035.128983_cleaned.dat
# Candidate        =  PSR_0332+5434
# Telescope        =  AR
# Epoch_topo       =  58030.794179733603
# Epoch_bary       =  N/A
# T_sample         =  0.002
# Data Folded      =  7208960
# Data Avg         =  0.0192689898109091
# Data StdDev      =  0.999976366070299
# Profile Bins     =  512
# Profile Avg      =  271.286431551338 
# Profile StdDev   =  118.656371410912 
# Reduced chi-sqr  =  2.225
# Prob(Noise)      <  1.37e-49   (~14.8 sigma)
# P_topo (ms)      =  714.474757463341  +/- 0.000228
# P'_topo (s/s)    =  -0                +/- 1.22e-10
# P''_topo (s/s^2) =  0                 +/- 5.5e-14
# P_bary (ms)      =  N/A
# P'_bary (s/s)    =  N/A
# P''_bary (s/s^2) =  N/A
# P_orb (s)        =  N/A
# asin(i)/c (s)    =  N/A
# eccentricity     =  N/A
# w (rad)          =  N/A
# T_peri           =  N/A
######################################################
   0  1351.807
   1  1316.7
   2  1136.058
   3  724.2086
   4  520.7642
   5  437.4967
   6  240.9094
   7  240.4002
   8  272.8627
   9  187.7569
  10  286.1456
  11  340.9999
  12  328.9881
  13  310.7041
  14  337.7777
  15  360.2653
  16  358.33
  17  369.8526
  18  336.0011
  19  295.2156
  20  157.7433
  21  306.6922
  22  259.5523
  23  190.9625
  24  192.0758
  25  68.23882
  26  120.5754
  27  134.7863
  28  185.6491
  29  151.7081
  30  245.6386
  31  259.333
  32  192.4748
  33  283.1343
  34  322.2388
  35  340.5392
  36  379.8683
  37  297.0273
  38  177.7929
  39  188.278
  40  148.491
  41  132.8456
  42  295.9771
  43  337.8979
  44  226.3647
  45  221.4512
  46  146.6442
  47  182.6262
  48  220.5987
  49  322.1182
  50  204.2148
  51  287.6075
  52  363.387
  53  369.6379
  54  344.2445
  55  264.8442
  56  274.5471
  57  318.2507
  58  340.7545
  59  253.625
  60  240.2448
  61  296.7364
  62  196.286
  63  304.6266
  64  377.7196
  65  363.3698
  66  310.1548
  67  132.4648
  68  283.1799
  69  292.4772
  70  187.6403
  71  263.3623
  72  284.5315
  73  186.8367
  74  234.2349
  75  239.1466
  76  277.6836
  77  309.3934
  78  249.9086
  79  192.4133
  80  294.6392
  81  352.7803
  82  294.5609
  83  231.4569
  84  275.3569
  85  287.4145
  86  313.0462
  87  235.5073
  88  300.9951
  89  182.9026
  90  209.382
  91  306.125
  92  239.9607
  93  397.89
  94  252.9451
  95  232.1188
  96  145.1857
  97  135.0518
  98  168.9214
  99  115.0716
 100  62.71252
 101  116.0747
 102  134.8555
 103  86.12351
 104  91.87408
 105  180.5236
 106  177.241
 107  90.24232
 108  44.7269
 109  188.5983
 110  288.9427
 111  316.7072
 112  289.4283
 113  313.5527
 114  289.2513
 115  420.2289
 116  186.6333
 117  206.9956
 118  308.6482
 119  301.103
 120  153.9775
 121  187.2356
 122  316.8787
 123  132.0796
 124  146.8251
 125  354.3175
 126  234.7324
 127  180.2932
 128  90.22095
 129  66.66997
 130  145.1054
 131  84.41458
 132  204.6798
 133  238.5285
 134  282.6578
 135  302.0111
 136  210.3871
 137  107.8962
 138  230.6653
 139  296.8174
 140  252.2773
 141  275.6325
 142  290.7869
 143  171.7809
 144  163.4199
 145  76.99365
 146  205.0573
 147  311.0802
 148  256.4101
 149  274.1074
 150  252.7295
 151  190.631
 152  103.5157
 153  147.0598
 154  148.4429
 155  71.95853
 156  148.9651
 157  276.7082
 158  397.4379
 159  249.6278
 160  180.2094
 161  265.9242
 162  232.6439
 163  282.6217
 164  250.6295
 165  237.8212
 166  195.3691
 167  213.5312
 168  427.1967
 169  308.3319
 170  183.5455
 171  211.4054
 172  260.211
 173  246.565
 174  187.3308
 175  188.3833
 176  184.2173
 177  83.49129
 178  221.5361
 179  266.6992
 180  252.0502
 181  261.3204
 182  225.5574
 183  252.7316
 184  266.999
 185  288.9991
 186  368.6161
 187  365.7796
 188  176.7392
 189  172.7317
 190  178.4206
 191  245.1881
 192  443.868
 193  417.3491
 194  348.4466
 195  152.7905
 196  286.2574
 197  330.8685
 198  269.9532
 199  330.4827
 200  365.9117
 201  209.5848
 202  88.11481
 203  180.0593
 204  415.884
 205  248.6811
 206  204.513
 207  309.2117
 208  279.8798
 209  199.4462
 210  278.2989
 211  320.0425
 212  226.9219
 213  212.3108
 214  296.8966
 215  235.1402
 216  270.1171
 217  256.2993
 218  201.5437
 219  251.5847
 220  229.9273
 221  148.6688
 222  193.8216
 223  330.8882
 224  258.7582
 225  260.5962
 226  223.7598
 227  323.8603
 228  265.0013
 229  237.0976
 230  90.46322
 231  50.13128
 232  170.6513
 233  237.2542
 234  284.929
 235  240.378
 236  175.552
 237  136.4788
 238  182.3565
 239  179.6393
 240  305.8457
 241  192.7443
 242  288.3568
 243  356.6979
 244  222.9959
 245  277.1393
 246  304.1086
 247  175.1784
 248  148.4347
 249  250.8881
 250  311.825
 251  232.8112
 252  175.7675
 253  125.9281
 254  229.0171
 255  271.9704
 256  148.7085
 257  272.3456
 258  343.5897
 259  406.5587
 260  371.0122
 261  195.0381
 262  190.7888
 263  140.0847
 264  149.7877
 265  294.912
 266  334.7887
 267  387.489
 268  266.4485
 269  267.4651
 270  371.8658
 271  225.5841
 272  220.1277
 273  181.7582
 274  252.3919
 275  345.3046
 276  501.552
 277  430.6913
 278  382.5377
 279  398.0403
 280  299.0932
 281  261.6041
 282  281.1186
 283  346.6902
 284  147.1592
 285  141.0564
 286  190.1156
 287  390.7086
 288  260.3932
 289  292.7615
 290  286.8615
 291  387.0962
 292  394.7013
 293  338.7342
 294  227.365
 295  263.4223
 296  266.4482
 297  306.0322
 298  281.4261
 299  284.3561
 300  240.7774
 301  177.7266
 302  206.5375
 303  296.8371
 304  254.3673
 305  325.8495
 306  313.353
 307  331.5303
 308  254.8601
 309  322.2537
 310  280.5977
 311  270.8013
 312  190.2462
 313  237.7213
 314  310.2811
 315  276.8458
 316  267.3821
 317  373.8583
 318  312.9032
 319  300.296
 320  345.3758
 321  169.1897
 322  197.893
 323  259.2801
 324  283.1815
 325  281.4805
 326  189.5928
 327  355.8679
 328  280.4163
 329  291.9706
 330  278.9392
 331  274.5383
 332  211.9807
 333  273.6714
 334  264.1358
 335  280.1574
 336  157.8976
 337  265.7221
 338  341.741
 339  234.348
 340  310.2471
 341  405.3157
 342  436.0163
 343  478.9308
 344  430.7846
 345  369.192
 346  323.9542
 347  341.5124
 348  345.7987
 349  265.6629
 350  178.3139
 351  181.3494
 352  196.1335
 353  252.9551
 354  287.185
 355  274.0597
 356  264.3016
 357  337.9478
 358  386.3361
 359  315.8051
 360  246.038
 361  219.4411
 362  226.9866
 363  217.676
 364  197.7466
 365  252.1752
 366  249.4204
 367  283.7361
 368  225.6898
 369  292.6537
 370  353.3524
 371  314.9044
 372  415.2766
 373  370.1237
 374  372.9023
 375  307.3574
 376  297.3209
 377  339.434
 378  362.4373
 379  395.5244
 380  178.8264
 381  294.8892
 382  416.3628
 383  423.9091
 384  341.5539
 385  201.2962
 386  303.6476
 387  307.5422
 388  255.3155
 389  209.0154
 390  353.7028
 391  399.8123
 392  284.723
 393  94.68336
 394  167.2983
 395  247.5547
 396  273.6166
 397  107.6656
 398  114.5026
 399  217.0472
 400  270.4443
 401  217.1933
 402  178.4922
 403  225.4137
 404  199.6983
 405  269.1912
 406  192.8833
 407  294.8424
 408  256.3134
 409  265.8114
 410  276.2169
 411  56.99187
 412  155.2466
 413  242.8339
 414  135.8634
 415  211.9076
 416  174.4385
 417  141.1821
 418  238.7565
 419  194.9995
 420  280.7991
 421  320.6646
 422  190.8883
 423  206.1018
 424  192.3874
 425  291.9156
 426  427.5452
 427  418.3482
 428  320.4419
 429  216.1998
 430  221.8715
 431  276.0955
 432  361.1983
 433  364.3773
 434  357.0212
 435  261.9149
 436  246.978
 437  157.3719
 438  216.2529
 439  189.1436
 440  242.7938
 441  395.7608
 442  279.6949
 443  116.8129
 444  164.1977
 445  125.439
 446  89.79337
 447  205.7852
 448  335.5168
 449  398.4378
 450  352.1692
 451  336.645
 452  286.2816
 453  196.0665
 454  144.8837
 455  330.2222
 456  397.3329
 457  411.8924
 458  410.4012
 459  281.7785
 460  257.816
 461  256.3373
 462  370.6257
 463  305.9298
 464  308.9706
 465  327.5227
 466  300.6133
 467  306.307
 468  270.2713
 469  346.8519
 470  238.4612
 471  273.0122
 472  278.7177
 473  259.7862
 474  209.2231
 475  301.4483
 476  226.4985
 477  170.6965
 478  90.98676
 479  255.193
 480  245.6108
 481  231.7005
 482  293.9002
 483  225.6446
 484  249.1769
 485  395.0419
 486  490.8093
 487  292.776
 488  155.8625
 489  67.27114
 490  201.5826
 491  273.5124
 492  339.7164
 493  307.9136
 494  352.1843
 495  177.5024
 496  286.6651
 497  378.0643
 498  267.6074
 499  265.8919
 500  371.5295
 501  246.9415
 502  345.9592
 503  365.934
 504  367.1673
 505  422.9828
 506  379.4296
 507  522.2245
 508  544.265
 509  734.0745
 510  938.229
 511  1178.627
