# Input file       =  1191695979.111746_cleaned.dat
# Candidate        =  PSR_0332+5434
# Telescope        =  AR
# Epoch_topo       =  58036.777327682248
# Epoch_bary       =  N/A
# T_sample         =  0.002
# Data Folded      =  7208960
# Data Avg         =  0.036435271491497
# Data StdDev      =  1.00006580224088 
# Profile Bins     =  512
# Profile Avg      =  513.005799282629 
# Profile StdDev   =  118.666983833199 
# Reduced chi-sqr  =  1.156
# Prob(Noise)      <  0.00816   (~2.4 sigma)
# P_topo (ms)      =  714.478556042116  +/- 0.000242
# P'_topo (s/s)    =  -0                +/- 1.3e-10
# P''_topo (s/s^2) =  0                 +/- 5.84e-14
# P_bary (ms)      =  N/A
# P'_bary (s/s)    =  N/A
# P''_bary (s/s^2) =  N/A
# P_orb (s)        =  N/A
# asin(i)/c (s)    =  N/A
# eccentricity     =  N/A
# w (rad)          =  N/A
# T_peri           =  N/A
######################################################
   0  1141
   1  1052.021
   2  832.619
   3  691.6696
   4  726.054
   5  547.5099
   6  592.6461
   7  565.8679
   8  365.3367
   9  337.4398
  10  505.788
  11  576.7446
  12  669.3428
  13  629.6537
  14  468.3349
  15  504.3179
  16  426.7355
  17  445.8971
  18  525.5093
  19  490.9222
  20  493.5264
  21  468.9152
  22  554.0859
  23  546.2164
  24  488.9195
  25  407.8694
  26  389.5538
  27  379.0974
  28  406.5764
  29  469.6792
  30  550.715
  31  534.2848
  32  520.0446
  33  382.4458
  34  402.1208
  35  391.172
  36  452.1304
  37  600.5637
  38  543.7607
  39  660.0916
  40  529.8198
  41  456.4205
  42  423.1523
  43  464.8967
  44  320.0902
  45  353.7896
  46  433.5733
  47  527.3243
  48  466.1337
  49  382.5478
  50  464.1268
  51  539.4827
  52  543.8633
  53  574.9359
  54  575.2764
  55  486.8799
  56  501.0105
  57  631.4816
  58  595.3152
  59  507.4964
  60  580.016
  61  627.6851
  62  532.14
  63  551.0034
  64  467.1047
  65  416.9038
  66  438.8791
  67  558.9992
  68  572.1221
  69  478.304
  70  524.1917
  71  469.9838
  72  454.1552
  73  573.3712
  74  591.8367
  75  559.4963
  76  462.0993
  77  600.2634
  78  581.3109
  79  404.4038
  80  512.7087
  81  510.4783
  82  529.7473
  83  516.3322
  84  441.0702
  85  465.297
  86  500.1066
  87  593.6631
  88  607.6034
  89  546.927
  90  451.9883
  91  380.9043
  92  435.7722
  93  427.777
  94  544.4767
  95  373.7833
  96  421.8472
  97  435.9337
  98  563.3996
  99  541.9919
 100  423.8648
 101  429.7975
 102  553.301
 103  572.504
 104  621.4598
 105  567.1402
 106  558.6439
 107  572.1467
 108  572.459
 109  459.3405
 110  469.0569
 111  377.4076
 112  458.5801
 113  608.4804
 114  586.8618
 115  506.1469
 116  487.3659
 117  386.6647
 118  458.1402
 119  515.033
 120  579.7091
 121  512.726
 122  381.9323
 123  623.7653
 124  517.8365
 125  412.0645
 126  496.8886
 127  516.5931
 128  495.9154
 129  511.5725
 130  549.9498
 131  576.4045
 132  541.9853
 133  468.6493
 134  414.6763
 135  562.2723
 136  573.6771
 137  521.8358
 138  469.4881
 139  533.5707
 140  525.715
 141  625.8078
 142  544.795
 143  564.8799
 144  465.969
 145  473.9674
 146  549.9633
 147  572.5683
 148  535.1254
 149  604.271
 150  592.5579
 151  440.9588
 152  505.2599
 153  627.0421
 154  618.8029
 155  540.328
 156  477.1759
 157  461.7605
 158  459.3918
 159  458.1961
 160  491.6382
 161  608.8498
 162  581.1409
 163  408.011
 164  364.7311
 165  439.0618
 166  345.5978
 167  454.6338
 168  409.5089
 169  499.4413
 170  539.8719
 171  587.7761
 172  524.2791
 173  452.8371
 174  475.8392
 175  516.3854
 176  478.8372
 177  478.2765
 178  549.0693
 179  565.5298
 180  619.837
 181  548.5726
 182  488.665
 183  452.2579
 184  511.6501
 185  604.1702
 186  611.0351
 187  575.8445
 188  537.6208
 189  557.4487
 190  430.8619
 191  424.8592
 192  579.475
 193  605.6146
 194  553.7417
 195  499.4539
 196  580.9509
 197  610.6025
 198  586.6885
 199  527.5404
 200  382.9284
 201  494.1776
 202  595.1304
 203  618.6934
 204  626.2252
 205  511.2633
 206  573.5608
 207  619.6891
 208  616.6409
 209  634.1105
 210  563.1326
 211  611.3202
 212  674.403
 213  593.3919
 214  535.8889
 215  582.5682
 216  652.4129
 217  653.8826
 218  548.3911
 219  513.7687
 220  565.394
 221  609.9988
 222  434.3014
 223  418.1971
 224  544.0121
 225  441.3059
 226  491.066
 227  479.3926
 228  558.0791
 229  538.2473
 230  616.6042
 231  611.6139
 232  340.7631
 233  440.0704
 234  515.7436
 235  609.666
 236  543.9991
 237  546.921
 238  567.8359
 239  485.1619
 240  599.1052
 241  554.3676
 242  535.4115
 243  549.4537
 244  601.3405
 245  706.5595
 246  591.2546
 247  460.8065
 248  421.2568
 249  432.5169
 250  549.8775
 251  641.7546
 252  644.3732
 253  454.0104
 254  479.9668
 255  507.3563
 256  571.0221
 257  581.6932
 258  590.2286
 259  661.7294
 260  571.3629
 261  592.8414
 262  570.0275
 263  451.166
 264  444.5241
 265  450.9196
 266  399.4224
 267  440.5269
 268  575.2256
 269  522.4981
 270  426.6184
 271  411.3284
 272  541.2806
 273  339.0995
 274  433.9025
 275  374.2182
 276  464.1954
 277  545.589
 278  530.2523
 279  623.0137
 280  489.0768
 281  436.9537
 282  465.935
 283  521.1996
 284  514.0767
 285  475.495
 286  504.7951
 287  455.1316
 288  585.7893
 289  499.8759
 290  519.0898
 291  537.7711
 292  543.8779
 293  508.7878
 294  472.1964
 295  521.2519
 296  468.5328
 297  519.378
 298  583.3032
 299  605.6797
 300  547.9786
 301  438.5601
 302  458.0012
 303  606.4645
 304  495.9283
 305  485.3661
 306  404.5379
 307  345.4932
 308  276.2332
 309  380.4556
 310  376.7217
 311  431.0222
 312  473.9686
 313  464.9333
 314  498.8898
 315  476.9743
 316  401.663
 317  374.9525
 318  403.9775
 319  514.4658
 320  520.6863
 321  401.1908
 322  507.3201
 323  453.024
 324  482.4079
 325  407.2815
 326  429.7574
 327  397.9841
 328  306.5088
 329  477.5571
 330  491.0458
 331  440.955
 332  564.7131
 333  564.6369
 334  610.6817
 335  502.9106
 336  400.3452
 337  463.4289
 338  474.0775
 339  498.9119
 340  542.5596
 341  520.6149
 342  566.0765
 343  588.683
 344  588.2231
 345  550.7722
 346  490.7489
 347  597.3009
 348  621.4715
 349  603.1119
 350  466.2546
 351  412.338
 352  471.9759
 353  619.3998
 354  475.7099
 355  485.6261
 356  439.1389
 357  539.0403
 358  514.4297
 359  532.5078
 360  452.947
 361  486.3572
 362  467.2858
 363  524.4764
 364  553.7809
 365  518.5866
 366  484.7096
 367  503.4537
 368  511.2564
 369  393.6823
 370  370.935
 371  393.8794
 372  484.2191
 373  423.522
 374  441.2828
 375  424.8596
 376  389.823
 377  416.6028
 378  279.4042
 379  440.5513
 380  532.1368
 381  578.4344
 382  535.9998
 383  414.3371
 384  388.8299
 385  431.3459
 386  462.6424
 387  484.9214
 388  434.2995
 389  440.8911
 390  427.3818
 391  408.6253
 392  498.9029
 393  574.4684
 394  481.6829
 395  620.1086
 396  445.0094
 397  494.2095
 398  470.0714
 399  482.4946
 400  383.8952
 401  362.1783
 402  454.8208
 403  516.8727
 404  552.4832
 405  435.835
 406  452.1519
 407  424.7767
 408  471.6359
 409  547.0282
 410  440.0217
 411  470.0268
 412  550.0101
 413  663.7307
 414  518.319
 415  443.4025
 416  587.0571
 417  610.6904
 418  501.2196
 419  412.111
 420  402.7894
 421  651.6747
 422  602.4244
 423  521.5554
 424  622.8967
 425  620.5991
 426  543.905
 427  512.5236
 428  535.6665
 429  470.8659
 430  388.4206
 431  412.9198
 432  537.9311
 433  555.9244
 434  581.0079
 435  601.0397
 436  471.123
 437  464.9312
 438  495.44
 439  513.5229
 440  561.1277
 441  568.5702
 442  497.4028
 443  455.6922
 444  431.6173
 445  490.5645
 446  565.5358
 447  440.4109
 448  337.7657
 449  421.8789
 450  459.7057
 451  599.6076
 452  579.0229
 453  433.6498
 454  430.8752
 455  589.8418
 456  538.8691
 457  450.7371
 458  447.5714
 459  444.7043
 460  463.25
 461  518.8798
 462  513.9868
 463  543.0425
 464  532.177
 465  537.3251
 466  587.2858
 467  519.877
 468  491.6236
 469  505.125
 470  528.3066
 471  483.2699
 472  473.7697
 473  529.7709
 474  578.1945
 475  603.0371
 476  549.6592
 477  551.9424
 478  519.1308
 479  662.3201
 480  573.2315
 481  424.7055
 482  551.6403
 483  567.7348
 484  566.0959
 485  528.3337
 486  437.4889
 487  408.7429
 488  476.8367
 489  486.3649
 490  556.8141
 491  542.9156
 492  477.3517
 493  496.7214
 494  408.8721
 495  403.7498
 496  477.1333
 497  443.4674
 498  409.9159
 499  544.6921
 500  501.2291
 501  463.0661
 502  499.5855
 503  583.5046
 504  653.7425
 505  636.0837
 506  686.2954
 507  614.6667
 508  663.8182
 509  720.7885
 510  990.3896
 511  1114.263
