# Input file       =  1191294783.105678_cleaned.dat
# Candidate        =  PSR_0332+5434
# Telescope        =  AR
# Epoch_topo       =  58032.133855389795
# Epoch_bary       =  N/A
# T_sample         =  0.002
# Data Folded      =  7340032
# Data Avg         =  0.0139307479994849
# Data StdDev      =  1.00001205718372 
# Profile Bins     =  512
# Profile Avg      =  199.598631432417 
# Profile StdDev   =  119.734480019983 
# Reduced chi-sqr  =  1.247
# Prob(Noise)      <  0.000113   (~3.7 sigma)
# P_topo (ms)      =  714.475917297096  +/- 0.000264
# P'_topo (s/s)    =  -0                +/- 1.39e-10
# P''_topo (s/s^2) =  0                 +/- 6.16e-14
# P_bary (ms)      =  N/A
# P'_bary (s/s)    =  N/A
# P''_bary (s/s^2) =  N/A
# P_orb (s)        =  N/A
# asin(i)/c (s)    =  N/A
# eccentricity     =  N/A
# w (rad)          =  N/A
# T_peri           =  N/A
######################################################
   0  851.1579
   1  788.1387
   2  609.1974
   3  431.6742
   4  324.2477
   5  310.561
   6  244.6778
   7  208.3329
   8  259.3686
   9  230.63
  10  323.0941
  11  240.8251
  12  116.0102
  13  225.9367
  14  144.6405
  15  258.1063
  16  356.9829
  17  265.4802
  18  99.42641
  19  49.6331
  20  71.43098
  21  104.0722
  22  193.3165
  23  259.461
  24  260.3792
  25  257.5183
  26  182.189
  27  177.0786
  28  249.4263
  29  133.3058
  30  111.4366
  31  189.6044
  32  263.3793
  33  109.4179
  34  174.4134
  35  124.2593
  36  64.17554
  37  50.64701
  38  97.84792
  39  270.6549
  40  250.6357
  41  132.2377
  42  184.0187
  43  228.3848
  44  230.7575
  45  176.7263
  46  268.3812
  47  164.217
  48  208.7074
  49  221.1122
  50  195.7559
  51  116.9737
  52  218.7999
  53  264.7464
  54  332.0787
  55  188.9733
  56  182.6932
  57  316.2853
  58  244.3409
  59  36.30256
  60  79.19046
  61  141.0623
  62  170.9989
  63  123.6398
  64  69.79519
  65  212.2766
  66  215.268
  67  238.1671
  68  338.5431
  69  224.8926
  70  112.697
  71  201.9231
  72  209.3561
  73  134.121
  74  198.457
  75  132.287
  76  243.8079
  77  284.1708
  78  142.7205
  79  145.1055
  80  220.036
  81  241.2335
  82  232.8014
  83  109.4552
  84  227.9516
  85  202.7241
  86  166.1696
  87  271.137
  88  182.0554
  89  147.2889
  90  128.6122
  91  146.5581
  92  172.7871
  93  113.0035
  94  106.1255
  95  247.2363
  96  185.0051
  97  109.6392
  98  71.0967
  99  267.9367
 100  269.1177
 101  179.7323
 102  147.0435
 103  209.0995
 104  127.5577
 105  135.6352
 106  184.2237
 107  184.876
 108  175.4758
 109  153.4156
 110  127.8457
 111  150.9196
 112  179.2474
 113  295.1214
 114  230.8044
 115  272.0618
 116  163.2777
 117  115.629
 118  135.5047
 119  173.9253
 120  75.32285
 121  211.06
 122  149.3986
 123  183.5372
 124  146.7419
 125  115.3775
 126  230.0483
 127  177.9186
 128  162.8168
 129  208.6149
 130  259.7201
 131  321.6499
 132  246.4358
 133  203.1777
 134  44.29645
 135  22.74269
 136  32.03327
 137  32.37805
 138  218.882
 139  256.0756
 140  313.4421
 141  265.8351
 142  229.488
 143  160.8601
 144  141.7035
 145  223.8952
 146  219.0556
 147  57.92801
 148  37.43052
 149  58.34672
 150  43.20374
 151  178.2539
 152  160.9395
 153  221.0372
 154  212.7178
 155  255.0711
 156  182.936
 157  209.6685
 158  206.3237
 159  225.3538
 160  317.1484
 161  289.8207
 162  274.7501
 163  281.4767
 164  236.6567
 165  206.6665
 166  91.8146
 167  258.59
 168  190.2302
 169  241.6058
 170  141.2787
 171  49.03231
 172  31.18569
 173  135.2836
 174  176.5218
 175  283.7998
 176  275.6962
 177  244.8096
 178  317.8433
 179  228.0116
 180  267.8355
 181  281.2851
 182  264.293
 183  250.9379
 184  266.3945
 185  226.9836
 186  258.5329
 187  241.4922
 188  208.8331
 189  259.3702
 190  383.9057
 191  354.3823
 192  176.6003
 193  206.0752
 194  -10.23697
 195  122.955
 196  310.4351
 197  359.4892
 198  361.9017
 199  198.3254
 200  199.4853
 201  179.2375
 202  34.10485
 203  204.0647
 204  258.1983
 205  349.1997
 206  220.6545
 207  150.1816
 208  121.8557
 209  167.3407
 210  239.2958
 211  180.8461
 212  249.1671
 213  250.4694
 214  201.3731
 215  119.5506
 216  60.5235
 217  236.7125
 218  339.6086
 219  216.0063
 220  215.3103
 221  199.8118
 222  111.4676
 223  225.5975
 224  182.3815
 225  177.4311
 226  235.4373
 227  200.5334
 228  166.186
 229  208.6048
 230  189.2289
 231  173.9556
 232  204.9227
 233  161.4463
 234  210.6456
 235  169.163
 236  171.4437
 237  209.3317
 238  125.3704
 239  234.4501
 240  356.9494
 241  264.8041
 242  243.5344
 243  274.6791
 244  342.8471
 245  340.1201
 246  385.3967
 247  289.0182
 248  194.4895
 249  238.7701
 250  216.1995
 251  249.8795
 252  271.924
 253  368.1778
 254  264.0456
 255  136.3552
 256  270.0789
 257  246.7046
 258  249.864
 259  85.84082
 260  127.0609
 261  118.2066
 262  185.5846
 263  220.5476
 264  96.90865
 265  187.9695
 266  237.3454
 267  297.4749
 268  74.03519
 269  217.8159
 270  293.1086
 271  192.4441
 272  182.9643
 273  339.4637
 274  352.111
 275  246.8062
 276  175.6365
 277  274.8318
 278  181.9919
 279  159.9238
 280  152.7077
 281  278.8444
 282  247.9802
 283  187.8758
 284  183.2668
 285  196.5302
 286  228.7227
 287  205.4977
 288  250.6659
 289  314.1671
 290  268.8099
 291  113.2978
 292  95.63247
 293  185.8532
 294  235.3746
 295  124.913
 296  31.79769
 297  228.0785
 298  237.0613
 299  -25.06827
 300  33.9615
 301  72.68037
 302  218.8468
 303  265.8272
 304  235.889
 305  157.057
 306  165.7451
 307  266.5285
 308  285.3318
 309  124.5498
 310  41.9496
 311  129.2087
 312  242.8992
 313  137.5105
 314  144.5895
 315  294.3316
 316  309.812
 317  121.3329
 318  196.7657
 319  227.1355
 320  65.55317
 321  229.1201
 322  272.7798
 323  115.397
 324  131.1854
 325  213.7958
 326  197.3959
 327  248.0392
 328  291.4582
 329  301.4481
 330  283.0162
 331  99.44662
 332  42.32596
 333  69.3946
 334  221.6501
 335  284.7185
 336  144.9547
 337  121.6793
 338  116.6325
 339  209.689
 340  173.4893
 341  70.46906
 342  141.7321
 343  255.0692
 344  161.9351
 345  279.895
 346  268.0016
 347  255.6337
 348  175.5581
 349  211.6473
 350  219.4745
 351  288.2718
 352  237.3898
 353  197.1365
 354  160.307
 355  100.5712
 356  82.14359
 357  70.05076
 358  212.7879
 359  321.9462
 360  278.8866
 361  140.2404
 362  158.4525
 363  206.8896
 364  167.3761
 365  73.89093
 366  196.3881
 367  270.0177
 368  213.7569
 369  324.7232
 370  209.0237
 371  106.1346
 372  64.14149
 373  144.2627
 374  110.4853
 375  124.6319
 376  206.2657
 377  212.5837
 378  234.8023
 379  210.9249
 380  119.5248
 381  189.7514
 382  181.4736
 383  129.4087
 384  183.3081
 385  213.106
 386  136.4742
 387  48.86311
 388  152.7266
 389  175.2937
 390  264.9043
 391  200.3214
 392  82.71442
 393  134.176
 394  162.7543
 395  76.78497
 396  196.5588
 397  254.0011
 398  232.3976
 399  251.9256
 400  190.6208
 401  107.1735
 402  147.3814
 403  177.5428
 404  199.938
 405  135.8105
 406  72.43896
 407  145.7284
 408  135.4117
 409  157.0423
 410  217.3996
 411  139.6802
 412  250.8246
 413  281.1591
 414  210.3881
 415  238.8975
 416  75.1206
 417  123.4645
 418  192.5204
 419  173.1183
 420  233.0157
 421  250.8885
 422  265.2502
 423  215.7378
 424  238.451
 425  166.9131
 426  148.8435
 427  153.3308
 428  261.7102
 429  166.6066
 430  155.2642
 431  171.8347
 432  219.2616
 433  320.0046
 434  304.6652
 435  232.3362
 436  142.1364
 437  96.21024
 438  148.4348
 439  231.134
 440  215.5961
 441  15.01384
 442  56.97939
 443  134.2202
 444  171.2875
 445  138.6852
 446  115.6416
 447  107.0171
 448  118.2879
 449  103.6491
 450  81.16353
 451  150.1921
 452  45.29477
 453  161.0735
 454  87.30742
 455  -9.11182
 456  91.7981
 457  186.8607
 458  179.9951
 459  65.56313
 460  149.605
 461  42.67722
 462  189.3881
 463  232.2852
 464  189.6931
 465  117.907
 466  154.7692
 467  161.4239
 468  215.6209
 469  193.1597
 470  160.3333
 471  212.5961
 472  136.5509
 473  167.4258
 474  156.9918
 475  138.0024
 476  196.7684
 477  89.67858
 478  187.1557
 479  256.9658
 480  243.8145
 481  214.0709
 482  143.021
 483  117.6004
 484  168.3747
 485  323.5881
 486  313.9681
 487  348.4589
 488  137.2694
 489  66.34763
 490  179.0395
 491  210.8667
 492  227.985
 493  292.9225
 494  267.1648
 495  281.4609
 496  101.348
 497  158.5488
 498  329.4285
 499  280.635
 500  242.0178
 501  218.4444
 502  223.5531
 503  218.147
 504  266.9798
 505  284.4489
 506  318.1901
 507  461.6456
 508  425.7848
 509  522.7858
 510  753.8655
 511  807.6747
