# Input file       =  1191538293.107866_cleaned.dat
# Candidate        =  PSR_0332+5434
# Telescope        =  AR
# Epoch_topo       =  58034.952258192898
# Epoch_bary       =  N/A
# T_sample         =  0.002
# Data Folded      =  7340032
# Data Avg         =  0.0145498295406901
# Data StdDev      =  0.999996864722535
# Profile Bins     =  512
# Profile Avg      =  208.603073657615 
# Profile StdDev   =  119.732660980475 
# Reduced chi-sqr  =  1.729
# Prob(Noise)      <  2.39e-22   (~9.7 sigma)
# P_topo (ms)      =  714.477360372782  +/- 0.000256
# P'_topo (s/s)    =  -0                +/- 1.35e-10
# P''_topo (s/s^2) =  0                 +/- 5.96e-14
# P_bary (ms)      =  N/A
# P'_bary (s/s)    =  N/A
# P''_bary (s/s^2) =  N/A
# P_orb (s)        =  N/A
# asin(i)/c (s)    =  N/A
# eccentricity     =  N/A
# w (rad)          =  N/A
# T_peri           =  N/A
######################################################
   0  1087.996
   1  949.5218
   2  659.5968
   3  479.4281
   4  427.9056
   5  234.5871
   6  196.6428
   7  114.9088
   8  189.4894
   9  169.6983
  10  172.5276
  11  198.6844
  12  183.172
  13  121.886
  14  103.7659
  15  138.9884
  16  182.3787
  17  308.1116
  18  205.9046
  19  144.1239
  20  218.7283
  21  146.2655
  22  128.8107
  23  123.5268
  24  109.3516
  25  155.4879
  26  189.6474
  27  143.2533
  28  230.9118
  29  182.7206
  30  210.6316
  31  282.7582
  32  215.8363
  33  136.6763
  34  109.8133
  35  270.2847
  36  97.26803
  37  56.13206
  38  125.4368
  39  150.0825
  40  81.90483
  41  60.42629
  42  179.9722
  43  83.54127
  44  7.06154
  45  139.5021
  46  202.1949
  47  155.7424
  48  24.2052
  49  179.2897
  50  289.7223
  51  158.4324
  52  55.15398
  53  214.6899
  54  145.3994
  55  149.4066
  56  111.6646
  57  145.7343
  58  108.4113
  59  22.81231
  60  163.2698
  61  144.1588
  62  190.0773
  63  230.7502
  64  266.097
  65  206.1699
  66  234.5507
  67  259.0909
  68  213.2025
  69  266.7021
  70  210.0602
  71  150.7656
  72  208.9513
  73  227.2778
  74  125.3254
  75  107.5002
  76  163.5009
  77  173.8675
  78  137.9218
  79  101.9031
  80  73.58161
  81  206.0177
  82  286.6324
  83  344.3904
  84  284.1886
  85  112.2428
  86  106.5735
  87  239.8637
  88  251.6274
  89  232.6154
  90  319.1648
  91  201.6776
  92  50.46889
  93  86.13489
  94  212.736
  95  135.5134
  96  113.25
  97  68.80866
  98  19.46307
  99  177.6241
 100  130.7083
 101  165.5867
 102  290.0794
 103  259.2668
 104  121.0424
 105  21.29331
 106  10.38216
 107  67.03757
 108  143.4039
 109  77.03626
 110  137.926
 111  274.5286
 112  288.0916
 113  289.4101
 114  232.2141
 115  199.6784
 116  176.7593
 117  250.5856
 118  242.1508
 119  138.2993
 120  77.79223
 121  172.8635
 122  47.08865
 123  15.77623
 124  151.5552
 125  192.7402
 126  333.0478
 127  184.0482
 128  43.25177
 129  34.09063
 130  5.953745
 131  86.33958
 132  233.7185
 133  208.4605
 134  268.3353
 135  293.7844
 136  255.8417
 137  312.5038
 138  299.206
 139  204.1025
 140  271.108
 141  284.8059
 142  250.6095
 143  310.9489
 144  280.9411
 145  222.2982
 146  239.2737
 147  365.7459
 148  329.9279
 149  147.7491
 150  94.91119
 151  153.8779
 152  135.6752
 153  204.2582
 154  141.5573
 155  98.91351
 156  92.70512
 157  227.6149
 158  292.6976
 159  217.6968
 160  166.4294
 161  141.3929
 162  184.1286
 163  356.0791
 164  253.3789
 165  194.8844
 166  136.7192
 167  106.7953
 168  145.1247
 169  196.836
 170  220.6178
 171  247.4087
 172  264.515
 173  199.8996
 174  139.8078
 175  269.6589
 176  173.2598
 177  120.678
 178  246.0064
 179  325.029
 180  361.2055
 181  249.4848
 182  276.3141
 183  284.7693
 184  268.0334
 185  313.8332
 186  160.5263
 187  171.3287
 188  195.842
 189  191.9373
 190  306.915
 191  301.6004
 192  230.8549
 193  222.1394
 194  298.4717
 195  220.4675
 196  267.0866
 197  337.5922
 198  232.8326
 199  203.5231
 200  287.3005
 201  270.2714
 202  226.814
 203  149.6099
 204  131.2884
 205  258.9952
 206  257.0177
 207  235.366
 208  205.1811
 209  130.132
 210  76.05366
 211  149.4735
 212  260.011
 213  300.9293
 214  336.0851
 215  269.6588
 216  230.0544
 217  266.3594
 218  280.8285
 219  333.2719
 220  208.7588
 221  129.3573
 222  171.7074
 223  192.7641
 224  298.2436
 225  283.4176
 226  337.4623
 227  274.4481
 228  284.332
 229  262.9169
 230  194.507
 231  -11.5344
 232  67.33952
 233  285.347
 234  211.4551
 235  345.9132
 236  301.6765
 237  194.9862
 238  141.5258
 239  137.972
 240  113.102
 241  277.1265
 242  245.2957
 243  182.7044
 244  183.0975
 245  90.84764
 246  172.8685
 247  276.3409
 248  205.5409
 249  193.4534
 250  182.3883
 251  228.7723
 252  182.61
 253  148.0787
 254  172.4999
 255  79.26874
 256  24.19158
 257  119.4844
 258  204.0502
 259  285.241
 260  317.0378
 261  282.6137
 262  275.5679
 263  222.7261
 264  240.3007
 265  200.0618
 266  133.8769
 267  229.5615
 268  204.9442
 269  67.39527
 270  153.4819
 271  178.3112
 272  161.9794
 273  135.2838
 274  201.7835
 275  245.6278
 276  242.0811
 277  322.3785
 278  342.7872
 279  129.0546
 280  184.0719
 281  247.9301
 282  159.2826
 283  203.198
 284  223.8709
 285  237.4791
 286  288.5421
 287  376.4485
 288  225.7887
 289  194.2632
 290  290.3622
 291  183.0085
 292  183.2035
 293  225.7251
 294  144.2323
 295  41.09201
 296  75.4375
 297  141.1576
 298  228.1447
 299  266.3
 300  210.2892
 301  224.1152
 302  157.2581
 303  96.45197
 304  202.1832
 305  403.0371
 306  329.9091
 307  446.348
 308  342.5326
 309  102.7431
 310  115.1142
 311  112.4437
 312  116.2607
 313  176.8692
 314  254.6465
 315  220.1919
 316  153.9445
 317  290.3029
 318  358.9474
 319  172.9618
 320  153.1324
 321  124.2806
 322  218.0881
 323  368.5889
 324  387.7157
 325  241.8252
 326  248.2967
 327  274.4564
 328  119.529
 329  240.2356
 330  272.726
 331  207.1555
 332  157.7517
 333  179.5111
 334  206.5898
 335  135.4735
 336  143.1324
 337  262.9104
 338  240.8935
 339  232.1749
 340  210.2723
 341  278.1903
 342  282.1247
 343  247.631
 344  213.9136
 345  53.22454
 346  115.5104
 347  176.6212
 348  149.8854
 349  188.9769
 350  98.35678
 351  248.57
 352  268.1508
 353  193.2917
 354  50.40987
 355  183.9679
 356  349.0776
 357  274.7605
 358  101.1997
 359  98.98087
 360  147.0836
 361  184.0898
 362  251.9426
 363  214.5173
 364  193.7405
 365  272.669
 366  212.2188
 367  212.9427
 368  195.6858
 369  217.3627
 370  87.09018
 371  167.2789
 372  109.1274
 373  208.8124
 374  231.7242
 375  177.5843
 376  173.4236
 377  205.5219
 378  150.067
 379  136.3112
 380  200.3862
 381  261.5407
 382  308.7931
 383  204.7741
 384  122.0105
 385  131.4062
 386  160.7029
 387  143.1973
 388  170.461
 389  49.833
 390  287.6554
 391  286.9983
 392  258.4993
 393  241.1345
 394  203.8869
 395  220.208
 396  248.505
 397  389.0398
 398  270.5817
 399  140.1079
 400  250.9984
 401  292.3726
 402  370.6719
 403  266.3225
 404  267.5921
 405  299.2803
 406  329.1797
 407  221.888
 408  198.3537
 409  373.282
 410  260.5172
 411  95.6134
 412  224.5698
 413  151.5068
 414  180.9749
 415  206.3637
 416  177.8298
 417  226.3771
 418  291.8499
 419  296.4038
 420  221.0554
 421  208.2718
 422  157.6915
 423  69.78506
 424  209.7181
 425  302.1061
 426  93.89011
 427  129.1042
 428  277.3534
 429  296.7136
 430  198.985
 431  152.7805
 432  73.4956
 433  139.7228
 434  186.2563
 435  217.6567
 436  153.9399
 437  183.2842
 438  356.0812
 439  294.2661
 440  186.9126
 441  69.38293
 442  141.8911
 443  339.9742
 444  347.0879
 445  219.3928
 446  144.2741
 447  311.2091
 448  284.1461
 449  221.4826
 450  188.8514
 451  193.3263
 452  201.47
 453  335.0345
 454  350.3435
 455  194.5033
 456  100.3745
 457  148.5344
 458  174.0212
 459  181.1482
 460  144.3497
 461  168.6344
 462  250.1664
 463  135.22
 464  60.41312
 465  74.13649
 466  178.6062
 467  123.837
 468  184.2608
 469  181.2315
 470  193.8822
 471  318.985
 472  223.6513
 473  63.15987
 474  162.7703
 475  148.3193
 476  37.31157
 477  56.53473
 478  146.9563
 479  126.2724
 480  -3.158702
 481  108.487
 482  310.1911
 483  179.2185
 484  180.7328
 485  347.3761
 486  268.1446
 487  68.86029
 488  0.05487977
 489  180.314
 490  162.9178
 491  154.5221
 492  249.7388
 493  333.6839
 494  337.5568
 495  247.1909
 496  201.7573
 497  148.9434
 498  257.7935
 499  341.9025
 500  288.6389
 501  155.8837
 502  120.9831
 503  126.0783
 504  117.8477
 505  268.6747
 506  428.0782
 507  394.02
 508  399.5579
 509  592.8178
 510  1003.727
 511  1087.74
