# Input file       =  1191639351.117412_cleaned.dat
# Candidate        =  PSR_0332+5434
# Telescope        =  AR
# Epoch_topo       =  58036.121911081158
# Epoch_bary       =  N/A
# T_sample         =  0.002
# Data Folded      =  7340032
# Data Avg         =  0.0169574526826333
# Data StdDev      =  1.0001360373579  
# Profile Bins     =  512
# Profile Avg      =  243.081791157876 
# Profile StdDev   =  119.749324542689 
# Reduced chi-sqr  =  1.668
# Prob(Noise)      <  1.71e-19   (~9.0 sigma)
# P_topo (ms)      =  714.478464255009  +/- 0.000191
# P'_topo (s/s)    =  -0                +/- 1.01e-10
# P''_topo (s/s^2) =  0                 +/- 4.46e-14
# P_bary (ms)      =  N/A
# P'_bary (s/s)    =  N/A
# P''_bary (s/s^2) =  N/A
# P_orb (s)        =  N/A
# asin(i)/c (s)    =  N/A
# eccentricity     =  N/A
# w (rad)          =  N/A
# T_peri           =  N/A
######################################################
   0  890.8114
   1  1017.949
   2  888.736
   3  629.9889
   4  402.663
   5  379.1773
   6  254.1987
   7  80.92175
   8  174.881
   9  363.0676
  10  291.6072
  11  298.4744
  12  285.082
  13  215.9853
  14  179.7406
  15  252.7119
  16  367.1215
  17  367.7741
  18  261.4433
  19  229.5473
  20  147.9691
  21  258.992
  22  222.6026
  23  164.4263
  24  243.1923
  25  253.0324
  26  228.0507
  27  312.2754
  28  265.3526
  29  279.5247
  30  289.7556
  31  381.4988
  32  344.9763
  33  310.1459
  34  370.9772
  35  423.6757
  36  340.9064
  37  212.7774
  38  244.5688
  39  314.7205
  40  278.8655
  41  244.2904
  42  307.4034
  43  178.0911
  44  226.5249
  45  334.8825
  46  304.3502
  47  190.1273
  48  84.38388
  49  92.28925
  50  126.3902
  51  211.7468
  52  84.55227
  53  27.82212
  54  107.6816
  55  227.9606
  56  229.9901
  57  197.5311
  58  298.774
  59  180.0418
  60  206.3333
  61  269.1787
  62  277.2285
  63  278.0713
  64  231.3868
  65  189.8844
  66  311.3335
  67  202.2281
  68  245.9629
  69  301.4425
  70  108.089
  71  202.0064
  72  120.6542
  73  115.0649
  74  147.9695
  75  249.5902
  76  193.878
  77  282.9929
  78  186.8848
  79  141.1478
  80  269.886
  81  202.1388
  82  191.1884
  83  135.1479
  84  201.8465
  85  287.3943
  86  239.3768
  87  210.1409
  88  176.3305
  89  124.4715
  90  99.12257
  91  157.4941
  92  8.214864
  93  79.83555
  94  158.9196
  95  193.334
  96  216.9902
  97  47.37893
  98  -38.30208
  99  177.4751
 100  207.5014
 101  196.2293
 102  64.77817
 103  237.1364
 104  241.9842
 105  202.6176
 106  164.0655
 107  138.1773
 108  227.326
 109  163.5998
 110  72.05395
 111  83.35765
 112  249.7405
 113  316.429
 114  223.6064
 115  230.2561
 116  311.2495
 117  362.9263
 118  362.0701
 119  312.5547
 120  255.3285
 121  258.5923
 122  363.7283
 123  339.1866
 124  176.3009
 125  79.59859
 126  113.8639
 127  229.1042
 128  390.8449
 129  221.9675
 130  212.556
 131  281.1727
 132  200.6598
 133  188.6969
 134  175.5712
 135  141.1896
 136  161.7692
 137  130.1307
 138  324.4167
 139  264.0709
 140  94.87959
 141  50.40327
 142  259.4295
 143  291.5314
 144  64.23381
 145  -13.70364
 146  299.227
 147  361.9106
 148  376.8367
 149  307.2178
 150  314.9228
 151  366.9587
 152  337.8401
 153  362.8005
 154  351.8798
 155  266.3835
 156  300.6977
 157  263.5079
 158  223.4415
 159  168.3573
 160  192.5106
 161  295.2903
 162  342.5901
 163  168.4912
 164  115.0777
 165  192.6737
 166  257.2311
 167  185.7492
 168  129.9715
 169  267.2604
 170  228.2981
 171  207.29
 172  214.3578
 173  307.7056
 174  286.7149
 175  260.5476
 176  195.9387
 177  176.3493
 178  180.2199
 179  284.791
 180  237.6741
 181  248.8197
 182  205.4606
 183  205.2151
 184  227.8931
 185  285.6098
 186  274.0371
 187  355.9173
 188  363.0748
 189  322.0828
 190  279.1601
 191  330.5074
 192  276.0604
 193  131.2789
 194  212.2339
 195  330.1824
 196  277.3329
 197  286.8706
 198  346.2554
 199  202.6919
 200  289.192
 201  245.5064
 202  288.3356
 203  302.162
 204  333.2874
 205  297.7654
 206  158.1669
 207  171.2639
 208  208.6257
 209  123.8523
 210  187.172
 211  246.6079
 212  352.9955
 213  476.9841
 214  288.4667
 215  240.8987
 216  201.9623
 217  307.2819
 218  298.7411
 219  217.2885
 220  250.0049
 221  260.7232
 222  234.3778
 223  149.0705
 224  67.11373
 225  188.8246
 226  342.7028
 227  314.0347
 228  338.7716
 229  277.3288
 230  236.1226
 231  222.4037
 232  185.2188
 233  64.86584
 234  215.4652
 235  325.2844
 236  315.8882
 237  297.3053
 238  211.6547
 239  355.6781
 240  325.3274
 241  349.0055
 242  296.9135
 243  259.5673
 244  213.1442
 245  180.0094
 246  164.0321
 247  217.7684
 248  262.7811
 249  245.8343
 250  144.6214
 251  219.338
 252  162.6721
 253  229.33
 254  158.7961
 255  191.9213
 256  206.2317
 257  167.4057
 258  89.60589
 259  80.4276
 260  218.9359
 261  165.7021
 262  170.0561
 263  171.9039
 264  154.8363
 265  231.534
 266  263.4577
 267  228.1728
 268  335.476
 269  188.1459
 270  138.1031
 271  174.4222
 272  238.9372
 273  155.7927
 274  195.3275
 275  323.7215
 276  211.4556
 277  303.3777
 278  231.6924
 279  250.4371
 280  159.8741
 281  106.2135
 282  193.1022
 283  245.5006
 284  277.4903
 285  6.631245
 286  30.30321
 287  92.50576
 288  212.5647
 289  263.7763
 290  182.0685
 291  303.8459
 292  258.137
 293  166.8896
 294  382.569
 295  285.8361
 296  173.7393
 297  290.487
 298  321.6144
 299  140.8745
 300  158.323
 301  275.0573
 302  264.5918
 303  340.9341
 304  293.6898
 305  156.3303
 306  173.0036
 307  436.193
 308  274.3315
 309  0.8593205
 310  170.1567
 311  288.7008
 312  339.6928
 313  197.2222
 314  70.34634
 315  72.83094
 316  151.3331
 317  183.0417
 318  90.72272
 319  235.8599
 320  311.0739
 321  179.3966
 322  93.21436
 323  102.9143
 324  160.1424
 325  101.9366
 326  156.941
 327  201.0186
 328  255.5994
 329  391.7291
 330  299.1874
 331  263.1743
 332  248.5154
 333  259.8604
 334  296.7988
 335  302.1332
 336  234.1691
 337  29.06218
 338  78.61059
 339  349.4756
 340  321.612
 341  154.5534
 342  169.7808
 343  288.6061
 344  242.1408
 345  120.9786
 346  75.08072
 347  40.06467
 348  72.88379
 349  332.3033
 350  233.8166
 351  198.4887
 352  165.8211
 353  238.6333
 354  330.1764
 355  343.6273
 356  208.0631
 357  155.3052
 358  259.1039
 359  216.9617
 360  218.505
 361  236.9547
 362  188.193
 363  240.5534
 364  194.3312
 365  172.3491
 366  114.4819
 367  314.2871
 368  214.9653
 369  179.1185
 370  200.9329
 371  322.7177
 372  197.3049
 373  173.232
 374  70.60529
 375  195.6833
 376  210.4098
 377  114.107
 378  208.4022
 379  332.8814
 380  272.9169
 381  309.6124
 382  270.7383
 383  281.1499
 384  343.3306
 385  177.7114
 386  114.575
 387  136.9994
 388  324.8654
 389  337.0287
 390  266.7
 391  256.3153
 392  149.9022
 393  196.6398
 394  328.0187
 395  249.6982
 396  273.003
 397  384.4475
 398  374.8889
 399  193.109
 400  138.7686
 401  153.3727
 402  192.4389
 403  207.5385
 404  158.2124
 405  172.5669
 406  238.9722
 407  163.2824
 408  71.03055
 409  190.2607
 410  451.2093
 411  390.8896
 412  380.8189
 413  151.9676
 414  130.9407
 415  130.1817
 416  237.5352
 417  285.8193
 418  237.1146
 419  306.4095
 420  320.5561
 421  206.4535
 422  305.6984
 423  254.736
 424  231.7695
 425  308.4458
 426  182.3038
 427  189.6812
 428  196.502
 429  301.4105
 430  244.4581
 431  269.7916
 432  343.4933
 433  359.6429
 434  361.8478
 435  252.8516
 436  293.2337
 437  207.4807
 438  295.3982
 439  388.9496
 440  350.9684
 441  310.92
 442  401.2864
 443  250.7416
 444  151.5259
 445  159.5292
 446  179.4897
 447  335.6389
 448  248.6433
 449  278.9455
 450  86.87374
 451  30.72783
 452  159.3776
 453  193.0388
 454  116.1507
 455  252.2491
 456  348.7785
 457  258.6756
 458  216.1859
 459  300.272
 460  252.3519
 461  342.8395
 462  254.8055
 463  328.097
 464  294.2242
 465  223.9807
 466  333.822
 467  376.0482
 468  405.9358
 469  282.4467
 470  252.3163
 471  205.9845
 472  225.8289
 473  395.015
 474  338.8448
 475  193.3572
 476  180.0372
 477  241.0885
 478  288.5258
 479  178.7472
 480  318.0691
 481  262.8248
 482  202.3278
 483  207.8252
 484  152.4986
 485  311.0213
 486  406.2253
 487  353.4867
 488  224.0641
 489  243.3825
 490  415.2107
 491  494.3375
 492  407.04
 493  341.5991
 494  336.5544
 495  236.8946
 496  346.0251
 497  503.157
 498  293.1446
 499  141.5599
 500  175.8766
 501  206.7407
 502  260.2975
 503  342.0877
 504  387.1073
 505  202.7303
 506  192.0604
 507  434.9312
 508  414.248
 509  522.1609
 510  804.6356
 511  904.6247
