# Input file       =  1191553201.113077_cleaned.dat
# Candidate        =  PSR_0332+5434
# Telescope        =  AR
# Epoch_topo       =  58035.124804549501
# Epoch_bary       =  N/A
# T_sample         =  0.002
# Data Folded      =  7340032
# Data Avg         =  0.0134331015190919
# Data StdDev      =  1.00001635156232 
# Profile Bins     =  512
# Profile Avg      =  192.541841140815 
# Profile StdDev   =  119.734994198972 
# Reduced chi-sqr  =  1.444
# Prob(Noise)      <  1.68e-10   (~6.3 sigma)
# P_topo (ms)      =  714.47780731765   +/- 0.000161
# P'_topo (s/s)    =  -0                +/- 8.5e-11
# P''_topo (s/s^2) =  0                 +/- 3.75e-14
# P_bary (ms)      =  N/A
# P'_bary (s/s)    =  N/A
# P''_bary (s/s^2) =  N/A
# P_orb (s)        =  N/A
# asin(i)/c (s)    =  N/A
# eccentricity     =  N/A
# w (rad)          =  N/A
# T_peri           =  N/A
######################################################
   0  950.6146
   1  723.7963
   2  557.3643
   3  231.0652
   4  68.60799
   5  235.7204
   6  166.8229
   7  151.8368
   8  92.77907
   9  206.0457
  10  217.326
  11  259.0178
  12  250.4549
  13  246.7914
  14  344.8835
  15  371.3904
  16  377.6398
  17  279.566
  18  249.0535
  19  309.7073
  20  322.2326
  21  258.43
  22  151.6677
  23  325.2573
  24  257.4397
  25  116.4603
  26  137.8205
  27  338.6224
  28  306.2794
  29  222.9128
  30  270.1807
  31  189.8095
  32  131.254
  33  268.383
  34  330.2101
  35  176.9466
  36  215.0198
  37  118.6284
  38  93.52579
  39  69.38325
  40  200.9083
  41  316.6356
  42  171.3152
  43  207.6656
  44  193.3335
  45  106.9366
  46  93.62304
  47  346.5068
  48  262.7208
  49  125.77
  50  138.5974
  51  77.66319
  52  153.8655
  53  176.5713
  54  79.37161
  55  90.92625
  56  237.1601
  57  313.516
  58  343.2589
  59  273.091
  60  182.1127
  61  257.5686
  62  241.4558
  63  197.4923
  64  250.6581
  65  153.6905
  66  284.0283
  67  202.8436
  68  112.905
  69  138.1903
  70  128.4562
  71  251.3395
  72  347.5588
  73  188.3198
  74  195.884
  75  182.2477
  76  282.2908
  77  269.5491
  78  349.8751
  79  338.6102
  80  191.3238
  81  244.3258
  82  111.8516
  83  35.59697
  84  309.8495
  85  323.155
  86  190.8592
  87  126.4506
  88  236.7561
  89  247.9715
  90  333.1295
  91  287.3475
  92  331.4386
  93  243.9124
  94  215.4363
  95  234.0337
  96  226.0013
  97  293.1085
  98  169.966
  99  264.1062
 100  273.6693
 101  271.4856
 102  192.5078
 103  71.17182
 104  79.51744
 105  195.4341
 106  194.1734
 107  273.9795
 108  293.4406
 109  115.0237
 110  64.85175
 111  156.5286
 112  170.8861
 113  295.6742
 114  247.91
 115  176.07
 116  139.7207
 117  161.3348
 118  252.0467
 119  133.8278
 120  40.4017
 121  120.2422
 122  222.9225
 123  125.468
 124  66.80849
 125  199.8195
 126  149.715
 127  142.9643
 128  141.0332
 129  171.5326
 130  -22.10357
 131  51.09184
 132  142.9765
 133  137.1873
 134  79.30655
 135  168.2682
 136  119.5193
 137  140.5645
 138  194.2957
 139  199.334
 140  163.8581
 141  247.4799
 142  270.6468
 143  325.9994
 144  319.6289
 145  211.1217
 146  114.0465
 147  199.8392
 148  243.6157
 149  184.0002
 150  231.4273
 151  213.6705
 152  141.499
 153  121.5017
 154  69.69261
 155  106.2961
 156  147.3799
 157  161.275
 158  159.8187
 159  248.8891
 160  221.1355
 161  156.6499
 162  108.2059
 163  127.6523
 164  125.7945
 165  186.6448
 166  248.4504
 167  180.2038
 168  216.3941
 169  150.754
 170  150.6538
 171  215.3405
 172  113.779
 173  13.27081
 174  76.61649
 175  187.1923
 176  149.4169
 177  90.00256
 178  122.9038
 179  99.72865
 180  244.1286
 181  323.6838
 182  208.7545
 183  228.0854
 184  151.3941
 185  58.40358
 186  111.7099
 187  53.38034
 188  131.5098
 189  276.3334
 190  372.1147
 191  273.9648
 192  336.4531
 193  359.2543
 194  250.7238
 195  217.8696
 196  114.5616
 197  158.4042
 198  173.0404
 199  228.6106
 200  250.6558
 201  305.4955
 202  256.7316
 203  236.5199
 204  143.7865
 205  116.3334
 206  149.1904
 207  168.482
 208  208.4618
 209  225.0405
 210  27.2471
 211  80.55061
 212  146.8268
 213  76.96431
 214  23.89989
 215  138.48
 216  155.5257
 217  86.85586
 218  105.7052
 219  233.9389
 220  249.8132
 221  186.9719
 222  159.3224
 223  150.157
 224  120.6183
 225  82.48917
 226  145.9361
 227  216.8922
 228  174.3163
 229  133.0023
 230  149.6151
 231  37.04796
 232  -8.041822
 233  92.42317
 234  113.541
 235  173.3237
 236  132.0831
 237  138.2194
 238  81.5998
 239  24.42736
 240  -7.687285
 241  133.7513
 242  259.3825
 243  241.4231
 244  62.50975
 245  121.2624
 246  225.3832
 247  126.2491
 248  149.4052
 249  188.9624
 250  125.1167
 251  185.2962
 252  199.3715
 253  237.7158
 254  163.7816
 255  137.6112
 256  108.2329
 257  260.2828
 258  273.0668
 259  235.8093
 260  247.7605
 261  302.7319
 262  277.3892
 263  175.6329
 264  263.2156
 265  120.0924
 266  91.96341
 267  229.7496
 268  269.2138
 269  180.584
 270  229.6033
 271  176.5658
 272  200.4782
 273  224.0078
 274  205.1272
 275  98.72194
 276  2.602618
 277  58.36933
 278  194.5084
 279  343.9291
 280  283.3496
 281  244.6882
 282  351.1374
 283  303.5931
 284  165.8286
 285  201.6733
 286  254.706
 287  188.6056
 288  92.81237
 289  191.1324
 290  168.3519
 291  187.7982
 292  271.0959
 293  245.5146
 294  218.1424
 295  172.1832
 296  115.4221
 297  140.9385
 298  217.2474
 299  191.3791
 300  179.0133
 301  268.1374
 302  284.8275
 303  328.4265
 304  269.3014
 305  164.6297
 306  342.2961
 307  263.5919
 308  129.4756
 309  142.9058
 310  202.4082
 311  216.1199
 312  187.5913
 313  144.8558
 314  182.3693
 315  238.1062
 316  340.9361
 317  300.5236
 318  145.2511
 319  128.6512
 320  110.8112
 321  134.3632
 322  67.65139
 323  192.9059
 324  275.8982
 325  207.3636
 326  54.62606
 327  192.7623
 328  257.4746
 329  209.396
 330  192.0805
 331  271.9394
 332  227.159
 333  257.459
 334  253.3361
 335  80.37287
 336  16.80557
 337  70.48711
 338  181.7034
 339  177.4049
 340  310.7971
 341  323.9624
 342  261.8905
 343  237.8846
 344  221.0785
 345  304.4789
 346  235.2489
 347  168.7242
 348  314.1527
 349  249.7636
 350  161.7832
 351  233.6542
 352  330.7869
 353  331.4456
 354  325.426
 355  170.4246
 356  235.156
 357  241.3527
 358  248.7493
 359  88.56371
 360  -19.46686
 361  97.9458
 362  167.11
 363  143.03
 364  119.7131
 365  93.00828
 366  85.20446
 367  58.41454
 368  113.9384
 369  283.4276
 370  215.9821
 371  45.32882
 372  65.82284
 373  43.39102
 374  175.4423
 375  93.97099
 376  124.5393
 377  125.0134
 378  230.4066
 379  202.3943
 380  212.0282
 381  228.7201
 382  229.3299
 383  250.284
 384  224.4552
 385  146.7768
 386  138.6247
 387  44.98161
 388  132.8969
 389  191.2681
 390  51.30956
 391  68.32268
 392  134.7444
 393  143.9614
 394  25.23671
 395  15.21642
 396  -28.37236
 397  -26.67632
 398  -29.65142
 399  106.9947
 400  91.49242
 401  67.64442
 402  87.1363
 403  146.9711
 404  125.3983
 405  239.7231
 406  260.9799
 407  89.25079
 408  23.52293
 409  91.93416
 410  253.9034
 411  308.8063
 412  283.4933
 413  204.7229
 414  87.71262
 415  47.73347
 416  99.94784
 417  238.2849
 418  225.746
 419  41.94664
 420  71.75829
 421  104.9833
 422  59.69922
 423  107.7012
 424  271.459
 425  211.3764
 426  62.69312
 427  78.41283
 428  144.4819
 429  114.642
 430  61.57091
 431  167.9628
 432  197.4166
 433  173.6171
 434  191.9126
 435  169.3767
 436  11.7563
 437  185.3924
 438  247.5574
 439  211.4224
 440  185.4619
 441  112.8036
 442  135.6316
 443  176.3959
 444  303.1475
 445  242.6869
 446  175.4169
 447  297.7648
 448  167.5029
 449  251.2096
 450  304.8246
 451  182.8775
 452  119.0446
 453  249.4822
 454  295.7098
 455  228.5775
 456  250.2713
 457  344.8194
 458  269.963
 459  105.5297
 460  254.1875
 461  288.4827
 462  372.5557
 463  152.8961
 464  73.80064
 465  168.4213
 466  247.9909
 467  222.0743
 468  302.5861
 469  241.8658
 470  143.2076
 471  183.1814
 472  137.6103
 473  224.268
 474  263.3992
 475  119.7218
 476  139.9189
 477  115.1661
 478  60.53442
 479  86.55281
 480  138.8088
 481  185.0953
 482  195.5319
 483  133.7118
 484  91.8965
 485  78.43524
 486  205.3496
 487  264.6792
 488  187.0585
 489  360.3148
 490  287.959
 491  157.2792
 492  296.5668
 493  392.8501
 494  314.0865
 495  239.3376
 496  272.1053
 497  198.3992
 498  226.9458
 499  197.6423
 500  183.2888
 501  112.7224
 502  96.59441
 503  107.6579
 504  250.378
 505  299.2786
 506  233.2551
 507  293.3519
 508  403.5928
 509  574.7227
 510  670.5719
 511  928.2964
