# Input file       =  1191796778.119522_cleaned.dat
# Candidate        =  PSR_0332+5434
# Telescope        =  AR
# Epoch_topo       =  58037.943982864839
# Epoch_bary       =  N/A
# T_sample         =  0.002
# Data Folded      =  7340032
# Data Avg         =  0.012563817175909
# Data StdDev      =  1.00003648808958 
# Profile Bins     =  512
# Profile Avg      =  180.205892447627 
# Profile StdDev   =  119.737405206523 
# Reduced chi-sqr  =  1.716
# Prob(Noise)      <  9.88e-22   (~9.5 sigma)
# P_topo (ms)      =  714.479366300913  +/- 0.000267
# P'_topo (s/s)    =  -0                +/- 1.41e-10
# P''_topo (s/s^2) =  0                 +/- 6.23e-14
# P_bary (ms)      =  N/A
# P'_bary (s/s)    =  N/A
# P''_bary (s/s^2) =  N/A
# P_orb (s)        =  N/A
# asin(i)/c (s)    =  N/A
# eccentricity     =  N/A
# w (rad)          =  N/A
# T_peri           =  N/A
######################################################
   0  939.1613
   1  961.149
   2  962.7838
   3  620.8621
   4  368.2286
   5  278.3921
   6  210.5787
   7  171.3193
   8  215.1365
   9  279.1323
  10  279.4826
  11  189.1516
  12  279.7382
  13  357.5013
  14  289.419
  15  249.7402
  16  201.8088
  17  91.60958
  18  106.5991
  19  131.3958
  20  44.56701
  21  240.8043
  22  223.3829
  23  295.6213
  24  344.4299
  25  257.3713
  26  331.2858
  27  115.8161
  28  116.6653
  29  192.274
  30  183.7654
  31  124.0438
  32  146.4175
  33  161.6873
  34  218.032
  35  230.4385
  36  230.5256
  37  285.6248
  38  259.3862
  39  13.86536
  40  73.03725
  41  128.8274
  42  208.6956
  43  225.5175
  44  167.2907
  45  119.9835
  46  232.712
  47  137.6078
  48  145.072
  49  97.31769
  50  172.8086
  51  165.7135
  52  236.5899
  53  217.0573
  54  126.3799
  55  190.1606
  56  210.9685
  57  163.3155
  58  195.0255
  59  108.4557
  60  127.179
  61  250.7444
  62  250.9994
  63  102.7221
  64  63.90951
  65  134.0531
  66  205.7086
  67  95.03027
  68  147.2419
  69  122.7492
  70  9.587911
  71  108.8279
  72  152.8471
  73  204.2185
  74  80.36067
  75  193.2706
  76  169.2304
  77  98.58389
  78  111.7612
  79  128.4799
  80  190.5199
  81  128.8058
  82  64.4183
  83  87.12196
  84  37.51218
  85  119.0581
  86  142.1382
  87  120.6986
  88  160.3027
  89  255.589
  90  146.0102
  91  123.9389
  92  93.1202
  93  -2.845382
  94  40.56985
  95  239.1026
  96  225.5844
  97  319.526
  98  344.6872
  99  219.7041
 100  109.1628
 101  98.53714
 102  136.4426
 103  148.1598
 104  208.695
 105  83.29476
 106  161.1563
 107  228.4398
 108  374.4784
 109  258.9727
 110  214.3917
 111  199.8154
 112  274.1687
 113  174.8537
 114  192.5542
 115  208.3225
 116  152.4474
 117  387.8795
 118  297.5224
 119  181.7522
 120  114.1781
 121  188.802
 122  152.1511
 123  117.8158
 124  113.9565
 125  221.6704
 126  78.67975
 127  204.5006
 128  229.1191
 129  194.0002
 130  231.0503
 131  302.4857
 132  204.0134
 133  184.3216
 134  169.7257
 135  279.4367
 136  290.512
 137  185.9892
 138  64.85338
 139  91.72733
 140  233.0857
 141  225.1182
 142  160.2353
 143  302.8741
 144  270.8234
 145  128.6562
 146  107.5219
 147  149.1161
 148  389.9189
 149  380.1311
 150  250.5058
 151  184.0349
 152  158.9802
 153  169.1901
 154  83.94614
 155  97.26323
 156  314.2207
 157  330.2475
 158  313.261
 159  306.3015
 160  221.5213
 161  256.0815
 162  196.191
 163  133.8145
 164  155.6487
 165  108.3872
 166  13.1148
 167  114.349
 168  218.8268
 169  159.4505
 170  223.4574
 171  238.994
 172  114.5376
 173  187.4898
 174  81.6887
 175  124.8993
 176  173.523
 177  227.7947
 178  118.7404
 179  35.67151
 180  137.9584
 181  239.8356
 182  202.2587
 183  116.1449
 184  188.2106
 185  204.2348
 186  277.821
 187  182.8196
 188  179.959
 189  139.7675
 190  88.22691
 191  -60.08355
 192  -5.914828
 193  149.5551
 194  188.5374
 195  211.4566
 196  168.2293
 197  211.5263
 198  221.333
 199  50.55014
 200  120.2654
 201  227.1314
 202  252.3615
 203  375.5286
 204  205.8598
 205  184.3374
 206  70.53928
 207  32.27619
 208  135.8705
 209  283.9294
 210  247.986
 211  237.823
 212  189.747
 213  156.285
 214  160.4643
 215  209.9554
 216  236.054
 217  245.6907
 218  219.4086
 219  154.5542
 220  152.9472
 221  245.9566
 222  149.7663
 223  88.4139
 224  140.6785
 225  248.6464
 226  203.7417
 227  151.0129
 228  97.60447
 229  149.3317
 230  145.9053
 231  -7.654566
 232  81.01766
 233  222.4367
 234  54.82148
 235  116.2613
 236  230.7259
 237  166.9859
 238  205.5625
 239  190.0697
 240  252.8604
 241  211.5679
 242  244.4636
 243  307.2957
 244  343.0433
 245  305.787
 246  302.2255
 247  222.0773
 248  192.6727
 249  201.2362
 250  134.4529
 251  177.7082
 252  144.0916
 253  175.7512
 254  262.466
 255  75.04603
 256  70.23788
 257  175.2468
 258  165.6846
 259  105.703
 260  170.0834
 261  173.7699
 262  126.7716
 263  151.9426
 264  104.7351
 265  79.36749
 266  43.69643
 267  21.91975
 268  12.31569
 269  116.5471
 270  244.948
 271  259.0754
 272  283.0836
 273  281.2015
 274  153.8267
 275  82.51382
 276  204.2741
 277  305.5176
 278  196.4062
 279  24.6004
 280  207.5629
 281  242.0966
 282  168.7829
 283  197.4128
 284  250.5115
 285  94.75414
 286  140.9671
 287  213.2196
 288  193.2288
 289  -90.78105
 290  9.623927
 291  239.1425
 292  218.7289
 293  212.5949
 294  122.2089
 295  72.11734
 296  40.15305
 297  154.0085
 298  158.4429
 299  134.4629
 300  156.601
 301  149.3692
 302  218.3422
 303  276.6747
 304  110.7562
 305  199.198
 306  209.5049
 307  51.78571
 308  148.3217
 309  129.5882
 310  161.204
 311  298.2873
 312  238.3896
 313  240.5993
 314  234.7785
 315  188.8495
 316  63.50242
 317  130.0909
 318  218.5361
 319  252.4025
 320  226.2629
 321  234.7584
 322  191.7901
 323  144.2585
 324  224.457
 325  153.3008
 326  163.2238
 327  193.4954
 328  72.89093
 329  241.3019
 330  251.0191
 331  121.4747
 332  88.58321
 333  162.4747
 334  184.0624
 335  254.6286
 336  249.9764
 337  209.8227
 338  135.6569
 339  185.1566
 340  88.47973
 341  131.0876
 342  245.4388
 343  265.6496
 344  142.9459
 345  83.388
 346  128.9044
 347  15.21089
 348  44.73613
 349  125.2543
 350  184.739
 351  206.5797
 352  169.7121
 353  56.31377
 354  47.99912
 355  86.0605
 356  110.5169
 357  54.48573
 358  147.8939
 359  31.20245
 360  0.4965295
 361  -38.93176
 362  109.7273
 363  173.5879
 364  24.67227
 365  14.92844
 366  69.70859
 367  42.05645
 368  81.92847
 369  138.4196
 370  294.3875
 371  275.2433
 372  255.2968
 373  183.4012
 374  131.653
 375  270.7466
 376  261.709
 377  192.3263
 378  209.969
 379  200.3953
 380  220.0692
 381  175.9177
 382  170.8249
 383  10.65342
 384  112.8133
 385  189.0619
 386  88.15458
 387  165.1536
 388  222.057
 389  84.537
 390  125.0542
 391  123.6195
 392  261.0011
 393  179.9339
 394  87.57459
 395  146.9817
 396  68.42098
 397  130.2714
 398  150.0049
 399  216.001
 400  266.486
 401  230.4029
 402  137.1727
 403  253.0109
 404  172.2904
 405  68.58986
 406  194.217
 407  238.0312
 408  120.787
 409  74.19202
 410  193.1594
 411  147.1725
 412  174.3175
 413  104.76
 414  59.0739
 415  65.27296
 416  98.89487
 417  218.3347
 418  264.5945
 419  296.586
 420  199.1675
 421  226.7923
 422  217.3701
 423  120.9232
 424  153.4282
 425  208.4936
 426  97.77747
 427  165.1326
 428  309.2313
 429  207.8166
 430  95.13109
 431  64.58926
 432  76.84424
 433  151.1819
 434  114.49
 435  178.4078
 436  91.27738
 437  131.023
 438  191.1331
 439  287.6543
 440  154.4786
 441  72.94994
 442  297.6577
 443  256.9814
 444  139.5813
 445  129.5359
 446  73.75014
 447  71.95164
 448  174.7664
 449  241.2916
 450  120.778
 451  129.6407
 452  206.468
 453  79.12373
 454  3.315848
 455  112.5461
 456  99.80579
 457  225.8051
 458  159.3999
 459  39.25646
 460  131.1618
 461  216.5405
 462  87.13493
 463  304.5118
 464  214.2372
 465  161.6185
 466  123.1721
 467  206.6668
 468  119.5331
 469  191.8858
 470  175.0069
 471  238.8752
 472  35.17296
 473  115.8624
 474  226.8234
 475  130.7213
 476  58.1258
 477  148.5699
 478  147.2368
 479  186.7306
 480  57.90203
 481  64.11077
 482  124.9584
 483  125.4453
 484  55.1203
 485  266.7957
 486  245.8569
 487  188.4631
 488  257.4068
 489  223.0274
 490  242.3799
 491  145.8675
 492  54.30808
 493  144.578
 494  116.7735
 495  210.9265
 496  201.7277
 497  264.2602
 498  143.0236
 499  184.5006
 500  290.1173
 501  165.1013
 502  43.28125
 503  116.9604
 504  233.373
 505  284.4093
 506  316.0837
 507  421.0356
 508  530.7833
 509  707.8702
 510  818.5424
 511  932.1137
