# Input file       =  1191710613.127054_cleaned.dat
# Candidate        =  PSR_0332+5434
# Telescope        =  AR
# Epoch_topo       =  58036.946702859423
# Epoch_bary       =  N/A
# T_sample         =  0.002
# Data Folded      =  7340032
# Data Avg         =  0.019754260910054
# Data StdDev      =  1.0000110295306  
# Profile Bins     =  512
# Profile Avg      =  283.415683069111 
# Profile StdDev   =  119.734356975955 
# Reduced chi-sqr  =  1.806
# Prob(Noise)      <  4.19e-26   (~10.5 sigma)
# P_topo (ms)      =  714.478683890392  +/- 0.000172
# P'_topo (s/s)    =  -0                +/- 9.09e-11
# P''_topo (s/s^2) =  0                 +/- 4.01e-14
# P_bary (ms)      =  N/A
# P'_bary (s/s)    =  N/A
# P''_bary (s/s^2) =  N/A
# P_orb (s)        =  N/A
# asin(i)/c (s)    =  N/A
# eccentricity     =  N/A
# w (rad)          =  N/A
# T_peri           =  N/A
######################################################
   0  1177.99
   1  1221.065
   2  910.7256
   3  633.6511
   4  362.0555
   5  312.3476
   6  349.5689
   7  240.6307
   8  273.7974
   9  368.0033
  10  325.9166
  11  384.9539
  12  410.3371
  13  233.2471
  14  312.3834
  15  370.6898
  16  434.0884
  17  285.3554
  18  222.2599
  19  169.0569
  20  253.1167
  21  283.5259
  22  319.3611
  23  389.8694
  24  427.23
  25  527.5518
  26  396.5436
  27  157.9036
  28  245.5212
  29  208.6268
  30  243.3198
  31  238.0676
  32  282.5457
  33  378.3558
  34  282.5824
  35  321.0278
  36  309.6903
  37  226.2056
  38  300.1257
  39  317.5757
  40  205.9775
  41  315.3257
  42  372.1192
  43  342.4753
  44  279.5996
  45  409.9005
  46  292.709
  47  212.0574
  48  183.9809
  49  225.656
  50  406.6838
  51  381.7736
  52  228.8519
  53  169.3574
  54  184.5143
  55  270.4494
  56  333.6219
  57  362.4023
  58  325.8817
  59  306.0085
  60  234.7488
  61  331.2704
  62  369.5165
  63  428.7933
  64  350.0699
  65  227.7664
  66  214.1108
  67  136.5807
  68  244.9621
  69  283.4614
  70  251.1915
  71  361.9205
  72  155.8193
  73  167.0826
  74  177.3024
  75  85.99996
  76  178.8188
  77  282.0528
  78  308.097
  79  242.5951
  80  166.1283
  81  129.2566
  82  225.9905
  83  262.4723
  84  236.5137
  85  197.6918
  86  176.8503
  87  302.447
  88  350.1769
  89  348.2107
  90  317.1913
  91  200.9953
  92  210.6456
  93  190.6877
  94  260.0671
  95  340.0291
  96  263.2975
  97  263.0258
  98  245.3441
  99  290.9298
 100  388.4655
 101  356.1939
 102  340.6253
 103  335.9017
 104  263.0292
 105  239.5306
 106  391.985
 107  358.8369
 108  295.978
 109  372.6437
 110  308.2946
 111  303.4277
 112  244.8733
 113  155.2881
 114  254.5622
 115  271.5932
 116  425.3334
 117  209.4367
 118  233.5587
 119  316.6891
 120  379.3792
 121  380.666
 122  211.3213
 123  170.8147
 124  341.1343
 125  363.9443
 126  408.3134
 127  384.3534
 128  210.5152
 129  178.5238
 130  270.8829
 131  390.7148
 132  346.5283
 133  184.0046
 134  229.8575
 135  309.7845
 136  345.01
 137  223.8337
 138  360.3946
 139  272.5763
 140  251.6465
 141  116.4595
 142  308.4601
 143  330.0898
 144  262.614
 145  453.5142
 146  345.7915
 147  292.1996
 148  190.8228
 149  87.00074
 150  176.5112
 151  238.863
 152  335.4423
 153  437.6145
 154  376.09
 155  289.8351
 156  310.8859
 157  352.3833
 158  345.874
 159  253.9003
 160  314.6495
 161  338.0006
 162  144.3544
 163  219.8004
 164  298.6089
 165  298.5907
 166  312.4286
 167  333.9407
 168  264.6164
 169  169.0995
 170  289.1441
 171  381.1438
 172  348.154
 173  397.6932
 174  436.067
 175  251.9336
 176  251.9715
 177  261.0989
 178  261.2271
 179  273.7947
 180  341.2468
 181  321.5495
 182  342.3665
 183  292.0479
 184  153.4175
 185  38.69366
 186  170.0432
 187  256.4103
 188  267.3054
 189  309.4548
 190  260.7633
 191  189.4271
 192  116.5311
 193  261.2065
 194  402.7383
 195  352.7944
 196  362.0357
 197  246.2466
 198  114.7131
 199  77.17713
 200  186.5811
 201  253.3226
 202  241.054
 203  317.8564
 204  216.8112
 205  379.8954
 206  286.9166
 207  257.9962
 208  286.9233
 209  209.2417
 210  265.0046
 211  269.828
 212  293.4532
 213  239.5534
 214  176.6953
 215  130.6709
 216  249.4132
 217  183.9827
 218  299.1977
 219  122.8692
 220  234.9817
 221  168.1728
 222  191.9279
 223  177.1011
 224  130.2439
 225  158.7271
 226  240.9772
 227  353.0175
 228  354.8116
 229  293.8912
 230  352.9839
 231  141.7838
 232  88.72917
 233  138.0961
 234  187.0997
 235  196.9121
 236  308.006
 237  238.862
 238  101.7562
 239  182.6248
 240  207.5067
 241  132.3403
 242  165.953
 243  259.826
 244  268.672
 245  277.5088
 246  185.4088
 247  200.2806
 248  206.7593
 249  259.3289
 250  224.7334
 251  206.9873
 252  284.9096
 253  211.1862
 254  91.04752
 255  143.7501
 256  302.6063
 257  311.0765
 258  357.7129
 259  222.8913
 260  283.3955
 261  333.4344
 262  315.8041
 263  389.8423
 264  346.3656
 265  204.5387
 266  133.3239
 267  338.9231
 268  272.1583
 269  296.8351
 270  219.8222
 271  290.1728
 272  312.0326
 273  289.9527
 274  157.4906
 275  194.595
 276  251.0462
 277  230.403
 278  190.1003
 279  243.5662
 280  236.0957
 281  205.4298
 282  184.9106
 283  214.6129
 284  228.5768
 285  172.7105
 286  267.6682
 287  324.5435
 288  254.0831
 289  205.8904
 290  228.9701
 291  252.884
 292  153.7553
 293  182.1292
 294  214.1333
 295  164.5914
 296  128.228
 297  194.7568
 298  207.5224
 299  187.9075
 300  236.862
 301  160.7427
 302  281.9217
 303  327.6579
 304  399.5934
 305  356.4574
 306  279.9234
 307  276.1143
 308  366.0135
 309  385.8111
 310  356.0123
 311  208.4709
 312  176.0186
 313  177.0678
 314  306.037
 315  394.6308
 316  269.7666
 317  241.3071
 318  410.5457
 319  363.6796
 320  314.4489
 321  281.4945
 322  275.7929
 323  267.8354
 324  360.2285
 325  291.5907
 326  183.4666
 327  215.2983
 328  379.8649
 329  413.5947
 330  358.8786
 331  234.4332
 332  166.5897
 333  291.7161
 334  283.1124
 335  298.6107
 336  396.4754
 337  407.4753
 338  319.5332
 339  217.7327
 340  206.5513
 341  304.6978
 342  270.0792
 343  237.9956
 344  257.9019
 345  292.3564
 346  434.8831
 347  485.2654
 348  364.3938
 349  298.341
 350  281.3417
 351  311.01
 352  289.7944
 353  280.9826
 354  325.7141
 355  202.3753
 356  146.9733
 357  261.9399
 358  340.0136
 359  384.4473
 360  273.1801
 361  324.2209
 362  307.3638
 363  291.1391
 364  170.4998
 365  169.5643
 366  264.2079
 367  274.2823
 368  106.2856
 369  141.2035
 370  81.48655
 371  147.5083
 372  276.1509
 373  367.3129
 374  249.7242
 375  144.3701
 376  273.258
 377  382.8553
 378  245.4709
 379  176.8929
 380  175.6055
 381  220.1773
 382  334.2245
 383  363.5986
 384  315.3421
 385  215.8025
 386  282.8579
 387  344.1269
 388  371.1961
 389  320.5238
 390  132.2395
 391  238.4913
 392  259.9557
 393  225.8251
 394  158.3876
 395  213.099
 396  294.0432
 397  199.5498
 398  184.7851
 399  212.8962
 400  230.5474
 401  323.1706
 402  283.5185
 403  341.4637
 404  322.5077
 405  227.9236
 406  230.8604
 407  141.2628
 408  271.8658
 409  191.2245
 410  129.2486
 411  193.1304
 412  217.7406
 413  346.3499
 414  336.4338
 415  234.7049
 416  321.2905
 417  233.9359
 418  133.0676
 419  302.851
 420  237.7618
 421  166.5212
 422  173.0895
 423  325.7467
 424  321.2633
 425  430.6699
 426  440.6175
 427  361.4593
 428  176.8383
 429  340.4455
 430  419.3532
 431  376.5113
 432  255.9473
 433  302.6642
 434  451.4027
 435  315.8392
 436  259.7982
 437  263.9125
 438  167.769
 439  152.643
 440  273.2642
 441  277.0014
 442  197.6943
 443  287.9768
 444  337.0811
 445  402.5937
 446  407.3534
 447  371.4551
 448  222.9029
 449  267.6814
 450  421.2679
 451  212.0223
 452  93.15748
 453  309.3973
 454  247.5281
 455  247.8332
 456  166.2776
 457  299.9028
 458  372.5262
 459  319.9552
 460  345.5392
 461  326.5933
 462  296.9737
 463  237.9731
 464  381.2841
 465  330.7375
 466  342.3184
 467  422.1431
 468  248.4956
 469  152.8953
 470  158.6013
 471  316.4487
 472  346.1648
 473  316.2365
 474  131.2359
 475  153.7059
 476  167.2585
 477  355.4146
 478  383.4717
 479  256.237
 480  190.0569
 481  194.2274
 482  224.9367
 483  187.5001
 484  150.3149
 485  246.7038
 486  331.3904
 487  337.5934
 488  314.8425
 489  328.9193
 490  258.58
 491  244.0755
 492  446.9998
 493  383.7356
 494  377.3043
 495  460.3982
 496  382.5471
 497  337.1202
 498  348.9037
 499  236.7394
 500  264.9343
 501  348.0226
 502  436.4566
 503  442.8359
 504  508.0048
 505  499.6597
 506  485.6424
 507  461.1165
 508  558.0123
 509  659.7289
 510  888.3485
 511  1010.385
