# Input file       =  1191725510.105498_cleaned.dat
# Candidate        =  PSR_0332+5434
# Telescope        =  AR
# Epoch_topo       =  58037.119121591415
# Epoch_bary       =  N/A
# T_sample         =  0.002
# Data Folded      =  7340032
# Data Avg         =  0.0213629101454537
# Data StdDev      =  1.00005721701648 
# Profile Bins     =  512
# Profile Avg      =  306.208268047838 
# Profile StdDev   =  119.739887143882 
# Reduced chi-sqr  =  1.621
# Prob(Noise)      <  1.93e-17   (~8.4 sigma)
# P_topo (ms)      =  714.479135091575  +/- 0.000253
# P'_topo (s/s)    =  -0                +/- 1.34e-10
# P''_topo (s/s^2) =  0                 +/- 5.9e-14
# P_bary (ms)      =  N/A
# P'_bary (s/s)    =  N/A
# P''_bary (s/s^2) =  N/A
# P_orb (s)        =  N/A
# asin(i)/c (s)    =  N/A
# eccentricity     =  N/A
# w (rad)          =  N/A
# T_peri           =  N/A
######################################################
   0  1062.81
   1  968.1434
   2  731.4167
   3  579.1507
   4  328.7905
   5  200.9225
   6  265.0184
   7  392.8436
   8  350.009
   9  353.2703
  10  304.2234
  11  282.7796
  12  262.2031
  13  357.743
  14  349.6349
  15  405.3059
  16  406.2743
  17  321.3464
  18  286.0195
  19  263.2024
  20  266.9669
  21  299.8428
  22  352.8371
  23  321.2441
  24  244.6088
  25  306.3919
  26  336.3044
  27  411.5182
  28  259.2964
  29  370.1591
  30  321.215
  31  298.2042
  32  389.9345
  33  379.9321
  34  276.6441
  35  245.9637
  36  256.5505
  37  267.0158
  38  238.5492
  39  257.5916
  40  316.4714
  41  402.7561
  42  205.2378
  43  60.43878
  44  221.7853
  45  332.2634
  46  390.7174
  47  432.4041
  48  348.9217
  49  328.1397
  50  197.6394
  51  337.1534
  52  386.4063
  53  406.4229
  54  373.8701
  55  473.1771
  56  394.2575
  57  536.1249
  58  414.6941
  59  287.1409
  60  282.5113
  61  271.4144
  62  317.9514
  63  343.777
  64  338.1512
  65  369.6282
  66  405.222
  67  292.7957
  68  270.8584
  69  309.5328
  70  255.8395
  71  254.5419
  72  388.6336
  73  426.8419
  74  343.0891
  75  260.0618
  76  248.0829
  77  365.7918
  78  280.6738
  79  272.7535
  80  231.6184
  81  246.2867
  82  211.6731
  83  136.3084
  84  213.7497
  85  264.8431
  86  249.6912
  87  285.9836
  88  337.5911
  89  374.6219
  90  341.7239
  91  224.1775
  92  182.3249
  93  276.8929
  94  320.6676
  95  344.1878
  96  251.6063
  97  289.5246
  98  353.3741
  99  334.5149
 100  391.4441
 101  261.3778
 102  382.7896
 103  230.4325
 104  287.5429
 105  301.6545
 106  286.4066
 107  159.7634
 108  208.1352
 109  257.3262
 110  250.6004
 111  299.7696
 112  272.3116
 113  233.6476
 114  232.8979
 115  273.6516
 116  246.9907
 117  210.6713
 118  140.4608
 119  189.5072
 120  282.9128
 121  232.6032
 122  221.4855
 123  225.6719
 124  335.7226
 125  237.5013
 126  288.3906
 127  369.6884
 128  411.8561
 129  360.0263
 130  224.9389
 131  217.5739
 132  256.2541
 133  437.169
 134  371.177
 135  263.9148
 136  291.5956
 137  312.236
 138  271.0258
 139  260.1544
 140  278.3657
 141  395.1935
 142  308.0109
 143  368.8759
 144  405.1734
 145  341.7594
 146  255.331
 147  98.66489
 148  230.4128
 149  306.7142
 150  292.2795
 151  285.7603
 152  264.0522
 153  217.1633
 154  211.5706
 155  286.3888
 156  342.6315
 157  139.5226
 158  172.0695
 159  193.8355
 160  228.86
 161  236.8773
 162  185.9476
 163  224.4016
 164  218.3448
 165  292.371
 166  335.8979
 167  190.019
 168  218.6084
 169  311.8671
 170  230.6714
 171  304.2063
 172  96.55555
 173  176.4844
 174  105.1836
 175  322.1824
 176  304.2151
 177  58.63705
 178  82.21505
 179  159.2618
 180  96.31847
 181  185.3611
 182  222.6835
 183  187.3518
 184  296.5073
 185  235.6074
 186  181.3644
 187  292.2603
 188  316.0925
 189  355.9655
 190  120.4212
 191  157.5348
 192  168.8098
 193  151.0662
 194  255.0184
 195  202.2497
 196  275.1849
 197  202.8558
 198  201.9978
 199  180.257
 200  133.4388
 201  170.9797
 202  205.2373
 203  248.7989
 204  174.736
 205  215.1744
 206  293.5548
 207  364.4707
 208  351.3451
 209  356.6408
 210  377.791
 211  381.744
 212  264.498
 213  159.5723
 214  250.4609
 215  349.2966
 216  346.6807
 217  417.5083
 218  397.8501
 219  287.0497
 220  334.2187
 221  291.321
 222  321.8088
 223  418.5779
 224  300.3772
 225  275.1589
 226  385.1537
 227  297.8394
 228  340.9801
 229  303.5106
 230  253.448
 231  395.2768
 232  285.5775
 233  299.5908
 234  373.7687
 235  344.5355
 236  303.5368
 237  273.5623
 238  230.8718
 239  278.7007
 240  254.8566
 241  271.5082
 242  270.7883
 243  317.8425
 244  264.2
 245  269.894
 246  234.7909
 247  361.8968
 248  348.6619
 249  312.0143
 250  298.0726
 251  400.2802
 252  206.2659
 253  205.4225
 254  290.5472
 255  267.0073
 256  252.7702
 257  202.1153
 258  239.9751
 259  261.8896
 260  157.6598
 261  242.4511
 262  275.1923
 263  276.1166
 264  372.8231
 265  271.5483
 266  277.3736
 267  282.4806
 268  400.6689
 269  445.6165
 270  319.3643
 271  191.7935
 272  208.6344
 273  263.2691
 274  276.1056
 275  339.9386
 276  344.8464
 277  216.8822
 278  200.5749
 279  139.2093
 280  121.7208
 281  170.2933
 282  294.2767
 283  331.6274
 284  245.1958
 285  282.1026
 286  363.4162
 287  308.641
 288  319.2487
 289  431.2946
 290  462.7114
 291  410.291
 292  373.0849
 293  324.1186
 294  403.7604
 295  384.0887
 296  263.0651
 297  201.798
 298  295.2324
 299  317.1778
 300  256.3778
 301  228.9775
 302  267.6893
 303  297.4605
 304  262.3304
 305  232.7699
 306  173.3423
 307  133.9874
 308  256.3938
 309  242.084
 310  169.357
 311  359.2852
 312  365.4814
 313  369.7834
 314  167.3531
 315  163.9732
 316  128.481
 317  -0.8954458
 318  186.3271
 319  237.2884
 320  314.3839
 321  203.3241
 322  204.1179
 323  237.2203
 324  259.8998
 325  307.0407
 326  433.6356
 327  367.1747
 328  285.3312
 329  287.0065
 330  414.4177
 331  401.2656
 332  315.6027
 333  255.1018
 334  301.9223
 335  379.9827
 336  312.321
 337  351.4758
 338  436.3179
 339  250.481
 340  181.3974
 341  251.4836
 342  208.0773
 343  299.568
 344  301.4569
 345  289.0182
 346  250.2554
 347  344.3672
 348  410.697
 349  316.5253
 350  126.8542
 351  210.7232
 352  322.7331
 353  342.665
 354  347.3299
 355  306.5544
 356  407.4758
 357  445.5266
 358  377.8893
 359  488.4004
 360  331.207
 361  388.9207
 362  436.0075
 363  465.164
 364  302.4046
 365  358.9247
 366  332.7034
 367  238.3011
 368  237.7881
 369  323.7978
 370  185.942
 371  272.4442
 372  319.9047
 373  335.8713
 374  144.008
 375  169.4998
 376  351.9981
 377  404.9987
 378  351.5085
 379  331.7338
 380  303.2617
 381  383.9503
 382  302.1997
 383  299.5167
 384  202.1126
 385  215.0593
 386  176.3663
 387  260.37
 388  331.8001
 389  437.1873
 390  365.794
 391  236.2552
 392  157.2185
 393  213.6655
 394  401.0712
 395  278.9849
 396  318.8907
 397  275.7504
 398  256.2532
 399  282.7585
 400  206.9129
 401  272.0082
 402  257.1582
 403  293.44
 404  406.5894
 405  311.9046
 406  219.3793
 407  276.7253
 408  327.9478
 409  355.9001
 410  497.1391
 411  358.8931
 412  337.2082
 413  327.284
 414  312.9201
 415  341.6252
 416  371.599
 417  313.889
 418  266.9908
 419  261.1398
 420  201.2892
 421  302.4833
 422  306.5559
 423  412.249
 424  460.7062
 425  441.0641
 426  504.732
 427  417.4077
 428  361.4501
 429  389.678
 430  417.5874
 431  256.6106
 432  239.4038
 433  378.6534
 434  340.0843
 435  380.4384
 436  380.6907
 437  361.3325
 438  321.0346
 439  332.9893
 440  478.5954
 441  390.3354
 442  424.7785
 443  440.7456
 444  357.7669
 445  339.1622
 446  325.994
 447  358.3133
 448  297.505
 449  208.2336
 450  201.224
 451  312.6682
 452  276.123
 453  190.6007
 454  217.5916
 455  202.2379
 456  282.3807
 457  263.0369
 458  430.9516
 459  477.9112
 460  453.9263
 461  359.4429
 462  449.9655
 463  488.5569
 464  485.316
 465  358.4694
 466  436.3402
 467  369.8719
 468  386.5152
 469  291.0117
 470  222.0913
 471  322.3595
 472  286.8594
 473  295.8917
 474  351.8123
 475  311.4417
 476  420.8498
 477  423.2755
 478  342.9764
 479  337.2664
 480  288.7192
 481  232.8401
 482  280.4682
 483  348.7457
 484  369.1122
 485  372.8484
 486  273.8835
 487  338.4305
 488  376.8274
 489  268.5799
 490  235.484
 491  370.6586
 492  505.8359
 493  462.4703
 494  330.0135
 495  186.754
 496  240.4728
 497  258.7699
 498  240.5291
 499  343.3321
 500  314.0241
 501  309.3798
 502  319.6533
 503  328.4418
 504  310.4148
 505  364.8488
 506  446.586
 507  570.2744
 508  702.9726
 509  806.3009
 510  958.5612
 511  1073.125
