# Input file       =  1191868328.113797_cleaned.dat
# Candidate        =  PSR_0332+5434
# Telescope        =  AR
# Epoch_topo       =  58038.772107798577
# Epoch_bary       =  N/A
# T_sample         =  0.002
# Data Folded      =  7143424
# Data Avg         =  0.0151881704522291
# Data StdDev      =  1.00009838207441 
# Profile Bins     =  512
# Profile Avg      =  211.85179211608  
# Profile StdDev   =  118.130205233235 
# Reduced chi-sqr  =  2.016
# Prob(Noise)      <  2.74e-37   (~12.7 sigma)
# P_topo (ms)      =  714.479929795491  +/- 0.000266
# P'_topo (s/s)    =  -0                +/- 1.44e-10
# P''_topo (s/s^2) =  0                 +/- 6.55e-14
# P_bary (ms)      =  N/A
# P'_bary (s/s)    =  N/A
# P''_bary (s/s^2) =  N/A
# P_orb (s)        =  N/A
# asin(i)/c (s)    =  N/A
# eccentricity     =  N/A
# w (rad)          =  N/A
# T_peri           =  N/A
######################################################
   0  1055.004
   1  981.9822
   2  929.2736
   3  718.1747
   4  420.8137
   5  201.9677
   6  283.608
   7  142.9144
   8  63.09426
   9  239.141
  10  236.4436
  11  369.0244
  12  488.0053
  13  376.3488
  14  341.4507
  15  239.7831
  16  242.3123
  17  293.5416
  18  235.5137
  19  268.819
  20  205.3884
  21  310.6102
  22  261.3439
  23  112.3783
  24  90.56519
  25  104.0915
  26  183.5183
  27  182.8767
  28  280.993
  29  171.6319
  30  318.8539
  31  427.5708
  32  363.8781
  33  339.3046
  34  161.3224
  35  83.95187
  36  217.3397
  37  266.5708
  38  336.4779
  39  208.4886
  40  386.6443
  41  298.5296
  42  214.3317
  43  249.9541
  44  158.5095
  45  57.25814
  46  134.229
  47  59.59452
  48  156.7185
  49  138.7153
  50  142.3655
  51  267.9786
  52  282.8032
  53  319.0546
  54  223.8355
  55  243.5982
  56  199.1226
  57  136.6995
  58  170.513
  59  253.4066
  60  237.1187
  61  211.6762
  62  215.0527
  63  254.5664
  64  277.3695
  65  73.32208
  66  132.5762
  67  178.6472
  68  227.2602
  69  190.1151
  70  217.5418
  71  234.8965
  72  281.4117
  73  168.7461
  74  118.4524
  75  65.30337
  76  191.5938
  77  267.7279
  78  201.4031
  79  217.6248
  80  179.778
  81  167.5483
  82  133.2478
  83  139.9608
  84  218.5854
  85  228.7809
  86  148.6679
  87  142.9328
  88  -6.935716
  89  12.07481
  90  60.44931
  91  169.8719
  92  231.4071
  93  230.2729
  94  237.5556
  95  233.8168
  96  124.1496
  97  87.19128
  98  112.1977
  99  100.5922
 100  81.55698
 101  126.4959
 102  228.985
 103  187.9738
 104  263.4201
 105  164.4656
 106  175.8528
 107  199.2465
 108  287.131
 109  231.5423
 110  282.0517
 111  316.11
 112  372.3274
 113  329.677
 114  383.192
 115  226.4036
 116  109.5154
 117  181.2394
 118  120.8253
 119  177.494
 120  185.713
 121  89.70873
 122  226.1064
 123  220.0405
 124  138.921
 125  159.4397
 126  181.8295
 127  199.5536
 128  392.8095
 129  189.0202
 130  61.19154
 131  107.0307
 132  150.8643
 133  175.9157
 134  313.098
 135  331.0063
 136  240.842
 137  240.4198
 138  429.5856
 139  423.949
 140  303.2551
 141  285.7807
 142  228.7759
 143  234.3808
 144  276.1523
 145  193.8697
 146  183.1133
 147  183.8096
 148  198.3448
 149  92.32504
 150  132.0661
 151  117.4343
 152  91.84435
 153  111.0507
 154  108.4981
 155  135.0746
 156  100.6112
 157  151.9887
 158  196.0283
 159  46.18797
 160  178.8242
 161  189.4285
 162  189.5777
 163  189.2017
 164  140.8751
 165  98.47185
 166  230.8051
 167  169.9992
 168  62.94455
 169  63.38123
 170  57.91809
 171  168.7985
 172  191.9305
 173  180.701
 174  197.5535
 175  151.0493
 176  313.0269
 177  366.0644
 178  218.9496
 179  166.0586
 180  262.1213
 181  267.6534
 182  237.9839
 183  246.2292
 184  370.5701
 185  365.4143
 186  362.3419
 187  219.8916
 188  95.71493
 189  234.6294
 190  358.6712
 191  334.8206
 192  210.8669
 193  185.02
 194  229.3817
 195  254.4173
 196  275.3382
 197  269.8731
 198  326.8242
 199  199.001
 200  253.4529
 201  220.4517
 202  220.761
 203  169.4459
 204  241.1481
 205  248.2469
 206  258.8009
 207  254.1379
 208  322.2645
 209  309.1042
 210  247.0488
 211  183.0549
 212  22.77273
 213  162.4964
 214  242.6477
 215  246.4082
 216  135.6999
 217  217.2583
 218  249.6031
 219  248.7372
 220  178.9878
 221  161.5123
 222  281.0621
 223  292.1035
 224  318.7893
 225  359.0279
 226  279.1402
 227  282.5767
 228  213.3126
 229  246.4739
 230  337.0102
 231  355.6329
 232  324.5174
 233  326.9664
 234  313.2404
 235  314.3789
 236  227.116
 237  238.5021
 238  242.2428
 239  268.2176
 240  221.1748
 241  128.9329
 242  177.8882
 243  166.3877
 244  1.968288
 245  79.57473
 246  102.1987
 247  132.9376
 248  250.9152
 249  201.4072
 250  113.5287
 251  125.9832
 252  48.907
 253  12.49128
 254  78.72578
 255  218.1429
 256  215.5898
 257  204.6604
 258  145.8826
 259  172.3715
 260  130.5226
 261  110.2533
 262  96.8455
 263  249.3913
 264  299.3022
 265  210.3742
 266  264.3213
 267  174.4195
 268  178.513
 269  301.5162
 270  183.3811
 271  23.36071
 272  32.41408
 273  231.104
 274  233.8943
 275  143.0775
 276  205.8744
 277  276.8308
 278  277.2661
 279  129.7964
 280  140.2154
 281  188.4971
 282  249.766
 283  322.0987
 284  291.5855
 285  149.8262
 286  100.1118
 287  123.892
 288  193.1533
 289  286.5186
 290  345.5874
 291  293.303
 292  277.9989
 293  357.9614
 294  274.0258
 295  244.2044
 296  238.126
 297  320.5953
 298  171.0254
 299  175.274
 300  136.2831
 301  164.8141
 302  273.2491
 303  303.1578
 304  179.5393
 305  204.9814
 306  170.5272
 307  408.7822
 308  275.4041
 309  226.0549
 310  204.1817
 311  268.3038
 312  267.6928
 313  256.2754
 314  185.5477
 315  266.5431
 316  300.9372
 317  140.0208
 318  69.51122
 319  205.5384
 320  227.1221
 321  137.6782
 322  265.8549
 323  341.224
 324  301.6817
 325  88.54395
 326  195.4841
 327  229.7953
 328  262.2577
 329  300.2354
 330  252.4059
 331  210.8223
 332  106.1171
 333  67.05849
 334  137.9207
 335  175.5079
 336  93.56702
 337  130.9689
 338  192.2171
 339  161.535
 340  183.1013
 341  216.5855
 342  166.3306
 343  73.49953
 344  -22.05894
 345  31.77906
 346  96.98368
 347  156.908
 348  217.0986
 349  206.7821
 350  208.2954
 351  183.5157
 352  155.241
 353  78.41322
 354  151.3792
 355  280.3487
 356  205.223
 357  159.4033
 358  176.3744
 359  136.4607
 360  150.1836
 361  206.8222
 362  206.1876
 363  100.4673
 364  90.71619
 365  103.0981
 366  57.45759
 367  -0.7790055
 368  -31.74406
 369  139.0615
 370  230.2878
 371  234.7682
 372  176.1288
 373  109.5528
 374  109.5427
 375  147.7549
 376  134.6379
 377  169.5469
 378  201.3765
 379  202.4108
 380  174.9153
 381  114.1597
 382  45.75954
 383  144.2083
 384  178.0518
 385  123.7361
 386  127.5864
 387  190.0521
 388  169.0806
 389  66.28594
 390  178.8784
 391  251.9109
 392  177.7306
 393  207.8558
 394  203.1418
 395  249.2169
 396  249.2014
 397  286.4495
 398  190.1385
 399  184.7422
 400  152.4675
 401  37.10964
 402  98.89852
 403  86.05112
 404  -7.216214
 405  91.96801
 406  95.01374
 407  114.3497
 408  213.0461
 409  68.88991
 410  -10.82708
 411  -30.41574
 412  77.33614
 413  255.751
 414  149.6963
 415  186.7811
 416  49.8233
 417  68.40852
 418  101.628
 419  96.12692
 420  32.11184
 421  166.0341
 422  352.181
 423  213.9278
 424  187.6757
 425  195.8372
 426  179.6527
 427  190.7761
 428  92.71756
 429  83.87756
 430  132.4965
 431  162.7058
 432  156.4016
 433  281.1212
 434  228.6631
 435  170.8769
 436  95.00459
 437  200.409
 438  301.5515
 439  141.9722
 440  129.8237
 441  243.031
 442  157.679
 443  145.3104
 444  121.4304
 445  112.1286
 446  143.9419
 447  210.0648
 448  217.3128
 449  261.7009
 450  107.2579
 451  -1.290422
 452  -86.89975
 453  95.88419
 454  193.4041
 455  155.9997
 456  210.5771
 457  108.3056
 458  234.3425
 459  291.7082
 460  260.8321
 461  250.9869
 462  215.9211
 463  153.5675
 464  201.4718
 465  303.6379
 466  239.3407
 467  117.6029
 468  189.8963
 469  260.9805
 470  284.4706
 471  347.0224
 472  297.326
 473  218.067
 474  250.1142
 475  179.3409
 476  284.7085
 477  296.8084
 478  204.1231
 479  363.6924
 480  278.9724
 481  247.7493
 482  292.5984
 483  349.2308
 484  269.9784
 485  237.9919
 486  235.8293
 487  148.0297
 488  160.1806
 489  332.097
 490  230.0689
 491  336.6314
 492  400.0804
 493  306.1371
 494  373.4446
 495  189.357
 496  171.2062
 497  218.7006
 498  127.162
 499  233.921
 500  247.4119
 501  308.8284
 502  402.4414
 503  379.665
 504  453.8633
 505  336.2788
 506  427.7151
 507  508.5185
 508  491.2528
 509  596.696
 510  836.0692
 511  1031.422
