# Input file       =  1191969090.136214_cleaned.dat
# Candidate        =  PSR_0332+5434
# Telescope        =  AR
# Epoch_topo       =  58039.938334909886
# Epoch_bary       =  N/A
# T_sample         =  0.002
# Data Folded      =  7340032
# Data Avg         =  0.0109255747405509
# Data StdDev      =  1.00004001285366 
# Profile Bins     =  512
# Profile Avg      =  156.708173211176 
# Profile StdDev   =  119.737827237229 
# Reduced chi-sqr  =  2.216
# Prob(Noise)      <  4.95e-49   (~14.7 sigma)
# P_topo (ms)      =  714.480772180575  +/- 0.000184
# P'_topo (s/s)    =  -0                +/- 9.73e-11
# P''_topo (s/s^2) =  0                 +/- 4.3e-14
# P_bary (ms)      =  N/A
# P'_bary (s/s)    =  N/A
# P''_bary (s/s^2) =  N/A
# P_orb (s)        =  N/A
# asin(i)/c (s)    =  N/A
# eccentricity     =  N/A
# w (rad)          =  N/A
# T_peri           =  N/A
######################################################
   0  1267.254
   1  1098.179
   2  880.8948
   3  557.1973
   4  380.542
   5  221.3976
   6  104.2658
   7  50.80381
   8  124.674
   9  200.8589
  10  157.9598
  11  183.5336
  12  192.2421
  13  226.7041
  14  262.5825
  15  226.3346
  16  142.0798
  17  206.4115
  18  223.1576
  19  126.3248
  20  137.9432
  21  229.0716
  22  247.0739
  23  130.2663
  24  95.44494
  25  60.56539
  26  55.41222
  27  182.1335
  28  251.6375
  29  343.0708
  30  161.4391
  31  185.2455
  32  254.4506
  33  100.8623
  34  140.154
  35  143.7026
  36  244.9774
  37  51.66106
  38  -66.78365
  39  80.08537
  40  76.78221
  41  24.36076
  42  6.869885
  43  105.3618
  44  135.1387
  45  215.9272
  46  265.1184
  47  241.8846
  48  155.0587
  49  67.19711
  50  140.3865
  51  162.9216
  52  242.1897
  53  142.2475
  54  242.9377
  55  324.7601
  56  231.388
  57  232.1978
  58  197.7636
  59  156.9317
  60  141.4133
  61  102.4492
  62  134.8199
  63  117.5151
  64  132.1393
  65  176.662
  66  216.7953
  67  133.5912
  68  144.1744
  69  104.5092
  70  145.654
  71  158.5497
  72  125.3319
  73  152.0067
  74  89.66369
  75  7.759456
  76  64.23721
  77  118.605
  78  158.4207
  79  183.7988
  80  167.118
  81  206.8831
  82  164.8899
  83  236.2607
  84  -18.09255
  85  -45.73787
  86  171.1594
  87  224.1264
  88  134.201
  89  67.1514
  90  22.84385
  91  178.7135
  92  181.8718
  93  181.7612
  94  136.5982
  95  204.0042
  96  185.9083
  97  226.3302
  98  184.9567
  99  248.2525
 100  233.5254
 101  152.1467
 102  186.7028
 103  190.8849
 104  220.5316
 105  173.6585
 106  165.4159
 107  341.0696
 108  308.0818
 109  125.5251
 110  92.40643
 111  180.3709
 112  261.522
 113  188.2014
 114  112.9004
 115  78.77244
 116  149.9377
 117  74.81516
 118  120.6196
 119  135.1282
 120  149.7557
 121  72.42728
 122  -39.40906
 123  19.83004
 124  132.4151
 125  215.4712
 126  127.9973
 127  77.84622
 128  111.1458
 129  127.0811
 130  259.9177
 131  338.5668
 132  104.3064
 133  220.9672
 134  174.1571
 135  273.0012
 136  160.7048
 137  -26.34974
 138  17.53714
 139  25.68636
 140  -14.41528
 141  149.2986
 142  101.803
 143  181.947
 144  141.7676
 145  109.7502
 146  170.3696
 147  152.6594
 148  200.6552
 149  166.7769
 150  171.9377
 151  188.9064
 152  156.121
 153  61.11509
 154  248.7814
 155  136.7207
 156  78.28175
 157  47.87489
 158  63.24849
 159  -0.6933166
 160  -47.28928
 161  71.03337
 162  159.4438
 163  35.06237
 164  140.2492
 165  232.3701
 166  199.0688
 167  59.08898
 168  102.9337
 169  176.5897
 170  228.6565
 171  64.02058
 172  63.12484
 173  178.9656
 174  135.0702
 175  98.05098
 176  157.5058
 177  153.7876
 178  77.36961
 179  119.9481
 180  170.2188
 181  156.3336
 182  235.2225
 183  184.9097
 184  54.28213
 185  0.2696807
 186  -1.574632
 187  -4.535961
 188  -10.63055
 189  2.969296
 190  99.58101
 191  -0.590231
 192  -61.63677
 193  49.95967
 194  -35.48262
 195  62.88425
 196  168.2509
 197  135.0389
 198  224.6891
 199  141.7888
 200  122.6799
 201  60.58588
 202  13.01201
 203  54.74673
 204  30.24376
 205  52.91183
 206  47.52567
 207  37.87841
 208  131.6425
 209  100.0457
 210  81.4431
 211  45.48376
 212  87.37013
 213  167.9205
 214  257.7122
 215  229.2582
 216  171.618
 217  58.59402
 218  102.0662
 219  95.13138
 220  49.14072
 221  17.52131
 222  53.2266
 223  43.04956
 224  134.9591
 225  110.5469
 226  84.29702
 227  144.163
 228  31.4267
 229  65.76888
 230  143.1975
 231  256.1411
 232  328.3186
 233  137.1279
 234  93.92883
 235  102.1739
 236  99.91455
 237  141.486
 238  169.4927
 239  154.2087
 240  98.4593
 241  -12.14596
 242  25.29995
 243  40.19083
 244  185.4674
 245  139.7765
 246  91.09433
 247  144.2472
 248  227.1897
 249  89.5537
 250  128.4985
 251  151.1385
 252  144.8688
 253  203.0406
 254  219.5353
 255  252.1186
 256  330.0287
 257  160.0345
 258  39.13369
 259  23.53219
 260  8.232682
 261  74.12862
 262  80.1433
 263  206.2355
 264  243.2904
 265  173.8336
 266  32.97379
 267  125.5835
 268  61.49041
 269  45.05425
 270  214.8478
 271  84.11227
 272  47.5845
 273  106.776
 274  217.4579
 275  174.5165
 276  -18.2261
 277  97.37733
 278  111.9559
 279  275.281
 280  193.9656
 281  178.5792
 282  211.1543
 283  113.5992
 284  156.4619
 285  95.3275
 286  171.844
 287  113.9793
 288  -9.183788
 289  130.8912
 290  179.5788
 291  198.1113
 292  81.5812
 293  67.12075
 294  -14.93511
 295  26.4389
 296  38.91562
 297  58.67311
 298  179.2164
 299  159.528
 300  231.8373
 301  227.7948
 302  93.05939
 303  21.01202
 304  107.4402
 305  356.1656
 306  425.8337
 307  311.5578
 308  60.32317
 309  -16.18116
 310  215.2788
 311  217.6556
 312  142.4072
 313  170.1025
 314  124.663
 315  149.8365
 316  120.9705
 317  39.19774
 318  29.41133
 319  111.9069
 320  147.6481
 321  148.752
 322  109.8867
 323  278.559
 324  297.2577
 325  175.5321
 326  86.71148
 327  154.8649
 328  167.7802
 329  -35.8648
 330  30.06937
 331  241.1584
 332  163.625
 333  99.70341
 334  110.6595
 335  188.0529
 336  29.04474
 337  55.15775
 338  208.187
 339  73.65682
 340  138.1555
 341  301.8083
 342  298.5576
 343  210.9544
 344  156.1619
 345  223.2583
 346  217.504
 347  160.0708
 348  141.9249
 349  127.5956
 350  193.1528
 351  96.36942
 352  28.47066
 353  88.5507
 354  178.8643
 355  150.1777
 356  19.22477
 357  88.90414
 358  125.4234
 359  90.13625
 360  18.68805
 361  40.77948
 362  126.5722
 363  202.998
 364  161.6926
 365  273.8214
 366  273.4963
 367  242.6834
 368  167.4719
 369  166.6827
 370  289.9983
 371  232.3307
 372  171.4627
 373  -40.87391
 374  49.69254
 375  326.9093
 376  338.2991
 377  128.9351
 378  90.17529
 379  303.0749
 380  200.9648
 381  101.7667
 382  -73.65179
 383  171.9364
 384  279.0679
 385  222.2904
 386  182.154
 387  176.6879
 388  173.676
 389  209.6558
 390  212.0473
 391  63.72119
 392  -2.559195
 393  32.46416
 394  -49.9418
 395  -63.59437
 396  148.9627
 397  180.7684
 398  174.6571
 399  124.4768
 400  203.111
 401  203.7455
 402  170.4754
 403  135.4487
 404  164.574
 405  76.50966
 406  81.07128
 407  90.72907
 408  170.1868
 409  151.7008
 410  256.1557
 411  242.4315
 412  204.9727
 413  210.2053
 414  187.1583
 415  125.084
 416  31.9973
 417  145.7915
 418  313.6406
 419  249.7527
 420  195.4931
 421  142.7752
 422  203.4764
 423  279.2316
 424  206.1799
 425  295.7082
 426  286.1908
 427  84.83198
 428  225.7326
 429  359.4797
 430  270.8344
 431  362.2277
 432  282.1706
 433  259.0354
 434  256.9467
 435  308.7311
 436  244.7055
 437  269.9737
 438  134.4862
 439  254.5029
 440  177.1788
 441  142.1304
 442  53.9769
 443  42.51258
 444  154.5655
 445  185.086
 446  321.2182
 447  306.0276
 448  207.0271
 449  -6.283634
 450  194.9784
 451  86.54877
 452  63.19236
 453  208.7721
 454  162.4657
 455  76.92174
 456  34.11176
 457  91.38505
 458  83.40603
 459  169.6268
 460  259.4494
 461  151.0187
 462  96.48841
 463  54.81765
 464  6.671761
 465  -16.75358
 466  30.13688
 467  67.69691
 468  192.4748
 469  206.8374
 470  234.5482
 471  198.1736
 472  88.11846
 473  115.409
 474  214.012
 475  164.0714
 476  296.2145
 477  189.2853
 478  181.3265
 479  158.9435
 480  102.5403
 481  1.107224
 482  139.2403
 483  181.0643
 484  238.0133
 485  275.9854
 486  160.2255
 487  154.6199
 488  -30.79789
 489  38.66361
 490  121.9993
 491  185.4648
 492  289.0208
 493  205.7258
 494  180.8762
 495  278.8116
 496  384.1433
 497  187.4968
 498  180.615
 499  258.1987
 500  189.8169
 501  159.0354
 502  229.1213
 503  231.4303
 504  216.9771
 505  275.3893
 506  220.6017
 507  178.5638
 508  323.3095
 509  598.1324
 510  840.1679
 511  1217.135
