# Input file       =  1191208577.114983_cleaned.dat
# Candidate        =  PSR_0332+5434
# Telescope        =  AR
# Epoch_topo       =  58031.136100867858
# Epoch_bary       =  N/A
# T_sample         =  0.002
# Data Folded      =  7340032
# Data Avg         =  0.0146195677533087
# Data StdDev      =  1.00003274943044 
# Profile Bins     =  512
# Profile Avg      =  209.6065823373   
# Profile StdDev   =  119.736957565512 
# Reduced chi-sqr  =  1.419
# Prob(Noise)      <  1.23e-09   (~6.0 sigma)
# P_topo (ms)      =  714.475311215438  +/- 0.000122
# P'_topo (s/s)    =  -0                +/- 6.46e-11
# P''_topo (s/s^2) =  0                 +/- 2.85e-14
# P_bary (ms)      =  N/A
# P'_bary (s/s)    =  N/A
# P''_bary (s/s^2) =  N/A
# P_orb (s)        =  N/A
# asin(i)/c (s)    =  N/A
# eccentricity     =  N/A
# w (rad)          =  N/A
# T_peri           =  N/A
######################################################
   0  788.504
   1  724.5686
   2  555.7532
   3  318.617
   4  236.7078
   5  173.4355
   6  16.29942
   7  145.8455
   8  224.4278
   9  331.2256
  10  146.9992
  11  107.5429
  12  158.9662
  13  247.2486
  14  452.3846
  15  299.3052
  16  235.1211
  17  160.1339
  18  159.17
  19  107.0944
  20  300.3988
  21  324.8355
  22  314.7559
  23  163.5421
  24  223.0125
  25  230.5196
  26  190.8551
  27  156.1641
  28  134.7747
  29  128.7595
  30  235.276
  31  273.3752
  32  451.2595
  33  439.2613
  34  302.545
  35  267.5971
  36  302.5258
  37  286.8204
  38  337.4294
  39  244.6851
  40  262.9616
  41  339.878
  42  327.3248
  43  162.3566
  44  193.3516
  45  185.6666
  46  204.271
  47  157.7918
  48  136.417
  49  184.5466
  50  78.59155
  51  179.3489
  52  156.3203
  53  41.49064
  54  152.1074
  55  237.2732
  56  288.9278
  57  349.5837
  58  320.8069
  59  102.9956
  60  283.6573
  61  203.9113
  62  148.3214
  63  209.0576
  64  169.7691
  65  114.3771
  66  119.8424
  67  157.7848
  68  220.0361
  69  337.2584
  70  301.907
  71  182.0072
  72  104.4741
  73  240.4064
  74  260.756
  75  239.1995
  76  97.81939
  77  90.29053
  78  66.18935
  79  254.0487
  80  189.7358
  81  85.21674
  82  172.1786
  83  165.1188
  84  126.1818
  85  154.1729
  86  202.0876
  87  330.8568
  88  263.3922
  89  286.271
  90  289.1294
  91  204.8067
  92  196.8888
  93  257.8137
  94  204.974
  95  232.6333
  96  109.011
  97  143.1525
  98  291.6403
  99  212.5924
 100  180.1664
 101  199.5697
 102  217.2513
 103  282.7237
 104  326.4415
 105  237.6617
 106  299.9347
 107  303.8912
 108  156.8658
 109  37.24751
 110  123.1497
 111  178.7144
 112  85.86337
 113  108.0841
 114  255.1105
 115  200.2533
 116  142.9023
 117  118.931
 118  326.8904
 119  298.5706
 120  331.8598
 121  333.7866
 122  194.8881
 123  243.6183
 124  265.433
 125  275.0854
 126  266.8036
 127  311.6864
 128  283.8646
 129  185.4363
 130  237.7426
 131  192.7451
 132  214.8805
 133  298.573
 134  392.3792
 135  200.764
 136  259.5025
 137  379.5455
 138  216.3362
 139  106.6971
 140  92.96906
 141  192.178
 142  365.3315
 143  219.085
 144  137.9827
 145  192.1084
 146  280.7029
 147  215.6639
 148  157.0068
 149  145.6416
 150  280.842
 151  171.3026
 152  170.9865
 153  105.1478
 154  24.66994
 155  52.93628
 156  213.1091
 157  308.5446
 158  331.7871
 159  216.6429
 160  4.689519
 161  150.0164
 162  209.0608
 163  161.3426
 164  110.9941
 165  228.2081
 166  236.4206
 167  156.2705
 168  122.1702
 169  139.7067
 170  2.235215
 171  65.32977
 172  47.83004
 173  271.6797
 174  222.1691
 175  213.8012
 176  174.6268
 177  180.3801
 178  135.0219
 179  145.1499
 180  47.76908
 181  87.75536
 182  97.62581
 183  165.3589
 184  125.5016
 185  220.7869
 186  212.1188
 187  207.8616
 188  283.4122
 189  335.2677
 190  335.65
 191  295.5211
 192  304.3197
 193  155.3344
 194  206.0713
 195  116.5816
 196  183.6186
 197  254.9285
 198  191.5491
 199  231.3988
 200  242.9894
 201  202.7632
 202  217.6049
 203  122.7408
 204  174.2116
 205  20.68083
 206  138.9224
 207  164.1294
 208  133.1311
 209  178.4522
 210  278.0326
 211  264.184
 212  220.4116
 213  226.7034
 214  249.1022
 215  291.3317
 216  301.624
 217  231.7533
 218  126.6225
 219  112.3161
 220  103.2944
 221  54.28383
 222  152.3864
 223  268.8127
 224  185.9469
 225  70.11805
 226  210.5952
 227  210.4966
 228  308.8757
 229  437.1607
 230  350.8791
 231  243.9322
 232  320.6501
 233  274.716
 234  249.3182
 235  110.5472
 236  46.33432
 237  161.9073
 238  215.1354
 239  204.6182
 240  251.1741
 241  162.9745
 242  181.7166
 243  281.1313
 244  270.6495
 245  223.0725
 246  306.9766
 247  434.7509
 248  321.7273
 249  157.0547
 250  218.4099
 251  282.3309
 252  169.7697
 253  135.9873
 254  101.9444
 255  108.1257
 256  94.54238
 257  146.2605
 258  131.8912
 259  78.71578
 260  226.7816
 261  219.2712
 262  104.2408
 263  105.4385
 264  244.2904
 265  248.0687
 266  118.8859
 267  92.01587
 268  205.4031
 269  194.4613
 270  175.5963
 271  277.4766
 272  230.0872
 273  203.8979
 274  147.4751
 275  128.3044
 276  193.7341
 277  168.244
 278  190.5138
 279  327.4122
 280  323.7685
 281  231.7481
 282  314.4346
 283  225.0019
 284  223.6827
 285  320.4306
 286  221.6678
 287  247.5153
 288  349.389
 289  240.2166
 290  240.4211
 291  219.9421
 292  216.4984
 293  93.26531
 294  91.09883
 295  58.79471
 296  147.2554
 297  183.5263
 298  82.95193
 299  -47.67157
 300  42.20011
 301  209.5709
 302  303.7722
 303  235.822
 304  305.59
 305  227.0412
 306  308.3253
 307  262.8668
 308  254.1288
 309  294.1661
 310  235.1493
 311  333.1272
 312  284.4661
 313  215.3462
 314  156.5674
 315  143.9811
 316  164.0061
 317  164.9892
 318  252.135
 319  149.7818
 320  50.21869
 321  182.8371
 322  255.1707
 323  325.5667
 324  346.9193
 325  220.6957
 326  187.3251
 327  73.73751
 328  93.4576
 329  237.2969
 330  325.4715
 331  167.4933
 332  232.4724
 333  120.7057
 334  71.77301
 335  195.9593
 336  151.0731
 337  129.2766
 338  181.0266
 339  254.0869
 340  259.6513
 341  81.10755
 342  145.2038
 343  310.1874
 344  334.3782
 345  200.168
 346  104.3513
 347  168.4557
 348  172.3935
 349  161.9274
 350  141.374
 351  110.4963
 352  172.3932
 353  201.0037
 354  204.5634
 355  116.0876
 356  33.31707
 357  155.1111
 358  96.33244
 359  123.2603
 360  213.521
 361  314.3992
 362  84.39619
 363  90.35474
 364  196.8652
 365  173.2775
 366  243.7074
 367  326.8045
 368  262.7666
 369  156.4296
 370  160.526
 371  165.1833
 372  197.6864
 373  137.4417
 374  307.5692
 375  262.0255
 376  11.81844
 377  39.12569
 378  139.2741
 379  273.3548
 380  224.4958
 381  142.5552
 382  133.7206
 383  174.6242
 384  168.726
 385  143.9951
 386  277.4029
 387  243.9294
 388  175.6235
 389  88.01544
 390  96.19514
 391  116.5911
 392  69.19729
 393  288.2423
 394  419.2913
 395  290.2059
 396  235.6086
 397  188.2928
 398  199.5883
 399  199.3644
 400  131.8226
 401  145.7121
 402  55.23396
 403  123.3672
 404  56.06322
 405  95.6022
 406  268.515
 407  230.8045
 408  171.2644
 409  190.7151
 410  268.9778
 411  374.7777
 412  283.1701
 413  254.3592
 414  283.144
 415  274.4349
 416  243.071
 417  272.8517
 418  305.838
 419  262.4683
 420  218.025
 421  294.7912
 422  268.399
 423  215.2421
 424  215.9385
 425  427.9536
 426  406.6857
 427  226.4995
 428  191.9996
 429  161.2652
 430  129.1673
 431  133.8902
 432  215.8815
 433  155.7122
 434  107.3696
 435  257.9082
 436  173.4914
 437  118.9071
 438  184.9973
 439  151.4268
 440  150.0461
 441  175.7644
 442  175.6503
 443  204.2283
 444  262.8993
 445  197.6949
 446  5.823568
 447  107.3313
 448  196.7968
 449  263.1123
 450  450.8538
 451  268.4986
 452  157.1214
 453  141.3184
 454  225.1008
 455  219.1603
 456  119.8126
 457  185.4345
 458  275.4262
 459  98.4604
 460  47.91177
 461  173.2203
 462  98.26607
 463  48.52625
 464  227.6304
 465  260.6789
 466  323.4701
 467  142.7479
 468  129.6445
 469  48.64116
 470  42.90383
 471  263.0092
 472  182.491
 473  134.4876
 474  153.5777
 475  236.1654
 476  181.0759
 477  155.6578
 478  96.72065
 479  130.3698
 480  316.054
 481  320.9614
 482  276.141
 483  299.4503
 484  175.2843
 485  142.8802
 486  131.7792
 487  144.4936
 488  124.3822
 489  104.158
 490  263.6769
 491  259.0389
 492  191.1522
 493  214.9035
 494  375.607
 495  348.0534
 496  205.408
 497  147.1415
 498  334.7208
 499  432.7166
 500  207.5115
 501  114.2393
 502  204.3217
 503  285.9261
 504  276.6566
 505  277.2861
 506  308.243
 507  307.938
 508  495.2018
 509  670.1638
 510  786.3566
 511  818.4909
