# Input file       =  1191351389.132284_cleaned.dat
# Candidate        =  PSR_0332+5434
# Telescope        =  AR
# Epoch_topo       =  58032.789017734765
# Epoch_bary       =  N/A
# T_sample         =  0.002
# Data Folded      =  7208960
# Data Avg         =  0.0109782836216278
# Data StdDev      =  0.999994949497313
# Profile Bins     =  512
# Profile Avg      =  154.597197639033 
# Profile StdDev   =  118.658576505044 
# Reduced chi-sqr  =  1.277
# Prob(Noise)      <  2.12e-05   (~4.1 sigma)
# P_topo (ms)      =  714.475971135584  +/- 0.000118
# P'_topo (s/s)    =  -0                +/- 6.36e-11
# P''_topo (s/s^2) =  0                 +/- 2.86e-14
# P_bary (ms)      =  N/A
# P'_bary (s/s)    =  N/A
# P''_bary (s/s^2) =  N/A
# P_orb (s)        =  N/A
# asin(i)/c (s)    =  N/A
# eccentricity     =  N/A
# w (rad)          =  N/A
# T_peri           =  N/A
######################################################
   0  867.3798
   1  868.5106
   2  630.1774
   3  352.2177
   4  283.481
   5  330.7693
   6  197.0125
   7  248.2084
   8  208.2964
   9  259.8269
  10  249.7366
  11  301.2798
  12  315.8542
  13  278.8199
  14  264.9831
  15  164.9169
  16  112.8635
  17  80.59668
  18  23.54823
  19  227.2305
  20  207.4875
  21  251.4949
  22  237.3472
  23  197.2266
  24  50.65475
  25  139.9548
  26  71.8325
  27  74.1947
  28  207.0105
  29  267.1063
  30  241.6375
  31  245.2389
  32  -22.79296
  33  52.35833
  34  211.1617
  35  191.1482
  36  114.0729
  37  182.0129
  38  157.5992
  39  160.833
  40  93.62709
  41  90.12154
  42  71.47549
  43  224.5053
  44  193.4691
  45  173.3897
  46  101.5276
  47  72.13037
  48  161.0604
  49  201.4485
  50  173.8864
  51  122.73
  52  69.37168
  53  78.41816
  54  206.5316
  55  168.2242
  56  87.24023
  57  130.6432
  58  133.1047
  59  159.1206
  60  12.557
  61  158.9937
  62  289.3864
  63  119.7824
  64  96.88074
  65  -9.17768
  66  94.79214
  67  162.3239
  68  318.5793
  69  324.916
  70  220.4763
  71  237.4838
  72  108.42
  73  8.639317
  74  97.43845
  75  165.6454
  76  181.7753
  77  181.914
  78  308.6345
  79  237.2431
  80  -21.39761
  81  40.03403
  82  101.7639
  83  113.8848
  84  129.0445
  85  181.2753
  86  193.115
  87  182.812
  88  108.2918
  89  93.52838
  90  90.12199
  91  192.6372
  92  120.4701
  93  227.3654
  94  135.7956
  95  101.5443
  96  126.6011
  97  143.0687
  98  148.368
  99  -1.737939
 100  6.371244
 101  51.27884
 102  116.8562
 103  235.2691
 104  95.10334
 105  149.3669
 106  41.62198
 107  -71.64117
 108  130.0469
 109  161.2248
 110  227.1982
 111  144.9505
 112  32.87644
 113  125.5264
 114  150.0525
 115  191.425
 116  162.3005
 117  165.1592
 118  162.0296
 119  111.8383
 120  192.8135
 121  110.9728
 122  -1.240112
 123  66.58284
 124  60.76666
 125  -22.05388
 126  53.17444
 127  186.7345
 128  119.4517
 129  37.3415
 130  105.6319
 131  108.3708
 132  76.14703
 133  201.5937
 134  167.7095
 135  123.9025
 136  120.59
 137  116.0368
 138  133.5018
 139  252.3312
 140  254.6381
 141  68.56393
 142  -100.9161
 143  50.16849
 144  230.1718
 145  193.9369
 146  144.6667
 147  189.5479
 148  126.4386
 149  186.2023
 150  154.5811
 151  150.6294
 152  200.9808
 153  262.0204
 154  140.059
 155  194.8181
 156  81.55858
 157  34.7124
 158  85.55945
 159  219.1395
 160  340.8583
 161  232.6457
 162  255.0101
 163  224.6065
 164  218.2452
 165  216.9302
 166  176.0093
 167  88.0097
 168  163.5164
 169  212.3938
 170  199.0562
 171  199.4378
 172  142.1015
 173  186.0823
 174  185.498
 175  57.70174
 176  -29.51038
 177  188.2918
 178  77.92745
 179  88.32487
 180  244.9298
 181  206.026
 182  146.7702
 183  220.411
 184  266.4446
 185  286.64
 186  267.9972
 187  146.9908
 188  101.7952
 189  -33.6335
 190  102.0078
 191  214.5987
 192  237.4211
 193  267.3841
 194  223.3932
 195  146.924
 196  196.2548
 197  143.625
 198  86.92117
 199  93.6465
 200  44.65601
 201  35.13451
 202  197.2507
 203  204.7417
 204  44.66808
 205  -20.32432
 206  -13.83346
 207  76.76851
 208  262.9795
 209  328.9763
 210  137.3725
 211  81.24141
 212  -44.76274
 213  -19.96864
 214  118.5356
 215  231.745
 216  195.9148
 217  192.1826
 218  212.5985
 219  181.5637
 220  197.9751
 221  227.152
 222  219.1817
 223  238.583
 224  193.5164
 225  183.7705
 226  162.0913
 227  174.3614
 228  201.8165
 229  176.4295
 230  94.88879
 231  183.3986
 232  212.2424
 233  217.6992
 234  370.4146
 235  204.2075
 236  176.807
 237  158.3047
 238  228.2556
 239  139.715
 240  38.13606
 241  97.63011
 242  231.5444
 243  252.2404
 244  105.9192
 245  60.63779
 246  83.90013
 247  106.9805
 248  110.5411
 249  83.47749
 250  300.3275
 251  303.7514
 252  166.5608
 253  70.81204
 254  186.1572
 255  332.2947
 256  140.1749
 257  99.75357
 258  169.0482
 259  301.0422
 260  154.5222
 261  112.8824
 262  251.0427
 263  175.4959
 264  164.877
 265  283.2219
 266  320.4603
 267  264.4529
 268  125.0347
 269  210.2039
 270  88.0498
 271  184.2285
 272  222.875
 273  207.4701
 274  115.9633
 275  143.5045
 276  249.2603
 277  194.4892
 278  125.2611
 279  74.01214
 280  133.3823
 281  -41.0901
 282  118.9347
 283  4.542009
 284  124.7518
 285  160.2599
 286  143.8342
 287  73.98298
 288  18.05538
 289  83.73457
 290  236.6964
 291  193.3831
 292  223.3394
 293  119.1655
 294  47.74429
 295  75.81572
 296  84.03249
 297  160.2861
 298  124.6891
 299  121.7185
 300  178.6831
 301  120.6586
 302  109.3518
 303  141.14
 304  145.1663
 305  150.1512
 306  173.1766
 307  204.5738
 308  142.6632
 309  199.6925
 310  244.2225
 311  209.7944
 312  240.6912
 313  209.9928
 314  177.5234
 315  174.5794
 316  261.2335
 317  278.7786
 318  167.5328
 319  -35.37743
 320  24.65452
 321  116.7392
 322  126.6428
 323  57.5797
 324  193.9277
 325  276.1064
 326  192.6768
 327  88.48243
 328  198.5608
 329  157.8952
 330  158.2829
 331  278.3518
 332  251.7905
 333  193.0349
 334  127.4081
 335  91.85345
 336  153.2189
 337  106.9879
 338  70.41946
 339  117.8065
 340  120.7679
 341  83.90176
 342  117.0219
 343  229.8515
 344  239.4565
 345  85.4659
 346  -6.141467
 347  63.15953
 348  304.3184
 349  224.8602
 350  132.9971
 351  149.2343
 352  150.2909
 353  130.2699
 354  66.19669
 355  183.4268
 356  215.9608
 357  263.2354
 358  153.4759
 359  126.1841
 360  175.0913
 361  18.47888
 362  44.96368
 363  103.8492
 364  140.3733
 365  123.0022
 366  60.63617
 367  105.9661
 368  110.8179
 369  75.34265
 370  65.69745
 371  113.8946
 372  144.9916
 373  133.3651
 374  107.0164
 375  94.52562
 376  63.44521
 377  183.9095
 378  180.4379
 379  161.4176
 380  118.4909
 381  146.8898
 382  142.6793
 383  119.4821
 384  184.5726
 385  155.8002
 386  49.73957
 387  95.92104
 388  86.59119
 389  223.8227
 390  170.8073
 391  139.283
 392  188.839
 393  111.3322
 394  189.8934
 395  88.62386
 396  247.8257
 397  246.8643
 398  114.9216
 399  35.49344
 400  69.18343
 401  219.7614
 402  156.3799
 403  91.71935
 404  21.23365
 405  26.27033
 406  29.16402
 407  134.7256
 408  237.3623
 409  271.9765
 410  133.4344
 411  102.509
 412  137.9761
 413  96.44289
 414  62.56683
 415  72.89634
 416  281.7601
 417  174.0595
 418  302.9955
 419  358.5593
 420  169.4744
 421  115.7693
 422  196.8804
 423  269.6606
 424  93.61539
 425  57.22305
 426  77.76362
 427  212.1671
 428  196.9504
 429  202.3898
 430  125.1089
 431  125.9635
 432  107.4614
 433  32.82986
 434  136.2301
 435  141.8448
 436  122.277
 437  79.72966
 438  82.93261
 439  121.6985
 440  251.9309
 441  363.9196
 442  226.338
 443  91.10783
 444  89.48183
 445  57.85482
 446  136.0204
 447  126.0927
 448  127.2351
 449  111.0905
 450  75.51232
 451  226.1311
 452  175.1083
 453  147.0634
 454  117.1569
 455  137.5951
 456  220.7737
 457  103.7033
 458  154.0383
 459  74.24124
 460  12.524
 461  100.2407
 462  146.3703
 463  6.917537
 464  -14.60813
 465  30.63895
 466  146.1508
 467  204.7169
 468  157.9449
 469  42.26009
 470  7.667934
 471  42.6144
 472  154.0526
 473  126.1199
 474  156.3711
 475  241.1545
 476  175.5516
 477  123.0067
 478  144.6895
 479  284.1071
 480  179.352
 481  65.58475
 482  74.8528
 483  183.7506
 484  61.08976
 485  35.81981
 486  116.4208
 487  -53.18121
 488  -42.24786
 489  85.83017
 490  249.1817
 491  237.9106
 492  221.4789
 493  206.1537
 494  190.7704
 495  100.7325
 496  146.7746
 497  155.7721
 498  157.8054
 499  172.9929
 500  207.796
 501  121.8566
 502  230.3203
 503  48.48036
 504  142.3387
 505  201.5913
 506  231.6398
 507  334.2266
 508  322.0726
 509  287.1815
 510  478.7444
 511  556.4337
