# Input file       =  1191006699.107559_cleaned.dat
# Candidate        =  PSR_0332+5434
# Telescope        =  AR
# Epoch_topo       =  58028.799549856005
# Epoch_bary       =  N/A
# T_sample         =  0.002
# Data Folded      =  7208960
# Data Avg         =  0.0193078780821705
# Data StdDev      =  1.00007025645396 
# Profile Bins     =  512
# Profile Avg      =  271.776316570024 
# Profile StdDev   =  118.667512366452 
# Reduced chi-sqr  =  1.373
# Prob(Noise)      <  3.91e-08   (~5.4 sigma)
# P_topo (ms)      =  714.473595846656  +/- 0.000277
# P'_topo (s/s)    =  -0                +/- 1.49e-10
# P''_topo (s/s^2) =  0                 +/- 6.68e-14
# P_bary (ms)      =  N/A
# P'_bary (s/s)    =  N/A
# P''_bary (s/s^2) =  N/A
# P_orb (s)        =  N/A
# asin(i)/c (s)    =  N/A
# eccentricity     =  N/A
# w (rad)          =  N/A
# T_peri           =  N/A
######################################################
   0  964.4894
   1  874.4579
   2  863.2512
   3  704.9957
   4  373.7294
   5  263.0368
   6  161.1445
   7  220.2156
   8  333.54
   9  337.894
  10  272.6651
  11  265.0001
  12  310.0345
  13  231.9922
  14  287.4812
  15  492.0262
  16  349.7579
  17  220.4036
  18  284.888
  19  262.147
  20  365.5176
  21  297.0246
  22  264.6919
  23  243.5149
  24  252.2507
  25  281.7346
  26  226.9049
  27  170.4348
  28  292.028
  29  330.8648
  30  241.9613
  31  259.5276
  32  307.8652
  33  288.9056
  34  291.604
  35  266.3964
  36  152.3524
  37  190.6247
  38  193.4277
  39  229.054
  40  303.951
  41  344.2478
  42  358.1338
  43  265.918
  44  355.7208
  45  413.8023
  46  372.519
  47  352.7621
  48  288.4371
  49  143.4773
  50  180.4368
  51  193.804
  52  296.5984
  53  243.1495
  54  195.7793
  55  125.5058
  56  141.8849
  57  194.7319
  58  200.0468
  59  158.2689
  60  237.2906
  61  414.1808
  62  335.5048
  63  124.8972
  64  248.6973
  65  330.602
  66  397.9401
  67  285.4076
  68  142.7174
  69  155.047
  70  261.1631
  71  387.7609
  72  337.9266
  73  268.3648
  74  223.1655
  75  284.7672
  76  290.6329
  77  313.8042
  78  161.275
  79  68.03078
  80  208.8714
  81  105.2725
  82  124.1941
  83  208.1141
  84  258.8104
  85  268.7149
  86  207.8659
  87  223.5169
  88  154.8707
  89  148.529
  90  269.2666
  91  95.82014
  92  192.7476
  93  138.3004
  94  235.022
  95  157.6767
  96  131.2092
  97  186.9787
  98  242.9575
  99  256.0167
 100  253.4787
 101  276.7511
 102  225.7236
 103  481.4952
 104  389.6315
 105  202.4898
 106  150.7443
 107  404.7425
 108  313.1635
 109  171.3016
 110  345.4477
 111  139.2394
 112  124.298
 113  85.32848
 114  336.4393
 115  447.8545
 116  398.0039
 117  420.3799
 118  317.5173
 119  254.6134
 120  156.8151
 121  329.3856
 122  304.0267
 123  243.8106
 124  307.7555
 125  461.6198
 126  391.5366
 127  268.0901
 128  260.7376
 129  296.6515
 130  276.0328
 131  288.3304
 132  299.3204
 133  372.8266
 134  246.6457
 135  344.0688
 136  348.0311
 137  276.8772
 138  83.23362
 139  152.1539
 140  263.746
 141  230.9309
 142  256.868
 143  350.1536
 144  274.4796
 145  269.3841
 146  395.3378
 147  409.2526
 148  286.2759
 149  282.1309
 150  344.932
 151  137.0208
 152  273.3742
 153  434.9371
 154  412.387
 155  239.3201
 156  176.3092
 157  252.898
 158  329.4198
 159  340.894
 160  194.6795
 161  214.228
 162  292.205
 163  320.5662
 164  314.3629
 165  295.938
 166  305.4959
 167  339.6852
 168  147.6026
 169  224.1195
 170  239.9572
 171  424.3006
 172  293.7736
 173  350.9836
 174  302.6381
 175  260.2314
 176  315.2669
 177  345.3355
 178  338.2929
 179  303.0719
 180  188.196
 181  237.9099
 182  300.1526
 183  327.1213
 184  315.9982
 185  256.5018
 186  225.528
 187  221.6352
 188  302.8515
 189  172.5122
 190  234.7339
 191  290.4063
 192  349.8513
 193  141.6889
 194  154.5132
 195  216.7393
 196  306.3727
 197  289.9479
 198  201.002
 199  175.7569
 200  210.6908
 201  312.1149
 202  243.9183
 203  249.8366
 204  291.3148
 205  271.5115
 206  151.3094
 207  322.9706
 208  350.2794
 209  230.2868
 210  269.4712
 211  240.5723
 212  359.8044
 213  191.9864
 214  229.7361
 215  189.2248
 216  158.1111
 217  271.6964
 218  201.2273
 219  330.6364
 220  353.0201
 221  189.5332
 222  147.4999
 223  231.5124
 224  280.1219
 225  282.9505
 226  346.6808
 227  316.6035
 228  158.6615
 229  266.7076
 230  267.6947
 231  206.1566
 232  175.7575
 233  271.301
 234  246.3729
 235  105.1136
 236  165.2962
 237  301.4048
 238  201.9061
 239  171.7501
 240  238.7182
 241  189.8325
 242  193.5021
 243  360.7987
 244  311.0456
 245  266.4586
 246  336.3884
 247  339.7216
 248  235.0917
 249  238.4566
 250  330.9459
 251  351.8838
 252  348.6377
 253  223.6751
 254  269.4251
 255  211.9439
 256  300.0833
 257  257.7266
 258  214.0863
 259  237.3719
 260  217.0705
 261  176.6955
 262  275.3521
 263  269.8103
 264  313.562
 265  280.2372
 266  252.1463
 267  195.1565
 268  183.7057
 269  186.8868
 270  267.2396
 271  337.0983
 272  344.0401
 273  335.7215
 274  295.5193
 275  305.947
 276  315.9704
 277  250.3781
 278  263.9623
 279  287.2505
 280  208.5042
 281  185.9442
 282  298.8768
 283  241.9673
 284  217.5493
 285  217.2084
 286  288.3062
 287  288.2197
 288  235.8646
 289  285.409
 290  320.7022
 291  387.6497
 292  301.769
 293  361.0696
 294  316.8275
 295  203.1467
 296  309.7259
 297  263.6175
 298  316.1465
 299  261.5882
 300  249.7843
 301  248.9332
 302  284.2748
 303  363.2976
 304  372.1213
 305  236.7909
 306  236.9335
 307  231.5842
 308  182.7425
 309  228.8189
 310  189.2574
 311  224.9042
 312  216.1685
 313  140.0824
 314  160.1067
 315  308.4193
 316  306.9646
 317  344.1313
 318  276.222
 319  313.687
 320  233.6774
 321  38.2032
 322  253.0291
 323  291.3395
 324  281.7995
 325  205.278
 326  315.5891
 327  355.7861
 328  230.8326
 329  288.782
 330  291.5294
 331  381.847
 332  349.5716
 333  266.0468
 334  252.3518
 335  338.246
 336  321.4702
 337  262.9134
 338  241.3953
 339  409.2486
 340  276.5269
 341  188.7399
 342  258.4196
 343  294.1119
 344  207.4769
 345  217.2444
 346  237.0564
 347  113.1497
 348  172.1489
 349  283.4791
 350  289.7324
 351  263.5928
 352  231.7965
 353  235.0454
 354  270.0797
 355  283.4337
 356  309.9534
 357  344.1176
 358  378.4315
 359  343.6759
 360  176.367
 361  140.2045
 362  127.0486
 363  94.69281
 364  252.5249
 365  409.3056
 366  278.5447
 367  223.2683
 368  208.656
 369  201.9736
 370  365.082
 371  236.0401
 372  269.7852
 373  380.5083
 374  225.2172
 375  118.4728
 376  244.9979
 377  280.3641
 378  320.8498
 379  226.9694
 380  351.2053
 381  283.4819
 382  306.1068
 383  304.277
 384  264.7447
 385  401.71
 386  319.1691
 387  317.6563
 388  398.6769
 389  400.0364
 390  314.8892
 391  347.6609
 392  351.2451
 393  236.5138
 394  272.6826
 395  295.6619
 396  271.0513
 397  277.1708
 398  354.3357
 399  406.6413
 400  270.8516
 401  334.4545
 402  330.7262
 403  207.4042
 404  370.1797
 405  364.743
 406  346.6619
 407  451.9172
 408  238.1338
 409  249.4054
 410  189.1502
 411  310.3944
 412  322.0884
 413  325.393
 414  370.0327
 415  383.6013
 416  174.3108
 417  311.7722
 418  419.502
 419  153.7698
 420  220.0491
 421  130.2671
 422  298.7198
 423  337.5873
 424  197.8967
 425  214.6931
 426  206.5155
 427  338.6254
 428  290.2021
 429  304.6446
 430  278.5187
 431  354.753
 432  340.5774
 433  333.1749
 434  184.777
 435  196.9016
 436  303.1197
 437  254.504
 438  409.0796
 439  345.1695
 440  330.3232
 441  280.0803
 442  326.3319
 443  314.7552
 444  266.7603
 445  328.6287
 446  214.9152
 447  251.1066
 448  139.2911
 449  215.9448
 450  203.5105
 451  254.3697
 452  297.702
 453  235.5215
 454  163.2814
 455  298.8278
 456  376.2403
 457  354.5092
 458  251.1001
 459  196.1113
 460  250.2257
 461  123.2505
 462  230.4677
 463  165.1893
 464  128.9593
 465  162.1959
 466  247.6667
 467  172.6662
 468  120.3677
 469  138.8632
 470  207.7798
 471  327.6396
 472  239.3847
 473  136.3086
 474  91.53529
 475  166.7659
 476  128.333
 477  161.1619
 478  245.9479
 479  185.0989
 480  223.6906
 481  96.39875
 482  179.1189
 483  187.3521
 484  186.4014
 485  236.4108
 486  292.2373
 487  149.3556
 488  145.1385
 489  224.9602
 490  166.5878
 491  155.1353
 492  199.6644
 493  246.7113
 494  338.7531
 495  283.9348
 496  220.3254
 497  383.5267
 498  167.2712
 499  282.7483
 500  208.856
 501  319.6226
 502  392.6181
 503  335.7181
 504  291.0975
 505  374.1872
 506  380.8868
 507  359.3493
 508  461.5807
 509  545.5878
 510  723.6859
 511  964.8896
