# Input file       =  1191122437.116167_cleaned.dat
# Candidate        =  PSR_0332+5434
# Telescope        =  AR
# Epoch_topo       =  58030.139110140823
# Epoch_bary       =  N/A
# T_sample         =  0.002
# Data Folded      =  7340032
# Data Avg         =  0.0101000580150723
# Data StdDev      =  1.00005735562101 
# Profile Bins     =  512
# Profile Avg      =  144.724562963758 
# Profile StdDev   =  119.739903739423 
# Reduced chi-sqr  =  1.365
# Prob(Noise)      <  6.91e-08   (~5.3 sigma)
# P_topo (ms)      =  714.474719937781  +/- 0.000113
# P'_topo (s/s)    =  -0                +/- 5.98e-11
# P''_topo (s/s^2) =  0                 +/- 2.64e-14
# P_bary (ms)      =  N/A
# P'_bary (s/s)    =  N/A
# P''_bary (s/s^2) =  N/A
# P_orb (s)        =  N/A
# asin(i)/c (s)    =  N/A
# eccentricity     =  N/A
# w (rad)          =  N/A
# T_peri           =  N/A
######################################################
   0  797.8591
   1  741.9003
   2  559.7123
   3  358.6807
   4  338.4819
   5  149.3423
   6  141.2671
   7  245.6666
   8  154.9886
   9  34.39001
  10  134.7875
  11  173.4384
  12  196.4474
  13  261.6344
  14  331.5834
  15  292.4715
  16  173.6097
  17  272.7704
  18  143.1044
  19  176.758
  20  167.311
  21  96.05892
  22  282.0932
  23  180.4595
  24  134.021
  25  96.88692
  26  204.0636
  27  180.0897
  28  143.6537
  29  114.0505
  30  153.7423
  31  94.78444
  32  266.9139
  33  348.7325
  34  255.9296
  35  149.5462
  36  56.72052
  37  -47.14366
  38  -76.21218
  39  68.39776
  40  137.3342
  41  186.9616
  42  47.88806
  43  30.87352
  44  54.83117
  45  141.0825
  46  80.87631
  47  104.0118
  48  153.9338
  49  60.29586
  50  156.4719
  51  63.36318
  52  185.8405
  53  173.1907
  54  5.880933
  55  169.1573
  56  183.2291
  57  100.6922
  58  150.8109
  59  41.58262
  60  226.4621
  61  332.5685
  62  145.2877
  63  -74.31882
  64  13.42621
  65  53.98394
  66  122.0756
  67  94.66216
  68  58.81943
  69  126.7662
  70  170.0608
  71  247.8819
  72  83.09689
  73  199.914
  74  132.4467
  75  178.5829
  76  179.572
  77  -2.89152
  78  -31.59847
  79  42.26113
  80  101.1949
  81  141.289
  82  195.813
  83  224.4003
  84  109.187
  85  100.9602
  86  158.1792
  87  161.6494
  88  176.9299
  89  331.7495
  90  229.0714
  91  224.9646
  92  224.3734
  93  274.5895
  94  223.8444
  95  171.9523
  96  217.455
  97  202.9219
  98  206.7762
  99  142.0246
 100  72.37042
 101  48.72968
 102  136.2325
 103  90.19911
 104  207.6369
 105  266.0614
 106  154.4608
 107  237.3756
 108  255.6064
 109  97.24747
 110  137.2544
 111  69.17654
 112  149.5682
 113  229.8506
 114  215.4345
 115  134.1704
 116  91.69937
 117  209.9397
 118  237.5514
 119  88.76616
 120  42.13834
 121  5.296147
 122  173.7646
 123  248.4474
 124  250.8267
 125  226.2992
 126  204.9557
 127  243.998
 128  161.9209
 129  111.0412
 130  250.0535
 131  152.9282
 132  259.1448
 133  151.3423
 134  210.0988
 135  259.0499
 136  213.1314
 137  169.9435
 138  342.7692
 139  397.2582
 140  332.772
 141  299.719
 142  171.8165
 143  133.2615
 144  109.7626
 145  216.2764
 146  244.2813
 147  201.0164
 148  148.7184
 149  204.3555
 150  257.5957
 151  116.0947
 152  89.86361
 153  218.9004
 154  167.1077
 155  125.2856
 156  233.4463
 157  159.0822
 158  43.72217
 159  157.0989
 160  252.5203
 161  73.43591
 162  94.32752
 163  153.6033
 164  99.00127
 165  98.55874
 166  165.1362
 167  235.6032
 168  149.1208
 169  195.1755
 170  116.7449
 171  69.19648
 172  86.94109
 173  74.93795
 174  108.1389
 175  103.5288
 176  96.12419
 177  -6.907771
 178  88.00605
 179  102.0806
 180  151.6129
 181  177.0459
 182  215.7974
 183  237.0934
 184  60.72442
 185  5.08604
 186  103.4079
 187  54.35001
 188  143.8766
 189  -15.04821
 190  54.90456
 191  170.4685
 192  53.57616
 193  1.460894
 194  70.66253
 195  63.21803
 196  61.21941
 197  193.453
 198  109.2702
 199  156.8838
 200  94.56832
 201  94.90599
 202  169.2213
 203  183.2867
 204  78.95861
 205  60.49944
 206  123.6415
 207  199.5039
 208  215.0201
 209  152.498
 210  117.7389
 211  58.76565
 212  127.7517
 213  130.3279
 214  198.0561
 215  118.255
 216  89.63933
 217  137.4421
 218  123.8207
 219  29.0046
 220  17.61256
 221  57.00322
 222  140.1202
 223  26.87209
 224  170.8553
 225  105.071
 226  -10.26666
 227  55.23271
 228  87.66987
 229  20.8365
 230  56.64388
 231  250.7714
 232  254.0573
 233  204.5231
 234  60.64301
 235  49.72181
 236  34.10543
 237  108.5903
 238  167.7779
 239  182.189
 240  203.7647
 241  219.3697
 242  202.3911
 243  150.2646
 244  156.0244
 245  76.48146
 246  40.17487
 247  286.0374
 248  215.1025
 249  123.7065
 250  133.5149
 251  72.69167
 252  55.9508
 253  149.8507
 254  153.7866
 255  211.3696
 256  209.7905
 257  114.8783
 258  159.3651
 259  51.55375
 260  1.222603
 261  33.18091
 262  129.7481
 263  345.1008
 264  301.5045
 265  212.9779
 266  262.5219
 267  189.2019
 268  100.6277
 269  116.1584
 270  298.4556
 271  296.4798
 272  203.3731
 273  258.2393
 274  187.0995
 275  107.8041
 276  108.3302
 277  18.29284
 278  90.44872
 279  53.63107
 280  89.65786
 281  49.33499
 282  -13.5266
 283  11.94185
 284  101.453
 285  197.7868
 286  254.5891
 287  123.7625
 288  136.8131
 289  90.7784
 290  120.3716
 291  163.7753
 292  268.2734
 293  166.8769
 294  67.798
 295  173.621
 296  176.8336
 297  167.0267
 298  230.746
 299  258.7364
 300  207.1918
 301  97.39025
 302  104.261
 303  55.65987
 304  156.8332
 305  361.7488
 306  158.7209
 307  121.0827
 308  131.4318
 309  22.16829
 310  94.92591
 311  150.2305
 312  129.431
 313  181.5727
 314  161.1617
 315  192.9069
 316  132.8003
 317  110.3577
 318  82.43113
 319  65.26575
 320  125.4139
 321  90.10786
 322  78.51088
 323  182.4482
 324  86.81009
 325  167.4419
 326  158.0543
 327  121.9224
 328  189.6083
 329  202.3815
 330  158.6071
 331  141.8914
 332  -23.85716
 333  102.0603
 334  212.2907
 335  171.8392
 336  30.97776
 337  141.1611
 338  258.5684
 339  149.3587
 340  109.3477
 341  51.35267
 342  51.36247
 343  82.34747
 344  47.01519
 345  194.1222
 346  119.703
 347  190.6345
 348  224.4023
 349  174.7273
 350  256.1195
 351  208.5658
 352  228.6262
 353  166.2512
 354  110.1157
 355  240.5076
 356  325.2139
 357  288.2385
 358  115.1287
 359  -35.09993
 360  71.19917
 361  247.7192
 362  329.2574
 363  306.2776
 364  242.0406
 365  247.6017
 366  260.2776
 367  172.5814
 368  49.61029
 369  116.6894
 370  39.35466
 371  -45.94584
 372  60.50884
 373  213.3265
 374  171.7643
 375  -34.05961
 376  -29.98801
 377  143.8689
 378  92.66232
 379  15.21342
 380  63.88579
 381  101.5793
 382  105.0972
 383  69.57346
 384  62.86779
 385  30.59583
 386  95.48396
 387  135.2452
 388  31.19612
 389  49.99566
 390  89.29594
 391  164.5675
 392  14.34665
 393  -20.3052
 394  179.5949
 395  160.1703
 396  178.2597
 397  113.0077
 398  -12.97007
 399  111.5667
 400  220.465
 401  77.00182
 402  97.00807
 403  92.8857
 404  102.9555
 405  42.24584
 406  161.9232
 407  196.0206
 408  31.93601
 409  84.6324
 410  70.37201
 411  42.99475
 412  85.72529
 413  93.58162
 414  115.9049
 415  67.80389
 416  132.141
 417  213.4844
 418  158.075
 419  109.441
 420  90.11615
 421  167.0941
 422  244.7731
 423  77.93588
 424  87.96444
 425  154.3982
 426  197.6307
 427  -20.71845
 428  21.27514
 429  148.9003
 430  123.9871
 431  202.0222
 432  174.9361
 433  168.394
 434  110.2731
 435  161.3875
 436  114.5649
 437  31.01816
 438  59.13107
 439  91.52878
 440  173.1262
 441  69.39157
 442  77.75503
 443  98.61089
 444  178.4558
 445  75.16821
 446  146.881
 447  190.9157
 448  168.7403
 449  128.3719
 450  88.68483
 451  17.71112
 452  -46.81494
 453  -3.96382
 454  201.4175
 455  104.1943
 456  85.30194
 457  57.37534
 458  17.8932
 459  133.3035
 460  131.5937
 461  212.5076
 462  232.0169
 463  150.927
 464  96.09338
 465  157.4684
 466  184.2419
 467  280.6918
 468  192.3259
 469  138.4189
 470  100.9246
 471  -14.18345
 472  113.9968
 473  46.45821
 474  -6.767188
 475  64.6066
 476  196.5489
 477  98.65557
 478  33.14956
 479  113.0818
 480  131.4039
 481  -62.62895
 482  -46.68504
 483  73.74261
 484  43.99657
 485  14.22126
 486  94.36487
 487  212.0075
 488  203.1828
 489  101.4074
 490  37.54088
 491  160.0643
 492  142.1976
 493  307.2082
 494  404.6796
 495  258.3198
 496  143.8124
 497  168.3306
 498  117.1319
 499  -31.12179
 500  -30.84345
 501  207.6734
 502  258.1316
 503  278.2383
 504  261.5558
 505  269.1831
 506  131.7141
 507  212.7755
 508  300.095
 509  460.4039
 510  597.8337
 511  751.6926
