# Input file       =  1191609817.124128_cleaned.dat
# Candidate        =  PSR_0332+5434
# Telescope        =  AR
# Epoch_topo       =  58035.780082455189
# Epoch_bary       =  N/A
# T_sample         =  0.002
# Data Folded      =  7208960
# Data Avg         =  0.00873599220160632
# Data StdDev      =  1.00015729448323 
# Profile Bins     =  512
# Profile Avg      =  122.91067921492  
# Profile StdDev   =  118.677840227267 
# Reduced chi-sqr  =  1.654
# Prob(Noise)      <  6.7e-19   (~8.8 sigma)
# P_topo (ms)      =  714.47788992983   +/- 0.000186
# P'_topo (s/s)    =  -0                +/- 1e-10
# P''_topo (s/s^2) =  0                 +/- 4.5e-14
# P_bary (ms)      =  N/A
# P'_bary (s/s)    =  N/A
# P''_bary (s/s^2) =  N/A
# P_orb (s)        =  N/A
# asin(i)/c (s)    =  N/A
# eccentricity     =  N/A
# w (rad)          =  N/A
# T_peri           =  N/A
######################################################
   0  966.6083
   1  732.1522
   2  472.1477
   3  287.3211
   4  207.1284
   5  42.10971
   6  15.77044
   7  -22.93963
   8  103.1353
   9  150.0837
  10  31.80312
  11  0.04174845
  12  71.4711
  13  140.3121
  14  242.1968
  15  353.9321
  16  221.9073
  17  153.4022
  18  182.6698
  19  137.1072
  20  109.7751
  21  207.5888
  22  230.648
  23  191.4428
  24  171.6532
  25  187.6045
  26  259.067
  27  148.6542
  28  151.4467
  29  152.9546
  30  74.01372
  31  145.6219
  32  96.02179
  33  166.8465
  34  362.6646
  35  293.3454
  36  46.85173
  37  -46.35757
  38  189.5139
  39  250.8226
  40  245.7673
  41  194.4158
  42  140.2592
  43  174.8775
  44  174.558
  45  109.1043
  46  8.695384
  47  7.42604
  48  117.5561
  49  103.6085
  50  35.5924
  51  87.05405
  52  89.51495
  53  99.29276
  54  163.0336
  55  115.4104
  56  78.13464
  57  -47.03909
  58  -10.22434
  59  -83.98977
  60  -1.685095
  61  13.7956
  62  106.6924
  63  135.5087
  64  149.4671
  65  59.74208
  66  3.947417
  67  18.15109
  68  -11.31817
  69  40.68899
  70  146.0548
  71  192.844
  72  58.87196
  73  96.11662
  74  -3.093362
  75  37.60826
  76  126.0841
  77  79.00008
  78  68.98721
  79  107.5522
  80  244.8173
  81  123.9172
  82  29.10458
  83  110.3798
  84  109.5457
  85  147.6445
  86  58.09684
  87  132.7033
  88  47.87516
  89  10.28028
  90  198.1463
  91  319.2109
  92  278.8389
  93  187.3949
  94  33.68573
  95  4.327435
  96  122.3035
  97  214.0781
  98  119.708
  99  -11.84824
 100  89.38076
 101  192.0825
 102  125.6436
 103  207.0737
 104  104.6382
 105  104.5836
 106  317.6912
 107  265.062
 108  -2.559287
 109  18.75574
 110  38.10876
 111  -8.237103
 112  111.3951
 113  23.71681
 114  121.9707
 115  129.9806
 116  84.82449
 117  185.9143
 118  181.4382
 119  114.0202
 120  239.7878
 121  217.9451
 122  235.4753
 123  96.86749
 124  190.3755
 125  128.727
 126  142.0782
 127  167.2027
 128  50.35256
 129  -99.70804
 130  -2.9691
 131  -61.26624
 132  72.9275
 133  98.11441
 134  278.1192
 135  149.612
 136  181.8621
 137  45.82025
 138  -95.38216
 139  35.95168
 140  82.45569
 141  43.45108
 142  48.42795
 143  73.25599
 144  131.8332
 145  139.3087
 146  -2.685809
 147  -8.972716
 148  -4.835608
 149  90.71507
 150  125.5504
 151  289.4319
 152  167.1776
 153  262.7416
 154  250.2067
 155  82.10366
 156  82.59882
 157  110.0594
 158  145.1089
 159  40.70558
 160  69.75076
 161  65.01586
 162  135.4901
 163  236.9454
 164  144.0525
 165  123.4238
 166  268.7556
 167  139.5879
 168  17.51952
 169  73.16181
 170  152.2319
 171  112.2542
 172  109.3525
 173  96.75748
 174  55.97622
 175  20.79167
 176  148.3742
 177  143.9191
 178  39.96285
 179  82.99326
 180  156.1343
 181  163.7089
 182  61.18268
 183  6.765787
 184  17.09722
 185  6.168032
 186  158.4882
 187  91.72641
 188  48.36828
 189  103.7715
 190  32.30087
 191  210.6898
 192  245.6452
 193  137.9106
 194  19.24119
 195  83.68569
 196  201.4234
 197  136.9499
 198  91.00857
 199  -36.38065
 200  -30.65846
 201  3.550104
 202  -29.43263
 203  76.49177
 204  241.0372
 205  128.3173
 206  106.1017
 207  159.8018
 208  143.3122
 209  96.12593
 210  152.466
 211  225.4769
 212  378.2892
 213  242.7814
 214  172.9943
 215  211.4462
 216  300.1057
 217  367.968
 218  147.9906
 219  45.87912
 220  189.813
 221  369.5042
 222  246.2704
 223  225.4337
 224  217.6978
 225  176.4598
 226  122.8978
 227  111.0492
 228  227.4513
 229  159.0861
 230  108.8547
 231  126.8087
 232  179.7337
 233  134.2507
 234  147.6298
 235  203.6022
 236  19.42559
 237  79.97487
 238  150.8694
 239  92.98818
 240  117.933
 241  130.166
 242  268.5151
 243  176.4963
 244  159.8477
 245  208.0832
 246  95.43375
 247  -1.940405
 248  22.5488
 249  203.0384
 250  161.0121
 251  187.1016
 252  130.7427
 253  47.88827
 254  -14.39819
 255  88.98409
 256  249.2428
 257  120.2298
 258  156.9673
 259  75.76915
 260  66.12562
 261  164.5707
 262  190.9039
 263  194.6177
 264  272.5621
 265  168.3962
 266  202.2252
 267  198.8027
 268  166.9074
 269  94.24355
 270  72.21635
 271  167.7548
 272  157.0828
 273  166.883
 274  81.80299
 275  117.0147
 276  171.838
 277  203.5839
 278  107.3
 279  55.18957
 280  125.5055
 281  140.1724
 282  120.5254
 283  92.47211
 284  131.0394
 285  125.2534
 286  73.33961
 287  188.2116
 288  45.54156
 289  63.6658
 290  210.0066
 291  130.185
 292  30.41969
 293  18.54219
 294  134.2984
 295  283.6532
 296  261.5367
 297  149.4939
 298  189.4734
 299  298.9538
 300  182.4976
 301  74.97312
 302  87.63181
 303  216.6838
 304  124.6544
 305  126.4258
 306  129.6509
 307  50.7356
 308  73.20912
 309  202.9644
 310  11.75333
 311  45.22285
 312  81.98101
 313  139.0811
 314  61.71324
 315  16.07688
 316  136.8226
 317  190.9866
 318  155.7948
 319  126.3825
 320  66.84737
 321  93.93803
 322  171.5632
 323  261.5293
 324  195.007
 325  71.75193
 326  -25.269
 327  101.4764
 328  86.9914
 329  48.55609
 330  186.7506
 331  164.4893
 332  22.09361
 333  -78.70759
 334  17.50081
 335  14.80523
 336  66.86871
 337  77.61285
 338  12.09772
 339  0.6476691
 340  25.41107
 341  18.278
 342  68.3339
 343  106.264
 344  127.4234
 345  45.08575
 346  -53.016
 347  22.78526
 348  96.7435
 349  177.2811
 350  100.6264
 351  8.606165
 352  50.60031
 353  -13.35665
 354  39.09978
 355  92.23833
 356  35.05413
 357  159.5562
 358  156.9635
 359  143.1366
 360  70.69431
 361  185.8669
 362  235.6419
 363  159.7403
 364  28.64774
 365  81.68843
 366  206.2695
 367  21.21806
 368  59.64928
 369  76.44753
 370  145.5814
 371  62.99474
 372  83.25064
 373  201.7439
 374  141.3411
 375  21.58175
 376  -6.037302
 377  129.8428
 378  128.6285
 379  185.8066
 380  111.6886
 381  70.90701
 382  177.1508
 383  198.0288
 384  30.75401
 385  29.39212
 386  95.90491
 387  29.92021
 388  98.40434
 389  143.8754
 390  129.453
 391  118.5062
 392  127.0457
 393  62.43787
 394  43.94532
 395  112.3208
 396  49.8558
 397  44.24463
 398  0.717463
 399  -26.83009
 400  22.46138
 401  9.952824
 402  47.91192
 403  74.36214
 404  135.4866
 405  167.8107
 406  133.9626
 407  221.8383
 408  149.492
 409  16.32257
 410  72.08672
 411  150.0391
 412  165.1686
 413  119.1826
 414  164.0217
 415  -12.70245
 416  54.39458
 417  -34.01506
 418  92.17051
 419  218.114
 420  144.5282
 421  103.9764
 422  15.76434
 423  80.03444
 424  164.3051
 425  188.3245
 426  89.53329
 427  39.55347
 428  64.28404
 429  237.6984
 430  67.33397
 431  35.18876
 432  129.5153
 433  132.455
 434  78.34233
 435  84.48657
 436  228.6722
 437  224.329
 438  241.1027
 439  169.0697
 440  164.8696
 441  144.8158
 442  98.335
 443  67.99949
 444  -9.082619
 445  42.99314
 446  159.4622
 447  181.0936
 448  187.0122
 449  97.05817
 450  146.4985
 451  33.15342
 452  57.63209
 453  200.769
 454  112.7877
 455  69.80692
 456  125.8441
 457  131.1866
 458  39.21313
 459  204.2808
 460  90.50024
 461  36.77523
 462  242.1956
 463  219.8428
 464  131.6591
 465  45.46178
 466  104.5647
 467  74.29214
 468  56.90038
 469  38.49435
 470  2.794514
 471  25.44067
 472  36.90402
 473  -27.79854
 474  79.01962
 475  30.77921
 476  -69.50625
 477  135.7678
 478  100.5518
 479  0.2725948
 480  -51.49614
 481  78.12457
 482  167.8416
 483  38.3886
 484  44.7378
 485  -54.82281
 486  34.48979
 487  136.3493
 488  221.0572
 489  106.5684
 490  122.5509
 491  30.50863
 492  28.25381
 493  72.0451
 494  194.7544
 495  216.3157
 496  184.8483
 497  196.2527
 498  264.4032
 499  88.29012
 500  109.7989
 501  89.64919
 502  155.8097
 503  250.3287
 504  280.2454
 505  270.1959
 506  183.5273
 507  260.8458
 508  436.64
 509  596.1365
 510  770.7429
 511  1011.609
