# Input file       =  1191695979.111746_cleaned.dat
# Candidate        =  PSR_0332+5434
# Telescope        =  AR
# Epoch_topo       =  58036.777327682248
# Epoch_bary       =  N/A
# T_sample         =  0.002
# Data Folded      =  7208960
# Data Avg         =  0.036435271491497
# Data StdDev      =  1.00006580224088 
# Profile Bins     =  512
# Profile Avg      =  513.005799348857 
# Profile StdDev   =  118.666983833199 
# Reduced chi-sqr  =  1.159
# Prob(Noise)      <  0.00733   (~2.4 sigma)
# P_topo (ms)      =  714.478556088727  +/- 0.000235
# P'_topo (s/s)    =  -0                +/- 1.26e-10
# P''_topo (s/s^2) =  0                 +/- 5.67e-14
# P_bary (ms)      =  N/A
# P'_bary (s/s)    =  N/A
# P''_bary (s/s^2) =  N/A
# P_orb (s)        =  N/A
# asin(i)/c (s)    =  N/A
# eccentricity     =  N/A
# w (rad)          =  N/A
# T_peri           =  N/A
######################################################
   0  1128.292
   1  1112.779
   2  966.78
   3  728.2493
   4  728.9922
   5  663.1211
   6  517.3334
   7  634.481
   8  460.8608
   9  333.2681
  10  394.25
  11  557.7641
  12  617.3693
  13  679.5124
  14  547.0718
  15  450.6361
  16  514.0253
  17  390.9764
  18  510.4828
  19  496.916
  20  515.2045
  21  465.2598
  22  495.9641
  23  567.1396
  24  520.5067
  25  470.9151
  26  373.4501
  27  387.4612
  28  381.6443
  29  427.2907
  30  509.4499
  31  556.6109
  32  545.691
  33  465.277
  34  363.6892
  35  399.2132
  36  397.5566
  37  543.0613
  38  567.4194
  39  587.4632
  40  630.946
  41  492.5382
  42  407.9592
  43  486.9309
  44  380.9483
  45  338.2304
  46  357.7958
  47  491.3717
  48  537.6907
  49  401.4487
  50  419.8769
  51  495.6079
  52  549.2892
  53  546.0875
  54  592.9257
  55  533.3502
  56  480.0499
  57  541.394
  58  645.881
  59  554.1467
  60  512.2536
  61  634.7377
  62  554.8251
  63  571.4765
  64  511.7259
  65  441.419
  66  388.2101
  67  509.2109
  68  590.4151
  69  517.7609
  70  479.7828
  71  528.4863
  72  440.3445
  73  501.3764
  74  598.8997
  75  570.8408
  76  535.0642
  77  473.7249
  78  664.2366
  79  475.7675
  80  419.3714
  81  555.5616
  82  475.6382
  83  568.7935
  84  464.0872
  85  457.9471
  86  469.5494
  87  535.8447
  88  628.2371
  89  568.207
  90  532.1753
  91  373.3019
  92  420.0995
  93  416.6732
  94  506.082
  95  478.1117
  96  362.5164
  97  417.1198
  98  507.807
  99  568.9305
 100  510.2878
 101  367.3266
 102  512.7516
 103  543.0148
 104  612.2067
 105  593.5903
 106  563.7281
 107  575.2733
 108  563.8071
 109  542.7783
 110  446.318
 111  451.4498
 112  369.0857
 113  525.1473
 114  635.1938
 115  543.2051
 116  514.3571
 117  428.1054
 118  392.9662
 119  503.1279
 120  516.2797
 121  600.1206
 122  406.9504
 123  488.5614
 124  630.0055
 125  433.1638
 126  460.7748
 127  509.0156
 128  513.2011
 129  484.3205
 130  544.735
 131  545.0063
 132  574.0858
 133  511.4518
 134  426.9946
 135  471.8482
 136  599.2574
 137  547.4033
 138  500.1844
 139  482.7043
 140  526.6646
 141  588.4186
 142  584.267
 143  564.946
 144  519.0601
 145  463.7487
 146  500.025
 147  566.1345
 148  548.6754
 149  566.3371
 150  613.61
 151  514.4854
 152  435.0045
 153  584.8833
 154  650.4894
 155  567.9352
 156  514.9843
 157  463.6827
 158  457.1503
 159  462.0397
 160  456.5777
 161  560.8295
 162  612.9694
 163  507.6226
 164  346.964
 165  422.0663
 166  396.6402
 167  384.1444
 168  451.4863
 169  424.1002
 170  526.9841
 171  546.7808
 172  606.1555
 173  450.0308
 174  485.4333
 175  449.6599
 176  541.6598
 177  453.7167
 178  515.9841
 179  562.9995
 180  587.7677
 181  613.7817
 182  508.6404
 183  460.6856
 184  472.963
 185  571.5517
 186  617.7069
 187  583.2421
 188  564.1838
 189  551.1719
 190  511.6218
 191  377.5717
 192  502.6995
 193  595.9075
 194  612.2195
 195  496.7636
 196  551.4917
 197  598.5798
 198  593.2271
 199  570.9612
 200  459.148
 201  406.1704
 202  555.4745
 203  603.6562
 204  629.8403
 205  588.9644
 206  505.9111
 207  603.0628
 208  627.4653
 209  614.7343
 210  618.3642
 211  567.607
 212  648.1531
 213  658.1635
 214  544.9227
 215  565.5909
 216  623.1082
 217  649.1835
 218  610.3728
 219  514.6498
 220  540.9799
 221  588.7646
 222  566.152
 223  378.6863
 224  499.2881
 225  500.3701
 226  430.8211
 227  514.303
 228  490.8609
 229  568.5688
 230  545.2045
 231  675.8416
 232  472.1542
 233  344.607
 234  481.5588
 235  571.4965
 236  586.0791
 237  516.468
 238  565.8802
 239  555.1179
 240  512.7479
 241  604.6936
 242  512.1973
 243  546.0375
 244  561.2969
 245  669.4755
 246  678.6339
 247  541.8335
 248  417.4072
 249  412.1022
 250  467.4077
 251  611.4664
 252  672.9999
 253  559.86
 254  443.2237
 255  478.3126
 256  544.6622
 257  574.7669
 258  583.2963
 259  630.0054
 260  620.1705
 261  569.2731
 262  596.4817
 263  523.8937
 264  416.5382
 265  485.4428
 266  422.4706
 267  416.4545
 268  479.8313
 269  575.7997
 270  484.6694
 271  375.675
 272  512.7034
 273  441.9327
 274  380.8615
 275  414.2992
 276  384.1699
 277  508.1662
 278  552.7775
 279  577.4183
 280  579.0131
 281  441.3318
 282  446.6192
 283  494.9022
 284  525.6013
 285  486.1683
 286  485.2104
 287  487.8044
 288  492.7623
 289  583.6171
 290  483.1827
 291  547.8415
 292  529.7382
 293  532.994
 294  472.9401
 295  498.6767
 296  510.2887
 297  469.9637
 298  577.2074
 299  601.2396
 300  576.6961
 301  516.5983
 302  397.406
 303  548.2483
 304  553.3608
 305  486.6087
 306  461.3779
 307  377.8771
 308  297.9457
 309  316.6744
 310  407.748
 311  370.8409
 312  470.7943
 313  473.485
 314  471.639
 315  500.2237
 316  435.7784
 317  388.2089
 318  383.1361
 319  430.2193
 320  551.0916
 321  463.1509
 322  434.1271
 323  500.5385
 324  446.8381
 325  473.8118
 326  398.1234
 327  435.8754
 328  326.1436
 329  368.5795
 330  526.1325
 331  440.1449
 332  508.999
 333  560.5266
 334  591.5074
 335  576.8047
 336  441.4572
 337  421.1742
 338  490.8247
 339  454.5333
 340  558.6726
 341  517.3701
 342  543.7769
 343  560.4926
 344  595.9146
 345  565.937
 346  534.533
 347  510.9057
 348  641.2378
 349  610.6627
 350  552.4752
 351  417.1408
 352  436.9487
 353  552.1979
 354  569.2128
 355  460.094
 356  471.8524
 357  480.0515
 358  528.4731
 359  512.1328
 360  504.6323
 361  461.9183
 362  479.7694
 363  479.3514
 364  550.3445
 365  552.223
 366  485.36
 367  492.188
 368  524.3061
 369  470.9805
 370  344.8081
 371  380.6071
 372  440.5963
 373  481.9675
 374  406.7609
 375  459.038
 376  379.9144
 377  442.1126
 378  332.0217
 379  334.8562
 380  494.8631
 381  559.4823
 382  563.4758
 383  496.4645
 384  360.6696
 385  440.1083
 386  423.0581
 387  480.0992
 388  478.2181
 389  415.8897
 390  450.6966
 391  401.4406
 392  427.3823
 393  567.3953
 394  522.7614
 395  552.9407
 396  572.4924
 397  415.8766
 398  496.1967
 399  480.3054
 400  458.908
 401  351.0007
 402  395.9553
 403  486.3732
 404  555.1171
 405  506.7755
 406  412.6253
 407  459.0238
 408  429.1527
 409  499.8471
 410  519.5938
 411  422.6475
 412  525.8805
 413  608.3564
 414  631.6176
 415  440.4301
 416  499.7753
 417  613.7029
 418  556.7625
 419  485.6481
 420  353.6541
 421  524.4384
 422  669.535
 423  558.6243
 424  547.9673
 425  644.8329
 426  573.2526
 427  522.9034
 428  530.761
 429  493.065
 430  450.7632
 431  358.3898
 432  491.532
 433  547.5528
 434  559.5731
 435  617.6306
 436  533.2175
 437  467.129
 438  466.1653
 439  517.4608
 440  515.1774
 441  584.9688
 442  544.322
 443  469.1443
 444  457.1555
 445  419.2558
 446  565.1838
 447  512.5427
 448  383.8903
 449  353.5609
 450  443.9646
 451  519.8483
 452  615.2422
 453  531.4277
 454  380.3606
 455  526.1644
 456  576.5127
 457  489.9384
 458  461.4342
 459  440.678
 460  442.1814
 461  491.37
 462  522.874
 463  535.4648
 464  526.0969
 465  529.306
 466  558.4293
 467  570.5714
 468  493.255
 469  485.2278
 470  537.2612
 471  494.5965
 472  483.3059
 473  501.0873
 474  546.1968
 475  606.1307
 476  574.1547
 477  556.7427
 478  524.1446
 479  565.9123
 480  671.957
 481  477.5039
 482  461.738
 483  562.4039
 484  569.3368
 485  555.1558
 486  505.8569
 487  404.9168
 488  435.5768
 489  503.4442
 490  507.3637
 491  564.9258
 492  502.2543
 493  474.34
 494  483.3768
 495  368.9611
 496  445.6942
 497  474.4164
 498  425.4005
 499  449.8717
 500  566.6506
 501  467.2372
 502  474.6617
 503  530.7004
 504  624.4696
 505  649.3198
 506  667.761
 507  642.2877
 508  631.0219
 509  675.3766
 510  828.2777
 511  1076.395
