# Input file       =  1191092853.127013_cleaned.dat
# Candidate        =  PSR_0332+5434
# Telescope        =  AR
# Epoch_topo       =  58029.796702858948
# Epoch_bary       =  N/A
# T_sample         =  0.002
# Data Folded      =  7208960
# Data Avg         =  0.00679604670026215
# Data StdDev      =  1.00000963460376 
# Profile Bins     =  512
# Profile Avg      =  95.5905354980771 
# Profile StdDev   =  118.660319027672 
# Reduced chi-sqr  =  1.749
# Prob(Noise)      <  2.79e-23   (~9.9 sigma)
# P_topo (ms)      =  714.474169951579  +/- 0.000187
# P'_topo (s/s)    =  -0                +/- 1e-10
# P''_topo (s/s^2) =  0                 +/- 4.51e-14
# P_bary (ms)      =  N/A
# P'_bary (s/s)    =  N/A
# P''_bary (s/s^2) =  N/A
# P_orb (s)        =  N/A
# asin(i)/c (s)    =  N/A
# eccentricity     =  N/A
# w (rad)          =  N/A
# T_peri           =  N/A
######################################################
   0  1033.73
   1  975.3075
   2  820.0217
   3  418.5395
   4  147.229
   5  209.6463
   6  55.25111
   7  90.66856
   8  138.2315
   9  265.7946
  10  213.0419
  11  86.34546
  12  35.68453
  13  134.2457
  14  153.4909
  15  275.9976
  16  58.3155
  17  128.0384
  18  84.34793
  19  -31.08206
  20  88.58925
  21  119.286
  22  69.11868
  23  82.02631
  24  154.912
  25  59.74709
  26  72.55977
  27  118.7898
  28  176.1228
  29  5.263774
  30  115.2896
  31  -50.92485
  32  -47.07103
  33  26.78197
  34  33.66737
  35  32.68748
  36  74.51514
  37  89.86066
  38  24.47039
  39  107.6118
  40  121.9635
  41  59.37028
  42  237.2902
  43  207.0252
  44  109.6811
  45  47.4437
  46  28.90434
  47  126.6786
  48  204.6713
  49  149.0176
  50  72.98358
  51  -20.71192
  52  78.50403
  53  -28.2041
  54  40.29609
  55  106.1437
  56  40.68165
  57  -76.35875
  58  -31.12109
  59  90.48787
  60  138.5878
  61  99.89017
  62  120.8282
  63  149.5044
  64  -24.03934
  65  66.30976
  66  200.0722
  67  110.3312
  68  83.97751
  69  118.9366
  70  66.42548
  71  133.4979
  72  99.34081
  73  120.186
  74  146.7611
  75  93.51238
  76  77.25691
  77  96.04086
  78  192.2463
  79  67.77835
  80  3.779416
  81  11.29142
  82  30.21596
  83  -45.05758
  84  49.62
  85  123.7495
  86  -24.72759
  87  18.39355
  88  87.84791
  89  27.25828
  90  159.2388
  91  195.5494
  92  216.5685
  93  158.0133
  94  33.72451
  95  -20.7168
  96  86.45545
  97  72.36915
  98  139.153
  99  162.0571
 100  85.82341
 101  60.88869
 102  33.93203
 103  83.10148
 104  140.381
 105  -33.02943
 106  161.3591
 107  151.0825
 108  30.53334
 109  -28.28321
 110  -6.6895
 111  95.19929
 112  105.1182
 113  193.0416
 114  342.5778
 115  237.2132
 116  121.7014
 117  180.006
 118  -35.59961
 119  -25.64796
 120  93.5537
 121  180.4256
 122  50.36104
 123  131.2206
 124  154.391
 125  132.1558
 126  129.8099
 127  143.4892
 128  32.01552
 129  59.4071
 130  176.5009
 131  32.43156
 132  139.371
 133  128.1299
 134  59.4631
 135  -40.75832
 136  -102.5591
 137  -121.7736
 138  -109.5994
 139  -139.8949
 140  9.20172
 141  154.5233
 142  159.7924
 143  71.6847
 144  140.187
 145  69.96506
 146  67.10465
 147  41.20494
 148  49.80986
 149  142.0661
 150  149.5622
 151  227.7752
 152  223.0698
 153  35.02175
 154  29.28144
 155  77.98436
 156  65.28349
 157  153.252
 158  59.30069
 159  52.6071
 160  -24.08505
 161  -53.81007
 162  -17.53219
 163  -60.6495
 164  -57.20273
 165  80.10372
 166  126.9346
 167  -5.55203
 168  4.061948
 169  91.96107
 170  -16.7866
 171  -87.25709
 172  -97.32235
 173  59.9434
 174  180.1819
 175  233.3639
 176  175.4634
 177  161.4654
 178  84.17072
 179  87.6143
 180  -83.69543
 181  -32.04152
 182  81.72169
 183  32.03079
 184  16.09781
 185  40.63345
 186  12.0555
 187  45.52373
 188  76.55462
 189  79.0512
 190  -9.823095
 191  76.24052
 192  172.7871
 193  94.5287
 194  -40.15191
 195  56.87801
 196  114.2297
 197  59.74751
 198  -16.91577
 199  93.74411
 200  165.7596
 201  97.19028
 202  56.95581
 203  -22.90701
 204  -6.464604
 205  74.67828
 206  174.8633
 207  79.27848
 208  142.7042
 209  -39.33882
 210  -9.755233
 211  53.69512
 212  56.25632
 213  91.86655
 214  -78.83068
 215  43.70988
 216  7.666378
 217  62.66032
 218  102.2498
 219  218.6693
 220  218.6782
 221  49.31003
 222  -13.60388
 223  84.67618
 224  -68.18793
 225  75.66019
 226  122.8891
 227  -14.02883
 228  56.31236
 229  143.953
 230  211.0058
 231  123.0739
 232  89.99278
 233  130.9532
 234  26.81173
 235  18.47044
 236  107.6316
 237  -59.94163
 238  -143.3331
 239  12.45675
 240  84.62112
 241  108.3328
 242  41.25882
 243  16.67452
 244  111.8271
 245  220.1464
 246  126.7111
 247  244.3256
 248  189.6248
 249  172.7137
 250  191.0674
 251  172.8574
 252  230.3945
 253  15.37465
 254  -3.645932
 255  42.9278
 256  64.33591
 257  232.0165
 258  227.4644
 259  88.46132
 260  82.20486
 261  105.804
 262  40.26654
 263  30.77498
 264  100.084
 265  70.13582
 266  219.6247
 267  178.0363
 268  104.9426
 269  84.51202
 270  145.5147
 271  101.4686
 272  133.8083
 273  128.4046
 274  127.2621
 275  91.37621
 276  -5.86812
 277  74.20369
 278  91.67772
 279  68.69672
 280  -16.31593
 281  -27.22381
 282  60.02025
 283  7.496218
 284  -2.014544
 285  24.77126
 286  106.0925
 287  91.84454
 288  -18.86
 289  -92.30621
 290  -20.0941
 291  77.00999
 292  9.990713
 293  23.61932
 294  103.8002
 295  -40.39093
 296  -95.92618
 297  139.647
 298  151.1655
 299  79.23001
 300  130.8775
 301  214.787
 302  188.3604
 303  12.39801
 304  131.6357
 305  197.3421
 306  68.7346
 307  129.8462
 308  178.5089
 309  110.7717
 310  -16.64508
 311  -53.37849
 312  112.9281
 313  165.9171
 314  37.21861
 315  91.49804
 316  37.76138
 317  -21.88401
 318  -43.09491
 319  -41.98285
 320  102.6843
 321  59.77544
 322  13.11379
 323  -15.86059
 324  147.4239
 325  188.1876
 326  201.034
 327  227.3496
 328  206.5217
 329  136.0059
 330  -18.00686
 331  -87.19492
 332  114.8021
 333  20.97848
 334  78.27565
 335  78.37725
 336  11.619
 337  79.16605
 338  68.35315
 339  -13.86761
 340  -69.93824
 341  29.80926
 342  72.21053
 343  76.21545
 344  145.9732
 345  -35.18536
 346  -0.07233755
 347  108.6126
 348  74.49478
 349  121.4477
 350  106.1767
 351  102.6107
 352  94.18658
 353  -26.02387
 354  -3.757058
 355  80.56401
 356  114.9569
 357  -89.90945
 358  130.5493
 359  119.9595
 360  79.72601
 361  35.33194
 362  129.0749
 363  210.4261
 364  40.69176
 365  204.1283
 366  158.0237
 367  136.2072
 368  34.60836
 369  70.5997
 370  287.9149
 371  200.1393
 372  174.6976
 373  94.50047
 374  120.1905
 375  69.87935
 376  120.1296
 377  145.1814
 378  116.1932
 379  97.83637
 380  168.3777
 381  216.3562
 382  80.54596
 383  -61.48177
 384  145.0332
 385  125.0495
 386  137.0312
 387  65.19618
 388  68.10876
 389  136.7143
 390  196.7361
 391  181.3989
 392  188.2616
 393  52.29511
 394  51.68648
 395  7.584593
 396  -69.73105
 397  -7.480145
 398  15.57466
 399  230.0388
 400  118.2285
 401  -4.358312
 402  99.86874
 403  258.5629
 404  200.8442
 405  7.17448
 406  94.10622
 407  165.4196
 408  230.383
 409  117.6179
 410  204.22
 411  251.2697
 412  231.1699
 413  31.87504
 414  43.63307
 415  117.6254
 416  186.9961
 417  254.5214
 418  201.6408
 419  244.5035
 420  163.2721
 421  36.0233
 422  163.6293
 423  194.6623
 424  13.28009
 425  116.5418
 426  264.4432
 427  309.4779
 428  203.3746
 429  109.9339
 430  150.4422
 431  96.20782
 432  156.0814
 433  97.34206
 434  86.91338
 435  136.5991
 436  166.9225
 437  112.6295
 438  29.06869
 439  131.5984
 440  173.1536
 441  155.2301
 442  20.06094
 443  -14.35332
 444  89.51499
 445  5.459527
 446  35.96409
 447  18.16817
 448  39.71622
 449  26.04583
 450  70.54837
 451  228.2794
 452  169.91
 453  134.282
 454  70.19756
 455  160.8529
 456  108.1777
 457  103.6587
 458  63.74741
 459  189.1269
 460  43.51172
 461  12.85487
 462  40.41184
 463  -10.796
 464  87.05505
 465  138.1906
 466  128.2151
 467  50.54815
 468  -12.32674
 469  25.05796
 470  6.8586
 471  41.13338
 472  67.39914
 473  104.6214
 474  43.18135
 475  134.0333
 476  63.5206
 477  90.95033
 478  26.38677
 479  62.18329
 480  107.0033
 481  212.8386
 482  138.4094
 483  138.0687
 484  102.4805
 485  152.983
 486  4.050063
 487  -9.493402
 488  163.782
 489  202.8028
 490  11.16943
 491  21.69381
 492  198.1449
 493  188.1421
 494  135.5487
 495  -20.31332
 496  -52.24048
 497  -99.5191
 498  14.66853
 499  98.48276
 500  77.48479
 501  161.7134
 502  311.4866
 503  152.4794
 504  170.8541
 505  149.062
 506  245.3233
 507  253.623
 508  180.5353
 509  357.6398
 510  604.2376
 511  806.1617
