# Input file       =  1191179035.128983_cleaned.dat
# Candidate        =  PSR_0332+5434
# Telescope        =  AR
# Epoch_topo       =  58030.794179733603
# Epoch_bary       =  N/A
# T_sample         =  0.002
# Data Folded      =  7208960
# Data Avg         =  0.0192689898109091
# Data StdDev      =  0.999976366070299
# Profile Bins     =  512
# Profile Avg      =  271.286431552916 
# Profile StdDev   =  118.656371410912 
# Reduced chi-sqr  =  2.228
# Prob(Noise)      <  8.11e-50   (~14.8 sigma)
# P_topo (ms)      =  714.474757394824  +/- 0.000225
# P'_topo (s/s)    =  -0                +/- 1.21e-10
# P''_topo (s/s^2) =  0                 +/- 5.43e-14
# P_bary (ms)      =  N/A
# P'_bary (s/s)    =  N/A
# P''_bary (s/s^2) =  N/A
# P_orb (s)        =  N/A
# asin(i)/c (s)    =  N/A
# eccentricity     =  N/A
# w (rad)          =  N/A
# T_peri           =  N/A
######################################################
   0  1337.998
   1  1242.159
   2  912.3134
   3  577.9978
   4  481.9581
   5  343.9894
   6  183.6659
   7  306.0256
   8  187.2639
   9  241.9142
  10  332.1258
  11  341.0109
  12  319.7814
  13  327.7111
  14  355.6595
  15  358.0051
  16  353.8358
  17  358.6247
  18  320.3915
  19  218.0014
  20  206.9773
  21  353.6893
  22  166.9973
  23  243.686
  24  59.42047
  25  108.3634
  26  96.95133
  27  225.5625
  28  129.4278
  29  214.0324
  30  253.9314
  31  232.1866
  32  232.8411
  33  302.4857
  34  344.1095
  35  349.0931
  36  383.1876
  37  199.1682
  38  180.3736
  39  182.2341
  40  103.053
  41  214.5061
  42  327.5724
  43  299.6624
  44  211.9689
  45  195.5228
  46  149.3464
  47  183.9943
  48  289.8984
  49  270.1224
  50  232.7146
  51  352.6816
  52  354.4535
  53  371.6769
  54  288.8156
  55  266.4208
  56  282.9823
  57  350.1373
  58  291.1809
  59  235.1658
  60  287.9445
  61  258.7242
  62  201.3348
  63  381.8989
  64  340.4082
  65  382.1219
  66  185.814
  67  186.5784
  68  349.4896
  69  200.4135
  70  233.487
  71  276.4867
  72  237.0456
  73  190.4617
  74  264.9868
  75  243.6392
  76  315.3817
  77  276.2054
  78  200.1726
  79  240.3859
  80  338.4612
  81  346.0226
  82  216.3228
  83  276.2368
  84  253.5565
  85  360.9166
  86  222.4374
  87  308.409
  88  222.88
  89  184.1799
  90  274.8752
  91  257.3359
  92  335.3383
  93  327.0386
  94  248.9843
  95  169.8932
  96  143.9286
  97  139.6568
  98  165.9036
  99  61.27406
 100  95.50426
 101  123.3568
 102  108.1346
 103  73.41788
 104  136.64
 105  213.4901
 106  126.1437
 107  46.3602
 108  113.2038
 109  246.5285
 110  321.0117
 111  291.3218
 112  330.0827
 113  261.5742
 114  396.5635
 115  291.1959
 116  168.7131
 117  256.8181
 118  334.1459
 119  220.3598
 120  146.0428
 121  282.7521
 122  237.5467
 123  77.23743
 124  286.0716
 125  328.3685
 126  164.121
 127  176.2693
 128  22.91224
 129  145.3644
 130  71.31297
 131  157.0795
 132  230.5952
 133  259.6601
 134  319.2243
 135  249.2101
 136  155.0984
 137  131.132
 138  311.3432
 139  257.6491
 140  267.2203
 141  287.9618
 142  233.0706
 143  158.2727
 144  119.8503
 145  110.6323
 146  315.6584
 147  265.8565
 148  272.7642
 149  246.5807
 150  241.1814
 151  109.537
 152  120.6725
 153  162.317
 154  112.3476
 155  90.33801
 156  224.6282
 157  361.3724
 158  350.4587
 159  171.985
 160  227.39
 161  250.5509
 162  256.5641
 163  275.5612
 164  243.5948
 165  201.9848
 166  196.1873
 167  332.8825
 168  428.1472
 169  187.815
 170  200.2888
 171  229.0555
 172  279.8943
 173  191.1713
 174  200.5197
 175  183.1351
 176  137.3471
 177  120.7997
 178  277.6934
 179  261.4613
 180  249.7574
 181  270.5186
 182  186.6264
 183  275.4038
 184  270.5005
 185  333.1296
 186  420.8521
 187  240.6032
 188  163.7892
 189  162.4094
 190  198.1142
 191  364.626
 192  451.3369
 193  396.7845
 194  217.7555
 195  196.3385
 196  359.0549
 197  296.0025
 198  280.6532
 199  374.9406
 200  279.4753
 201  146.076
 202  88.49857
 203  336.2639
 204  341.2419
 205  195.552
 206  262.6269
 207  316.0341
 208  225.3533
 209  223.7847
 210  319.4193
 211  272.8619
 212  190.5777
 213  284.1847
 214  260.8707
 215  250.4209
 216  266.9833
 217  238.6406
 218  207.3641
 219  259.2065
 220  174.6091
 221  155.5425
 222  296.1774
 223  292.3971
 224  270.5074
 225  206.723
 226  308.0644
 227  277.3081
 228  271.5919
 229  139.9465
 230  47.63608
 231  117.2111
 232  212.3811
 233  272.9524
 234  273.5226
 235  200.523
 236  145.0352
 237  169.0948
 238  164.4726
 239  267.7621
 240  250.5908
 241  203.0164
 242  367.7791
 243  266.6144
 244  215.2764
 245  345.7429
 246  221.1002
 247  157.9149
 248  178.5004
 249  315.633
 250  275.0193
 251  189.1458
 252  141.889
 253  160.8289
 254  288.7259
 255  183.1751
 256  205.4793
 257  329.0222
 258  378.8853
 259  403.453
 260  273.9997
 261  174.0849
 262  192.7772
 263  92.90784
 264  251.5444
 265  301.28
 266  391.6737
 267  323.3591
 268  251.9949
 269  342.5439
 270  309.0631
 271  187.9028
 272  220.5438
 273  195.8336
 274  309.0874
 275  428.3333
 276  486.6148
 277  371.3078
 278  407.3918
 279  346.7557
 280  277.8735
 281  249.4313
 282  355.6407
 283  214.8742
 284  139.4993
 285  143.7361
 286  341.0408
 287  329.4146
 288  256.4361
 289  287.0009
 290  329.5758
 291  421.1304
 292  369.9417
 293  268.6747
 294  216.9709
 295  283.5132
 296  260.308
 297  330.7863
 298  266.2722
 299  301.3241
 300  182.6507
 301  181.4721
 302  254.285
 303  276.8033
 304  270.4362
 305  341.9254
 306  319.2589
 307  299.6945
 308  280.6608
 309  325.1796
 310  260.2363
 311  236.3075
 312  175.3301
 313  302.9845
 314  303.2151
 315  254.6388
 316  328.3245
 317  362.9943
 318  288.0535
 319  336.5465
 320  274.5748
 321  120.2398
 322  273.4694
 323  256.1628
 324  312.8766
 325  197.004
 326  276.7818
 327  339.4753
 328  265.1391
 329  289.5701
 330  279.2325
 331  224.6912
 332  239.2596
 333  282.7926
 334  293.0063
 335  214.1097
 336  173.617
 337  353.1869
 338  266.6238
 339  281.6025
 340  362.2184
 341  430.0748
 342  453.7097
 343  464.3526
 344  383.8169
 345  337.1277
 346  338.1998
 347  355.2187
 348  307.6433
 349  219.4211
 350  147.532
 351  209.9109
 352  203.6227
 353  298.7213
 354  277.9045
 355  257.6938
 356  300.5968
 357  364.0057
 358  363.2172
 359  267.8796
 360  229.3712
 361  212.8996
 362  228.2918
 363  203.7148
 364  230.0217
 365  253.0502
 366  271.8263
 367  249.0291
 368  249.508
 369  338.0201
 370  329.8892
 371  362.8831
 372  404.6697
 373  365.8876
 374  350.6601
 375  278.0515
 376  348.5296
 377  313.4864
 378  427.9395
 379  256.075
 380  218.4822
 381  388.8919
 382  424.8561
 383  398.604
 384  231.546
 385  257.7729
 386  317.2762
 387  289.6293
 388  210.1721
 389  269.8004
 390  407.3498
 391  346.8372
 392  170.8172
 393  122.6041
 394  193.6367
 395  302.08
 396  166.6864
 397  89.78339
 398  158.9515
 399  268.2253
 400  256.7167
 401  179.5725
 402  203.0078
 403  215.2809
 404  247.4322
 405  229.7122
 406  228.0356
 407  293.8075
 408  228.6495
 409  305.7955
 410  159.0942
 411  57.25287
 412  258.2016
 413  167.8486
 414  178.0947
 415  201.1282
 416  125.4189
 417  212.3409
 418  224.9147
 419  224.8663
 420  325.6585
 421  256.0355
 422  177.6268
 423  205.5637
 424  231.7787
 425  361.6289
 426  446.3307
 427  361.9914
 428  270.9492
 429  200.5911
 430  248.0074
 431  323.5027
 432  379.4231
 433  362.3727
 434  296.8846
 435  261.6434
 436  187.3938
 437  200.8896
 438  208.3159
 439  189.1298
 440  339.8014
 441  368.4783
 442  152.8549
 443  134.3638
 444  163.6659
 445  86.86846
 446  144.2273
 447  286.4053
 448  384.3392
 449  371.9847
 450  352.4489
 451  298.1415
 452  264.4962
 453  113.755
 454  240.266
 455  420.7768
 456  363.9317
 457  457.2401
 458  302.7921
 459  294.6038
 460  224.814
 461  340.1801
 462  334.5296
 463  298.2664
 464  313.8192
 465  324.0058
 466  290.3861
 467  303.5816
 468  300.0159
 469  317.0926
 470  218.9391
 471  294.8279
 472  284.4094
 473  207.294
 474  256.2391
 475  289.1964
 476  191.4875
 477  109.1531
 478  167.0091
 479  265.0367
 480  222.7693
 481  281.5676
 482  252.7759
 483  236.4995
 484  298.3654
 485  501.1902
 486  391.4856
 487  207.4838
 488  91.4099
 489  114.9969
 490  257.2766
 491  319.5505
 492  330.8507
 493  329.1675
 494  272.558
 495  179.0713
 496  381.8374
 497  322.8679
 498  231.0098
 499  340.019
 500  306.3976
 501  276.3376
 502  381.3394
 503  359.3633
 504  407.5815
 505  396.7799
 506  453.5463
 507  541.7234
 508  629.3039
 509  839.9025
 510  1084.092
 511  1289.537
