# Input file       =  1191868328.113797_cleaned.dat
# Candidate        =  PSR_0332+5434
# Telescope        =  AR
# Epoch_topo       =  58038.772107798577
# Epoch_bary       =  N/A
# T_sample         =  0.002
# Data Folded      =  7143424
# Data Avg         =  0.0151881704522291
# Data StdDev      =  1.00009838207441 
# Profile Bins     =  512
# Profile Avg      =  211.851792205361 
# Profile StdDev   =  118.130205233235 
# Reduced chi-sqr  =  2.004
# Prob(Noise)      <  1.29e-36   (~12.6 sigma)
# P_topo (ms)      =  714.479929664755  +/- 0.000277
# P'_topo (s/s)    =  -0                +/- 1.5e-10
# P''_topo (s/s^2) =  0                 +/- 6.82e-14
# P_bary (ms)      =  N/A
# P'_bary (s/s)    =  N/A
# P''_bary (s/s^2) =  N/A
# P_orb (s)        =  N/A
# asin(i)/c (s)    =  N/A
# eccentricity     =  N/A
# w (rad)          =  N/A
# T_peri           =  N/A
######################################################
   0  1016.259
   1  961.7672
   2  830.9584
   3  553.9033
   4  269.3394
   5  229.9507
   6  257.4561
   7  49.9369
   8  147.3204
   9  268.7086
  10  264.2456
  11  496.1655
  12  412.5863
  13  356.1691
  14  277.4502
  15  222.7763
  16  282.9417
  17  271.5771
  18  249.0618
  19  234.4159
  20  237.4068
  21  312.8711
  22  159.4103
  23  105.2834
  24  78.43801
  25  179.9209
  26  172.1413
  27  253.8382
  28  219.5651
  29  213.1703
  30  407.4774
  31  421.9068
  32  310.042
  33  293.5237
  34  48.84363
  35  192.4977
  36  212.3004
  37  343.2104
  38  246.407
  39  310.3525
  40  376.3088
  41  210.2878
  42  226.2165
  43  239.3579
  44  65.25018
  45  130.5824
  46  75.39101
  47  105.2743
  48  146.9345
  49  126.6739
  50  209.5643
  51  294.8066
  52  325.6081
  53  271.6873
  54  218.4735
  55  231.6999
  56  138.8213
  57  161.7094
  58  197.5508
  59  273.753
  60  195.1831
  61  238.3974
  62  224.578
  63  293.4529
  64  145.5731
  65  82.94766
  66  171.9015
  67  209.3839
  68  214.8934
  69  210.0325
  70  214.7445
  71  271.9431
  72  203.9027
  73  145.2947
  74  75.29417
  75  116.1418
  76  265.7762
  77  240.32
  78  214.3819
  79  194.9636
  80  170.6527
  81  142.6567
  82  131.3361
  83  187.1072
  84  236.2956
  85  173.3536
  86  152.8923
  87  65.6861
  88  -7.414134
  89  36.02083
  90  116.0236
  91  206.5522
  92  240.9928
  93  209.8012
  94  275.0507
  95  155.4983
  96  97.49571
  97  91.95624
  98  123.088
  99  85.29483
 100  91.10072
 101  202.0162
 102  185.4184
 103  236.9547
 104  224.5404
 105  163.098
 106  172.511
 107  266.1212
 108  253.7139
 109  266.9583
 110  270.7462
 111  379.8166
 112  331.7002
 113  396.2345
 114  291.5184
 115  144.0756
 116  125.7314
 117  183.0602
 118  115.6064
 119  217.3268
 120  104.9821
 121  160.6354
 122  252.0564
 123  159.7451
 124  134.3573
 125  206.7478
 126  143.3251
 127  340.9527
 128  299.5918
 129  99.84425
 130  70.37294
 131  148.4793
 132  144.6504
 133  251.2534
 134  340.7081
 135  296.3736
 136  204.6241
 137  343.098
 138  472.5073
 139  334.7861
 140  309.6272
 141  228.9703
 142  232.5066
 143  268.6983
 144  233.0668
 145  187.0541
 146  151.059
 147  238.6934
 148  107.5627
 149  131.0844
 150  111.8226
 151  115.7044
 152  94.64214
 153  108.8917
 154  126.7909
 155  127.7905
 156  102.7522
 157  206.1381
 158  100.2353
 159  100.4187
 160  200.1044
 161  174.8474
 162  213.6369
 163  175.2686
 164  98.54382
 165  153.8
 166  218.0228
 167  102.3045
 168  63.7021
 169  61.01233
 170  104.2791
 171  206.6623
 172  170.968
 173  195.4174
 174  161.748
 175  219.9383
 176  381.9528
 177  293.8822
 178  153.4657
 179  219.1055
 180  294.6879
 181  242.6524
 182  250.1622
 183  289.3739
 184  392.3627
 185  336.6469
 186  326.3823
 187  120.1309
 188  166.7502
 189  304.7509
 190  374.8258
 191  261.9978
 192  164.8103
 193  235.6102
 194  219.1358
 195  297.0613
 196  224.4817
 197  336.4735
 198  260.8733
 199  230.606
 200  237.4529
 201  215.3631
 202  184.3485
 203  200.3857
 204  249.3551
 205  271.5009
 206  236.4708
 207  301.9862
 208  325.281
 209  262.3961
 210  238.7947
 211  73.8652
 212  79.95863
 213  215.3119
 214  257.3264
 215  179.7238
 216  166.7202
 217  251.3495
 218  242.0118
 219  235.3706
 220  134.4982
 221  226.2864
 222  317.0671
 223  277.6331
 224  373.5385
 225  285.9596
 226  302.0573
 227  228.3718
 228  224.387
 229  293.1624
 230  361.6213
 231  337.6176
 232  320.2315
 233  336.3899
 234  306.6668
 235  292.8382
 236  190.2853
 237  268.0128
 238  231.4996
 239  276.4112
 240  138.0843
 241  170.86
 242  196.9499
 243  57.53825
 244  27.60582
 245  113.813
 246  104.6497
 247  188.7075
 248  241.9345
 249  128.7371
 250  144.0626
 251  84.26573
 252  15.4314
 253  29.69228
 254  168.09
 255  226.7436
 256  221.1783
 257  149.676
 258  183.1765
 259  130.845
 260  146.8761
 261  75.91074
 262  174.0024
 263  295.1664
 264  236.7376
 265  241.4841
 266  237.6971
 267  143.9441
 268  256.4063
 269  259.17
 270  91.85992
 271  -10.58109
 272  169.6334
 273  238.0822
 274  180.3461
 275  155.3969
 276  265.8866
 277  290.2241
 278  197.9946
 279  98.28811
 280  190.7084
 281  201.9834
 282  305.3563
 283  306.9671
 284  233.7118
 285  97.49868
 286  122.8503
 287  140.6093
 288  242.442
 289  338.4622
 290  325.3212
 291  267.1401
 292  321.2467
 293  337.6144
 294  236.1873
 295  237.1959
 296  285.2142
 297  239.3286
 298  181.9232
 299  132.0453
 300  178.6266
 301  187.2316
 302  338.2444
 303  214.0859
 304  202.9004
 305  160.1894
 306  303.5814
 307  389.6926
 308  213.5668
 309  211.2717
 310  226.9492
 311  284.7484
 312  265.1313
 313  208.7259
 314  211.6732
 315  315.188
 316  220.8266
 317  59.1198
 318  140.5175
 319  253.8738
 320  165.145
 321  196.9572
 322  316.6248
 323  350.7788
 324  176.0684
 325  122.0864
 326  235.6657
 327  222.918
 328  291.4629
 329  272.5669
 330  233.4504
 331  159.3559
 332  85.89198
 333  84.82954
 334  176.5651
 335  121.6624
 336  94.00622
 337  186.4974
 338  166.6138
 339  170.3606
 340  211.6048
 341  187.7454
 342  129.9178
 343  -2.896211
 344  15.59906
 345  68.01831
 346  121.0989
 347  199.4997
 348  213.1611
 349  221.4923
 350  171.0057
 351  189.7327
 352  91.75978
 353  117.196
 354  222.3934
 355  260.3586
 356  156.8105
 357  175.2546
 358  169.3266
 359  125.5897
 360  189.386
 361  205.7892
 362  161.3855
 363  76.0512
 364  115.1119
 365  70.59691
 366  31.33223
 367  -39.68862
 368  50.36736
 369  210.9964
 370  231.6073
 371  225.4901
 372  119.8083
 373  110.8033
 374  127.2112
 375  160.3149
 376  132.6771
 377  199.7139
 378  184.1226
 379  201.1904
 380  143.5443
 381  65.74224
 382  80.34356
 383  195.7236
 384  143.2783
 385  110.696
 386  158.5151
 387  196.4212
 388  104.8637
 389  99.27253
 390  256.4879
 391  206.7932
 392  189.2347
 393  203.3538
 394  232.394
 395  249.1303
 396  273.2328
 397  242.8768
 398  172.5581
 399  193.1931
 400  69.54845
 401  62.35221
 402  107.8541
 403  29.48356
 404  20.65503
 405  134.1725
 406  77.03059
 407  180.1854
 408  153.3987
 409  5.539637
 410  -14.31399
 411  -11.84253
 412  214.5665
 413  189.4431
 414  180.0755
 415  115.0789
 416  35.40963
 417  100.9493
 418  104.0442
 419  65.39469
 420  49.91883
 421  322.4339
 422  272.1821
 423  195.3555
 424  186.1074
 425  199.5894
 426  190.5312
 427  134.9777
 428  68.53056
 429  116.9745
 430  161.6998
 431  131.5506
 432  248.2663
 433  252.2755
 434  218.4554
 435  107.1541
 436  130.387
 437  296.5791
 438  200.3707
 439  113.5884
 440  191.8945
 441  212.7556
 442  134.3128
 443  151.1875
 444  108.6574
 445  136.2375
 446  173.2618
 447  209.9884
 448  247.9409
 449  193.8407
 450  47.43073
 451  -73.51852
 452  4.332249
 453  168.1982
 454  164.4274
 455  194.9567
 456  154.9119
 457  155.9824
 458  287.1367
 459  271.4677
 460  261.7585
 461  237.2448
 462  173.3717
 463  159.5254
 464  273.7817
 465  287.5878
 466  159.04
 467  145.0452
 468  236.5523
 469  273.9722
 470  319.7657
 471  333.892
 472  244.8827
 473  212.8861
 474  238.9012
 475  193.9861
 476  347.3741
 477  203.0883
 478  311.4727
 479  337.8688
 480  237.7041
 481  273.5591
 482  323.7615
 483  323.9054
 484  224.6071
 485  254.1765
 486  189.9636
 487  124.2497
 488  270.2119
 489  279.5633
 490  261.7675
 491  408.6861
 492  355.037
 493  330.9489
 494  292.6091
 495  126.8999
 496  251.7938
 497  136.7604
 498  192.4279
 499  222.9369
 500  276.7584
 501  371.8509
 502  386.7624
 503  435.156
 504  396.1271
 505  355.7073
 506  484.7947
 507  509.8624
 508  532.9075
 509  726.4076
 510  955.9147
 511  1062.54
