# Input file       =  1191452153.131497_cleaned.dat
# Candidate        =  PSR_0332+5434
# Telescope        =  AR
# Epoch_topo       =  58033.955267725658
# Epoch_bary       =  N/A
# T_sample         =  0.002
# Data Folded      =  7340032
# Data Avg         =  0.0119366698192279
# Data StdDev      =  1.00017003663176 
# Profile Bins     =  512
# Profile Avg      =  171.138135810164 
# Profile StdDev   =  119.753395378982 
# Reduced chi-sqr  =  1.755
# Prob(Noise)      <  1.37e-23   (~9.9 sigma)
# P_topo (ms)      =  714.476719170028  +/- 0.000164
# P'_topo (s/s)    =  -0                +/- 8.65e-11
# P''_topo (s/s^2) =  0                 +/- 3.82e-14
# P_bary (ms)      =  N/A
# P'_bary (s/s)    =  N/A
# P''_bary (s/s^2) =  N/A
# P_orb (s)        =  N/A
# asin(i)/c (s)    =  N/A
# eccentricity     =  N/A
# w (rad)          =  N/A
# T_peri           =  N/A
######################################################
   0  1087.037
   1  946.723
   2  668.9407
   3  343.5117
   4  119.3365
   5  104.6323
   6  98.27957
   7  130.9058
   8  72.28646
   9  99.27714
  10  181.5343
  11  162.3963
  12  258.4493
  13  300.4665
  14  215.0457
  15  279.3684
  16  321.4088
  17  251.9166
  18  211.3982
  19  234.021
  20  166.1021
  21  86.30994
  22  7.58518
  23  37.68597
  24  23.20746
  25  128.8275
  26  125.7756
  27  153.0072
  28  239.3343
  29  202.1756
  30  311.9164
  31  127.5303
  32  104.2193
  33  42.43832
  34  247.8717
  35  426.1594
  36  265.5763
  37  237.2557
  38  268.2235
  39  279.7504
  40  202.8224
  41  162.931
  42  196.7071
  43  159.5047
  44  133.6985
  45  24.53335
  46  121.7964
  47  189.7094
  48  148.5521
  49  83.81815
  50  66.97604
  51  69.58048
  52  106.5011
  53  139.0757
  54  227.3216
  55  162.6663
  56  45.28973
  57  250.0396
  58  170.4367
  59  30.64676
  60  212.7597
  61  157.7754
  62  28.90107
  63  92.70324
  64  154.7177
  65  107.1421
  66  90.55653
  67  190.0438
  68  254.7944
  69  60.89061
  70  136.371
  71  106.9117
  72  177.6728
  73  257.0965
  74  182.5304
  75  35.9954
  76  87.61165
  77  149.3545
  78  95.7384
  79  -11.45146
  80  55.08767
  81  155.3047
  82  182.7055
  83  172.7755
  84  207.7382
  85  135.0841
  86  119.8126
  87  140.2861
  88  340.4883
  89  288.5742
  90  237.4456
  91  154.0074
  92  249.4537
  93  278.2709
  94  340.8989
  95  291.1051
  96  192.5892
  97  171.0521
  98  106.7394
  99  -9.212692
 100  248.3751
 101  290.3253
 102  134.9064
 103  142.8574
 104  236.9523
 105  224.2162
 106  161.6037
 107  90.16605
 108  204.0483
 109  182.1056
 110  42.0553
 111  178.4961
 112  158.7553
 113  81.50167
 114  140.3145
 115  193.1736
 116  215.001
 117  65.72819
 118  105.3764
 119  90.57372
 120  123.454
 121  280.7803
 122  280.7937
 123  211.6568
 124  188.2016
 125  91.86433
 126  89.35934
 127  174.7907
 128  180.3788
 129  234.0359
 130  310.5585
 131  280.4845
 132  106.1922
 133  235.1053
 134  396.5388
 135  245.1182
 136  178.6547
 137  209.7471
 138  129.1386
 139  214.2039
 140  264.4139
 141  161.5138
 142  218.8493
 143  191.7973
 144  115.3124
 145  71.91246
 146  131.2737
 147  115.5156
 148  162.2295
 149  103.1874
 150  85.48086
 151  4.13515
 152  131.2469
 153  186.0875
 154  187.5304
 155  167.8269
 156  225.625
 157  318.3466
 158  345.5212
 159  147.6894
 160  8.615552
 161  134.1793
 162  238.6713
 163  338.9356
 164  272.6341
 165  281.5575
 166  159.5166
 167  205.6356
 168  310.9094
 169  256.6314
 170  130.8783
 171  19.51908
 172  209.2361
 173  185.1264
 174  122.171
 175  223.4882
 176  288.6223
 177  151.6211
 178  81.34277
 179  33.71176
 180  120.1765
 181  164.0551
 182  234.4677
 183  231.7277
 184  164.7269
 185  215.6887
 186  151.2848
 187  154.2601
 188  41.2778
 189  137.1834
 190  271.1547
 191  244.3708
 192  202.8021
 193  62.45644
 194  41.63375
 195  140.5871
 196  174.1581
 197  125.3837
 198  89.31159
 199  211.4661
 200  220.0118
 201  161.4791
 202  135.0299
 203  192.4374
 204  211.4343
 205  156.0014
 206  90.37922
 207  109.0783
 208  210.4207
 209  175.5328
 210  114.3519
 211  128.9457
 212  133.6248
 213  125.4918
 214  21.4125
 215  87.73985
 216  115.7514
 217  79.53169
 218  188.8931
 219  217.5928
 220  260.94
 221  213.0766
 222  158.794
 223  108.4693
 224  126.3705
 225  265.1938
 226  139.6537
 227  80.84948
 228  197.1427
 229  246.442
 230  297.1134
 231  164.5823
 232  99.84908
 233  198.5971
 234  224.6267
 235  152.9832
 236  200.0879
 237  238.8374
 238  266.1965
 239  103.0957
 240  129.1835
 241  247.1398
 242  213.6416
 243  140.4072
 244  113.2077
 245  145.3052
 246  190.3075
 247  312.0733
 248  192.2124
 249  -4.397796
 250  -74.41673
 251  83.14771
 252  46.99524
 253  -17.98357
 254  150.8481
 255  255.9297
 256  200.5255
 257  106.5083
 258  125.772
 259  114.4938
 260  86.91405
 261  111.0456
 262  171.9456
 263  113.2268
 264  146.3743
 265  260.5146
 266  204.855
 267  150.9295
 268  32.78958
 269  165.139
 270  234.2538
 271  119.9138
 272  138.6893
 273  96.87734
 274  83.08304
 275  199.9782
 276  202.2117
 277  150.5672
 278  110.371
 279  51.64384
 280  174.1325
 281  338.4037
 282  145.84
 283  105.6795
 284  87.69414
 285  134.3498
 286  136.2884
 287  191.7828
 288  289.0014
 289  192.2744
 290  221.7476
 291  86.10262
 292  17.78922
 293  47.22509
 294  177.9094
 295  226.1918
 296  50.74457
 297  -29.12493
 298  115.6103
 299  250.0217
 300  207.8377
 301  190.2616
 302  267.7722
 303  345.8227
 304  269.2739
 305  121.9121
 306  265.8554
 307  169.0737
 308  45.77651
 309  135.996
 310  233.6399
 311  287.2926
 312  199.5912
 313  230.1012
 314  229.5249
 315  110.2285
 316  177.179
 317  166.0177
 318  224.4323
 319  258.7334
 320  183.1038
 321  142.8224
 322  121.2186
 323  197.4086
 324  136.8667
 325  196.7067
 326  149.2623
 327  161.539
 328  160.2673
 329  298.2344
 330  316.8718
 331  295.4787
 332  236.2499
 333  232.2506
 334  113.5723
 335  11.30012
 336  98.54045
 337  74.18468
 338  171.1564
 339  202.3327
 340  88.67186
 341  135.1677
 342  134.8339
 343  205.3722
 344  170.4756
 345  78.34313
 346  26.29495
 347  152.5968
 348  105.5037
 349  65.30267
 350  186.4814
 351  257.4099
 352  280.7071
 353  175.7542
 354  23.01421
 355  45.51464
 356  179.3003
 357  149.2324
 358  2.41845
 359  28.98852
 360  149.25
 361  87.07999
 362  159.9252
 363  128.6658
 364  123.5423
 365  35.66164
 366  56.54934
 367  78.70554
 368  153.5659
 369  224.2303
 370  223.0163
 371  234.0762
 372  165.9642
 373  73.15668
 374  175.2209
 375  101.9788
 376  81.13764
 377  104.726
 378  191.9985
 379  175.7505
 380  85.90524
 381  136.4242
 382  297.3883
 383  136.9547
 384  31.45326
 385  178.7618
 386  190.9205
 387  61.37478
 388  109.1956
 389  88.59353
 390  217.6931
 391  170.6039
 392  189.894
 393  235.273
 394  176.3235
 395  80.55534
 396  21.34086
 397  -29.34492
 398  58.59221
 399  59.51077
 400  34.33462
 401  28.90978
 402  8.375399
 403  94.05002
 404  113.5003
 405  172.7873
 406  241.1654
 407  165.8981
 408  135.7065
 409  102.9889
 410  109.418
 411  154.0174
 412  194.967
 413  228.5821
 414  163.473
 415  108.577
 416  264.767
 417  220.8417
 418  -62.06385
 419  -60.18243
 420  199.7033
 421  260.1502
 422  272.8781
 423  314.5243
 424  172.2431
 425  180.6056
 426  156.8368
 427  217.8568
 428  237.3025
 429  153.8664
 430  189.0544
 431  313.0735
 432  239.6918
 433  240.5741
 434  121.0527
 435  45.87614
 436  173.1768
 437  147.2234
 438  28.98046
 439  144.538
 440  202.9341
 441  142.8074
 442  135.3953
 443  230.8849
 444  262.5882
 445  171.1603
 446  210.1227
 447  211.7734
 448  -28.80791
 449  162.8598
 450  284.1311
 451  82.74088
 452  18.76722
 453  53.26983
 454  90.85003
 455  7.48189
 456  267.4253
 457  196.1946
 458  -28.88709
 459  31.95098
 460  160.8086
 461  163.7168
 462  229.8506
 463  190.0267
 464  185.5812
 465  108.2862
 466  137.8693
 467  129.1811
 468  195.4573
 469  172.0661
 470  41.8289
 471  139.2431
 472  258.203
 473  115.7939
 474  61.5679
 475  148.2069
 476  235.5314
 477  161.738
 478  59.57841
 479  55.37935
 480  152.8873
 481  169.9004
 482  208.1391
 483  88.10556
 484  207.9312
 485  197.2367
 486  123.6335
 487  123.4494
 488  177.0919
 489  197.7263
 490  307.3311
 491  396.0426
 492  309.5458
 493  199.6075
 494  159.5894
 495  208.2581
 496  166.0611
 497  273.5993
 498  337.3571
 499  204.8463
 500  80.39098
 501  85.58209
 502  212.6974
 503  241.5619
 504  347.4423
 505  323.1916
 506  306.8713
 507  319.5561
 508  515.2372
 509  581.9614
 510  869.7885
 511  1063.53
