# Input file       =  1191782146.121926_cleaned.dat
# Candidate        =  PSR_0332+5434
# Telescope        =  AR
# Epoch_topo       =  58037.774631040811
# Epoch_bary       =  N/A
# T_sample         =  0.002
# Data Folded      =  7208960
# Data Avg         =  0.0321388338878564
# Data StdDev      =  0.999925034954752
# Profile Bins     =  512
# Profile Avg      =  452.499421197353 
# Profile StdDev   =  118.650280503048 
# Reduced chi-sqr  =  1.356
# Prob(Noise)      <  1.31e-07   (~5.1 sigma)
# P_topo (ms)      =  714.479236035387  +/- 0.000209
# P'_topo (s/s)    =  -0                +/- 1.12e-10
# P''_topo (s/s^2) =  0                 +/- 5.04e-14
# P_bary (ms)      =  N/A
# P'_bary (s/s)    =  N/A
# P''_bary (s/s^2) =  N/A
# P_orb (s)        =  N/A
# asin(i)/c (s)    =  N/A
# eccentricity     =  N/A
# w (rad)          =  N/A
# T_peri           =  N/A
######################################################
   0  1219.474
   1  1035.171
   2  880.3459
   3  647.769
   4  457.1898
   5  508.969
   6  525.7618
   7  464.5918
   8  545.6466
   9  577.6163
  10  582.0807
  11  537.3756
  12  536.6172
  13  521.7037
  14  538.0332
  15  508.2762
  16  491.7236
  17  638.9634
  18  675.1602
  19  525.7817
  20  473.4699
  21  434.4774
  22  387.1592
  23  411.0086
  24  351.4602
  25  355.424
  26  449.4166
  27  446.6663
  28  457.5157
  29  547.1978
  30  639.229
  31  478.4932
  32  530.7131
  33  616.7994
  34  534.1755
  35  442.8165
  36  435.5036
  37  362.8831
  38  360.6326
  39  458.0779
  40  456.3145
  41  384.7
  42  502.8633
  43  658.5845
  44  571.278
  45  409.1579
  46  471.2036
  47  488.5117
  48  554.8975
  49  430.3247
  50  414.4377
  51  468.713
  52  435.2947
  53  356.0934
  54  424.2492
  55  495.2662
  56  479.9916
  57  554.4985
  58  578.4337
  59  582.397
  60  560.8936
  61  519.6403
  62  425.7153
  63  419.3616
  64  462.5313
  65  497.6014
  66  390.2645
  67  489.876
  68  490.2138
  69  370.01
  70  339.2206
  71  432.3159
  72  567.5731
  73  443.8961
  74  462.1628
  75  528.1559
  76  459.7686
  77  332.0061
  78  387.4832
  79  429.5107
  80  457.9724
  81  460.7774
  82  509.581
  83  565.9394
  84  377.3428
  85  294.2592
  86  377.6591
  87  455.9641
  88  445.0112
  89  469.0103
  90  511.8807
  91  500.7948
  92  424.5538
  93  532.2778
  94  404.7932
  95  397.4323
  96  509.0484
  97  493.0678
  98  488.8131
  99  441.1167
 100  527.7688
 101  412.7557
 102  377.494
 103  425.7835
 104  366.9191
 105  462.3166
 106  456.6116
 107  347.0066
 108  322.9133
 109  434.4939
 110  489.9432
 111  565.3681
 112  423.9965
 113  367.4995
 114  470.4072
 115  564.0598
 116  565.5061
 117  532.0629
 118  498.6545
 119  378.5628
 120  429.9366
 121  519.7598
 122  537.2425
 123  573.889
 124  569.6851
 125  461.2928
 126  353.3145
 127  332.0678
 128  424.2736
 129  479.2857
 130  424.7942
 131  435.2134
 132  458.633
 133  465.1382
 134  553.8575
 135  423.6138
 136  460.7233
 137  468.2703
 138  438.2012
 139  502.8185
 140  439.9999
 141  362.8369
 142  447.3259
 143  459.0825
 144  477.4131
 145  463.6354
 146  442.7734
 147  389.4019
 148  356.3691
 149  445.4418
 150  433.2929
 151  389.7079
 152  493.2365
 153  501.7616
 154  422.1638
 155  398.3192
 156  428.5275
 157  436.0579
 158  499.8042
 159  475.6783
 160  358.0705
 161  352.1146
 162  368.8023
 163  456.9367
 164  403.908
 165  404.0108
 166  312.4247
 167  468.2546
 168  413.8635
 169  428.8941
 170  441.5148
 171  527.6097
 172  497.8912
 173  461.2428
 174  517.4833
 175  436.0866
 176  476.6921
 177  511.4532
 178  436.6862
 179  331.291
 180  446.8059
 181  439.4429
 182  433.4082
 183  416.0128
 184  347.3372
 185  340.745
 186  378.8075
 187  332.1293
 188  304.1097
 189  341.4586
 190  481.2241
 191  328.9105
 192  375.4185
 193  495.3656
 194  471.0586
 195  374.1445
 196  358.9823
 197  502.4807
 198  489.9621
 199  466.0427
 200  395.5683
 201  443.9238
 202  445.8499
 203  401.6901
 204  457.3033
 205  439.8412
 206  337.2935
 207  338.3795
 208  373.2486
 209  407.7109
 210  415.8942
 211  449.1554
 212  394.1396
 213  376.5577
 214  486.9156
 215  325.5219
 216  427.8397
 217  432.4115
 218  448.3813
 219  537.6349
 220  425.3749
 221  303.5053
 222  406.4473
 223  476.741
 224  464.7101
 225  494.3385
 226  388.7713
 227  357.0784
 228  287.303
 229  364.0669
 230  437.9661
 231  462.4724
 232  528.5477
 233  481.7687
 234  447.4646
 235  411.5458
 236  364.6394
 237  373.9574
 238  363.0286
 239  380.226
 240  443.8964
 241  483.0999
 242  414.658
 243  475.6848
 244  483.8268
 245  391.6772
 246  259.0555
 247  412.5365
 248  414.2943
 249  364.6629
 250  386.7864
 251  373.2652
 252  366.4207
 253  537.4074
 254  612.9999
 255  546.67
 256  365.5349
 257  386.3064
 258  592.2787
 259  502.5028
 260  413.7135
 261  434.5197
 262  472.3109
 263  392.3434
 264  423.185
 265  400.3894
 266  464.7027
 267  380.2379
 268  445.5687
 269  393.0121
 270  331.9707
 271  467.9017
 272  516.3918
 273  547.9747
 274  552.921
 275  528.6737
 276  377.0346
 277  342.0105
 278  368.1613
 279  370.9415
 280  276.7204
 281  332.3175
 282  451.1181
 283  523.5203
 284  523.366
 285  469.9027
 286  567.6337
 287  454.7542
 288  461.3243
 289  419.3874
 290  332.4751
 291  373.4364
 292  473.9835
 293  581.4589
 294  516.2199
 295  487.8399
 296  371.7264
 297  456.4295
 298  489.0618
 299  431.097
 300  381.6151
 301  561.3582
 302  512.8331
 303  376.3676
 304  449.0856
 305  444.5396
 306  462.6582
 307  389.8889
 308  300.2796
 309  312.6506
 310  418.2729
 311  483.5109
 312  520.1829
 313  483.4336
 314  434.406
 315  531.4679
 316  343.9798
 317  409.8207
 318  554.6439
 319  555.1712
 320  545.3826
 321  411.9872
 322  385.4906
 323  404.8788
 324  560.1729
 325  419.5977
 326  263.3757
 327  274.0482
 328  327.0687
 329  524.7745
 330  549.4691
 331  568.4265
 332  354.5298
 333  373.1125
 334  455.5905
 335  463.482
 336  493.6508
 337  442.5057
 338  419.5256
 339  396.9686
 340  453.6528
 341  500.0714
 342  381.9685
 343  401.8315
 344  451.7297
 345  463.5424
 346  428.8559
 347  522.6886
 348  532.2079
 349  509.1024
 350  588.2555
 351  439.552
 352  388.8143
 353  473.2993
 354  477.9274
 355  463.7315
 356  427.4894
 357  464.4322
 358  313.7373
 359  312.5114
 360  422.2444
 361  468.4083
 362  451.7204
 363  289.2753
 364  497.3147
 365  521.8994
 366  452.6996
 367  510.5533
 368  586.0574
 369  425.3781
 370  284.9017
 371  296.0288
 372  355.0095
 373  353.3801
 374  379.787
 375  471.1997
 376  484.3192
 377  347.4483
 378  414.6037
 379  499.6519
 380  455.293
 381  402.7393
 382  383.1019
 383  376.3802
 384  381.8321
 385  434.5784
 386  469.3352
 387  464.7318
 388  438.4751
 389  488.439
 390  470.965
 391  473.2082
 392  417.2294
 393  354.461
 394  509.041
 395  522.4582
 396  494.4478
 397  524.855
 398  478.6779
 399  458.389
 400  463.9915
 401  484.6523
 402  426.7874
 403  342.4156
 404  493.3052
 405  438.2367
 406  430.9893
 407  453.2333
 408  467.5526
 409  403.872
 410  365.1251
 411  355.1418
 412  412.7211
 413  435.5458
 414  381.9178
 415  426.0251
 416  297.7638
 417  324.4887
 418  359.7108
 419  465.3296
 420  448.6034
 421  338.7547
 422  366.4275
 423  422.0387
 424  490.8197
 425  428.6502
 426  246.8359
 427  450.3528
 428  511.4836
 429  367.7458
 430  458.5861
 431  586.0697
 432  485.8489
 433  551.656
 434  530.3701
 435  453.8712
 436  435.5076
 437  379.1453
 438  464.7032
 439  479.2742
 440  554.8734
 441  576.6555
 442  374.974
 443  382.249
 444  471.1847
 445  565.6314
 446  531.2366
 447  381.2737
 448  452.2597
 449  566.4212
 450  485.8791
 451  419.0046
 452  512.5892
 453  383.1102
 454  406.5662
 455  461.6475
 456  340.8412
 457  396.4967
 458  438.9202
 459  426.794
 460  394.3315
 461  453.3774
 462  460.5906
 463  585.1157
 464  573.2122
 465  357.0651
 466  333.3884
 467  370.5583
 468  425.3931
 469  608.4126
 470  475.0119
 471  432.8477
 472  320.4824
 473  377.734
 474  412.1269
 475  479.8012
 476  492.1656
 477  476.6682
 478  401.7308
 479  438.4317
 480  464.0402
 481  344.4385
 482  353.5347
 483  363.7776
 484  279.9467
 485  280.6141
 486  413.4025
 487  499.392
 488  468.2419
 489  316.558
 490  427.639
 491  388.2205
 492  406.6395
 493  463.7531
 494  567.149
 495  570.9833
 496  445.586
 497  433.4916
 498  447.9768
 499  453.8018
 500  385.218
 501  526.8307
 502  599.3522
 503  537.4648
 504  579.7403
 505  526.0497
 506  411.7868
 507  471.6727
 508  697.2493
 509  829.0717
 510  1065.098
 511  1257.619
