# Input file       =  1191983994.125854_cleaned.dat
# Candidate        =  PSR_0332+5434
# Telescope        =  AR
# Epoch_topo       =  58040.110834789979
# Epoch_bary       =  N/A
# T_sample         =  0.002
# Data Folded      =  7340032
# Data Avg         =  0.0152571218351677
# Data StdDev      =  0.999913943001134
# Profile Bins     =  512
# Profile Avg      =  218.678342674885 
# Profile StdDev   =  119.72273251099  
# Reduced chi-sqr  =  1.855
# Prob(Noise)      <  1.43e-28   (~11.0 sigma)
# P_topo (ms)      =  714.481230686429  +/- 0.000224
# P'_topo (s/s)    =  -0                +/- 1.18e-10
# P''_topo (s/s^2) =  0                 +/- 5.23e-14
# P_bary (ms)      =  N/A
# P'_bary (s/s)    =  N/A
# P''_bary (s/s^2) =  N/A
# P_orb (s)        =  N/A
# asin(i)/c (s)    =  N/A
# eccentricity     =  N/A
# w (rad)          =  N/A
# T_peri           =  N/A
######################################################
   0  901.89
   1  1009.846
   2  895.1257
   3  722.8268
   4  571.1307
   5  439.1832
   6  306.0258
   7  369.5367
   8  342.9424
   9  434.5109
  10  312.5107
  11  235.1302
  12  302.8266
  13  344.2366
  14  377.7283
  15  276.5389
  16  293.1076
  17  269.769
  18  262.4738
  19  242.1178
  20  215.1169
  21  277.7618
  22  248.9534
  23  208.4775
  24  275.1767
  25  235.2843
  26  338.6125
  27  409.7279
  28  286.0978
  29  241.4681
  30  308.6034
  31  266.061
  32  132.6857
  33  119.9259
  34  102.6572
  35  304.1833
  36  105.3494
  37  61.26542
  38  140.4057
  39  189.2092
  40  307.8104
  41  256.5886
  42  220.9461
  43  215.3205
  44  219.2387
  45  194.7267
  46  115.0018
  47  155.9701
  48  235.9144
  49  357.769
  50  322.2891
  51  233.5201
  52  144.8742
  53  170.0319
  54  168.4401
  55  200.9803
  56  245.4404
  57  103.8439
  58  153.8911
  59  219.5261
  60  211.4697
  61  210.3027
  62  313.712
  63  355.2746
  64  225.4216
  65  198.6114
  66  253.3316
  67  53.8444
  68  112.9632
  69  307.2365
  70  278.3621
  71  82.89365
  72  48.40469
  73  33.4979
  74  76.36976
  75  185.5087
  76  395.4468
  77  347.9267
  78  247.2391
  79  233.5081
  80  189.873
  81  133.7319
  82  240.9922
  83  285.8558
  84  253.2546
  85  48.72818
  86  93.35045
  87  169.9709
  88  281.4128
  89  217.3039
  90  250.8289
  91  287.8178
  92  255.4814
  93  87.57406
  94  179.4266
  95  258.0961
  96  307.5128
  97  246.9432
  98  287.929
  99  206.4202
 100  259.7092
 101  192.9855
 102  286.8864
 103  258.5877
 104  368.6125
 105  369.8519
 106  319.9416
 107  95.56323
 108  90.25831
 109  148.9011
 110  198.5974
 111  221.7423
 112  135.2101
 113  139.2776
 114  165.2824
 115  164.3006
 116  207.654
 117  282.5109
 118  165.0872
 119  145.8337
 120  284.857
 121  296.2311
 122  101.4704
 123  207.5821
 124  151.5251
 125  116.8455
 126  225.7753
 127  290.0335
 128  259.8089
 129  106.0494
 130  140.5168
 131  158.9826
 132  98.15429
 133  214.3341
 134  147.742
 135  111.7004
 136  199.3811
 137  197.3548
 138  68.6087
 139  146.5962
 140  222.2185
 141  111.0555
 142  197.7135
 143  403.1494
 144  285.7025
 145  148.97
 146  211.0826
 147  281.8574
 148  214.3076
 149  217.6948
 150  198.4633
 151  321.1667
 152  217.9784
 153  159.8969
 154  74.45293
 155  217.3666
 156  246.0512
 157  181.2833
 158  242.5262
 159  150.183
 160  163.7408
 161  228.7606
 162  176.111
 163  99.584
 164  227.7298
 165  205.43
 166  300.7207
 167  345.9792
 168  102.4279
 169  88.83266
 170  102.7639
 171  108.2205
 172  144.1632
 173  172.9664
 174  78.6742
 175  -0.500091
 176  168.6653
 177  204.6766
 178  219.2357
 179  183.3461
 180  180.7557
 181  204.6837
 182  204.733
 183  44.7738
 184  217.558
 185  198.6699
 186  101.5022
 187  54.48599
 188  144.2427
 189  265.9709
 190  167.9987
 191  113.8505
 192  178.4613
 193  189.756
 194  123.4846
 195  318.3121
 196  324.7995
 197  226.9581
 198  253.6791
 199  196.6615
 200  150.1642
 201  140.1008
 202  203.8991
 203  202.4355
 204  134.2735
 205  253.4782
 206  261.0748
 207  348.9456
 208  214.299
 209  143.5273
 210  140.5774
 211  113.1719
 212  9.862693
 213  18.89821
 214  119.2751
 215  148.6826
 216  69.0123
 217  75.80416
 218  69.48832
 219  145.3274
 220  318.7656
 221  243.2179
 222  71.85088
 223  171.936
 224  134.9956
 225  33.70065
 226  149.3139
 227  154.1267
 228  130.3837
 229  264.5572
 230  303.0076
 231  98.09789
 232  71.39455
 233  67.43346
 234  322.6389
 235  422.1973
 236  176.2686
 237  142.123
 238  207.8484
 239  130.5065
 240  128.6682
 241  180.8099
 242  266.6044
 243  239.6835
 244  190.9261
 245  188.1055
 246  185.3583
 247  224.0863
 248  297.684
 249  219.3393
 250  229.4023
 251  172.3683
 252  115.2254
 253  80.55252
 254  107.4441
 255  71.64996
 256  143.3775
 257  214.0668
 258  132.3331
 259  173.9312
 260  227.9445
 261  173.2399
 262  106.1243
 263  154.8695
 264  120.5394
 265  120.5702
 266  165.1625
 267  103.7975
 268  72.37434
 269  109.8383
 270  291.5498
 271  239.0091
 272  312.2864
 273  285.6403
 274  123.8247
 275  71.49918
 276  95.48586
 277  228.3894
 278  277.0402
 279  116.1627
 280  61.33083
 281  96.01147
 282  199.0529
 283  215.8878
 284  212.9706
 285  145.2335
 286  197.4951
 287  56.92596
 288  52.97367
 289  120.0755
 290  162.6819
 291  181.1699
 292  175.7489
 293  175.3784
 294  216.9301
 295  207.9592
 296  307.6407
 297  173.5546
 298  132.0418
 299  390.3814
 300  247.1496
 301  273.3966
 302  204.5024
 303  131.4854
 304  208.8184
 305  132.7478
 306  54.54509
 307  41.53062
 308  41.66862
 309  269.2783
 310  286.6737
 311  244.1208
 312  214.4195
 313  256.6223
 314  201.1392
 315  167.4591
 316  150.3947
 317  252.1337
 318  182.0741
 319  139.2549
 320  209.5758
 321  152.988
 322  171.9505
 323  223.5498
 324  210.3213
 325  227.2447
 326  225.5479
 327  284.8009
 328  227.0703
 329  165.7844
 330  190.7583
 331  335.9294
 332  209.6578
 333  172.0574
 334  275.9444
 335  429.4898
 336  271.9973
 337  169.6772
 338  223.6339
 339  174.3065
 340  135.4275
 341  164.3428
 342  217.0472
 343  265.1283
 344  59.06625
 345  102.6758
 346  88.35283
 347  130.1412
 348  79.0807
 349  145.4814
 350  234.2548
 351  292.4619
 352  248.2459
 353  176.5817
 354  266.6007
 355  296.9345
 356  336.4711
 357  260.8929
 358  188.6275
 359  341.4097
 360  252.4904
 361  224.2254
 362  239.7281
 363  313.3951
 364  163.3999
 365  169.301
 366  110.182
 367  67.96599
 368  206.8163
 369  193.7238
 370  243.047
 371  344.289
 372  194.8333
 373  187.529
 374  230.2437
 375  164.1067
 376  121.9722
 377  75.59562
 378  192.453
 379  198.5979
 380  96.76795
 381  84.19154
 382  145.6902
 383  232.7623
 384  233.232
 385  280.6143
 386  287.8757
 387  236.9903
 388  164.6675
 389  120.5684
 390  279.1569
 391  221.7871
 392  308.6393
 393  328.3572
 394  203.7277
 395  202.0611
 396  204.2925
 397  245.102
 398  274.1745
 399  341.4133
 400  351.6473
 401  329.4596
 402  85.98006
 403  88.12222
 404  194.9486
 405  247.0486
 406  189.3741
 407  169.3819
 408  288.5049
 409  258.6525
 410  222.4614
 411  188.3087
 412  33.79836
 413  63.02424
 414  311.3447
 415  315.4225
 416  174.1982
 417  113.1481
 418  162.4774
 419  196.5555
 420  280.8737
 421  252.5035
 422  192.8689
 423  254.8177
 424  157.6446
 425  286.571
 426  339.576
 427  274.2467
 428  160.3667
 429  219.9331
 430  285.5036
 431  289.3509
 432  326.4966
 433  253.4408
 434  227.6534
 435  282.6882
 436  272.8266
 437  236.546
 438  302.6133
 439  234.3169
 440  140.1846
 441  170.0855
 442  238.2585
 443  76.15937
 444  181.4243
 445  257.685
 446  229.2735
 447  220.1082
 448  284.8723
 449  318.9004
 450  180.8762
 451  338.5472
 452  440.1651
 453  266.6279
 454  272.7411
 455  263.5238
 456  145.7089
 457  176.819
 458  156.594
 459  237.5546
 460  210.3036
 461  258.5779
 462  282.7399
 463  254.4066
 464  240.567
 465  255.9643
 466  296.9825
 467  253.0697
 468  58.84495
 469  74.73157
 470  189.2566
 471  228.6103
 472  215.4404
 473  221.6772
 474  248.6329
 475  286.412
 476  290.7134
 477  256.3443
 478  321.4396
 479  280.3802
 480  231.4177
 481  278.3687
 482  321.3519
 483  280.1532
 484  170.9491
 485  246.5329
 486  357.5115
 487  190.9218
 488  142.0236
 489  190.0595
 490  235.8877
 491  282.3435
 492  365.4694
 493  391.0702
 494  263.4404
 495  125.7661
 496  80.04159
 497  65.18589
 498  219.6581
 499  330.674
 500  260.7252
 501  339.6212
 502  448.5819
 503  330.5605
 504  174.6094
 505  268.2555
 506  431.5575
 507  479.7659
 508  512.076
 509  695.2729
 510  924.3688
 511  1062.462
