# Input file       =  1191193657.11263_cleaned.dat
# Candidate        =  PSR_0332+5434
# Telescope        =  AR
# Epoch_topo       =  58030.963415655438
# Epoch_bary       =  N/A
# T_sample         =  0.002
# Data Folded      =  7340032
# Data Avg         =  0.0130013494165003
# Data StdDev      =  1.00009040190526 
# Profile Bins     =  512
# Profile Avg      =  186.411734569799 
# Profile StdDev   =  119.743860471377 
# Reduced chi-sqr  =  1.741
# Prob(Noise)      <  6.39e-23   (~9.8 sigma)
# P_topo (ms)      =  714.474872434202  +/- 0.000173
# P'_topo (s/s)    =  -0                +/- 9.14e-11
# P''_topo (s/s^2) =  0                 +/- 4.03e-14
# P_bary (ms)      =  N/A
# P'_bary (s/s)    =  N/A
# P''_bary (s/s^2) =  N/A
# P_orb (s)        =  N/A
# asin(i)/c (s)    =  N/A
# eccentricity     =  N/A
# w (rad)          =  N/A
# T_peri           =  N/A
######################################################
   0  1031.208
   1  1007.855
   2  664.2495
   3  450.1089
   4  351.8653
   5  444.5979
   6  237.4458
   7  168.6719
   8  184.4716
   9  236.5463
  10  303.4424
  11  339.4586
  12  275.5426
  13  370.5744
  14  438.3018
  15  433.5956
  16  386.8761
  17  241.7019
  18  181.9243
  19  146.1441
  20  181.0668
  21  150.7288
  22  180.6949
  23  244.3656
  24  198.5099
  25  122.7667
  26  137.498
  27  154.2621
  28  163.9104
  29  209.4
  30  138.2121
  31  135.0209
  32  228.9503
  33  217.7692
  34  219.9765
  35  264.354
  36  111.6021
  37  40.19861
  38  242.9506
  39  205.8674
  40  56.63905
  41  -33.41869
  42  115.38
  43  97.92466
  44  34.50137
  45  229.1693
  46  171.9845
  47  149.9815
  48  222.1167
  49  226.488
  50  182.9154
  51  195.2309
  52  278.6349
  53  190.2619
  54  112.8895
  55  224.5766
  56  230.6514
  57  88.8598
  58  178.7815
  59  255.5187
  60  122.3637
  61  27.04329
  62  69.87311
  63  78.39472
  64  -66.24551
  65  3.479845
  66  139.5061
  67  75.2095
  68  114.2943
  69  266.657
  70  229.4481
  71  132.2549
  72  109.9783
  73  142.7512
  74  140.0883
  75  248.0433
  76  242.044
  77  204.4419
  78  304.3897
  79  191.3182
  80  147.7005
  81  89.40839
  82  21.56873
  83  103.3772
  84  180.729
  85  166.5857
  86  171.4018
  87  251.5823
  88  91.90772
  89  129.6432
  90  23.09427
  91  -29.96292
  92  89.09055
  93  195.3948
  94  298.6902
  95  264.7378
  96  285.9598
  97  311.5219
  98  170.9164
  99  180.1566
 100  188.283
 101  204.2753
 102  287.9523
 103  165.1915
 104  159.2173
 105  262.7679
 106  224.7275
 107  146.3124
 108  145.9764
 109  163.9023
 110  209.5298
 111  157.9052
 112  170.1971
 113  119.313
 114  114.2671
 115  107.0297
 116  286.1704
 117  311.7169
 118  290.4324
 119  193.6631
 120  315.4924
 121  128.4509
 122  50.92881
 123  97.73665
 124  137.6408
 125  226.8811
 126  203.4422
 127  157.0717
 128  178.8147
 129  138.5112
 130  103.4493
 131  150.2128
 132  324.2686
 133  175.8884
 134  191.9694
 135  166.1129
 136  241.0688
 137  176.3803
 138  197.8817
 139  229.2669
 140  153.9161
 141  174.9514
 142  201.4798
 143  104.5158
 144  12.32666
 145  147.0657
 146  227.8278
 147  256.9932
 148  187.1526
 149  173.1035
 150  103.3506
 151  30.39134
 152  171.7575
 153  214.2663
 154  59.42968
 155  30.16656
 156  113.9282
 157  79.55796
 158  -11.62226
 159  151.5211
 160  201.2626
 161  127.5455
 162  175.4712
 163  226.734
 164  177.7097
 165  139.0298
 166  123.4008
 167  142.573
 168  198.1785
 169  187.608
 170  374.2963
 171  155.5897
 172  94.21896
 173  7.715895
 174  -73.74589
 175  73.37845
 176  164.2323
 177  196.1305
 178  155.1125
 179  178.3523
 180  200.4947
 181  118.9426
 182  170.874
 183  160.8929
 184  104.5363
 185  146.6791
 186  307.9453
 187  244.1081
 188  155.1928
 189  156.8671
 190  119.1059
 191  159.6839
 192  57.33724
 193  45.74823
 194  167.6588
 195  215.5469
 196  191.7014
 197  156.4153
 198  186.6149
 199  33.75319
 200  -37.71509
 201  65.97929
 202  133.293
 203  178.059
 204  193.044
 205  135.4193
 206  151.2359
 207  82.114
 208  134.9388
 209  122.1154
 210  150.7622
 211  223.7635
 212  270.0242
 213  163.7708
 214  222.8737
 215  200.151
 216  248.9165
 217  222.1008
 218  187.2348
 219  137.2616
 220  173.9066
 221  245.2819
 222  115.7572
 223  158.8006
 224  236.3567
 225  152.6568
 226  149.1591
 227  93.60595
 228  283.8363
 229  239.8105
 230  195.4996
 231  213.0728
 232  321.1862
 233  182.7842
 234  240.8425
 235  364.2156
 236  354.481
 237  165.481
 238  126.5067
 239  180.5115
 240  214.1631
 241  214.9464
 242  264.5249
 243  88.28941
 244  43.38185
 245  168.4733
 246  239.5439
 247  121.2241
 248  128.697
 249  252.0732
 250  79.62534
 251  101.2175
 252  216.5072
 253  360.6394
 254  299.7599
 255  144.1554
 256  150.6318
 257  278.3164
 258  353.8066
 259  239.3684
 260  223.9479
 261  212.4238
 262  124.922
 263  191.8017
 264  198.4976
 265  84.77226
 266  154.7573
 267  179.6681
 268  142.8978
 269  219.1009
 270  215.5804
 271  120.2167
 272  150.2617
 273  236.5303
 274  279.9409
 275  213.1437
 276  153.1953
 277  196.2284
 278  134.1389
 279  193.9012
 280  249.6897
 281  288.2299
 282  133.6515
 283  21.57685
 284  95.7058
 285  185.5923
 286  288.398
 287  225.6682
 288  119.5308
 289  142.3583
 290  219.1622
 291  175.7196
 292  202.1102
 293  237.2342
 294  190.4515
 295  159.8336
 296  81.66215
 297  195.6488
 298  245.1625
 299  295.7875
 300  144.405
 301  51.68129
 302  55.0817
 303  -26.16399
 304  82.09219
 305  168.8688
 306  200.0364
 307  238.2261
 308  117.2904
 309  226.4614
 310  175.0604
 311  202.778
 312  161.419
 313  107.6907
 314  224.8009
 315  237.4063
 316  258.2818
 317  165.968
 318  123.1206
 319  256.6694
 320  425.7017
 321  296.6324
 322  161.0138
 323  178.3494
 324  55.27227
 325  13.1147
 326  79.03537
 327  216.3134
 328  71.18507
 329  28.89522
 330  35.86001
 331  52.75674
 332  163.171
 333  117.2668
 334  179.6186
 335  235.4583
 336  224.6656
 337  77.98314
 338  64.44221
 339  243.6411
 340  134.0303
 341  78.3456
 342  169.3704
 343  226.6974
 344  229.6705
 345  271.9215
 346  215.9325
 347  198.5168
 348  146.2248
 349  127.0172
 350  161.4915
 351  166.7073
 352  146.5982
 353  330.2723
 354  289.8848
 355  250.2931
 356  243.2918
 357  151.2201
 358  30.99779
 359  32.19379
 360  317.2135
 361  363.4084
 362  233.8694
 363  211.2009
 364  175.547
 365  223.9954
 366  134.6702
 367  190.2552
 368  210.739
 369  130.9063
 370  174.5722
 371  249.811
 372  216.0234
 373  166.9781
 374  221.7528
 375  280.6893
 376  154.3855
 377  179.1486
 378  235.4238
 379  93.34908
 380  5.689992
 381  186.512
 382  183.7025
 383  43.28537
 384  -54.86917
 385  107.1023
 386  247.9148
 387  212.7371
 388  237.7092
 389  226.3556
 390  155.6611
 391  -25.10767
 392  -26.42727
 393  -27.85544
 394  42.0485
 395  209.0721
 396  152.4964
 397  186.2022
 398  207.1598
 399  222.6146
 400  152.5884
 401  206.4501
 402  117.6242
 403  115.381
 404  70.04639
 405  13.94315
 406  36.42625
 407  234.9046
 408  166.0804
 409  51.18264
 410  151.5191
 411  249.2943
 412  235.6407
 413  192.5053
 414  202.6405
 415  90.49033
 416  110.7707
 417  187.4733
 418  323.5537
 419  148.338
 420  220.3014
 421  198.3652
 422  195.5393
 423  325.0591
 424  242.3744
 425  125.18
 426  195.1595
 427  229.1656
 428  301.8127
 429  212.4368
 430  261.5881
 431  134.5662
 432  83.70288
 433  147.818
 434  252.7628
 435  266.8506
 436  270.5637
 437  209.1963
 438  191.9959
 439  260.0865
 440  249.7493
 441  156.8703
 442  127.9186
 443  290.4485
 444  151.9605
 445  134.1353
 446  219.2667
 447  278.5794
 448  198.6398
 449  151.6186
 450  246.1125
 451  279.6807
 452  218.6992
 453  230.6447
 454  249.8502
 455  214.996
 456  276.625
 457  158.7905
 458  290.7214
 459  169.2971
 460  213.2826
 461  135.3561
 462  155.4376
 463  265.5846
 464  106.5769
 465  204.3582
 466  274.1692
 467  270.5226
 468  216.3924
 469  73.37524
 470  79.87331
 471  191.0643
 472  236.4783
 473  160.5495
 474  106.4515
 475  307.612
 476  245.9112
 477  153.5955
 478  225.7743
 479  172.6692
 480  117.4967
 481  220.792
 482  341.6451
 483  96.05886
 484  -30.85704
 485  84.03339
 486  231.3438
 487  33.24129
 488  95.14648
 489  194.1201
 490  143.5781
 491  222.4998
 492  254.1431
 493  179.3355
 494  140.4026
 495  270.6271
 496  255.5987
 497  63.13529
 498  46.57239
 499  12.27714
 500  119.3946
 501  166.5399
 502  180.5166
 503  261.4799
 504  380.3987
 505  344.1199
 506  347.7129
 507  314.3036
 508  565.1445
 509  754.9724
 510  767.8467
 511  954.5727
