# Input file       =  1191380902.120259_cleaned.dat
# Candidate        =  PSR_0332+5434
# Telescope        =  AR
# Epoch_topo       =  58033.130603243742
# Epoch_bary       =  N/A
# T_sample         =  0.002
# Data Folded      =  7340032
# Data Avg         =  0.0130869878278869
# Data StdDev      =  1.00002993374954 
# Profile Bins     =  512
# Profile Avg      =  187.593394783178 
# Profile StdDev   =  119.736620435489 
# Reduced chi-sqr  =  1.490
# Prob(Noise)      <  3.86e-12   (~6.8 sigma)
# P_topo (ms)      =  714.476533643802  +/- 0.000204
# P'_topo (s/s)    =  -0                +/- 1.08e-10
# P''_topo (s/s^2) =  0                 +/- 4.75e-14
# P_bary (ms)      =  N/A
# P'_bary (s/s)    =  N/A
# P''_bary (s/s^2) =  N/A
# P_orb (s)        =  N/A
# asin(i)/c (s)    =  N/A
# eccentricity     =  N/A
# w (rad)          =  N/A
# T_peri           =  N/A
######################################################
   0  810.8054
   1  696.7482
   2  717.5027
   3  624.5204
   4  526.0468
   5  381.7602
   6  220.3675
   7  189.4712
   8  186.3993
   9  188.8067
  10  100.1242
  11  194.4887
  12  230.657
  13  243.6385
  14  292.2088
  15  259.8616
  16  160.3204
  17  47.02312
  18  203.6366
  19  301.0038
  20  225.4032
  21  166.4981
  22  30.5586
  23  32.34667
  24  121.3244
  25  182.5571
  26  227.2079
  27  167.2323
  28  217.6301
  29  215.4932
  30  78.71695
  31  148.7129
  32  205.9458
  33  251.2866
  34  112.7613
  35  185.6233
  36  344.9207
  37  82.86782
  38  116.8319
  39  156.125
  40  103.8518
  41  55.22401
  42  88.2219
  43  101.5809
  44  94.46555
  45  184.9091
  46  191.224
  47  303.7946
  48  213.0862
  49  121.3671
  50  141.768
  51  159.8686
  52  55.6929
  53  57.38128
  54  240.285
  55  275.4131
  56  288.8169
  57  197.8544
  58  146.2999
  59  158.0938
  60  265.7198
  61  195.5637
  62  150.712
  63  222.0229
  64  127.6246
  65  118.6901
  66  252.0993
  67  225.1254
  68  110.0967
  69  102.9626
  70  140.1056
  71  192.3648
  72  170.8904
  73  313.3105
  74  260.2147
  75  103.3057
  76  -38.99222
  77  149.8972
  78  80.3967
  79  78.07132
  80  219.2737
  81  242.2418
  82  10.72407
  83  -25.76266
  84  127.3962
  85  215.3755
  86  169.0846
  87  236.8789
  88  157.8926
  89  95.10543
  90  166.2931
  91  196.4846
  92  250.2357
  93  354.8409
  94  153.1592
  95  158.5306
  96  151.6632
  97  221.1053
  98  178.869
  99  218.7799
 100  212.2457
 101  332.3142
 102  292.1324
 103  190.4962
 104  197.271
 105  222.634
 106  151.4672
 107  192.9071
 108  83.32501
 109  328.4204
 110  314.3354
 111  166.9329
 112  181.3773
 113  152.3699
 114  197.0731
 115  200.567
 116  258.8943
 117  372.6577
 118  289.0756
 119  142.0732
 120  258.9443
 121  244.2862
 122  234.8447
 123  152.1876
 124  219.5684
 125  183.1073
 126  101.8164
 127  95.69443
 128  132.2281
 129  325.3471
 130  204.8072
 131  153.3267
 132  57.79691
 133  24.23409
 134  38.57561
 135  64.21608
 136  41.2863
 137  188.2059
 138  260.1053
 139  298.4534
 140  255.2664
 141  260.7693
 142  307.3183
 143  204.4671
 144  121.3195
 145  186.2542
 146  164.0708
 147  162.7757
 148  93.12184
 149  132.2734
 150  223.3634
 151  201.739
 152  112.4666
 153  193.1777
 154  281.9111
 155  82.77528
 156  198.6142
 157  240.8846
 158  90.725
 159  -17.90661
 160  1.224432
 161  170.4659
 162  229.7085
 163  240.4101
 164  144.8299
 165  179.8908
 166  246.2231
 167  275.8771
 168  224.9163
 169  116.8765
 170  261.2737
 171  227.3297
 172  136.5841
 173  218.6598
 174  178.3478
 175  168.5063
 176  117.8774
 177  199.4188
 178  164.4368
 179  181.8775
 180  257.5109
 181  309.8113
 182  240.4529
 183  125.1751
 184  -86.32061
 185  -67.9231
 186  16.31645
 187  183.2444
 188  308.7485
 189  239.0438
 190  257.9386
 191  110.1972
 192  45.89457
 193  -18.99698
 194  40.52735
 195  79.98033
 196  151.8578
 197  73.00133
 198  120.1923
 199  272.0128
 200  291.1358
 201  196.0728
 202  178.5267
 203  202.4122
 204  121.1312
 205  64.28627
 206  250.3997
 207  221.3572
 208  176.3752
 209  150.9885
 210  110.0405
 211  152.3946
 212  192.3514
 213  258.9227
 214  153.7074
 215  169.8508
 216  67.15876
 217  162.7933
 218  159.0272
 219  62.52539
 220  202.5039
 221  95.90779
 222  221.8086
 223  265.2603
 224  234.4165
 225  143.1979
 226  39.12606
 227  172.1987
 228  233.4756
 229  276.7124
 230  174.6967
 231  154.0754
 232  122.9063
 233  147.3397
 234  14.40975
 235  76.69952
 236  164.0475
 237  160.5967
 238  102.8998
 239  113.891
 240  196.7865
 241  172.843
 242  144.9636
 243  138.4556
 244  40.92579
 245  86.50085
 246  151.2886
 247  181.9835
 248  107.1867
 249  135.3385
 250  168.9847
 251  139.6413
 252  36.23043
 253  34.3966
 254  197.073
 255  140.6654
 256  154.9495
 257  55.90024
 258  28.09841
 259  26.32927
 260  110.1948
 261  160.1711
 262  200.2424
 263  206.3876
 264  120.5423
 265  84.32329
 266  28.22278
 267  122.2541
 268  3.708689
 269  141.3563
 270  329.0755
 271  283.5677
 272  125.1749
 273  130.3266
 274  281.8204
 275  210.9235
 276  273.2408
 277  289.4832
 278  246.0599
 279  202.2193
 280  167.1152
 281  184.6634
 282  117.0485
 283  153.8866
 284  183.5436
 285  303.3192
 286  141.2071
 287  66.31965
 288  140.1743
 289  180.4007
 290  146.663
 291  258.7896
 292  233.1669
 293  152.4592
 294  99.29203
 295  67.78618
 296  39.86507
 297  281.2087
 298  249.4689
 299  268.3754
 300  207.7031
 301  139.697
 302  320.793
 303  184.0362
 304  131.4804
 305  160.625
 306  225.3347
 307  285.4473
 308  232.5574
 309  164.9057
 310  228.5921
 311  185.2935
 312  214.228
 313  135.762
 314  164.6168
 315  302.9984
 316  226.9722
 317  151.7631
 318  85.18009
 319  73.41082
 320  90.18711
 321  95.14967
 322  191.3159
 323  183.2097
 324  78.20905
 325  91.81132
 326  65.59772
 327  139.7655
 328  231.8683
 329  351.3756
 330  195.6609
 331  160.5137
 332  348.1318
 333  409.7781
 334  323.2884
 335  296.22
 336  118.1326
 337  85.95351
 338  243.3199
 339  342.7467
 340  249.2092
 341  285.4082
 342  119.0086
 343  126.9286
 344  232.347
 345  177.2131
 346  240.166
 347  213.7392
 348  283.6194
 349  211.7747
 350  178.8408
 351  265.7894
 352  222.9245
 353  64.0173
 354  110.5011
 355  82.54225
 356  185.9086
 357  186.4343
 358  260.8839
 359  176.3685
 360  126.0494
 361  251.3295
 362  267.2721
 363  126.9364
 364  85.05188
 365  255.4754
 366  243.3541
 367  227.565
 368  277.7029
 369  299.8031
 370  199.4407
 371  176.8933
 372  34.78687
 373  125.9071
 374  150.4789
 375  117.8518
 376  52.86506
 377  64.84205
 378  15.63324
 379  -33.67864
 380  191.6968
 381  249.2079
 382  167.9241
 383  76.12086
 384  75.5903
 385  78.67899
 386  177.5298
 387  57.50273
 388  12.30852
 389  143.9044
 390  246.9852
 391  267.4904
 392  254.8514
 393  222.5831
 394  216.8647
 395  256.4937
 396  331.1047
 397  417.5859
 398  332.4106
 399  219.4448
 400  153.56
 401  140.9194
 402  201.8648
 403  179.3782
 404  148.6918
 405  66.14957
 406  175.0054
 407  245.4647
 408  87.32603
 409  55.21542
 410  143.5935
 411  185.613
 412  241.7227
 413  237.0562
 414  117.1572
 415  367.0373
 416  353.2248
 417  213.22
 418  131.4377
 419  24.41464
 420  -0.8961431
 421  3.230616
 422  222.365
 423  257.363
 424  184.5549
 425  297.0898
 426  219.7645
 427  282.6415
 428  202.5519
 429  265.7427
 430  161.9798
 431  136.0298
 432  228.6351
 433  331.032
 434  245.1694
 435  318.8891
 436  218.3219
 437  110.326
 438  131.665
 439  189.537
 440  295.9359
 441  182.9845
 442  164.7441
 443  159.1024
 444  100.1762
 445  196.347
 446  221.0565
 447  300.0262
 448  206.7786
 449  273.2472
 450  303.2334
 451  207.1501
 452  50.69747
 453  111.9501
 454  215.6086
 455  228.8777
 456  204.8624
 457  107.1583
 458  8.072104
 459  124.4632
 460  202.125
 461  241.8667
 462  334.1682
 463  216.6494
 464  72.63477
 465  37.5405
 466  29.29252
 467  61.85213
 468  209.6799
 469  206.429
 470  235.0837
 471  329.0445
 472  256.5739
 473  211.671
 474  214.3198
 475  155.1911
 476  163.0532
 477  145.0856
 478  212.8622
 479  116.4304
 480  123.9918
 481  164.2279
 482  197.5619
 483  234.0332
 484  300.7567
 485  234.2023
 486  132.4881
 487  237.3798
 488  275.8295
 489  189.0249
 490  210.4827
 491  363.583
 492  304.8075
 493  277.0252
 494  357.8637
 495  346.6775
 496  284.1494
 497  295.4507
 498  169.3288
 499  92.04718
 500  158.0544
 501  151.6173
 502  370.1943
 503  329.4889
 504  256.6109
 505  283.3049
 506  309.1553
 507  408.1593
 508  306.3554
 509  480.224
 510  665.0695
 511  831.9125
