# Input file       =  1191954469.124143_cleaned.dat
# Candidate        =  PSR_0332+5434
# Telescope        =  AR
# Epoch_topo       =  58039.769110233137
# Epoch_bary       =  N/A
# T_sample         =  0.002
# Data Folded      =  7208960
# Data Avg         =  0.0169293766164885
# Data StdDev      =  1.00003345408402 
# Profile Bins     =  512
# Profile Avg      =  238.319870420956 
# Profile StdDev   =  118.663145427568 
# Reduced chi-sqr  =  2.100
# Prob(Noise)      <  4.14e-42   (~13.5 sigma)
# P_topo (ms)      =  714.480637695569  +/- 0.000159
# P'_topo (s/s)    =  -0                +/- 8.52e-11
# P''_topo (s/s^2) =  0                 +/- 3.83e-14
# P_bary (ms)      =  N/A
# P'_bary (s/s)    =  N/A
# P''_bary (s/s^2) =  N/A
# P_orb (s)        =  N/A
# asin(i)/c (s)    =  N/A
# eccentricity     =  N/A
# w (rad)          =  N/A
# T_peri           =  N/A
######################################################
   0  1333.473
   1  1323.783
   2  1027.631
   3  830.7518
   4  501.743
   5  366.9463
   6  365.2269
   7  337.8937
   8  193.7973
   9  306.4514
  10  364.0926
  11  377.7715
  12  301.6802
  13  350.8274
  14  413.5442
  15  434.0907
  16  376.5654
  17  433.2567
  18  376.3951
  19  249.3263
  20  296.194
  21  192.6932
  22  202.1126
  23  257.1747
  24  260.9848
  25  205.7423
  26  140.9262
  27  165.6869
  28  295.1484
  29  309.0965
  30  129.8708
  31  119.5044
  32  243.4902
  33  294.2357
  34  353.0557
  35  192.5329
  36  250.8403
  37  202.8952
  38  133.3236
  39  138.6027
  40  90.26956
  41  221.0154
  42  280.9824
  43  158.8859
  44  141.6967
  45  115.8404
  46  167.2994
  47  22.4973
  48  205.326
  49  227.1869
  50  193.3051
  51  169.6587
  52  245.767
  53  285.6668
  54  267.4012
  55  251.9583
  56  245.4336
  57  160.1803
  58  188.195
  59  269.3744
  60  205.8638
  61  202.4695
  62  202.1031
  63  207.8846
  64  113.8462
  65  143.5565
  66  181.8269
  67  237.1557
  68  157.2312
  69  263.2372
  70  207.6441
  71  311.7072
  72  401.8046
  73  222.7521
  74  242.1668
  75  331.2806
  76  241.5389
  77  217.2336
  78  115.0865
  79  139.6212
  80  224.5119
  81  403.0703
  82  246.122
  83  171.976
  84  97.43591
  85  59.31089
  86  127.5362
  87  73.49779
  88  68.03526
  89  154.8792
  90  233.1647
  91  273.8744
  92  184.8865
  93  200.182
  94  237.4967
  95  187.2667
  96  190.3278
  97  149.4306
  98  261.4466
  99  175.7041
 100  190.0227
 101  209.3514
 102  209.0022
 103  336.2875
 104  349.6029
 105  287.4469
 106  61.14346
 107  152.4128
 108  331.3894
 109  249.7189
 110  224.8235
 111  216.0002
 112  231.1885
 113  244.3972
 114  298.5642
 115  213.5777
 116  244.3612
 117  198.5137
 118  249.922
 119  266.5372
 120  190.373
 121  336.6174
 122  379.5339
 123  280.4426
 124  285.6052
 125  181.2819
 126  162.1604
 127  309.9039
 128  273.412
 129  188.0623
 130  100.6259
 131  190.0875
 132  340.3897
 133  228.3951
 134  262.9127
 135  319.9012
 136  173.5833
 137  187.5156
 138  324.8986
 139  294.2039
 140  271.742
 141  310.5535
 142  245.7946
 143  113.625
 144  250.4466
 145  156.172
 146  205.5467
 147  159.9237
 148  283.18
 149  293.5349
 150  300.9994
 151  290.0861
 152  325.1221
 153  296.3068
 154  141.9863
 155  147.0648
 156  205.8499
 157  323.0389
 158  343.2032
 159  358.4445
 160  240.9911
 161  181.833
 162  266.5544
 163  241.0506
 164  257.6814
 165  255.1653
 166  200.155
 167  128.1026
 168  28.78344
 169  174.5493
 170  286.6479
 171  203.32
 172  246.5621
 173  224.1577
 174  242.3485
 175  157.6433
 176  164.5769
 177  209.2367
 178  217.0924
 179  161.9464
 180  244.0683
 181  272.1377
 182  208.8922
 183  255.944
 184  178.8474
 185  222.3504
 186  255.7536
 187  287.6129
 188  297.2899
 189  219.8265
 190  245.627
 191  336.7278
 192  243.7818
 193  191.372
 194  173.7983
 195  175.8398
 196  195.8733
 197  333.8841
 198  364.6642
 199  307.0851
 200  269.9836
 201  141.2451
 202  88.83136
 203  176.774
 204  301.0667
 205  191.0886
 206  180.5413
 207  259.2675
 208  249.0032
 209  296.1424
 210  384.9666
 211  265.0753
 212  198.4879
 213  187.6405
 214  118.4291
 215  137.1531
 216  243.4532
 217  188.9719
 218  233.8592
 219  207.6959
 220  185.9586
 221  300.8098
 222  271.0091
 223  177.9424
 224  303.1877
 225  274.0469
 226  160.7744
 227  94.22232
 228  187.5112
 229  328.6802
 230  395.5537
 231  380.0207
 232  328.3233
 233  204.7658
 234  166.9413
 235  243.224
 236  257.7201
 237  199.3799
 238  105.0179
 239  89.57659
 240  250.441
 241  231.8916
 242  248.0386
 243  247.0006
 244  123.5769
 245  219.401
 246  323.4966
 247  300.1252
 248  253.8233
 249  308.7873
 250  368.2487
 251  203.2752
 252  345.9233
 253  351.8274
 254  100.9416
 255  173.0665
 256  218.8717
 257  106.8252
 258  131.46
 259  107.5676
 260  178.4037
 261  127.6852
 262  121.5904
 263  220.4742
 264  186.2629
 265  189.8162
 266  316.8715
 267  328.0169
 268  140.1488
 269  174.0456
 270  164.9599
 271  108.4991
 272  133.4818
 273  191.6147
 274  192.6425
 275  251.5211
 276  253.6662
 277  180.2113
 278  91.78378
 279  96.81497
 280  190.0178
 281  81.42459
 282  105.1072
 283  190.4144
 284  228.3408
 285  303.2207
 286  246.3588
 287  191.7701
 288  209.0562
 289  240.7483
 290  230.2879
 291  239.7431
 292  263.9935
 293  119.413
 294  103.3984
 295  197.2056
 296  229.1088
 297  297.667
 298  150.6258
 299  108.3876
 300  279.8517
 301  271.4246
 302  206.6074
 303  192.7426
 304  214.9979
 305  160.4352
 306  145.7701
 307  150.3958
 308  237.5686
 309  260.0316
 310  234.3238
 311  148.3189
 312  131.9493
 313  6.158084
 314  157.9007
 315  154.5412
 316  289.2173
 317  195.6627
 318  306.4795
 319  342.3881
 320  291.9216
 321  321.1345
 322  320.0695
 323  279.96
 324  236.1812
 325  238.8907
 326  145.0372
 327  221.3003
 328  263.251
 329  236.8886
 330  153.033
 331  244.1576
 332  148.6097
 333  195.089
 334  131.7506
 335  99.98528
 336  166.372
 337  134.1614
 338  208.9916
 339  196.3596
 340  102.5079
 341  147.1583
 342  162.4608
 343  284.5837
 344  236.1705
 345  181.6334
 346  261.8486
 347  294.5761
 348  193.7019
 349  244.4971
 350  244.8376
 351  250.6888
 352  349.5173
 353  345.9701
 354  348.2195
 355  191.5797
 356  120.9289
 357  313.8337
 358  313.2163
 359  240.0391
 360  112.644
 361  188.8369
 362  303.482
 363  342.8248
 364  308.2191
 365  221.1745
 366  280.2709
 367  362.3067
 368  319.4672
 369  142.5655
 370  281.5039
 371  280.4311
 372  211.9823
 373  230.832
 374  191.6985
 375  171.2335
 376  373.6397
 377  326.7032
 378  329.6685
 379  247.5225
 380  182.9416
 381  181.3039
 382  217.496
 383  243.8838
 384  116.7135
 385  178.5791
 386  157.0294
 387  321.9438
 388  293.439
 389  226.2939
 390  171.211
 391  125.9489
 392  215.9364
 393  227.0228
 394  296.6219
 395  344.1547
 396  161.44
 397  202.6361
 398  202.0591
 399  95.12719
 400  118.8143
 401  226.3653
 402  273.3447
 403  167.9377
 404  237.641
 405  276.7815
 406  275.8626
 407  222.9634
 408  211.5308
 409  172.2432
 410  140.2948
 411  217.9733
 412  124.0817
 413  108.4758
 414  201.8483
 415  175.7546
 416  118.9725
 417  107.1912
 418  119.2688
 419  168.1571
 420  266.9466
 421  290.4855
 422  298.7558
 423  231.3702
 424  308.9785
 425  304.0175
 426  306.8456
 427  135.52
 428  172.6558
 429  211.1065
 430  314.4611
 431  398.89
 432  294.0028
 433  193.3646
 434  206.1411
 435  103.5518
 436  209.0037
 437  150.6069
 438  311.864
 439  382.5613
 440  295.1239
 441  100.6121
 442  -57.07635
 443  73.79278
 444  98.1278
 445  115.5172
 446  224.0993
 447  178.7905
 448  178.3838
 449  275.6072
 450  135.2683
 451  137.4256
 452  162.0582
 453  145.8128
 454  145.3469
 455  268.3294
 456  201.8391
 457  259.2319
 458  198.7904
 459  227.6243
 460  289.7557
 461  119.9029
 462  210.1075
 463  218.5996
 464  298.9153
 465  159.4745
 466  171.2086
 467  358.2448
 468  325.6153
 469  244.5706
 470  128.9774
 471  221.6479
 472  285.3643
 473  402.2336
 474  358.1772
 475  238.9046
 476  187.9701
 477  197.718
 478  181.9069
 479  285.9488
 480  329.3692
 481  407.0693
 482  197.253
 483  247.6984
 484  254.6912
 485  271.3665
 486  255.0809
 487  191.8722
 488  292.477
 489  287.7327
 490  204.2591
 491  210.5817
 492  244.6988
 493  253.5311
 494  266.2075
 495  233.7361
 496  322.7766
 497  279.6973
 498  279.9944
 499  191.7646
 500  159.3729
 501  235.7172
 502  263.2761
 503  196.7641
 504  420.2325
 505  462.9788
 506  380.4355
 507  331.1151
 508  540.2278
 509  597.6687
 510  889.835
 511  1093.283
