# Input file       =  1191437533.143266_cleaned.dat
# Candidate        =  PSR_0332+5434
# Telescope        =  AR
# Epoch_topo       =  58033.786054898912
# Epoch_bary       =  N/A
# T_sample         =  0.002
# Data Folded      =  7208960
# Data Avg         =  0.00456444146318659
# Data StdDev      =  1.00007895617321 
# Profile Bins     =  512
# Profile Avg      =  64.2850750513369 
# Profile StdDev   =  118.668544667967 
# Reduced chi-sqr  =  1.517
# Prob(Noise)      <  3.57e-13   (~7.2 sigma)
# P_topo (ms)      =  714.476597157817  +/- 0.00019
# P'_topo (s/s)    =  -0                +/- 1.02e-10
# P''_topo (s/s^2) =  0                 +/- 4.58e-14
# P_bary (ms)      =  N/A
# P'_bary (s/s)    =  N/A
# P''_bary (s/s^2) =  N/A
# P_orb (s)        =  N/A
# asin(i)/c (s)    =  N/A
# eccentricity     =  N/A
# w (rad)          =  N/A
# T_peri           =  N/A
######################################################
   0  819.3691
   1  932.2301
   2  820.9289
   3  492.015
   4  124.0854
   5  79.97012
   6  -72.85996
   7  -12.95259
   8  -57.22294
   9  20.81344
  10  -19.41735
  11  86.56708
  12  177.0658
  13  172.3145
  14  256.6259
  15  202.0618
  16  12.00408
  17  76.99294
  18  80.2351
  19  193.2435
  20  36.93311
  21  -130.1925
  22  -47.55355
  23  146.8481
  24  188.2984
  25  139.0603
  26  -18.83286
  27  58.66109
  28  110.8971
  29  97.7759
  30  165.6781
  31  142.167
  32  186.4371
  33  102.0597
  34  31.67748
  35  157.1064
  36  106.2972
  37  197.6641
  38  103.4986
  39  -3.951751
  40  101.5756
  41  57.14523
  42  164.3419
  43  211.8829
  44  130.3557
  45  159.2674
  46  108.3292
  47  84.67702
  48  113.5799
  49  2.238316
  50  52.68568
  51  126.4227
  52  111.4394
  53  85.29752
  54  69.61369
  55  31.26923
  56  92.02259
  57  56.56071
  58  8.891916
  59  93.96303
  60  44.61478
  61  -17.48265
  62  126.5852
  63  11.56384
  64  64.96898
  65  10.86055
  66  -38.51964
  67  -65.94874
  68  51.35762
  69  72.24766
  70  15.19034
  71  97.42502
  72  61.70285
  73  150.6514
  74  226.7103
  75  164.3219
  76  55.80505
  77  -130.6267
  78  41.56835
  79  124.516
  80  77.95691
  81  113.1307
  82  153.5492
  83  80.04356
  84  23.42733
  85  -86.01007
  86  -23.67514
  87  88.0579
  88  0.2711197
  89  115.2869
  90  84.45325
  91  7.80413
  92  -50.58611
  93  61.35601
  94  4.323067
  95  -127.7042
  96  97.27526
  97  197.5016
  98  266.3368
  99  45.15105
 100  109.4835
 101  41.14663
 102  -64.55992
 103  -5.36807
 104  101.0956
 105  32.22572
 106  -94.01196
 107  -70.83695
 108  -6.161826
 109  63.95053
 110  -57.8581
 111  -5.758889
 112  103.3864
 113  94.3545
 114  95.62739
 115  62.16291
 116  73.90067
 117  4.841891
 118  32.29518
 119  133.7844
 120  58.707
 121  41.82261
 122  93.85102
 123  227.0101
 124  260.4183
 125  129.7931
 126  225.3586
 127  107.995
 128  61.88771
 129  88.89317
 130  98.12688
 131  67.13627
 132  30.21452
 133  73.24356
 134  74.29327
 135  173.951
 136  128.1512
 137  -1.291872
 138  -85.21452
 139  15.34088
 140  163.039
 141  150.3779
 142  192.1131
 143  161.6559
 144  52.12666
 145  6.761166
 146  -85.05724
 147  -37.15666
 148  103.7794
 149  106.45
 150  60.65144
 151  64.49541
 152  54.17999
 153  5.81601
 154  74.84529
 155  111.7518
 156  -81.33403
 157  89.77946
 158  -30.2597
 159  -103.2893
 160  79.42097
 161  95.66377
 162  80.76419
 163  64.59094
 164  -60.64759
 165  18.74492
 166  18.19346
 167  -61.75021
 168  -37.64523
 169  -2.035182
 170  11.35431
 171  93.05671
 172  78.08963
 173  62.68791
 174  121.181
 175  61.49262
 176  21.59977
 177  -11.06168
 178  62.29148
 179  69.13889
 180  72.49554
 181  56.53299
 182  27.5418
 183  51.29129
 184  95.78523
 185  79.05285
 186  3.878168
 187  10.48704
 188  -37.88628
 189  -75.03284
 190  129.9969
 191  50.46365
 192  73.22107
 193  0.274001
 194  15.71298
 195  -58.48951
 196  -108.8149
 197  -37.90092
 198  -22.06952
 199  82.79539
 200  152.5006
 201  115.4198
 202  39.629
 203  221.7083
 204  112.6632
 205  48.98481
 206  23.01148
 207  22.77085
 208  142.8831
 209  77.71467
 210  110.4467
 211  280.2341
 212  173.4339
 213  -6.122777
 214  37.82817
 215  -54.4165
 216  -17.52582
 217  83.81338
 218  69.96002
 219  6.870651
 220  -39.29007
 221  25.6943
 222  -12.93185
 223  89.28387
 224  113.6484
 225  -14.59427
 226  -63.08223
 227  21.9083
 228  -88.33462
 229  -117.6952
 230  -29.25156
 231  -2.102993
 232  28.297
 233  42.5077
 234  88.82884
 235  128.4989
 236  69.06415
 237  50.09306
 238  143.0286
 239  67.93962
 240  42.04155
 241  88.02028
 242  105.7608
 243  80.75681
 244  -20.48518
 245  33.96252
 246  37.58472
 247  -12.2149
 248  53.49252
 249  106.0622
 250  133.841
 251  0.08702807
 252  34.33716
 253  117.2836
 254  49.23174
 255  32.52268
 256  65.67207
 257  18.0889
 258  -55.44984
 259  32.11104
 260  -15.34902
 261  54.95696
 262  50.13292
 263  82.99513
 264  149.3761
 265  132.2342
 266  1.223641
 267  88.51068
 268  126.7948
 269  -30.23691
 270  -38.84904
 271  146.1644
 272  137.4408
 273  25.65669
 274  44.6756
 275  194.0675
 276  150.301
 277  117.1856
 278  82.27333
 279  20.71849
 280  46.92154
 281  65.06894
 282  120.2473
 283  88.03831
 284  209.7581
 285  296.483
 286  142.6904
 287  75.09943
 288  115.9348
 289  181.3201
 290  203.713
 291  -23.00387
 292  33.89315
 293  146.37
 294  110.2242
 295  135.0691
 296  86.27407
 297  90.82978
 298  140.4719
 299  218.1284
 300  -32.14346
 301  26.10497
 302  56.10276
 303  47.73532
 304  55.81375
 305  -0.3684205
 306  128.2646
 307  14.78742
 308  -106.6649
 309  -36.50772
 310  177.5767
 311  225.3206
 312  71.07883
 313  -57.38179
 314  -25.94298
 315  82.13474
 316  144.7748
 317  82.80421
 318  92.62494
 319  49.7934
 320  103.8136
 321  230.1344
 322  33.02176
 323  108.1885
 324  23.92867
 325  39.09383
 326  22.4187
 327  76.86382
 328  99.28699
 329  -14.25455
 330  22.65059
 331  122.3308
 332  38.60266
 333  -67.13693
 334  15.9065
 335  29.10919
 336  48.60078
 337  33.59659
 338  52.58672
 339  118.0027
 340  111.3705
 341  108.1235
 342  19.33347
 343  52.47065
 344  108.5119
 345  137.2231
 346  2.447853
 347  -13.68605
 348  57.92015
 349  7.890033
 350  -66.86976
 351  -36.81527
 352  -42.52773
 353  78.46027
 354  54.31383
 355  33.30143
 356  163.7099
 357  196.2225
 358  12.22565
 359  -81.29476
 360  -85.03434
 361  81.91319
 362  109.2601
 363  34.56639
 364  -25.49606
 365  36.40176
 366  42.53647
 367  68.06674
 368  62.58423
 369  157.7233
 370  114.1311
 371  142.0271
 372  -44.60094
 373  -30.29218
 374  -44.99519
 375  -4.610413
 376  -80.07866
 377  25.79626
 378  63.82141
 379  110.1217
 380  111.435
 381  26.68415
 382  -38.88457
 383  8.739194
 384  20.053
 385  -9.913861
 386  58.60848
 387  -11.26639
 388  80.14521
 389  117.6084
 390  13.13459
 391  69.07324
 392  -29.56156
 393  -56.3348
 394  69.66167
 395  102.5995
 396  51.11618
 397  26.56983
 398  -35.89805
 399  -68.42187
 400  -49.67224
 401  -37.0839
 402  -59.34497
 403  -67.77631
 404  101.9779
 405  70.24682
 406  17.00541
 407  3.331215
 408  -54.12995
 409  -17.46246
 410  136.5509
 411  41.96035
 412  -20.93948
 413  32.08347
 414  84.87363
 415  46.50076
 416  -20.0153
 417  131.797
 418  58.19817
 419  58.43388
 420  115.3578
 421  135.3998
 422  51.33598
 423  18.74018
 424  32.83141
 425  29.7185
 426  94.37699
 427  49.50335
 428  168.5351
 429  148.6275
 430  52.66444
 431  -67.2431
 432  45.17893
 433  68.84668
 434  -93.9219
 435  5.311088
 436  55.71399
 437  157.4856
 438  189.269
 439  169.498
 440  -1.030372
 441  27.74608
 442  20.49726
 443  -60.32965
 444  -64.44902
 445  -13.1306
 446  11.47586
 447  31.14271
 448  -15.25093
 449  -79.2918
 450  -125.3412
 451  17.04843
 452  112.3463
 453  216.8611
 454  110.5248
 455  51.3008
 456  108.9578
 457  74.11331
 458  80.87444
 459  4.139668
 460  12.49197
 461  186.5256
 462  156.4214
 463  98.19849
 464  116.6034
 465  189.4168
 466  28.98362
 467  -60.06861
 468  -94.92925
 469  -2.750784
 470  68.43086
 471  117.6219
 472  115.5954
 473  28.22913
 474  35.94182
 475  32.79504
 476  -13.28102
 477  79.41905
 478  -3.656734
 479  -53.04434
 480  101.167
 481  225.2186
 482  254.0963
 483  55.87323
 484  8.67782
 485  -50.00581
 486  -9.067937
 487  65.09268
 488  129.0635
 489  -32.53596
 490  -95.81851
 491  -6.136528
 492  14.65463
 493  111.8512
 494  133.4234
 495  63.25492
 496  103.5107
 497  -34.92645
 498  -124.7745
 499  13.85362
 500  -48.34694
 501  37.05952
 502  68.42298
 503  108.2134
 504  -11.47142
 505  70.22421
 506  268.2352
 507  197.0402
 508  145.1156
 509  241.3994
 510  500.8296
 511  655.8508
