# Input file       =  1191882929.123109_cleaned.dat
# Candidate        =  PSR_0332+5434
# Telescope        =  AR
# Epoch_topo       =  58038.941100961914
# Epoch_bary       =  N/A
# T_sample         =  0.002
# Data Folded      =  7340032
# Data Avg         =  0.0123674961191106
# Data StdDev      =  1.000101382616   
# Profile Bins     =  512
# Profile Avg      =  177.092070704173 
# Profile StdDev   =  119.745175225215 
# Reduced chi-sqr  =  1.815
# Prob(Noise)      <  1.6e-26   (~10.6 sigma)
# P_topo (ms)      =  714.480062168881  +/- 0.000257
# P'_topo (s/s)    =  -0                +/- 1.36e-10
# P''_topo (s/s^2) =  0                 +/- 5.99e-14
# P_bary (ms)      =  N/A
# P'_bary (s/s)    =  N/A
# P''_bary (s/s^2) =  N/A
# P_orb (s)        =  N/A
# asin(i)/c (s)    =  N/A
# eccentricity     =  N/A
# w (rad)          =  N/A
# T_peri           =  N/A
######################################################
   0  1089.171
   1  1126.343
   2  906.6333
   3  510.1562
   4  268.5192
   5  197.0629
   6  201.4202
   7  43.57963
   8  209.9323
   9  266.4925
  10  316.746
  11  236.0312
  12  96.992
  13  61.43073
  14  192.6627
  15  218.2075
  16  306.6628
  17  433.1916
  18  336.8893
  19  60.71857
  20  110.3922
  21  185.7165
  22  121.8504
  23  65.90942
  24  99.55123
  25  94.97701
  26  -23.23169
  27  39.96986
  28  104.2865
  29  63.70663
  30  154.7255
  31  215.8143
  32  89.99178
  33  111.7315
  34  196.3159
  35  104.5995
  36  104.8293
  37  32.18882
  38  166.458
  39  81.59988
  40  65.50073
  41  150.579
  42  119.3638
  43  224.3789
  44  369.1951
  45  310.0876
  46  251.0097
  47  167.682
  48  124.692
  49  153.2438
  50  218.4575
  51  216.9952
  52  105.5297
  53  124.9263
  54  150.056
  55  121.6372
  56  147.7818
  57  129.377
  58  114.8263
  59  162.0524
  60  173.6969
  61  168.1529
  62  247.6954
  63  113.5745
  64  198.6157
  65  138.866
  66  33.69938
  67  205.8911
  68  271.2997
  69  307.4496
  70  184.3375
  71  24.56768
  72  91.91534
  73  182.2721
  74  207.7252
  75  255.8556
  76  114.0235
  77  227.6823
  78  174.2478
  79  118.406
  80  170.8875
  81  170.2843
  82  118.4831
  83  126.2858
  84  171.5817
  85  240.0409
  86  211.8232
  87  286.6392
  88  298.9095
  89  148.506
  90  247.8092
  91  250.8728
  92  195.1299
  93  162.8713
  94  174.1695
  95  110.3231
  96  203.7172
  97  180.3572
  98  214.8981
  99  330.4065
 100  242.9681
 101  294.601
 102  197.7611
 103  289.4852
 104  226.6075
 105  220.4969
 106  281.9373
 107  198.6417
 108  190.6914
 109  240.0538
 110  404.8233
 111  218.7925
 112  250.0548
 113  213.8522
 114  71.24542
 115  141.4515
 116  231.639
 117  316.8351
 118  267.642
 119  203.4588
 120  140.0242
 121  104.4746
 122  107.3142
 123  199.5377
 124  289.0187
 125  187.6873
 126  81.41708
 127  33.5443
 128  190.0702
 129  226.0394
 130  280.3181
 131  126.368
 132  152.8652
 133  214.8941
 134  308.0892
 135  173.4461
 136  165.1441
 137  199.3685
 138  252.2585
 139  184.9455
 140  103.7303
 141  228.1586
 142  289.0056
 143  181.8835
 144  238.7888
 145  86.48235
 146  102.5138
 147  5.659473
 148  127.9307
 149  231.7803
 150  70.77522
 151  67.04704
 152  157.0651
 153  82.33604
 154  158.2736
 155  188.3489
 156  125.8974
 157  133.227
 158  173.9398
 159  198.3385
 160  297.0568
 161  242.7932
 162  260.3215
 163  127.8808
 164  137.4183
 165  166.4813
 166  236.2957
 167  221.3152
 168  246.4414
 169  168.216
 170  109.8721
 171  61.81961
 172  227.2137
 173  170.4166
 174  223.1417
 175  339.6636
 176  256.3804
 177  244.1218
 178  167.2699
 179  183.4584
 180  197.9081
 181  194.9764
 182  264.4053
 183  122.5798
 184  119.9947
 185  119.2988
 186  102.2562
 187  43.33455
 188  42.92408
 189  237.206
 190  192.1391
 191  297.0845
 192  190.0428
 193  257.7752
 194  192.9594
 195  132.0351
 196  126.7206
 197  293.857
 198  268.5356
 199  286.6015
 200  191.3411
 201  270.9368
 202  290.329
 203  339.3949
 204  205.5884
 205  180.2476
 206  266.6654
 207  242.711
 208  128.3076
 209  50.41687
 210  131.6149
 211  171.4474
 212  123.3146
 213  125.9328
 214  57.31963
 215  9.827671
 216  14.31306
 217  32.88185
 218  98.66573
 219  105.989
 220  111.0854
 221  82.90034
 222  157.3323
 223  286.9273
 224  216.1605
 225  99.04833
 226  145.5233
 227  122.5666
 228  132.2887
 229  117.2921
 230  323.1752
 231  308.236
 232  178.9873
 233  86.14159
 234  152.6291
 235  325.0406
 236  125.6336
 237  55.31243
 238  135.7652
 239  303.683
 240  228.1262
 241  23.44747
 242  86.02787
 243  175.8033
 244  195.8267
 245  211.2706
 246  197.9504
 247  232.4866
 248  188.5608
 249  111.4555
 250  194.4465
 251  187.6563
 252  111.6447
 253  138.2218
 254  90.45755
 255  163.2432
 256  207.8961
 257  109.0236
 258  -8.048082
 259  -33.80556
 260  63.06141
 261  173.6801
 262  177.5532
 263  104.8409
 264  37.66886
 265  81.45649
 266  140.7921
 267  162.5927
 268  177.9984
 269  239.5592
 270  232.9528
 271  236.453
 272  157.395
 273  188.1802
 274  177.0947
 275  208.6161
 276  215.2548
 277  281.8416
 278  109.0544
 279  74.76463
 280  140.7642
 281  91.10409
 282  -28.53192
 283  -43.67712
 284  1.252031
 285  93.67597
 286  91.634
 287  30.70063
 288  -12.23895
 289  131.0527
 290  186.1223
 291  171.9497
 292  147.84
 293  28.76538
 294  92.7319
 295  206.4865
 296  116.9119
 297  129.8228
 298  146.4038
 299  157.8699
 300  165.4704
 301  142.8747
 302  64.36916
 303  119.7385
 304  203.4499
 305  113.1851
 306  0.5054587
 307  146.384
 308  172.6304
 309  138.4855
 310  196.9735
 311  62.77757
 312  75.95062
 313  134.5367
 314  138.1087
 315  246.3986
 316  149.0721
 317  61.38509
 318  187.3647
 319  206.7913
 320  162.6157
 321  263.5529
 322  150.2206
 323  20.17679
 324  108.8496
 325  186.0552
 326  136.1331
 327  48.95498
 328  65.00594
 329  96.59843
 330  25.45529
 331  106.6928
 332  81.2209
 333  106.8003
 334  133.4644
 335  107.2317
 336  93.22378
 337  162.6498
 338  53.78225
 339  44.59529
 340  158.3695
 341  177.9335
 342  195.0221
 343  183.3963
 344  149.5978
 345  281.3437
 346  253.9736
 347  169.5654
 348  224.5598
 349  193.0876
 350  94.2046
 351  -46.44334
 352  -53.99025
 353  107.6883
 354  168.1005
 355  122.8196
 356  163.1183
 357  116.422
 358  249.8067
 359  266.0534
 360  216.9452
 361  156.6593
 362  211.5159
 363  138.9619
 364  42.14397
 365  183.2923
 366  175.2026
 367  168.6199
 368  95.61826
 369  129.2112
 370  131.3328
 371  177.1306
 372  292.9526
 373  142.5023
 374  50.01326
 375  43.10707
 376  166.6605
 377  331.8746
 378  389.7683
 379  330.482
 380  312.1198
 381  190.3954
 382  126.5728
 383  233.0158
 384  194.6274
 385  222.9
 386  198.2726
 387  205.993
 388  194.2488
 389  204.7087
 390  237.6199
 391  253.0177
 392  201.0306
 393  187.5326
 394  218.9209
 395  84.76292
 396  -41.89706
 397  127.7379
 398  201.3054
 399  32.64183
 400  182.687
 401  280.0013
 402  191.4449
 403  108.2417
 404  172.6357
 405  105.1088
 406  90.40852
 407  223.9052
 408  150.7151
 409  170.3971
 410  130.5347
 411  60.03477
 412  80.90038
 413  171.5544
 414  31.67081
 415  28.76053
 416  51.71559
 417  106.0166
 418  135.0432
 419  150.5884
 420  183.0418
 421  61.18451
 422  87.22783
 423  179.2787
 424  36.96378
 425  178.4305
 426  199.0169
 427  115.9013
 428  147.8732
 429  188.9262
 430  175.644
 431  193.8458
 432  246.8001
 433  188.4123
 434  55.99303
 435  195.0278
 436  203.9443
 437  205.6996
 438  152.8258
 439  176.0762
 440  157.9747
 441  67.94938
 442  212.7817
 443  353.6011
 444  324.0516
 445  221.0035
 446  298.0069
 447  264.2051
 448  177.0161
 449  100.4745
 450  192.7943
 451  345.1132
 452  223.429
 453  204.1417
 454  136.2529
 455  188.5216
 456  291.5326
 457  138.8862
 458  140.3765
 459  306.726
 460  310.3377
 461  229.8378
 462  160.1801
 463  221.8418
 464  191.3605
 465  118.4723
 466  242.7273
 467  203.0341
 468  99.43886
 469  67.6281
 470  180.203
 471  248.4852
 472  87.86044
 473  203.8091
 474  180.7054
 475  185.1231
 476  121.7399
 477  173.142
 478  257.5677
 479  192.3056
 480  236.3722
 481  151.9615
 482  101.1322
 483  129.1443
 484  190.7786
 485  143.0121
 486  127.473
 487  184.5517
 488  181.529
 489  129.9399
 490  128.2545
 491  151.9329
 492  77.87222
 493  207.4792
 494  411.382
 495  251.2851
 496  207.4759
 497  85.59933
 498  148.7318
 499  168.9085
 500  294.2279
 501  240.5441
 502  124.5583
 503  159.354
 504  192.1093
 505  238.7913
 506  293.549
 507  296.0804
 508  391.0979
 509  612.9399
 510  834.0786
 511  991.0527
