# Input file       =  1191265216.114095_cleaned.dat
# Candidate        =  PSR_0332+5434
# Telescope        =  AR
# Epoch_topo       =  58031.791644839061
# Epoch_bary       =  N/A
# T_sample         =  0.002
# Data Folded      =  7208960
# Data Avg         =  0.0076963456546675
# Data StdDev      =  1.00006859876888 
# Profile Bins     =  512
# Profile Avg      =  108.322747761979 
# Profile StdDev   =  118.667315666906 
# Reduced chi-sqr  =  1.408
# Prob(Noise)      <  2.96e-09   (~5.8 sigma)
# P_topo (ms)      =  714.47535767756   +/- 0.000165
# P'_topo (s/s)    =  -0                +/- 8.85e-11
# P''_topo (s/s^2) =  0                 +/- 3.98e-14
# P_bary (ms)      =  N/A
# P'_bary (s/s)    =  N/A
# P''_bary (s/s^2) =  N/A
# P_orb (s)        =  N/A
# asin(i)/c (s)    =  N/A
# eccentricity     =  N/A
# w (rad)          =  N/A
# T_peri           =  N/A
######################################################
   0  759.6639
   1  640.0542
   2  581.2123
   3  310.8388
   4  20.73147
   5  95.33604
   6  145.0184
   7  256.4799
   8  114.1922
   9  88.94122
  10  107.7093
  11  185.4814
  12  297.9439
  13  226.9983
  14  283.3411
  15  138.6567
  16  165.5061
  17  227.5117
  18  243.8187
  19  162.9972
  20  53.83622
  21  67.42271
  22  195.7474
  23  214.2263
  24  152.7797
  25  55.61053
  26  167.2944
  27  229.9474
  28  217.1198
  29  232.1714
  30  110.8093
  31  50.90102
  32  61.76635
  33  88.07359
  34  111.1984
  35  115.1761
  36  122.2973
  37  25.09021
  38  70.43344
  39  54.48086
  40  37.38665
  41  -25.58311
  42  68.95734
  43  83.92549
  44  -28.63365
  45  32.36479
  46  70.99892
  47  49.21331
  48  63.5685
  49  94.71784
  50  184.3756
  51  143.4407
  52  114.7747
  53  141.4552
  54  100.8091
  55  139.3536
  56  99.44688
  57  207.725
  58  188.0423
  59  311.9506
  60  241.6737
  61  224.2597
  62  219.4373
  63  219.9571
  64  135.6462
  65  46.62341
  66  135.3797
  67  186.1442
  68  221.4099
  69  174.6636
  70  118.3019
  71  161.6833
  72  193.0007
  73  128.5112
  74  88.04231
  75  106.4091
  76  197.3595
  77  188.7446
  78  -71.42696
  79  40.44916
  80  108.981
  81  92.5571
  82  62.00601
  83  -5.979987
  84  74.41424
  85  106.7729
  86  72.02078
  87  162.7072
  88  15.0393
  89  14.7194
  90  81.99522
  91  108.9966
  92  239.8368
  93  336.7523
  94  255.5634
  95  68.3601
  96  0.5633936
  97  25.63858
  98  96.79951
  99  68.66123
 100  216.6917
 101  218.4938
 102  53.67213
 103  163.8037
 104  183.4097
 105  175.3446
 106  185.5852
 107  112.4303
 108  174.8639
 109  141.5828
 110  46.07479
 111  148.6989
 112  184.7945
 113  197.0097
 114  258.1035
 115  205.925
 116  132.307
 117  75.52036
 118  28.71102
 119  -17.91329
 120  -81.50604
 121  68.56982
 122  75.90244
 123  26.39337
 124  -10.2812
 125  20.7416
 126  98.61485
 127  228.6076
 128  47.57695
 129  110.4174
 130  25.88583
 131  -93.72502
 132  198.6198
 133  240.3071
 134  241.1268
 135  215.5445
 136  143.2898
 137  -30.25217
 138  -41.01925
 139  65.31283
 140  1.678034
 141  51.03798
 142  119.999
 143  155.9928
 144  191.7856
 145  173.7815
 146  103.6152
 147  46.49177
 148  106.9244
 149  126.5779
 150  132.488
 151  163.6246
 152  135.7725
 153  126.5012
 154  180.6439
 155  170.8052
 156  189.7502
 157  170.4301
 158  70.10339
 159  81.40951
 160  66.17802
 161  45.48518
 162  156.8243
 163  194.5916
 164  148.2731
 165  188.0082
 166  194.5497
 167  90.17004
 168  3.516316
 169  38.22314
 170  193.0264
 171  124.8986
 172  87.3441
 173  30.2216
 174  74.81167
 175  105.714
 176  196.1588
 177  58.34501
 178  -13.42064
 179  52.82406
 180  200.3757
 181  171.8898
 182  180.5978
 183  127.322
 184  -8.106509
 185  -46.78006
 186  -2.856508
 187  109.5339
 188  70.91924
 189  80.67574
 190  107.0152
 191  194.178
 192  121.67
 193  12.27507
 194  47.28488
 195  138.7035
 196  114.876
 197  84.97551
 198  121.8179
 199  269.8117
 200  192.5257
 201  215.372
 202  226.5466
 203  118.2904
 204  78.99792
 205  104.0448
 206  55.17443
 207  -0.360409
 208  18.55722
 209  17.56896
 210  -13.93126
 211  33.07739
 212  -20.70122
 213  -24.6896
 214  125.2237
 215  175.7513
 216  31.17281
 217  -44.26871
 218  35.0788
 219  41.83126
 220  82.38535
 221  177.8587
 222  155.4017
 223  106.2943
 224  137.4585
 225  194.1883
 226  36.57397
 227  -17.38922
 228  36.07263
 229  61.6207
 230  11.97569
 231  79.66057
 232  121.1482
 233  92.28358
 234  76.81664
 235  97.15948
 236  27.83996
 237  61.92262
 238  85.08572
 239  27.19263
 240  54.62844
 241  115.7525
 242  79.67349
 243  47.19326
 244  102.2272
 245  200.7249
 246  32.72733
 247  -63.04113
 248  152.3104
 249  261.8092
 250  186.095
 251  76.00346
 252  93.10635
 253  145.91
 254  80.97295
 255  71.78394
 256  48.97468
 257  33.30381
 258  50.7674
 259  64.78683
 260  -40.91285
 261  -34.94676
 262  118.6746
 263  152.6798
 264  41.56295
 265  -13.20448
 266  57.80566
 267  36.08564
 268  -16.05953
 269  66.52571
 270  -54.4337
 271  145.3234
 272  128.5598
 273  -15.30387
 274  42.38268
 275  134.619
 276  84.62978
 277  -64.3124
 278  137.999
 279  187.8249
 280  70.18614
 281  -38.93209
 282  44.2564
 283  107.7964
 284  67.3705
 285  126.6454
 286  2.698057
 287  95.16081
 288  38.00983
 289  0.03993053
 290  67.30571
 291  -41.99392
 292  -87.49196
 293  31.19761
 294  2.659588
 295  117.3146
 296  257.6668
 297  124.1005
 298  143.5514
 299  132.2306
 300  167.3674
 301  147.5241
 302  70.00869
 303  277.9329
 304  107.5018
 305  163.2443
 306  155.2721
 307  41.89994
 308  47.23755
 309  194.1547
 310  86.89688
 311  36.36283
 312  -61.68127
 313  -27.74937
 314  55.62549
 315  36.75155
 316  212.7558
 317  177.8896
 318  16.18572
 319  1.487386
 320  17.73799
 321  133.694
 322  80.65499
 323  -15.80358
 324  -18.76719
 325  197.4131
 326  179.983
 327  38.38231
 328  -55.76722
 329  12.80022
 330  145.2312
 331  201.7452
 332  217.885
 333  91.33068
 334  107.4641
 335  106.9697
 336  84.68715
 337  41.15358
 338  105.0378
 339  -103.8474
 340  19.55414
 341  96.43704
 342  9.829034
 343  56.42705
 344  94.36353
 345  44.17857
 346  137.4229
 347  11.82832
 348  74.91911
 349  130.4893
 350  164.5191
 351  104.7674
 352  -63.7045
 353  -137.9697
 354  -73.23382
 355  82.20719
 356  170.4358
 357  103.0972
 358  76.8828
 359  147.9616
 360  189.6493
 361  37.88617
 362  95.47573
 363  59.89498
 364  48.65008
 365  160.0052
 366  62.40174
 367  110.3474
 368  149.3068
 369  0.0653488
 370  51.26686
 371  114.276
 372  106.0195
 373  196.959
 374  210.6745
 375  115.8997
 376  15.40816
 377  -5.182582
 378  165.6264
 379  203.8468
 380  110.4112
 381  19.36119
 382  103.9011
 383  139.2598
 384  162.8253
 385  104.2553
 386  36.68265
 387  91.00233
 388  -27.03142
 389  77.02065
 390  238.8482
 391  178.4778
 392  231.9873
 393  171.6433
 394  -9.407398
 395  61.94415
 396  116.4381
 397  193.0914
 398  133.1617
 399  38.79737
 400  49.1021
 401  27.50149
 402  73.23974
 403  208.8198
 404  67.25153
 405  92.31769
 406  86.97929
 407  201.1231
 408  194.7995
 409  72.73428
 410  87.23384
 411  121.8838
 412  93.89075
 413  -0.8883049
 414  -23.05377
 415  -28.99422
 416  76.13851
 417  88.64592
 418  165.9508
 419  50.0793
 420  113.4947
 421  227.6897
 422  179.5405
 423  310.2718
 424  237.3754
 425  84.18134
 426  57.08588
 427  92.78944
 428  133.214
 429  125.799
 430  162.8396
 431  164.8525
 432  152.5264
 433  176.8504
 434  283.5465
 435  272.8492
 436  319.9574
 437  183.3363
 438  110.807
 439  136.9874
 440  77.99316
 441  34.55495
 442  64.13361
 443  57.37649
 444  -2.627587
 445  131.6122
 446  85.93784
 447  3.446681
 448  -70.67047
 449  -106.4937
 450  15.60036
 451  172.4662
 452  204.4173
 453  29.20386
 454  -23.91651
 455  82.07469
 456  107.0106
 457  166.4876
 458  95.55571
 459  159.3031
 460  56.36634
 461  59.45366
 462  -17.60097
 463  -8.060341
 464  -38.25174
 465  88.29663
 466  206.9374
 467  161.0968
 468  71.67349
 469  28.39568
 470  96.76432
 471  131.8631
 472  4.114826
 473  78.18411
 474  118.1404
 475  104.9803
 476  161.7082
 477  107.475
 478  111.3531
 479  24.99692
 480  142.9055
 481  212.4724
 482  93.01096
 483  61.73077
 484  -35.72612
 485  -13.02575
 486  31.49818
 487  28.73663
 488  57.05983
 489  46.39007
 490  151.6835
 491  233.9234
 492  95.30947
 493  159.4273
 494  195.9065
 495  143.6591
 496  91.01173
 497  53.15574
 498  17.68148
 499  34.3842
 500  110.0604
 501  223.9835
 502  130.8833
 503  176.6824
 504  239.9883
 505  167.8377
 506  270.1997
 507  300.2659
 508  328.0512
 509  442.7471
 510  673.7337
 511  803.1592
