# Input file       =  1191208577.114983_cleaned.dat
# Candidate        =  PSR_0332+5434
# Telescope        =  AR
# Epoch_topo       =  58031.136100867858
# Epoch_bary       =  N/A
# T_sample         =  0.002
# Data Folded      =  7340032
# Data Avg         =  0.0146195677533087
# Data StdDev      =  1.00003274943044 
# Profile Bins     =  512
# Profile Avg      =  209.60658240104  
# Profile StdDev   =  119.736957565512 
# Reduced chi-sqr  =  1.425
# Prob(Noise)      <  8.05e-10   (~6.0 sigma)
# P_topo (ms)      =  714.475311189568  +/- 0.000121
# P'_topo (s/s)    =  -0                +/- 6.37e-11
# P''_topo (s/s^2) =  0                 +/- 2.81e-14
# P_bary (ms)      =  N/A
# P'_bary (s/s)    =  N/A
# P''_bary (s/s^2) =  N/A
# P_orb (s)        =  N/A
# asin(i)/c (s)    =  N/A
# eccentricity     =  N/A
# w (rad)          =  N/A
# T_peri           =  N/A
######################################################
   0  811.2095
   1  760.3024
   2  664.7561
   3  448.3177
   4  265.7687
   5  223.7785
   6  89.72451
   7  47.31493
   8  195.0209
   9  275.3433
  10  268.049
  11  92.66775
  12  146.9266
  13  156.3751
  14  384.0117
  15  385.9924
  16  288.0339
  17  188.409
  18  173.6953
  19  108.0245
  20  170.3994
  21  340.7143
  22  332.4839
  23  245.0043
  24  172.664
  25  237.1693
  26  232.4532
  27  158.4807
  28  171.916
  29  91.78339
  30  183.8632
  31  244.2986
  32  342.5271
  33  489.8156
  34  363.2979
  35  281.0785
  36  273.923
  37  319.441
  38  293.1494
  39  323.6449
  40  203.9943
  41  320.0628
  42  340.5093
  43  270.1096
  44  129.8193
  45  210.8752
  46  195.9738
  47  191.0588
  48  135.4204
  49  182.4063
  50  115.1686
  51  117.3564
  52  177.0261
  53  111.8764
  54  69.18407
  55  216.8326
  56  238.3531
  57  315.5789
  58  365.3381
  59  205.1285
  60  175.4967
  61  286.0573
  62  148.3302
  63  171.8067
  64  217.6541
  65  131.1315
  66  112.5306
  67  132.542
  68  172.9942
  69  295.957
  70  314.1944
  71  265.883
  72  122.3612
  73  149.3414
  74  268.8149
  75  253.7793
  76  188.6223
  77  74.65841
  78  84.95292
  79  131.488
  80  282.3881
  81  99.40792
  82  109.8039
  83  198.4003
  84  118.5244
  85  154.2053
  86  145.8695
  87  283.9088
  88  321.9752
  89  239.5307
  90  326.5307
  91  228.8184
  92  210.0714
  93  208.4331
  94  241.4659
  95  207.8328
  96  209.3932
  97  80.75076
  98  236.3837
  99  262.205
 100  190.3484
 101  180.7856
 102  216.7282
 103  230.5975
 104  327.7855
 105  278.3141
 106  252.0784
 107  338.1659
 108  234.5681
 109  82.53809
 110  52.47177
 111  177.5937
 112  142.7471
 113  58.92287
 114  194.6589
 115  224.1741
 116  204.3884
 117  84.43267
 118  230.0795
 119  319.8605
 120  309.2073
 121  341.8362
 122  290.1862
 123  177.949
 124  270.6111
 125  271.0319
 126  270.3385
 127  279.9328
 128  321.8159
 129  224.6973
 130  200.0835
 131  226.6455
 132  196.1689
 133  228.5579
 134  387.3053
 135  299.3191
 136  197.8237
 137  332.8501
 138  339.2613
 139  139.2195
 140  107.0709
 141  89.11359
 142  320.1058
 143  314.9442
 144  168.6293
 145  143.0054
 146  231.0078
 147  269.2156
 148  178.7825
 149  137.934
 150  206.8028
 151  263.226
 152  151.6902
 153  163.2322
 154  65.81586
 155  0.261407
 156  126.1695
 157  256.2325
 158  339.141
 159  321.3533
 160  100.6103
 161  28.47546
 162  220.9898
 163  165.7076
 164  153.0293
 165  125.5481
 166  274.0453
 167  196.8828
 168  114.2598
 169  154.4224
 170  66.25678
 171  30.3084
 172  42.01399
 173  139.6176
 174  281.3634
 175  190.1071
 176  219.1753
 177  160.7943
 178  174.1957
 179  137.7787
 180  101.0616
 181  68.99189
 182  90.3046
 183  124.7393
 184  157.5443
 185  142.5503
 186  250.7663
 187  170.2155
 188  259.1952
 189  316.9566
 190  346.8696
 191  301.6218
 192  303.5375
 193  238.8159
 194  169.8371
 195  180.3206
 196  119.0381
 197  233.308
 198  231.093
 199  183.196
 200  270.3105
 201  202.0081
 202  226.7883
 203  169.8762
 204  147.8656
 205  116.6885
 206  31.59902
 207  185.3688
 208  138.3354
 209  153.4229
 210  234.5043
 211  269.6992
 212  243.6716
 213  187.3033
 214  265.2894
 215  242.9694
 216  330.1363
 217  268.0337
 218  192.8372
 219  108.4767
 220  115.3858
 221  82.24398
 222  61.69399
 223  228.1331
 224  249.9428
 225  131.6804
 226  91.71155
 227  260.3091
 228  193.6934
 229  412.0002
 230  420.7802
 231  277.4616
 232  285.3632
 233  292.7407
 234  269.9352
 235  196.9765
 236  71.62915
 237  83.97786
 238  205.2848
 239  196.1591
 240  230.3304
 241  226.1068
 242  136.2525
 243  242.8551
 244  282.0104
 245  253.9663
 246  239.3173
 247  379.3282
 248  416.2691
 249  226.1
 250  138.6284
 251  269.3834
 252  240.8941
 253  150.629
 254  133.1204
 255  81.44502
 256  132.59
 257  78.19433
 258  193.4791
 259  74.86939
 260  142.527
 261  241.6591
 262  153.152
 263  89.44179
 264  170.3472
 265  275.1308
 266  201.9154
 267  72.75265
 268  141.5478
 269  224.1924
 270  161.4083
 271  237.1859
 272  245.7023
 273  224.8346
 274  176.9324
 275  139.4392
 276  154.5661
 277  186.2097
 278  147.5907
 279  246.9115
 280  375.2838
 281  258.3208
 282  279.3248
 283  278.3224
 284  203.2786
 285  289.6306
 286  283.6697
 287  205.2034
 288  315.4333
 289  308.4873
 290  236.2385
 291  211.9799
 292  250.1247
 293  135.2951
 294  100.9701
 295  56.83306
 296  93.23002
 297  173.3831
 298  149.2157
 299  21.13521
 300  -42.18844
 301  128.5631
 302  280.9872
 303  263.5899
 304  282.2502
 305  263.2486
 306  274.2368
 307  276.5111
 308  259.2813
 309  263.8683
 310  285.3316
 311  252.9018
 312  348.0595
 313  231.7231
 314  202.8076
 315  124.367
 316  163.1187
 317  163.3004
 318  193.1154
 319  261.1518
 320  50.08204
 321  125.372
 322  207.631
 323  283.7295
 324  351.967
 325  295.56
 326  200.653
 327  140.7215
 328  57.6306
 329  156.9066
 330  310.9042
 331  248.8979
 332  162.3702
 333  228.36
 334  50.98862
 335  144.7864
 336  194.378
 337  117.3667
 338  160.1818
 339  188.9141
 340  306.5162
 341  161.0556
 342  82.7326
 343  210.0753
 344  353.2795
 345  298.6078
 346  134.6746
 347  118.8362
 348  177.0481
 349  168.0044
 350  156.3487
 351  133.479
 352  119.0702
 353  210.6273
 354  194.3176
 355  181.2031
 356  36.69509
 357  97.42604
 358  142.6483
 359  101.488
 360  149.6282
 361  280.156
 362  249.5849
 363  12.34152
 364  180.8138
 365  174.036
 366  196.9224
 367  283.7116
 368  319.1658
 369  204.8718
 370  151.3411
 371  157.5255
 372  190.5241
 373  165.1115
 374  188.0578
 375  344.5818
 376  140.8407
 377  -8.135408
 378  94.61017
 379  191.5007
 380  272.9687
 381  179.119
 382  130.9612
 383  159.9707
 384  180.6325
 385  140.2901
 386  195.8625
 387  279.9062
 388  221.8879
 389  133.9726
 390  66.73992
 391  124.5309
 392  71.38956
 393  170.7452
 394  360.5681
 395  387.8547
 396  238.1228
 397  226.7835
 398  173.6461
 399  222.8118
 400  156.5353
 401  150.5383
 402  90.80798
 403  78.13366
 404  103.2676
 405  46.84875
 406  186.3652
 407  280.5091
 408  192.9483
 409  168.8208
 410  213.1597
 411  333.5386
 412  346.3031
 413  266.9301
 414  267.6274
 415  275.8707
 416  260.3203
 417  244.7909
 418  301.2052
 419  300.1614
 420  216.0864
 421  254.9092
 422  291.6552
 423  247.0694
 424  200.2354
 425  298.1454
 426  473.2847
 427  307.5411
 428  214.683
 429  167.0804
 430  149.4101
 431  112.684
 432  178.7114
 433  211.74
 434  95.77013
 435  187.557
 436  255.123
 437  124.6721
 438  147.1217
 439  178.3633
 440  129.7227
 441  187.9821
 442  156.5947
 443  194.2187
 444  231.6533
 445  264.8624
 446  92.70536
 447  4.947926
 448  174.7041
 449  189.6107
 450  383.3961
 451  399.813
 452  210.0926
 453  123.48
 454  187.7757
 455  241.6645
 456  172.578
 457  117.3078
 458  236.1193
 459  230.8819
 460  16.93611
 461  122.7997
 462  174.0356
 463  35.91859
 464  136.049
 465  233.1779
 466  321.9844
 467  255.9356
 468  113.9759
 469  109.0531
 470  11.85457
 471  142.4911
 472  259.3165
 473  131.3831
 474  150.71
 475  178.3207
 476  232.9295
 477  144.8321
 478  158.9691
 479  75.83197
 480  227.4051
 481  333.3873
 482  276.7113
 483  320.3901
 484  231.2164
 485  158.2274
 486  124.077
 487  144.8536
 488  155.1376
 489  96.32159
 490  162.4941
 491  294.1231
 492  213.6761
 493  186.3604
 494  274.994
 495  403.4933
 496  279.425
 497  158.9154
 498  197.1526
 499  445.0434
 500  325.7939
 501  164.2956
 502  103.9085
 503  277.7946
 504  278.1252
 505  282.792
 506  299.359
 507  279.5534
 508  366.434
 509  585.0608
 510  747.0891
 511  807.4844
