# Input file       =  1191609817.124128_cleaned.dat
# Candidate        =  PSR_0332+5434
# Telescope        =  AR
# Epoch_topo       =  58035.780082455189
# Epoch_bary       =  N/A
# T_sample         =  0.002
# Data Folded      =  7208960
# Data Avg         =  0.00873599220160632
# Data StdDev      =  1.00015729448323 
# Profile Bins     =  512
# Profile Avg      =  122.910679236206 
# Profile StdDev   =  118.677840227267 
# Reduced chi-sqr  =  1.665
# Prob(Noise)      <  2.3e-19   (~8.9 sigma)
# P_topo (ms)      =  714.477889815202  +/- 0.000178
# P'_topo (s/s)    =  -0                +/- 9.56e-11
# P''_topo (s/s^2) =  0                 +/- 4.3e-14
# P_bary (ms)      =  N/A
# P'_bary (s/s)    =  N/A
# P''_bary (s/s^2) =  N/A
# P_orb (s)        =  N/A
# asin(i)/c (s)    =  N/A
# eccentricity     =  N/A
# w (rad)          =  N/A
# T_peri           =  N/A
######################################################
   0  1054.199
   1  841.7458
   2  646.5551
   3  334.6725
   4  290.0269
   5  109.4213
   6  31.3785
   7  -22.68932
   8  29.64767
   9  145.1891
  10  100.829
  11  -2.258111
  12  20.5075
  13  123.7637
  14  166.5149
  15  311.0048
  16  328.9273
  17  142.6029
  18  193.0185
  19  162.761
  20  130.2671
  21  126.6236
  22  240.6026
  23  208.3328
  24  178.6411
  25  170.8877
  26  229.1788
  27  222.4878
  28  120.1546
  29  168.0443
  30  121.6733
  31  94.03279
  32  148.5907
  33  79.92902
  34  270.7069
  35  373.0979
  36  182.1875
  37  -25.28546
  38  23.85535
  39  264.8204
  40  226.4882
  41  256.1682
  42  142.9065
  43  161.8881
  44  165.7786
  45  157.3413
  46  56.99562
  47  14.44203
  48  29.07861
  49  154.3738
  50  50.02781
  51  72.68456
  52  76.21123
  53  87.25531
  54  122.6991
  55  166.329
  56  91.90005
  57  29.59388
  58  -33.9577
  59  -39.49319
  60  -58.71619
  61  -15.64894
  62  84.96529
  63  90.18977
  64  183.845
  65  90.85019
  66  38.47435
  67  5.07437
  68  3.539352
  69  3.413185
  70  75.14055
  71  207.0269
  72  107.096
  73  94.005
  74  40.39789
  75  3.249558
  76  76.10725
  77  121.9775
  78  80.36022
  79  49.33263
  80  194.9346
  81  215.1092
  82  48.91617
  83  61.04282
  84  112.5606
  85  147.0805
  86  102.9874
  87  67.49077
  88  117.4414
  89  20.66837
  90  73.9921
  91  265.0476
  92  324.546
  93  229.1398
  94  139.604
  95  -36.10243
  96  54.58854
  97  179.2808
  98  228.0901
  99  30.00069
 100  22.89253
 101  136.5422
 102  164.6985
 103  155.8667
 104  186.515
 105  77.1517
 106  191.8612
 107  352.1381
 108  129.2475
 109  -16.91057
 110  35.98456
 111  -1.782142
 112  53.3269
 113  93.69424
 114  34.14647
 115  148.1052
 116  92.5332
 117  122.1745
 118  210.6022
 119  135.7786
 120  178.1649
 121  244.3221
 122  207.2308
 123  195.6898
 124  93.05914
 125  212.5373
 126  95.15968
 127  175.8727
 128  127.4732
 129  -33.04162
 130  -78.95049
 131  -3.602942
 132  -26.30569
 133  90.06026
 134  177.1548
 135  250.0859
 136  140.3495
 137  166.1201
 138  -64.46301
 139  -42.48029
 140  83.18409
 141  57.94429
 142  45.22121
 143  49.39672
 144  98.49008
 145  164.6102
 146  60.21278
 147  -1.642986
 148  -42.80705
 149  70.62551
 150  74.18576
 151  244.1108
 152  228.5168
 153  180.5879
 154  294.2449
 155  157.2625
 156  82.92203
 157  74.99522
 158  150.5596
 159  100.0119
 160  34.56554
 161  91.77548
 162  52.7697
 163  218.8354
 164  204.3669
 165  94.8214
 166  188.2821
 167  261.0356
 168  77.81101
 169  19.97996
 170  109.7953
 171  125.6007
 172  111.5489
 173  103.3099
 174  97.31975
 175  15.27616
 176  81.58185
 177  167.3778
 178  84.01887
 179  69.25236
 180  114.0579
 181  167.4791
 182  130.5352
 183  17.36842
 184  15.41458
 185  -12.64355
 186  65.31883
 187  182.97
 188  33.4107
 189  84.44515
 190  62.69854
 191  75.71507
 192  292.5242
 193  181.763
 194  105.5868
 195  -9.183799
 196  167.1499
 197  174.3892
 198  125.404
 199  41.36864
 200  -63.90168
 201  -1.218972
 202  -11.37942
 203  -0.0603207
 204  156.8279
 205  231.9635
 206  69.15304
 207  164.5393
 208  129.0504
 209  122.686
 210  117.5872
 211  190.6674
 212  287.2234
 213  372.2183
 214  165.9591
 215  199.3409
 216  228.8536
 217  346.936
 218  299.7448
 219  63.64511
 220  84.93386
 221  297.8467
 222  335.4558
 223  225.0966
 224  225.5168
 225  202.9928
 226  143.7309
 227  104.1115
 228  160.5179
 229  210.438
 230  125.4044
 231  121.4816
 232  132.1463
 233  182.0397
 234  125.3036
 235  197.4318
 236  139.3882
 237  -8.045589
 238  165.9853
 239  108.5121
 240  101.5667
 241  109.0866
 242  194.9222
 243  255.4814
 244  136.4642
 245  185.0902
 246  185.1438
 247  41.76627
 248  -24.32074
 249  112.7567
 250  214.1507
 251  149.2729
 252  189.566
 253  74.01568
 254  29.37227
 255  -21.12097
 256  206.1814
 257  180.6255
 258  133.7657
 259  126.7342
 260  49.22303
 261  124.9577
 262  176.6917
 263  187.8472
 264  236.6591
 265  231.8526
 266  175.7926
 267  197.8565
 268  207.3493
 269  129.8793
 270  85.53977
 271  91.27497
 272  179.4196
 273  172.6541
 274  123.7329
 275  92.65607
 276  136.6953
 277  189.7423
 278  188.3244
 279  38.51532
 280  99.43931
 281  130.1311
 282  130.9558
 283  120.2589
 284  83.1635
 285  182.1027
 286  64.14998
 287  144.0209
 288  127.1911
 289  21.87435
 290  124.495
 291  205.6223
 292  76.71883
 293  20.54088
 294  52.36036
 295  207.157
 296  303.3478
 297  206.4166
 298  137.4187
 299  241.1863
 300  281.4409
 301  117.4833
 302  64.21
 303  165.3102
 304  190.9732
 305  110.3535
 306  118.3588
 307  119.4441
 308  14.83127
 309  187.4027
 310  104.3474
 311  -1.166165
 312  62.96312
 313  116.5174
 314  127.7329
 315  -8.039636
 316  74.0228
 317  174.9623
 318  187.1306
 319  139.1254
 320  109.8257
 321  51.28685
 322  140.4334
 323  218.1503
 324  268.3995
 325  129.7852
 326  0.559322
 327  12.6858
 328  121.9056
 329  53.41049
 330  81.82047
 331  242.2264
 332  89.64083
 333  -33.45162
 334  -58.58224
 335  34.89786
 336  29.5965
 337  79.27468
 338  46.76516
 339  1.160665
 340  26.48714
 341  10.83791
 342  20.29071
 343  90.50091
 344  117.6429
 345  128.8973
 346  -16.92559
 347  -30.13233
 348  58.37575
 349  127.8955
 350  163.8148
 351  52.7716
 352  13.4099
 353  46.55392
 354  -43.78334
 355  99.87778
 356  40.87511
 357  100.2974
 358  164.3576
 359  184.2493
 360  70.0136
 361  133.0536
 362  205.0039
 363  228.6199
 364  98.92028
 365  15.80553
 366  178.1527
 367  131.987
 368  8.339145
 369  55.13114
 370  116.8289
 371  133.282
 372  43.3992
 373  134.8349
 374  213.5819
 375  77.0951
 376  -6.732967
 377  40.87804
 378  142.1803
 379  168.07
 380  156.473
 381  71.79803
 382  98.23937
 383  223.6767
 384  115.3024
 385  13.32826
 386  63.27386
 387  87.55106
 388  21.2193
 389  142.1635
 390  144.2923
 391  125.212
 392  113.0601
 393  116.0939
 394  18.54359
 395  99.68142
 396  91.07804
 397  34.2435
 398  50.29445
 399  -39.6327
 400  0.8671314
 401  11.5262
 402  34.29895
 403  50.576
 404  92.06847
 405  166.0826
 406  144.9957
 407  184.3694
 408  201.1015
 409  74.90163
 410  32.85413
 411  118.0364
 412  169.3493
 413  127.8929
 414  155.0635
 415  70.15405
 416  22.30578
 417  9.517463
 418  8.195931
 419  154.0283
 420  199.8876
 421  119.8604
 422  75.17796
 423  13.36992
 424  136.1678
 425  185.9171
 426  144.1712
 427  71.908
 428  7.048764
 429  165.7768
 430  196.9101
 431  12.30491
 432  91.14992
 433  125.6922
 434  132.6432
 435  40.96132
 436  167.7078
 437  222.1463
 438  241.605
 439  202.0589
 440  145.1037
 441  193.9467
 442  98.38339
 443  118.3723
 444  -15.24409
 445  33.22398
 446  82.38018
 447  187.5697
 448  181.5879
 449  161.3222
 450  100.4667
 451  121.4977
 452  -4.951878
 453  149.1511
 454  172.6886
 455  76.15875
 456  86.31078
 457  166.0598
 458  78.35383
 459  90.84853
 460  207.7585
 461  15.718
 462  116.4416
 463  270.5867
 464  176.2977
 465  103.6792
 466  48.33884
 467  108.8215
 468  42.91128
 469  71.07655
 470  8.547282
 471  3.806981
 472  37.83422
 473  11.60658
 474  6.859421
 475  105.8626
 476  -69.17213
 477  20.17047
 478  149.7074
 479  53.41754
 480  -17.79712
 481  -12.96992
 482  137.7735
 483  115.902
 484  3.265965
 485  26.2369
 486  -48.89432
 487  87.1814
 488  195.1348
 489  178.8244
 490  98.10402
 491  100.4807
 492  0.02082448
 493  46.53211
 494  118.4113
 495  238.2396
 496  191.632
 497  192.235
 498  233.292
 499  195.71
 500  76.16669
 501  103.6885
 502  108.9475
 503  196.4185
 504  279.9337
 505  271.0247
 506  237.5914
 507  192.562
 508  346.3633
 509  513.4385
 510  646.8305
 511  890.9637
