# Input file       =  1191092853.127013_cleaned.dat
# Candidate        =  PSR_0332+5434
# Telescope        =  AR
# Epoch_topo       =  58029.796702858948
# Epoch_bary       =  N/A
# T_sample         =  0.002
# Data Folded      =  7208960
# Data Avg         =  0.00679604670026215
# Data StdDev      =  1.00000963460376 
# Profile Bins     =  512
# Profile Avg      =  95.5905354936837 
# Profile StdDev   =  118.660319027672 
# Reduced chi-sqr  =  1.743
# Prob(Noise)      <  5.26e-23   (~9.8 sigma)
# P_topo (ms)      =  714.474170005346  +/- 0.000183
# P'_topo (s/s)    =  -0                +/- 9.86e-11
# P''_topo (s/s^2) =  0                 +/- 4.43e-14
# P_bary (ms)      =  N/A
# P'_bary (s/s)    =  N/A
# P''_bary (s/s^2) =  N/A
# P_orb (s)        =  N/A
# asin(i)/c (s)    =  N/A
# eccentricity     =  N/A
# w (rad)          =  N/A
# T_peri           =  N/A
######################################################
   0  1009.16
   1  922.537
   2  607.7783
   3  211.0071
   4  166.987
   5  142.051
   6  39.42845
   7  136.0395
   8  195.1901
   9  275.7729
  10  135.4854
  11  35.9169
  12  94.36588
  13  137.0243
  14  243.327
  15  156.605
  16  70.54821
  17  139.7317
  18  0.8183981
  19  16.84655
  20  126.6015
  21  87.92815
  22  52.18094
  23  145.6282
  24  103.0994
  25  69.20958
  26  74.53835
  27  192.9569
  28  65.67647
  29  57.17012
  30  54.64861
  31  -81.47606
  32  8.340576
  33  22.60408
  34  18.13311
  35  52.87969
  36  115.0341
  37  47.89931
  38  53.45697
  39  132.3404
  40  70.77268
  41  129.8985
  42  283.7219
  43  109.7708
  44  112.0549
  45  1.91355
  46  92.66264
  47  182.7399
  48  180.5225
  49  117.8825
  50  -22.55514
  51  62.70263
  52  20.31695
  53  -3.494824
  54  74.40882
  55  98.80023
  56  -33.9541
  57  -69.58368
  58  41.16471
  59  105.1598
  60  145.0012
  61  69.34238
  62  185.9114
  63  38.09422
  64  0.5264224
  65  163.385
  66  168.0675
  67  68.53043
  68  112.7554
  69  74.2484
  70  111.0316
  71  135.1615
  72  86.86168
  73  143.6664
  74  112.3718
  75  98.13567
  76  79.50855
  77  133.8546
  78  160.5378
  79  2.528821
  80  9.469717
  81  34.1339
  82  -19.81312
  83  -6.988183
  84  119.2755
  85  46.55792
  86  -46.36308
  87  82.95243
  88  41.94112
  89  83.09675
  90  211.1697
  91  197.8612
  92  206.2973
  93  84.25076
  94  -27.67028
  95  66.62595
  96  61.6787
  97  128.617
  98  126.5878
  99  162.7685
 100  38.24068
 101  67.44735
 102  26.06005
 103  162.8265
 104  19.12182
 105  57.95406
 106  196.334
 107  92.0435
 108  -19.08489
 109  -36.54232
 110  58.07472
 111  90.19654
 112  140.2285
 113  277.1794
 114  331.3667
 115  126.9485
 116  189.5638
 117  61.21537
 118  -52.88356
 119  31.86917
 120  166.5318
 121  107.9641
 122  83.46745
 123  137.4078
 124  155.7508
 125  102.5309
 126  164.2734
 127  86.94934
 128  1.52296
 129  161.4222
 130  92.80058
 131  81.97008
 132  133.5568
 133  111.9057
 134  -14.06182
 135  -51.85529
 136  -145.0912
 137  -90.56955
 138  -139.1213
 139  -72.30641
 140  92.7661
 141  190.2191
 142  78.0111
 143  133.2966
 144  81.43036
 145  68.35674
 146  49.61132
 147  41.58645
 148  113.35
 149  146.4353
 150  184.7368
 151  253.2095
 152  115.6906
 153  5.48443
 154  71.53848
 155  68.1272
 156  120.4943
 157  103.4342
 158  54.09634
 159  12.06474
 160  -54.94758
 161  -36.67749
 162  -19.87628
 163  -78.41
 164  23.24279
 165  126.9146
 166  58.13851
 167  -35.83403
 168  75.0344
 169  48.20704
 170  -71.45451
 171  -109.844
 172  -14.89904
 173  109.5545
 174  252.1711
 175  178.6623
 176  191.6252
 177  103.9844
 178  103.1231
 179  -6.697481
 180  -88.4006
 181  42.51057
 182  55.48969
 183  11.39165
 184  22.62104
 185  48.3147
 186  12.68151
 187  73.08081
 188  78.38437
 189  42.60444
 190  -7.968551
 191  165.8279
 192  140.312
 193  11.34318
 194  -1.913204
 195  101.546
 196  108.2414
 197  -9.171304
 198  29.11351
 199  154.1112
 200  133.4354
 201  81.77441
 202  4.181217
 203  -29.13612
 204  21.67696
 205  166.3629
 206  100.3886
 207  121.8498
 208  50.00347
 209  -44.12276
 210  42.41814
 211  39.65849
 212  110.244
 213  -21.89302
 214  -23.9662
 215  43.44587
 216  42.94366
 217  81.56306
 218  152.0569
 219  223.9973
 220  156.8011
 221  -39.88898
 222  78.61057
 223  -6.143867
 224  -14.41359
 225  151.9106
 226  21.76578
 227  18.22834
 228  95.46452
 229  202.5221
 230  164.4057
 231  94.06963
 232  112.3057
 233  93.88113
 234  -26.51767
 235  91.05461
 236  51.23198
 237  -158.3134
 238  -45.8638
 239  49.20586
 240  115.3205
 241  66.96554
 242  26.74446
 243  52.95027
 244  200.8257
 245  166.5453
 246  164.794
 247  249.8064
 248  139.1199
 249  207.6436
 250  154.5088
 251  247.2319
 252  113.3366
 253  -28.42368
 254  31.33347
 255  46.58224
 256  151.6811
 257  268.3862
 258  138.04
 259  75.86168
 260  101.4991
 261  77.12538
 262  7.238632
 263  97.00048
 264  57.51883
 265  156.8151
 266  206.6342
 267  158.6136
 268  58.92778
 269  137.7837
 270  102.1443
 271  135.9474
 272  126.2438
 273  135.0141
 274  104.6178
 275  39.04263
 276  21.02535
 277  111.0971
 278  62.8291
 279  41.58975
 280  -56.67391
 281  26.9388
 282  39.60596
 283  -11.5876
 284  19.73242
 285  77.4076
 286  99.10741
 287  60.54713
 288  -112.3092
 289  -36.23566
 290  30.93288
 291  63.17424
 292  -8.150528
 293  65.57794
 294  70.72913
 295  -129.2992
 296  32.452
 297  179.7683
 298  99.69657
 299  106.0535
 300  170.8853
 301  226.108
 302  80.90508
 303  40.61906
 304  223.4847
 305  105.258
 306  90.29591
 307  175.3143
 308  149.9329
 309  51.60656
 310  -72.95501
 311  29.67187
 312  166.6722
 313  92.35369
 314  55.91824
 315  86.86494
 316  -19.35933
 317  -16.20642
 318  -70.16326
 319  57.79808
 320  89.29446
 321  31.21758
 322  -22.65892
 323  55.34448
 324  205.6511
 325  185.2137
 326  221.4499
 327  212.1856
 328  181.2505
 329  67.1459
 330  -110.1883
 331  47.22247
 332  65.8525
 333  36.28319
 334  106.3892
 335  25.02733
 336  50.75342
 337  86.30075
 338  18.3561
 339  -53.22238
 340  -34.86637
 341  93.63734
 342  38.72322
 343  129.8862
 344  55.35171
 345  -37.74935
 346  80.93279
 347  94.58724
 348  78.83831
 349  128.8204
 350  96.95294
 351  113.8529
 352  11.48155
 353  -17.53632
 354  10.92787
 355  158.4492
 356  -33.06983
 357  16.9154
 358  157.6052
 359  89.96378
 360  73.15331
 361  51.06902
 362  222.0229
 363  85.22659
 364  138.0329
 365  192.7444
 366  133.184
 367  68.69003
 368  21.87822
 369  214.671
 370  263.6764
 371  175.7434
 372  135.6974
 373  104.5851
 374  91.20419
 375  78.52406
 376  149.2077
 377  145.2636
 378  100.706
 379  125.9451
 380  222.8202
 381  158.4802
 382  -49.6192
 383  47.41177
 384  157.8709
 385  114.9702
 386  118.3912
 387  42.20925
 388  113.1328
 389  177.2206
 390  195.1671
 391  187.1921
 392  122.26
 393  25.75578
 394  55.61903
 395  -67.69586
 396  -20.65737
 397  -27.13058
 398  134.8863
 399  214.1988
 400  16.87667
 401  40.55721
 402  202.3981
 403  270.9429
 404  66.9146
 405  40.70038
 406  129.7837
 407  240.59
 408  154.3349
 409  150.4056
 410  232.0971
 411  258.4261
 412  129.9964
 413  2.314037
 414  116.3395
 415  121.502
 416  253.0715
 417  209.039
 418  228.3897
 419  216.761
 420  86.58531
 421  74.98167
 422  236.4629
 423  67.20349
 424  27.60464
 425  215.0545
 426  306.55
 427  282.209
 428  108.676
 429  165.7589
 430  76.72054
 431  160.4694
 432  118.4744
 433  73.64471
 434  112.4947
 435  151.5389
 436  184.5008
 437  24.53127
 438  94.227
 439  155.7937
 440  192.1204
 441  77.27744
 442  -29.55718
 443  55.23741
 444  40.6489
 445  11.25192
 446  38.30379
 447  22.01631
 448  37.30532
 449  23.1117
 450  171.4369
 451  230.0518
 452  140.1347
 453  83.96193
 454  121.2155
 455  115.4816
 456  127.7011
 457  55.41949
 458  158.438
 459  140.1495
 460  -27.17683
 461  53.30492
 462  2.862509
 463  42.37521
 464  142.334
 465  120.461
 466  91.13563
 467  -3.575363
 468  8.58215
 469  27.59329
 470  15.16776
 471  46.04069
 472  102.3452
 473  49.5846
 474  111.8089
 475  90.56644
 476  82.35896
 477  46.37896
 478  47.33791
 479  62.73457
 480  187.5194
 481  189.5378
 482  134.813
 483  105.9848
 484  136.6786
 485  90.51044
 486  -38.13849
 487  91.57587
 488  201.4819
 489  121.9642
 490  -50.91603
 491  151.4028
 492  187.822
 493  180.2057
 494  49.80298
 495  -44.82468
 496  -70.91824
 497  -77.3044
 498  98.30542
 499  71.89969
 500  113.3637
 501  259.5166
 502  225.3865
 503  150.9145
 504  163.9888
 505  196.5623
 506  279.6871
 507  178.0697
 508  257.6404
 509  501.4616
 510  704.9456
 511  989.0189
