# Input file       =  1191983994.125854_cleaned.dat
# Candidate        =  PSR_0332+5434
# Telescope        =  AR
# Epoch_topo       =  58040.110834789979
# Epoch_bary       =  N/A
# T_sample         =  0.002
# Data Folded      =  7340032
# Data Avg         =  0.0152571218351677
# Data StdDev      =  0.999913943001134
# Profile Bins     =  512
# Profile Avg      =  218.678342683463 
# Profile StdDev   =  119.72273251099  
# Reduced chi-sqr  =  1.859
# Prob(Noise)      <  8.66e-29   (~11.1 sigma)
# P_topo (ms)      =  714.481230537331  +/- 0.000223
# P'_topo (s/s)    =  -0                +/- 1.18e-10
# P''_topo (s/s^2) =  0                 +/- 5.2e-14
# P_bary (ms)      =  N/A
# P'_bary (s/s)    =  N/A
# P''_bary (s/s^2) =  N/A
# P_orb (s)        =  N/A
# asin(i)/c (s)    =  N/A
# eccentricity     =  N/A
# w (rad)          =  N/A
# T_peri           =  N/A
######################################################
   0  949.502
   1  974.4822
   2  791.5913
   3  611.3038
   4  531.7668
   5  327.5384
   6  360.5865
   7  330.2913
   8  403.9084
   9  390.3456
  10  256.0705
  11  267.3632
  12  331.7152
  13  371.9943
  14  312.093
  15  287.5361
  16  279.7301
  17  262.9781
  18  267.3574
  19  196.1631
  20  277.0901
  21  244.4811
  22  230.9791
  23  221.8305
  24  288.9876
  25  261.4558
  26  419.899
  27  336.9414
  28  244.4769
  29  255.9658
  30  332.7939
  31  151.3988
  32  163.0379
  33  59.15175
  34  238.6697
  35  226.7997
  36  28.21017
  37  122.8982
  38  152.8771
  39  260.6203
  40  310.2977
  41  212.86
  42  234.6103
  43  200.5372
  44  226.6422
  45  136.3795
  46  133.3756
  47  183.6934
  48  316.1033
  49  350.6442
  50  283.21
  51  161.425
  52  162.3516
  53  178.3694
  54  164.7664
  55  251.1743
  56  161.0979
  57  123.3153
  58  193.2561
  59  233.1387
  60  183.3621
  61  261.3924
  62  357.8942
  63  294.0065
  64  198.1422
  65  243.1259
  66  159.9834
  67  21.95195
  68  258.5565
  69  310.7294
  70  162.5795
  71  35.69738
  72  52.01506
  73  41.93362
  74  128.8701
  75  309.2231
  76  397.7308
  77  292.3591
  78  223.5261
  79  237.3212
  80  137.7505
  81  179.1681
  82  271.9212
  83  296.6742
  84  139.6686
  85  50.98345
  86  115.8638
  87  264.8895
  88  233.3168
  89  234.2288
  90  248.4532
  91  316.9177
  92  141.33
  93  118.7646
  94  225.9338
  95  300.3439
  96  280.9382
  97  262.9086
  98  249.6733
  99  218.5318
 100  238.1461
 101  222.3081
 102  291.674
 103  293.146
 104  394.6682
 105  355.6526
 106  191.8231
 107  63.89
 108  119.7559
 109  176.4833
 110  225.7384
 111  190.0417
 112  105.0272
 113  168.708
 114  163.8151
 115  186.9367
 116  274.6508
 117  215.5814
 118  126.1738
 119  207.0831
 120  329.2597
 121  177.5155
 122  141.5981
 123  217.8952
 124  103.9681
 125  163.3891
 126  271.9285
 127  293.4529
 128  177.3239
 129  97.08473
 130  175.6796
 131  109.0902
 132  167.664
 133  189.9925
 134  115.1781
 135  148.4765
 136  229.4541
 137  118.6774
 138  74.41619
 139  221.6982
 140  161.4561
 141  130.1743
 142  323.7803
 143  378.4554
 144  165.0926
 145  192.7599
 146  249.9301
 147  267.886
 148  186.7743
 149  218.4702
 150  251.0853
 151  307.1531
 152  149.4392
 153  131.7933
 154  100.0497
 155  319.0057
 156  153.7285
 157  247.2254
 158  167.347
 159  167.3434
 160  183.5054
 161  226.1841
 162  100.7008
 163  187.0342
 164  223.562
 165  224.6741
 166  362.1295
 167  216.2669
 168  67.00593
 169  96.86848
 170  117.6165
 171  122.6923
 172  168.5267
 173  132.7004
 174  5.52803
 175  76.15933
 176  223.9747
 177  199.0614
 178  209.3697
 179  174.9671
 180  201.4015
 181  223.4258
 182  101.3918
 183  92.9654
 184  260.7657
 185  137.3896
 186  70.9442
 187  89.56252
 188  220.9859
 189  245.0716
 190  114.6494
 191  139.9182
 192  208.9667
 193  130.6624
 194  212.4288
 195  372.2756
 196  241.2542
 197  244.7731
 198  221.623
 199  172.5565
 200  148.858
 201  162.5798
 202  230.1667
 203  133.189
 204  203.8896
 205  263.5908
 206  311.2949
 207  305.2168
 208  148.01
 209  150.8992
 210  119.1074
 211  66.58478
 212  -13.79963
 213  69.48724
 214  158.5717
 215  114.1569
 216  60.38439
 217  74.85274
 218  79.91673
 219  242.9607
 220  326.8638
 221  108.4898
 222  124.9328
 223  200.1263
 224  43.33475
 225  93.44749
 226  176.0037
 227  127.1592
 228  185.9634
 229  316.7521
 230  184.1941
 231  68.45421
 232  60.98127
 233  170.0538
 234  453.8942
 235  281.725
 236  116.9207
 237  196.2805
 238  166.6289
 239  124.0537
 240  153.8386
 241  229.0185
 242  276.6034
 243  189.9078
 244  196.7908
 245  181.9259
 246  193.0332
 247  286.5857
 248  265.7095
 249  212.8036
 250  210.4086
 251  126.3706
 252  85.09311
 253  102.5369
 254  92.01526
 255  104.3266
 256  198.4989
 257  173.5728
 258  121.6535
 259  197.5065
 260  232.8354
 261  99.92055
 262  159.3235
 263  132.4148
 264  120.6235
 265  144.6966
 266  140.2915
 267  67.29331
 268  91.23007
 269  214.203
 270  270.168
 271  252.6248
 272  339.2127
 273  201.937
 274  92.30341
 275  58.35867
 276  161.6886
 277  275.0801
 278  188.7529
 279  83.59708
 280  61.93621
 281  166.9839
 282  203.3088
 283  226.952
 284  169.8111
 285  178.5509
 286  134.262
 287  20.29027
 288  115.1748
 289  132.6374
 290  184.2572
 291  164.6714
 292  168.173
 293  197.7822
 294  215.0598
 295  259.2909
 296  286.5372
 297  90.87701
 298  290.7947
 299  337.1031
 300  222.4519
 301  278.3371
 302  133.4286
 303  173.2869
 304  214.3483
 305  49.20796
 306  70.91395
 307  4.799595
 308  158.5811
 309  305.7361
 310  257.7292
 311  225.1863
 312  248.2165
 313  226.0415
 314  186.1196
 315  144.7535
 316  212.7113
 317  226.4261
 318  127.6381
 319  193.8618
 320  175.6521
 321  169.2046
 322  200.0119
 323  223.8434
 324  211.7535
 325  232.7513
 326  249.2511
 327  262.3098
 328  179.4774
 329  154.3166
 330  302.3574
 331  278.0327
 332  173.3291
 333  201.928
 334  397.488
 335  362.5686
 336  178.9567
 337  214.9204
 338  204.096
 339  137.344
 340  156.1933
 341  165.0247
 342  293.8584
 343  135.6366
 344  81.01655
 345  97.42175
 346  108.4429
 347  110.5727
 348  85.85989
 349  201.2433
 350  259.1948
 351  295.8769
 352  197.9168
 353  216.0658
 354  302.234
 355  293.1061
 356  339.3911
 357  165.0898
 358  294.9858
 359  298.9468
 360  228.6071
 361  218.2543
 362  309.3173
 363  234.7022
 364  149.275
 365  171.8219
 366  42.81046
 367  158.7942
 368  207.5094
 369  198.4984
 370  320.3997
 371  275.5742
 372  154.377
 373  240.4291
 374  190.1517
 375  140.9045
 376  84.08793
 377  121.2556
 378  234.7357
 379  119.4958
 380  90.8304
 381  102.1146
 382  208.7734
 383  222.175
 384  260.2508
 385  283.475
 386  291.2377
 387  189.8788
 388  150.3564
 389  165.8291
 390  299.9213
 391  207.2429
 392  382.2049
 393  228.1943
 394  208.7445
 395  190.4175
 396  242.6052
 397  232.8252
 398  343.8545
 399  316.3206
 400  389.046
 401  173.8559
 402  56.74709
 403  172.9402
 404  220.9807
 405  241.6496
 406  122.0414
 407  263.5013
 408  275.3866
 409  230.8421
 410  227.5549
 411  102.8419
 412  13.00778
 413  198.4981
 414  340.4012
 415  238.9748
 416  127.4858
 417  152.0282
 418  175.53
 419  232.1379
 420  303.5508
 421  173.3962
 422  263.035
 423  175.8631
 424  221.9133
 425  317.5288
 426  340.8219
 427  178.0654
 428  199.2208
 429  240.2616
 430  305.3662
 431  307.505
 432  326.9983
 433  178.8508
 434  273.788
 435  268.7366
 436  256.1773
 437  273.2061
 438  287.0291
 439  176.6173
 440  134.8977
 441  236.4203
 442  140.4778
 443  108.1251
 444  250.6286
 445  229.8439
 446  238.509
 447  221.3707
 448  359.4441
 449  211.085
 450  244.318
 451  437.3046
 452  357.4745
 453  227.1463
 454  304.4003
 455  166.9813
 456  162.5815
 457  164.8836
 458  200.3024
 459  240.9281
 460  215.6314
 461  287.4188
 462  267.1404
 463  241.3527
 464  250.8981
 465  275.4427
 466  294.4924
 467  146.7719
 468  18.91298
 469  171.9726
 470  197.2067
 471  228.5039
 472  215.9372
 473  231.8625
 474  269.7061
 475  311.2643
 476  250.9935
 477  307.2845
 478  286.1954
 479  262.22
 480  226.1565
 481  335.8654
 482  298.8351
 483  228.5315
 484  166.8434
 485  351.0071
 486  281.1254
 487  141.6557
 488  161.8958
 489  216.4048
 490  257.6388
 491  320.186
 492  391.6111
 493  345.1597
 494  181.7411
 495  96.55364
 496  51.29087
 497  130.9877
 498  294.2143
 499  306.3915
 500  273.0053
 501  430.1408
 502  424.1277
 503  198.8387
 504  216.2135
 505  338.6287
 506  504.0498
 507  469.279
 508  608.3774
 509  818.2515
 510  1034.325
 511  976.8519
