# Input file       =  1191624449.125625_cleaned.dat
# Candidate        =  PSR_0332+5434
# Telescope        =  AR
# Epoch_topo       =  58035.949434324364
# Epoch_bary       =  N/A
# T_sample         =  0.002
# Data Folded      =  7340032
# Data Avg         =  0.0143914231029205
# Data StdDev      =  1.00005048177239 
# Profile Bins     =  512
# Profile Avg      =  206.470987080527 
# Profile StdDev   =  119.739080712656 
# Reduced chi-sqr  =  1.563
# Prob(Noise)      <  5.31e-15   (~7.7 sigma)
# P_topo (ms)      =  714.478015106682  +/- 0.000186
# P'_topo (s/s)    =  -0                +/- 9.8e-11
# P''_topo (s/s^2) =  0                 +/- 4.33e-14
# P_bary (ms)      =  N/A
# P'_bary (s/s)    =  N/A
# P''_bary (s/s^2) =  N/A
# P_orb (s)        =  N/A
# asin(i)/c (s)    =  N/A
# eccentricity     =  N/A
# w (rad)          =  N/A
# T_peri           =  N/A
######################################################
   0  850.909
   1  807.1865
   2  713.8215
   3  368.0629
   4  272.6885
   5  221.4644
   6  165.0128
   7  171.8683
   8  269.0725
   9  274.1652
  10  158.006
  11  200.914
  12  302.5897
  13  231.9712
  14  296.9252
  15  308.7675
  16  318.2715
  17  261.7293
  18  223.8653
  19  154.4987
  20  244.7774
  21  168.598
  22  246.3923
  23  165.3746
  24  244.7636
  25  265.5443
  26  204.753
  27  193.842
  28  168.7693
  29  62.86589
  30  132.4262
  31  273.2928
  32  208.5075
  33  252.5308
  34  79.90623
  35  120.5755
  36  165.5188
  37  174.7982
  38  288.6826
  39  162.3583
  40  167.4221
  41  215.1173
  42  68.81115
  43  99.72253
  44  146.9657
  45  147.6261
  46  122.7211
  47  176.5847
  48  148.1261
  49  279.6971
  50  243.5538
  51  99.63435
  52  164.1376
  53  248.1222
  54  262.7051
  55  160.7049
  56  105.3698
  57  -50.84473
  58  64.64068
  59  249.9826
  60  187.5525
  61  85.18622
  62  250.7064
  63  218.8158
  64  51.73832
  65  92.51981
  66  34.84067
  67  116.9529
  68  191.9274
  69  194.0131
  70  114.8252
  71  -31.91302
  72  -7.859685
  73  114.464
  74  74.02711
  75  164.8328
  76  275.802
  77  122.6866
  78  65.88998
  79  110.0936
  80  153.2986
  81  222.1867
  82  117.2676
  83  186.5756
  84  239.2489
  85  155.1874
  86  103.0691
  87  152.8515
  88  71.82327
  89  158.1352
  90  266.1673
  91  240.6137
  92  178.8034
  93  20.59825
  94  6.403272
  95  8.182748
  96  221.0657
  97  268.8687
  98  254.0212
  99  79.58813
 100  -45.88115
 101  7.397991
 102  204.991
 103  201.5512
 104  167.8755
 105  248.5368
 106  194.5525
 107  251.2124
 108  163.7028
 109  164.0788
 110  137.4105
 111  156.9956
 112  280.5835
 113  238.749
 114  177.9875
 115  216.771
 116  180.1987
 117  123.5906
 118  269.0043
 119  128.2643
 120  82.45802
 121  165.545
 122  99.48317
 123  193.8032
 124  90.61804
 125  65.58457
 126  193.3488
 127  193.7167
 128  289.7357
 129  301.005
 130  270.8265
 131  142.1388
 132  152.365
 133  136.1864
 134  286.4984
 135  261.8636
 136  216.7378
 137  196.9722
 138  117.0547
 139  268.8323
 140  147.674
 141  131.879
 142  235.7585
 143  283.7975
 144  264.5679
 145  243.2696
 146  193.7832
 147  285.2974
 148  196.0133
 149  211.5824
 150  248.1656
 151  254.6378
 152  307.9365
 153  266.4432
 154  240.1591
 155  284.5305
 156  221.9044
 157  218.8308
 158  356.2939
 159  212.8694
 160  125.8927
 161  91.5034
 162  102.9017
 163  116.5871
 164  176.0027
 165  357.9925
 166  274.481
 167  177.196
 168  191.7428
 169  203.04
 170  263.3319
 171  59.88274
 172  247.0815
 173  204.5413
 174  235.2912
 175  325.9121
 176  213.4082
 177  101.4559
 178  40.48152
 179  148.4734
 180  306.3432
 181  207.4783
 182  188.2938
 183  265.7263
 184  277.4936
 185  319.3255
 186  302.9181
 187  213.0891
 188  209.7999
 189  178.0375
 190  312.8474
 191  260.2836
 192  151.8677
 193  119.8508
 194  142.3538
 195  192.9914
 196  188.0025
 197  212.0588
 198  338.5688
 199  366.8201
 200  335.679
 201  332.8938
 202  242.5204
 203  216.2873
 204  169.297
 205  236.4991
 206  260.1517
 207  230.2856
 208  160.8627
 209  76.42706
 210  160.9157
 211  280.4193
 212  339.3755
 213  117.3388
 214  259.5497
 215  195.8534
 216  202.5458
 217  246.3512
 218  278.0723
 219  205.6914
 220  134.5367
 221  184.5847
 222  268.3216
 223  167.0162
 224  178.6739
 225  192.9841
 226  94.6651
 227  187.7419
 228  182.991
 229  113.7809
 230  154.8217
 231  223.9769
 232  164.9655
 233  185.88
 234  202.5227
 235  177.5156
 236  109.1514
 237  121.1426
 238  151.1027
 239  215.5171
 240  108.7652
 241  131.6595
 242  168.5796
 243  182.6427
 244  263.0941
 245  52.80681
 246  163.3724
 247  210.5439
 248  132.5034
 249  193.2611
 250  139.2796
 251  71.65668
 252  38.05627
 253  127.297
 254  254.203
 255  185.1189
 256  275.1959
 257  242.6336
 258  262.5309
 259  135.9697
 260  126.5804
 261  199.6684
 262  147.2678
 263  275.028
 264  267.0468
 265  260.8494
 266  198.0056
 267  105.0523
 268  207.8094
 269  193.038
 270  182.7144
 271  258.5985
 272  254.9886
 273  208.8521
 274  160.4807
 275  166.4256
 276  188.8959
 277  153.4425
 278  95.84167
 279  43.71921
 280  152.6687
 281  286.87
 282  335.7205
 283  329.0936
 284  139.0763
 285  1.497502
 286  67.53108
 287  134.9729
 288  96.15368
 289  69.10239
 290  136.9686
 291  199.4052
 292  98.96053
 293  173.9913
 294  267.3827
 295  246.8209
 296  284.0159
 297  386.3759
 298  381.6667
 299  179.0767
 300  105.96
 301  194.6632
 302  172.9471
 303  153.6094
 304  114.1917
 305  93.9045
 306  228.2164
 307  198.7434
 308  255.9975
 309  373.2904
 310  370.1121
 311  263.2267
 312  247.5401
 313  185.6765
 314  276.6889
 315  231.4026
 316  186.3369
 317  196.0741
 318  161.4705
 319  267.3818
 320  228.4773
 321  246.0144
 322  308.9246
 323  352.0352
 324  302.4678
 325  223.2713
 326  218.0358
 327  389.8024
 328  379.7377
 329  338.6895
 330  136.2365
 331  252.5364
 332  126.2011
 333  79.21284
 334  212.1983
 335  160.0074
 336  160.9994
 337  191.1954
 338  175.7965
 339  166.4195
 340  135.258
 341  83.56172
 342  117.2394
 343  193.334
 344  227.4878
 345  253.442
 346  258.4539
 347  239.4564
 348  192.8318
 349  168.4182
 350  76.63589
 351  57.46211
 352  223.4372
 353  153.5645
 354  198.8386
 355  294.4662
 356  213.3673
 357  172.7579
 358  257.8296
 359  307.7388
 360  217.521
 361  177.1299
 362  94.10081
 363  114.4276
 364  282.4452
 365  181.573
 366  149.7431
 367  195.6904
 368  136.3293
 369  65.18066
 370  134.836
 371  81.51503
 372  131.9003
 373  308.8056
 374  244.03
 375  128.2404
 376  91.54971
 377  279.8789
 378  352.5406
 379  237.5449
 380  233.165
 381  232.2395
 382  237.4605
 383  159.0432
 384  165.2312
 385  310.3218
 386  271.0421
 387  327.4579
 388  387.1644
 389  244.5686
 390  218.1851
 391  237.4239
 392  26.09176
 393  28.89226
 394  30.4508
 395  183.5364
 396  314.1783
 397  268.7809
 398  229.0571
 399  224.6361
 400  84.5135
 401  203.6365
 402  248.4773
 403  149.813
 404  160.2509
 405  107.3156
 406  191.884
 407  262.2044
 408  180.3996
 409  197.9003
 410  279.1754
 411  184.0234
 412  73.29423
 413  84.16297
 414  187.3874
 415  239.8148
 416  242.3981
 417  261.3518
 418  279.8026
 419  226.7858
 420  293.6886
 421  276.2516
 422  238.8566
 423  331.0002
 424  358.5299
 425  364.6601
 426  347.4987
 427  206.373
 428  138.0407
 429  182.5623
 430  212.6196
 431  267.0724
 432  179.2086
 433  279.0409
 434  193.523
 435  151.8539
 436  282.8184
 437  348.3932
 438  366.8416
 439  243.8929
 440  98.17803
 441  150.2878
 442  308.7137
 443  306.4741
 444  164.4444
 445  300.1584
 446  325.5472
 447  76.4239
 448  14.93937
 449  182.7504
 450  217.1904
 451  262.158
 452  276.2651
 453  313.9171
 454  321.3827
 455  279.1284
 456  291.8377
 457  198.5953
 458  141.1328
 459  102.9004
 460  203.3558
 461  259.6393
 462  210.1615
 463  229.5764
 464  110.5867
 465  118.1867
 466  134.0119
 467  104.4256
 468  -23.90745
 469  110.0503
 470  239.1264
 471  174.5199
 472  90.83778
 473  190.0359
 474  120.5126
 475  21.57421
 476  185.6414
 477  318.2664
 478  237.0134
 479  213.7578
 480  222.5712
 481  272.5459
 482  265.6125
 483  162.4471
 484  213.6946
 485  244.4044
 486  247.3599
 487  122.9175
 488  232.0725
 489  229.4256
 490  112.5056
 491  163.3541
 492  156.3635
 493  198.8112
 494  337.5508
 495  280.7055
 496  284.1198
 497  328.5765
 498  192.1214
 499  252.8068
 500  202.9419
 501  267.1952
 502  274.0211
 503  255.1864
 504  349.947
 505  298.8337
 506  218.4408
 507  371.0024
 508  464.2959
 509  715.0975
 510  893.0369
 511  1094.127
