# Input file       =  1191467071.114228_cleaned.dat
# Candidate        =  PSR_0332+5434
# Telescope        =  AR
# Epoch_topo       =  58034.127929562826
# Epoch_bary       =  N/A
# T_sample         =  0.002
# Data Folded      =  7340032
# Data Avg         =  0.0149768440034838
# Data StdDev      =  1.00003826967094 
# Profile Bins     =  512
# Profile Avg      =  214.541288289448 
# Profile StdDev   =  119.737618520669 
# Reduced chi-sqr  =  1.384
# Prob(Noise)      <  1.78e-08   (~5.5 sigma)
# P_topo (ms)      =  714.477164540084  +/- 0.000175
# P'_topo (s/s)    =  -0                +/- 9.24e-11
# P''_topo (s/s^2) =  0                 +/- 4.08e-14
# P_bary (ms)      =  N/A
# P'_bary (s/s)    =  N/A
# P''_bary (s/s^2) =  N/A
# P_orb (s)        =  N/A
# asin(i)/c (s)    =  N/A
# eccentricity     =  N/A
# w (rad)          =  N/A
# T_peri           =  N/A
######################################################
   0  1006.955
   1  926.4128
   2  746.495
   3  481.9053
   4  397.1064
   5  255.0998
   6  359.8806
   7  170.6466
   8  211.2342
   9  258.1494
  10  187.3418
  11  197.6744
  12  287.4736
  13  317.4282
  14  176.1952
  15  208.5646
  16  331.5268
  17  352.5676
  18  290.3182
  19  290.5542
  20  280.8163
  21  281.8052
  22  38.3445
  23  77.3037
  24  196.3223
  25  287.4372
  26  148.5262
  27  16.05237
  28  155.6222
  29  203.2943
  30  172.393
  31  246.8402
  32  250.0517
  33  180.563
  34  204.2617
  35  222.2129
  36  178.9367
  37  150.2382
  38  147.381
  39  117.9598
  40  204.9419
  41  278.3557
  42  204.0874
  43  261.6885
  44  213.6304
  45  287.9153
  46  166.6947
  47  139.2635
  48  156.0342
  49  -13.64048
  50  128.64
  51  201.661
  52  300.9343
  53  234.7518
  54  113.427
  55  194.8579
  56  227.6862
  57  117.2987
  58  176.1646
  59  197.1403
  60  261.5994
  61  162.6628
  62  203.5643
  63  314.1509
  64  316.9294
  65  198.3415
  66  144.8469
  67  287.8387
  68  246.3386
  69  87.91171
  70  63.32764
  71  153.295
  72  141.8995
  73  210.0813
  74  223.9635
  75  329.1341
  76  373.8905
  77  302.3333
  78  310.8039
  79  166.9168
  80  111.8546
  81  108.8677
  82  110.9138
  83  159.4724
  84  302.5026
  85  155.0668
  86  195.0875
  87  126.3666
  88  107.5884
  89  239.8614
  90  289.7272
  91  238.4104
  92  61.64819
  93  178.259
  94  250.1894
  95  227.7203
  96  247.1337
  97  229.347
  98  234.1593
  99  119.755
 100  126.0477
 101  162.5916
 102  180.1348
 103  72.91383
 104  147.6552
 105  216.3595
 106  297.8836
 107  202.5092
 108  140.1731
 109  61.06988
 110  135.0559
 111  189.0518
 112  119.5209
 113  202.7673
 114  119.2234
 115  75.45927
 116  154.6439
 117  157.3323
 118  173.4115
 119  163.6869
 120  237.9586
 121  247.7584
 122  187.3465
 123  214.4183
 124  293.6292
 125  180.168
 126  276.4262
 127  217.2611
 128  108.3249
 129  156.1812
 130  169.1702
 131  252.0284
 132  199.5368
 133  120.1616
 134  237.7027
 135  190.0374
 136  157.872
 137  209.6793
 138  198.0576
 139  211.1927
 140  354.8836
 141  271.5588
 142  -55.33427
 143  22.8977
 144  137.7461
 145  128.6997
 146  101.4438
 147  121.1898
 148  196.2657
 149  247.9854
 150  187.8024
 151  120.0148
 152  147.4323
 153  162.2026
 154  204.8412
 155  385.3949
 156  256.911
 157  187.3236
 158  66.45786
 159  93.46482
 160  158.3446
 161  137.7235
 162  200.7953
 163  230.1826
 164  277.8118
 165  302.0393
 166  225.2079
 167  213.2989
 168  300.3145
 169  167.7971
 170  75.04447
 171  190.7872
 172  93.42642
 173  98.23985
 174  102.0917
 175  82.73741
 176  181.5845
 177  181.57
 178  76.68557
 179  103.697
 180  200.0463
 181  283.362
 182  178.7187
 183  248.4635
 184  177.697
 185  74.05898
 186  69.74335
 187  83.96437
 188  207.1265
 189  233.8596
 190  285.3218
 191  203.3524
 192  221.6495
 193  252.1885
 194  133.7428
 195  189.47
 196  322.5298
 197  300.406
 198  310.4691
 199  159.457
 200  134.7528
 201  179.1795
 202  222.8813
 203  192.6515
 204  231.1761
 205  243.5807
 206  228.3321
 207  235.7998
 208  36.28626
 209  122.723
 210  170.3471
 211  273.6729
 212  217.7417
 213  205.1993
 214  166.9882
 215  193.6182
 216  276.1088
 217  245.5008
 218  118.5947
 219  113.0117
 220  115.7709
 221  67.31278
 222  172.3315
 223  187.1033
 224  145.9152
 225  198.7644
 226  149.9187
 227  89.44326
 228  287.5888
 229  333.8077
 230  413.1367
 231  356.3587
 232  305.6886
 233  123.9338
 234  107.5218
 235  128.8986
 236  241.4868
 237  240.539
 238  340.6771
 239  264.5103
 240  275.897
 241  317.5916
 242  282.8127
 243  199.7292
 244  295.9489
 245  272.6101
 246  142.9554
 247  115.333
 248  197.4121
 249  155.7741
 250  133.8415
 251  146.8681
 252  271.8181
 253  186.3913
 254  187.9728
 255  103.3127
 256  200.4611
 257  207.5998
 258  169.2764
 259  144.3217
 260  124.7698
 261  200.6685
 262  240.5206
 263  225.1986
 264  152.334
 265  201.2719
 266  289.5888
 267  243.172
 268  156.7716
 269  197.6276
 270  228.7918
 271  248.7027
 272  171.1868
 273  86.17747
 274  183.3241
 275  270.2522
 276  202.2456
 277  232.2331
 278  322.2504
 279  307.8483
 280  266.2534
 281  173.0292
 282  252.7277
 283  283.7193
 284  244.4454
 285  167.7675
 286  226.1694
 287  116.0197
 288  129.0751
 289  177.8896
 290  203.7882
 291  159.2489
 292  198.2431
 293  221.3297
 294  206.51
 295  257.6355
 296  274.9748
 297  263.8554
 298  394.5931
 299  217.3212
 300  102.6147
 301  71.07098
 302  239.9361
 303  341.7809
 304  226.0184
 305  272.3939
 306  237.0636
 307  204.2219
 308  237.529
 309  316.5294
 310  319.2813
 311  285.4157
 312  260.7363
 313  200.4172
 314  117.6161
 315  161.9628
 316  269.079
 317  160.4413
 318  125.8447
 319  142.3885
 320  195.2141
 321  171.0426
 322  90.43808
 323  104.2548
 324  0.8015544
 325  131.3771
 326  263.2765
 327  146.0032
 328  109.7493
 329  139.7513
 330  141.6812
 331  69.42215
 332  86.67614
 333  199.205
 334  297.3376
 335  348.0756
 336  251.4318
 337  219.2806
 338  210.4454
 339  306.3542
 340  252.4599
 341  273.807
 342  258.9148
 343  142.5134
 344  96.65504
 345  127.1738
 346  298.6937
 347  279.4631
 348  292.7549
 349  194.5197
 350  244.6364
 351  249.0005
 352  311.4437
 353  351.9136
 354  273.8759
 355  112.1717
 356  149.2975
 357  290.8948
 358  286.793
 359  281.8009
 360  246.5097
 361  284.528
 362  383.4814
 363  302.3373
 364  330.7423
 365  367.6083
 366  242.6526
 367  169.486
 368  123.8971
 369  306.3137
 370  201.7614
 371  117.9089
 372  193.5231
 373  153.4057
 374  178.4282
 375  209.8365
 376  364.4001
 377  383.0757
 378  263.2192
 379  287.9341
 380  221.7251
 381  316.3479
 382  275.6389
 383  296.067
 384  258.0532
 385  288.3073
 386  240.3558
 387  248.5923
 388  316.3936
 389  216.4025
 390  118.3809
 391  209.0065
 392  161.4797
 393  217.3452
 394  315.7621
 395  271.4561
 396  192.1906
 397  163.5194
 398  137.845
 399  199.7131
 400  251.0845
 401  198.4007
 402  226.613
 403  150.8892
 404  118.7696
 405  251.2218
 406  310.4871
 407  288.5326
 408  162.027
 409  204.4152
 410  164.0903
 411  297.6547
 412  191.5897
 413  123.7334
 414  74.29041
 415  191.062
 416  216.7052
 417  167.3375
 418  181.5902
 419  108.7137
 420  87.07169
 421  177.4483
 422  284.2339
 423  334.4965
 424  333.211
 425  267.7679
 426  283.837
 427  120.5321
 428  102.389
 429  195.4185
 430  176.3414
 431  187.4994
 432  261.4863
 433  142.5991
 434  169.6031
 435  212.7682
 436  151.9931
 437  247.1302
 438  258.1055
 439  299.1278
 440  242.5554
 441  270.1789
 442  290.8923
 443  178.0975
 444  175.737
 445  99.6673
 446  149.629
 447  145.8687
 448  317.6735
 449  223.3582
 450  232.7127
 451  176.7444
 452  130.045
 453  234.6637
 454  297.2597
 455  313.4082
 456  257.5481
 457  280.7081
 458  179.9998
 459  167.2617
 460  238.3754
 461  321.4497
 462  323.7874
 463  195.3897
 464  332.7933
 465  360.2009
 466  347.9731
 467  275.9134
 468  309.2397
 469  441.1712
 470  303.8495
 471  183.575
 472  215.1731
 473  262.8141
 474  277.0559
 475  314.159
 476  235.4388
 477  113.8107
 478  204.9724
 479  144.4831
 480  55.06676
 481  59.49623
 482  295.1415
 483  366.5426
 484  256.3618
 485  215.8409
 486  166.023
 487  125.5943
 488  152.9037
 489  160.7874
 490  241.7758
 491  162.834
 492  114.8524
 493  126.4144
 494  121.6923
 495  205.8607
 496  231.6496
 497  246.9557
 498  197.3653
 499  196.6495
 500  253.1965
 501  135.24
 502  197.909
 503  216.0927
 504  210.0793
 505  271.0063
 506  205.7117
 507  193.7853
 508  253.6539
 509  469.8013
 510  722.2241
 511  922.0638
