# Input file       =  1191021321.110226_cleaned.dat
# Candidate        =  PSR_0332+5434
# Telescope        =  AR
# Epoch_topo       =  58028.968785997982
# Epoch_bary       =  N/A
# T_sample         =  0.002
# Data Folded      =  7340032
# Data Avg         =  0.0106921501270553
# Data StdDev      =  1.00005898322481 
# Profile Bins     =  512
# Profile Avg      =  154.13292556697  
# Profile StdDev   =  119.740098617368 
# Reduced chi-sqr  =  1.393
# Prob(Noise)      <  9.08e-09   (~5.6 sigma)
# P_topo (ms)      =  714.473706372288  +/- 0.000229
# P'_topo (s/s)    =  -0                +/- 1.21e-10
# P''_topo (s/s^2) =  0                 +/- 5.33e-14
# P_bary (ms)      =  N/A
# P'_bary (s/s)    =  N/A
# P''_bary (s/s^2) =  N/A
# P_orb (s)        =  N/A
# asin(i)/c (s)    =  N/A
# eccentricity     =  N/A
# w (rad)          =  N/A
# T_peri           =  N/A
######################################################
   0  773.1389
   1  623.0198
   2  636.4371
   3  476.7792
   4  208.285
   5  160.2951
   6  254.5913
   7  209.1076
   8  190.6632
   9  181.1381
  10  145.2789
  11  151.7505
  12  226.3981
  13  321.3741
  14  173.86
  15  201.4504
  16  207.6707
  17  324.8096
  18  210.1607
  19  200.4515
  20  158.6217
  21  168.5743
  22  22.89871
  23  -32.5165
  24  127.1685
  25  221.3835
  26  27.9067
  27  -4.646726
  28  145.2213
  29  272.1164
  30  268.6585
  31  86.69714
  32  92.26768
  33  13.39608
  34  166.1564
  35  145.2084
  36  56.39254
  37  42.397
  38  22.78479
  39  59.14668
  40  131.2892
  41  107.0467
  42  264.7624
  43  278.0005
  44  209.6531
  45  191.155
  46  187.931
  47  229.1289
  48  167.9831
  49  -18.51464
  50  -32.6179
  51  83.10458
  52  220.6351
  53  262.9895
  54  165.7565
  55  206.1047
  56  162.3465
  57  152.1178
  58  69.29935
  59  24.90512
  60  153.9226
  61  133.9143
  62  46.66559
  63  3.684162
  64  101.3994
  65  171.0491
  66  145.8431
  67  258.4106
  68  230.9312
  69  55.17428
  70  109.2766
  71  11.74926
  72  150.3549
  73  256.9893
  74  210.9833
  75  104.1543
  76  193.1233
  77  190.5499
  78  61.00874
  79  181.2348
  80  83.4908
  81  104.0637
  82  93.61752
  83  199.6977
  84  252.6784
  85  46.96055
  86  54.34837
  87  129.3374
  88  53.06542
  89  -60.69298
  90  -113.4044
  91  92.61306
  92  95.80499
  93  61.77483
  94  134.0147
  95  174.7589
  96  59.2944
  97  -16.91367
  98  311.2977
  99  190.0233
 100  66.07905
 101  211.2214
 102  113.7575
 103  129.4631
 104  265.9824
 105  307.6528
 106  257.9716
 107  53.63544
 108  47.68929
 109  52.96406
 110  87.90157
 111  68.26392
 112  159.3058
 113  88.90924
 114  84.07714
 115  130.0628
 116  190.1147
 117  199.2138
 118  99.92325
 119  -0.6768814
 120  62.11342
 121  52.14178
 122  4.335407
 123  214.2834
 124  114.0422
 125  56.98861
 126  109.0193
 127  153.6291
 128  13.56461
 129  57.35728
 130  114.7783
 131  228.5999
 132  132.956
 133  92.67809
 134  171.2883
 135  119.297
 136  92.60081
 137  122.0257
 138  125.0783
 139  55.35603
 140  72.71041
 141  228.8175
 142  178.6998
 143  91.36822
 144  136.9847
 145  218.109
 146  265.2441
 147  163.8058
 148  216.3465
 149  103.7525
 150  58.56554
 151  76.98666
 152  122.1925
 153  184.2705
 154  282.563
 155  99.73952
 156  122.2404
 157  225.3509
 158  61.89441
 159  -2.632094
 160  71.72304
 161  184.6092
 162  242.2977
 163  89.15541
 164  37.1854
 165  194.106
 166  164.5241
 167  251.2377
 168  152.7666
 169  50.51109
 170  117.2163
 171  143.3862
 172  284.6449
 173  261.2137
 174  322.2052
 175  256.2281
 176  64.92416
 177  77.44912
 178  226.0757
 179  213.5517
 180  94.33243
 181  -44.98102
 182  -122.7323
 183  -11.27135
 184  196.4668
 185  262.2557
 186  208.9952
 187  262.2011
 188  169.7773
 189  125.843
 190  248.2937
 191  102.4459
 192  -36.7726
 193  107.3773
 194  88.08817
 195  204.9773
 196  153.9419
 197  67.7075
 198  -1.434409
 199  19.29817
 200  110.5528
 201  46.53106
 202  125.4678
 203  145.8097
 204  138.6885
 205  228.7214
 206  163.6985
 207  232.3392
 208  173.3184
 209  91.77333
 210  279.8996
 211  202.9588
 212  108.8731
 213  67.03389
 214  76.51057
 215  138.0781
 216  106.7203
 217  125.0674
 218  36.1409
 219  81.75874
 220  155.6418
 221  144.7943
 222  80.92451
 223  12.13281
 224  -56.19513
 225  -124.007
 226  145.565
 227  148.4008
 228  178.5342
 229  51.78548
 230  -28.2629
 231  110.154
 232  232.6686
 233  54.02617
 234  105.5099
 235  135.2313
 236  0.22347
 237  62.29773
 238  114.1642
 239  159.7494
 240  256.3886
 241  161.5378
 242  170.4163
 243  256.6033
 244  203.5939
 245  57.395
 246  59.8021
 247  176.0974
 248  112.3605
 249  24.37544
 250  176.0284
 251  293.9027
 252  299.8387
 253  -0.9300927
 254  5.467349
 255  152.0149
 256  170.4523
 257  159.3933
 258  75.51738
 259  49.99954
 260  74.59464
 261  168.2138
 262  212.7104
 263  259.0299
 264  276.2377
 265  260.3123
 266  196.8564
 267  326.7477
 268  358.6045
 269  224.5522
 270  170.8924
 271  96.31535
 272  133.2396
 273  138.1153
 274  105.5338
 275  17.34829
 276  126.5255
 277  127.4911
 278  170.7744
 279  78.36635
 280  -41.14164
 281  -10.50763
 282  175.467
 283  120.6099
 284  192.8993
 285  141.3506
 286  106.6038
 287  232.2281
 288  261.1816
 289  138.5986
 290  79.95042
 291  233.6624
 292  171.8242
 293  152.7715
 294  103.9246
 295  -27.34774
 296  -15.9451
 297  16.97421
 298  88.73959
 299  97.05728
 300  59.25577
 301  84.87474
 302  26.21874
 303  48.65862
 304  119.6758
 305  102.72
 306  186.1944
 307  267.9254
 308  273.1482
 309  228.4566
 310  262.2504
 311  104.9783
 312  138.8381
 313  140.6724
 314  171.8293
 315  213.7745
 316  114.2658
 317  218.7433
 318  167.7301
 319  170.1435
 320  266.8127
 321  182.0549
 322  206.9341
 323  166.5046
 324  162.3834
 325  137.4115
 326  103.8896
 327  247.0969
 328  218.3187
 329  102.4622
 330  171.1748
 331  69.07806
 332  181.1136
 333  291.6095
 334  245.4531
 335  133.375
 336  59.06116
 337  117.9646
 338  128.8987
 339  87.84389
 340  304.7296
 341  366.9094
 342  261.9474
 343  182.1457
 344  104.4555
 345  250.8586
 346  172.3003
 347  152.5391
 348  163.6127
 349  134.9857
 350  292.1075
 351  211.2971
 352  206.5923
 353  95.29645
 354  104.071
 355  74.99191
 356  167.9743
 357  140.0381
 358  212.8403
 359  241.6668
 360  162.1773
 361  112.1568
 362  145.3898
 363  217.06
 364  131.4402
 365  116.6021
 366  335.4244
 367  237.4271
 368  210.15
 369  248.9999
 370  248.9791
 371  190.9213
 372  227.7176
 373  156.3392
 374  110.3012
 375  118.584
 376  182.9879
 377  219.9796
 378  260.1418
 379  239.4211
 380  166.7361
 381  301.3759
 382  273.2759
 383  147.6699
 384  237.2422
 385  300.907
 386  271.9123
 387  165.95
 388  260.7679
 389  312.2841
 390  272.5751
 391  378.7371
 392  231.584
 393  61.75526
 394  242.263
 395  262.0217
 396  278.2353
 397  47.02701
 398  127.641
 399  152.1787
 400  161.7879
 401  170.1267
 402  214.559
 403  219.555
 404  86.57898
 405  129.0393
 406  98.60837
 407  149.2975
 408  117.6882
 409  87.97023
 410  96.20495
 411  142.2201
 412  229.4237
 413  219.0443
 414  89.05753
 415  135.8601
 416  217.4305
 417  155.6002
 418  233.1139
 419  335.0013
 420  278.4129
 421  86.30183
 422  6.251795
 423  147.4872
 424  186.6194
 425  116.4965
 426  82.94949
 427  153.9132
 428  196.5126
 429  62.24266
 430  21.23332
 431  130.5563
 432  -7.738966
 433  39.46013
 434  81.90207
 435  30.52487
 436  85.55318
 437  76.815
 438  218.8965
 439  128.9216
 440  -5.495003
 441  54.86395
 442  118.4913
 443  27.97281
 444  16.50698
 445  112.6494
 446  188.6858
 447  94.9237
 448  51.44583
 449  125.0377
 450  234.7001
 451  175.7864
 452  243.038
 453  240.6343
 454  232.3165
 455  212.2175
 456  134.4725
 457  187.5804
 458  112.1264
 459  183.7966
 460  234.5797
 461  201.9942
 462  242.779
 463  210.7309
 464  161.66
 465  90.88726
 466  119.1581
 467  273.1194
 468  199.8906
 469  92.05846
 470  112.0728
 471  187.3979
 472  224.4097
 473  222.5156
 474  102.1939
 475  79.04014
 476  149.1991
 477  212.1716
 478  298.9286
 479  176.0105
 480  154.4818
 481  168.3826
 482  207.4011
 483  99.0148
 484  17.2584
 485  15.01176
 486  64.30165
 487  75.07319
 488  113.0079
 489  176.6933
 490  -2.098984
 491  200.7534
 492  113.2896
 493  152.9924
 494  171.0164
 495  192.3095
 496  228.4406
 497  91.53436
 498  123.2866
 499  262.5677
 500  225.6356
 501  269.7684
 502  211.9536
 503  144.2162
 504  221.0222
 505  344.0359
 506  265.3152
 507  324.7854
 508  336.1252
 509  537.0645
 510  604.1242
 511  684.5777
