# Input file       =  1191036238.128165_cleaned.dat
# Candidate        =  PSR_0332+5434
# Telescope        =  AR
# Epoch_topo       =  58029.141436668579
# Epoch_bary       =  N/A
# T_sample         =  0.002
# Data Folded      =  7340032
# Data Avg         =  0.00901559637998265
# Data StdDev      =  1.00007359588621 
# Profile Bins     =  512
# Profile Avg      =  129.310926669362 
# Profile StdDev   =  119.741848235687 
# Reduced chi-sqr  =  1.302
# Prob(Noise)      <  4.58e-06   (~4.4 sigma)
# P_topo (ms)      =  714.474140143154  +/- 0.000172
# P'_topo (s/s)    =  -0                +/- 9.08e-11
# P''_topo (s/s^2) =  0                 +/- 4.01e-14
# P_bary (ms)      =  N/A
# P'_bary (s/s)    =  N/A
# P''_bary (s/s^2) =  N/A
# P_orb (s)        =  N/A
# asin(i)/c (s)    =  N/A
# eccentricity     =  N/A
# w (rad)          =  N/A
# T_peri           =  N/A
######################################################
   0  707.7812
   1  662.4543
   2  506.7386
   3  400.6446
   4  393.1026
   5  233.0189
   6  171.7811
   7  158.0398
   8  153.9468
   9  248.1813
  10  442.6071
  11  329.0746
  12  201.2762
  13  130.8175
  14  153.7361
  15  88.49289
  16  151.8807
  17  260.3624
  18  198.6988
  19  111.6463
  20  126.4056
  21  231.0004
  22  189.6382
  23  110.8864
  24  149.9385
  25  34.29463
  26  53.49165
  27  73.23675
  28  144.3244
  29  119.1175
  30  -35.53694
  31  17.39082
  32  149.6513
  33  91.57759
  34  77.76324
  35  111.7256
  36  178.7299
  37  297.2316
  38  107.1936
  39  6.337393
  40  43.62427
  41  152.6123
  42  247.2625
  43  109.0678
  44  217.6683
  45  257.84
  46  184.5129
  47  77.17066
  48  144.2038
  49  141.8312
  50  131.952
  51  103.632
  52  89.20647
  53  162.0567
  54  163.268
  55  85.45134
  56  76.19621
  57  233.3144
  58  134.6749
  59  16.15524
  60  168.9581
  61  219.8486
  62  188.5771
  63  193.8119
  64  46.89425
  65  -59.02194
  66  18.30511
  67  109.2206
  68  66.29094
  69  106.5688
  70  176.7273
  71  89.79498
  72  -4.476241
  73  87.99793
  74  112.1906
  75  127.5963
  76  104.8567
  77  201.6679
  78  164.2907
  79  -46.39037
  80  -46.61497
  81  16.86878
  82  23.81556
  83  21.99766
  84  63.44054
  85  27.69364
  86  -12.39505
  87  -80.1833
  88  -8.109887
  89  36.97419
  90  21.55515
  91  125.1913
  92  307.062
  93  230.6023
  94  158.4387
  95  72.93501
  96  39.35224
  97  159.6169
  98  165.5616
  99  72.55841
 100  41.82511
 101  158.5324
 102  100.7434
 103  115.9693
 104  110.958
 105  15.49598
 106  -33.84142
 107  13.2616
 108  42.5299
 109  62.84949
 110  164.7567
 111  256.2118
 112  246.8721
 113  163.5487
 114  36.74391
 115  112.6796
 116  34.28145
 117  -5.807793
 118  -37.60704
 119  -29.42533
 120  122.7771
 121  119.107
 122  120.1365
 123  198.3241
 124  266.1431
 125  236.223
 126  130.974
 127  96.0762
 128  259.4391
 129  107.3242
 130  99.04959
 131  115.5411
 132  207.4372
 133  179.1212
 134  60.69422
 135  50.41598
 136  12.5385
 137  114.8024
 138  98.21785
 139  314.0415
 140  278.3963
 141  235.0703
 142  194.287
 143  116.6849
 144  -63.23035
 145  28.98279
 146  230.1936
 147  189.8194
 148  184.3641
 149  119.635
 150  104.4463
 151  67.96451
 152  170.1105
 153  254.8177
 154  172.2998
 155  -18.79544
 156  27.63426
 157  37.51467
 158  62.02996
 159  123.6006
 160  95.13921
 161  -31.74546
 162  -37.06654
 163  91.22193
 164  88.48608
 165  159.3357
 166  215.4412
 167  160.6969
 168  108.0817
 169  89.06892
 170  184.0286
 171  175.6268
 172  174.3629
 173  113.4821
 174  159.4484
 175  181.2802
 176  126.419
 177  176.9243
 178  191.21
 179  138.5108
 180  170.1118
 181  53.02473
 182  60.37734
 183  94.47289
 184  21.18334
 185  34.52354
 186  132.5117
 187  256.8549
 188  175.4791
 189  192.759
 190  105.6958
 191  -36.88087
 192  -34.69543
 193  226.0748
 194  151.8483
 195  47.75865
 196  64.66296
 197  77.36039
 198  -21.57043
 199  37.1241
 200  180.9399
 201  218.6606
 202  154.2572
 203  86.87379
 204  98.16068
 205  116.473
 206  85.62203
 207  91.53836
 208  -16.86946
 209  29.77879
 210  89.73361
 211  146.0277
 212  140.1184
 213  162.8771
 214  137.0343
 215  70.63113
 216  101.2414
 217  339.5479
 218  266.6844
 219  43.63591
 220  27.00593
 221  16.7316
 222  56.91003
 223  171.77
 224  93.33821
 225  188.8972
 226  144.2669
 227  96.78747
 228  -6.759748
 229  41.96183
 230  146.9436
 231  291.9464
 232  233.3722
 233  267.0301
 234  95.62091
 235  118.5073
 236  232.1764
 237  183.6557
 238  166.2306
 239  205.8286
 240  214.7334
 241  240.9621
 242  161.1175
 243  73.70055
 244  140.0634
 245  40.94586
 246  71.29185
 247  -8.979587
 248  11.86575
 249  28.42616
 250  98.34176
 251  50.66028
 252  253.944
 253  346.7351
 254  269.9297
 255  92.49042
 256  97.92961
 257  13.93702
 258  26.94827
 259  77.01787
 260  35.11523
 261  0.9997772
 262  -52.95481
 263  110.9638
 264  99.32054
 265  71.78687
 266  33.5615
 267  207.1981
 268  192.9247
 269  223.008
 270  225.3282
 271  215.5335
 272  181.7407
 273  127.1644
 274  151.1189
 275  57.56618
 276  61.5987
 277  179.0642
 278  177.379
 279  146.7961
 280  200.0471
 281  118.3652
 282  111.5299
 283  199.2923
 284  113.2844
 285  57.75025
 286  169.9501
 287  111.275
 288  118.2304
 289  70.47251
 290  188.5091
 291  195.3392
 292  226.6891
 293  180.4686
 294  267.5821
 295  129.7056
 296  -0.9339786
 297  36.76932
 298  108.1988
 299  127.1501
 300  65.46599
 301  140.4174
 302  219.9598
 303  132.4308
 304  123.6691
 305  240.8473
 306  246.4553
 307  329.7916
 308  248.6644
 309  170.2731
 310  116.2806
 311  6.318576
 312  198.8899
 313  210.1302
 314  66.93687
 315  75.95445
 316  68.01682
 317  190.1808
 318  313.7776
 319  338.1554
 320  162.6064
 321  2.021446
 322  53.16998
 323  135.3877
 324  217.065
 325  206.7193
 326  317.0979
 327  326.4907
 328  285.7332
 329  179.0148
 330  240.4124
 331  168.449
 332  195.3523
 333  215.089
 334  75.38742
 335  165.9363
 336  210.409
 337  297.6064
 338  224.9878
 339  79.21831
 340  176.5314
 341  174.0317
 342  191.6995
 343  212.9888
 344  186.7211
 345  204.7058
 346  182.9741
 347  276.342
 348  157.4091
 349  175.4929
 350  141.9039
 351  75.55405
 352  -23.25097
 353  29.28891
 354  36.49542
 355  33.6507
 356  82.92788
 357  180.7753
 358  135.5995
 359  94.76743
 360  82.74773
 361  111.709
 362  65.45716
 363  87.58125
 364  35.14331
 365  37.16657
 366  4.834272
 367  46.66249
 368  203.4276
 369  235.2641
 370  280.7234
 371  203.1397
 372  102.1683
 373  136.4181
 374  154.6122
 375  26.63966
 376  229.7004
 377  101.4371
 378  70.58884
 379  130.3308
 380  95.6045
 381  126.8733
 382  139.1635
 383  155.5489
 384  49.7388
 385  88.28873
 386  110.815
 387  187.5567
 388  148.4992
 389  32.21863
 390  -55.99652
 391  -58.09616
 392  79.84048
 393  78.22468
 394  50.05396
 395  15.60975
 396  -35.99685
 397  76.15424
 398  79.88131
 399  -1.184328
 400  -48.79033
 401  -6.18611
 402  20.82946
 403  117.3171
 404  12.97609
 405  109.1112
 406  114.9731
 407  -41.65464
 408  -15.74998
 409  37.48765
 410  -38.7106
 411  -4.500149
 412  146.3263
 413  207.815
 414  119.5084
 415  161.4382
 416  48.46989
 417  76.95182
 418  264.157
 419  244.8506
 420  83.72649
 421  147.2055
 422  59.63754
 423  78.29247
 424  7.155204
 425  27.6656
 426  124.5301
 427  85.15883
 428  137.6314
 429  58.68241
 430  46.88868
 431  23.94963
 432  50.71777
 433  220.4614
 434  191.7721
 435  76.89416
 436  25.31484
 437  99.87738
 438  170.3735
 439  180.5197
 440  237.6363
 441  236.7518
 442  248.7812
 443  188.014
 444  60.73835
 445  128.0795
 446  95.58298
 447  145.8704
 448  209.491
 449  133.7761
 450  148.1505
 451  59.11779
 452  2.710043
 453  193.6212
 454  421.986
 455  337.5644
 456  105.058
 457  222.3522
 458  150.1171
 459  102.5294
 460  168.8435
 461  207.1906
 462  184.4137
 463  132.5814
 464  179.8333
 465  227.532
 466  153.4771
 467  80.59135
 468  -19.08154
 469  191.0795
 470  260.9133
 471  137.6874
 472  62.52925
 473  213.0363
 474  176.2181
 475  2.078188
 476  15.90823
 477  136.6709
 478  168.4808
 479  170.4499
 480  78.28572
 481  128.4879
 482  144.31
 483  116.1003
 484  236.298
 485  64.92843
 486  100.7922
 487  72.3104
 488  58.91544
 489  -8.32762
 490  47.88041
 491  176.1482
 492  162.5078
 493  122.6774
 494  109.5532
 495  51.90463
 496  86.95468
 497  31.50703
 498  63.11501
 499  0.6612014
 500  30.54762
 501  104.5199
 502  198.5891
 503  96.64821
 504  60.13242
 505  137.233
 506  177.2463
 507  187.3438
 508  274.9362
 509  420.5699
 510  413.7182
 511  527.3286
