# Input file       =  1191122437.116167_cleaned.dat
# Candidate        =  PSR_0332+5434
# Telescope        =  AR
# Epoch_topo       =  58030.139110140823
# Epoch_bary       =  N/A
# T_sample         =  0.002
# Data Folded      =  7340032
# Data Avg         =  0.0101000580150723
# Data StdDev      =  1.00005735562101 
# Profile Bins     =  512
# Profile Avg      =  144.724562963674 
# Profile StdDev   =  119.739903739423 
# Reduced chi-sqr  =  1.360
# Prob(Noise)      <  1.02e-07   (~5.2 sigma)
# P_topo (ms)      =  714.474720099178  +/- 0.000111
# P'_topo (s/s)    =  -0                +/- 5.87e-11
# P''_topo (s/s^2) =  0                 +/- 2.59e-14
# P_bary (ms)      =  N/A
# P'_bary (s/s)    =  N/A
# P''_bary (s/s^2) =  N/A
# P_orb (s)        =  N/A
# asin(i)/c (s)    =  N/A
# eccentricity     =  N/A
# w (rad)          =  N/A
# T_peri           =  N/A
######################################################
   0  792.1768
   1  651.3691
   2  419.1763
   3  343.5446
   4  268.1179
   5  95.34558
   6  214.9746
   7  224.0353
   8  53.55706
   9  97.9776
  10  161.5075
  11  180.2297
  12  242.6812
  13  283.7174
  14  352.4474
  15  177.2588
  16  242.0325
  17  220.9825
  18  130.912
  19  204.568
  20  89.94765
  21  209.6535
  22  241.5574
  23  150.0942
  24  103.4354
  25  145.7559
  26  221.6959
  27  138.2793
  28  133.197
  29  131.3513
  30  131.7651
  31  148.1718
  32  369.1337
  33  295.8911
  34  213.8367
  35  72.91619
  36  7.14173
  37  -99.12605
  38  1.801875
  39  108.4616
  40  186.7557
  41  114.6188
  42  31.06929
  43  19.13806
  44  119.4457
  45  110.4553
  46  63.26392
  47  179.2787
  48  73.79827
  49  149.1615
  50  86.12467
  51  116.6892
  52  217.5413
  53  60.7992
  54  71.26352
  55  216.5843
  56  101.2693
  57  158.7086
  58  70.44843
  59  130.2275
  60  299.6399
  61  277.5333
  62  -31.24465
  63  -6.062098
  64  13.51534
  65  103.9689
  66  111.8527
  67  66.41615
  68  94.09388
  69  144.1374
  70  234.5088
  71  162.1012
  72  118.1839
  73  195.5905
  74  132.7386
  75  205.7456
  76  74.3891
  77  -49.38342
  78  19.20534
  79  75.54723
  80  122.3717
  81  166.1164
  82  223.7792
  83  174.4883
  84  92.23518
  85  140.9366
  86  171.0283
  87  134.9135
  88  278.5815
  89  305.6358
  90  193.5939
  91  237.7685
  92  227.373
  93  289.0002
  94  154.8939
  95  209.935
  96  205.0322
  97  209.5539
  98  190.1944
  99  97.52074
 100  47.64445
 101  87.9213
 102  138.2254
 103  102.6149
 104  290.8261
 105  175.7086
 106  197.2303
 107  284.5901
 108  157.5649
 109  111.7069
 110  98.17874
 111  85.30652
 112  211.4328
 113  232.0859
 114  175.4932
 115  92.50542
 116  141.6475
 117  262.8374
 118  148.0397
 119  52.10035
 120  20.68692
 121  69.78073
 122  258.0544
 123  225.8462
 124  272.1162
 125  190.4513
 126  243.0571
 127  203.1473
 128  111.2282
 129  203.0083
 130  200.7077
 131  195.0005
 132  209.0262
 133  155.3197
 134  257.2715
 135  242.3436
 136  180.6757
 137  242.3157
 138  420.5236
 139  336.0535
 140  330.8313
 141  233.8037
 142  131.2419
 143  121.4214
 144  156.2081
 145  247.4707
 146  221.482
 147  171.1778
 148  155.2796
 149  264.7121
 150  181.4566
 151  68.34283
 152  171.9434
 153  211.8181
 154  122.7038
 155  187.1725
 156  222.6295
 157  59.64548
 158  94.80019
 159  248.1389
 160  158.9198
 161  49.55451
 162  141.3842
 163  126.2159
 164  99.26928
 165  113.8822
 166  236.9381
 167  173.1476
 168  162.9322
 169  192.1149
 170  57.34336
 171  102.9241
 172  47.11459
 173  108.7896
 174  106.4679
 175  124.8047
 176  20.1419
 177  42.31091
 178  100.8153
 179  112.785
 180  190.2307
 181  156.9513
 182  261.4245
 183  134.8982
 184  3.139559
 185  92.27504
 186  60.69883
 187  118.6595
 188  63.28927
 189  -24.55201
 190  152.9915
 191  119.569
 192  3.843536
 193  44.09334
 194  73.26734
 195  28.94808
 196  158.958
 197  140.0397
 198  152.0156
 199  122.9626
 200  93.47368
 201  121.82
 202  197.7982
 203  114.114
 204  65.38921
 205  88.55878
 206  157.6691
 207  234.7155
 208  163.0921
 209  151.2955
 210  62.43428
 211  106.9645
 212  124.3099
 213  166.9921
 214  167.1142
 215  87.27409
 216  119.1667
 217  134.5085
 218  88.04406
 219  5.542975
 220  37.63259
 221  117.8056
 222  67.82346
 223  100.4881
 224  156.8561
 225  30.51707
 226  7.90512
 227  90.44245
 228  46.19493
 229  10.63636
 230  183.6635
 231  270.1671
 232  241.0562
 233  97.0414
 234  65.39844
 235  23.31405
 236  83.80544
 237  139.4846
 238  188.5577
 239  181.3537
 240  214.5496
 241  214.4202
 242  172.0418
 243  143.3558
 244  140.8838
 245  3.763044
 246  199.6343
 247  280.5129
 248  154.7315
 249  113.2557
 250  111.0889
 251  34.90076
 252  119.225
 253  165.1458
 254  160.4846
 255  248.3109
 256  122.8594
 257  162.4009
 258  115.5334
 259  -1.635182
 260  27.91124
 261  53.29896
 262  264.3765
 263  350.2123
 264  229.7974
 265  245.7825
 266  232.3737
 267  133.5306
 268  78.34781
 269  223.8294
 270  344.6396
 271  213.9216
 272  245.0303
 273  229.7624
 274  130.3512
 275  105.1171
 276  44.61672
 277  49.27699
 278  101.6745
 279  58.12234
 280  94.26905
 281  2.766722
 282  -9.407928
 283  68.46812
 284  143.578
 285  262.7242
 286  167.34
 287  113.446
 288  133.6509
 289  65.6188
 290  164.26
 291  198.5971
 292  277.6423
 293  66.82021
 294  128.4619
 295  191.731
 296  145.1036
 297  200.7513
 298  250.3863
 299  252.9314
 300  136.6156
 301  98.97565
 302  89.42451
 303  67.64676
 304  312.7881
 305  268.3381
 306  87.66904
 307  163.5214
 308  56.33474
 309  40.32383
 310  143.3333
 311  127.8763
 312  168.3208
 313  171.1499
 314  183.8557
 315  161.35
 316  119.4541
 317  98.9473
 318  71.47304
 319  98.52521
 320  108.064
 321  75.18781
 322  141.1561
 323  155.7769
 324  97.31931
 325  184.6836
 326  109.9686
 327  154.9875
 328  216.245
 329  178.4043
 330  164.7608
 331  46.58497
 332  0.4879601
 333  176.2949
 334  199.056
 335  99.45414
 336  58.98063
 337  243.7404
 338  192.0564
 339  145.5588
 340  56.34378
 341  51.78691
 342  66.31323
 343  58.18739
 344  126.6263
 345  168.1885
 346  125.5357
 347  242.3385
 348  193.884
 349  223.1214
 350  238.1449
 351  212.0931
 352  199.8499
 353  110.7272
 354  179.0857
 355  281.0934
 356  351.0291
 357  178.2956
 358  30.15067
 359  -20.43547
 360  192.3305
 361  294.032
 362  323.6851
 363  279.6219
 364  218.2719
 365  293.0562
 366  201.865
 367  104.4414
 368  62.02043
 369  113.2271
 370  -40.36411
 371  5.728109
 372  138.2164
 373  237.4825
 374  47.7614
 375  -57.07635
 376  63.00198
 377  142.3333
 378  36.91806
 379  43.18305
 380  91.04594
 381  109.2386
 382  90.72575
 383  53.36311
 384  45.5085
 385  45.02642
 386  145.6651
 387  75.81151
 388  18.73096
 389  88.42413
 390  144.8603
 391  98.74442
 392  -59.20597
 393  92.73001
 394  205.1119
 395  155.2404
 396  163.6748
 397  24.1407
 398  5.874341
 399  234.9719
 400  117.9404
 401  82.54259
 402  101.7534
 403  116.8111
 404  63.47417
 405  90.54318
 406  215.291
 407  87.37299
 408  46.60419
 409  93.42623
 410  30.22324
 411  89.76514
 412  83.49374
 413  114.0593
 414  84.26331
 415  73.16787
 416  202.1196
 417  196.1197
 418  117.8351
 419  104.1942
 420  107.9477
 421  250.8508
 422  154.3767
 423  43.86617
 424  124.6273
 425  195.5831
 426  98.5036
 427  -57.45857
 428  123.1028
 429  130.7726
 430  163.5251
 431  190.5371
 432  180.9042
 433  135.0757
 434  140.5463
 435  144.2275
 436  74.62996
 437  27.10975
 438  80.58464
 439  130.2204
 440  129.726
 441  63.03897
 442  86.91882
 443  162.141
 444  119.5453
 445  92.35664
 446  180.607
 447  186.3967
 448  133.6119
 449  134.287
 450  17.13139
 451  10.14032
 452  -82.68359
 453  149.9467
 454  157.4458
 455  72.66257
 456  89.63632
 457  16.01407
 458  83.74976
 459  141.7549
 460  159.5531
 461  248.3566
 462  192.2718
 463  112.4007
 464  137.0402
 465  175.3758
 466  226.3432
 467  260.8976
 468  111.8778
 469  170.0563
 470  -1.872176
 471  67.66763
 472  86.60754
 473  15.95999
 474  -6.205054
 475  171.7529
 476  134.4537
 477  64.99417
 478  44.558
 479  174.1844
 480  19.66456
 481  -84.87516
 482  34.81613
 483  64.52324
 484  18.35696
 485  53.7837
 486  147.6024
 487  230.959
 488  157.1458
 489  48.95539
 490  106.1873
 491  153.2667
 492  210.2666
 493  400.0218
 494  334.6185
 495  166.277
 496  151.8848
 497  162.1583
 498  39.29318
 499  -81.48042
 500  116.8923
 501  258.0295
 502  270.4165
 503  265.8963
 504  262.7619
 505  208.5838
 506  132.3584
 507  275.5948
 508  385.5102
 509  525.3554
 510  701.0837
 511  778.6072
