# Input file       =  1191811690.126897_cleaned.dat
# Candidate        =  PSR_0332+5434
# Telescope        =  AR
# Epoch_topo       =  58038.116575542794
# Epoch_bary       =  N/A
# T_sample         =  0.002
# Data Folded      =  7340032
# Data Avg         =  0.0170956384920629
# Data StdDev      =  1.00003946201605 
# Profile Bins     =  512
# Profile Avg      =  245.072923446083 
# Profile StdDev   =  119.73776128377  
# Reduced chi-sqr  =  1.626
# Prob(Noise)      <  1.14e-17   (~8.5 sigma)
# P_topo (ms)      =  714.479820326996  +/- 3.16e-05
# P'_topo (s/s)    =  -0                +/- 1.67e-11
# P''_topo (s/s^2) =  0                 +/- 7.36e-15
# P_bary (ms)      =  N/A
# P'_bary (s/s)    =  N/A
# P''_bary (s/s^2) =  N/A
# P_orb (s)        =  N/A
# asin(i)/c (s)    =  N/A
# eccentricity     =  N/A
# w (rad)          =  N/A
# T_peri           =  N/A
######################################################
   0  1088.601
   1  1038.757
   2  826.2275
   3  597.5522
   4  453.9151
   5  335.9363
   6  374.939
   7  363.9724
   8  291.3782
   9  348.6167
  10  363.6123
  11  242.2182
  12  170.4205
  13  165.6443
  14  384.5753
  15  383.1288
  16  378.3147
  17  378.0419
  18  303.7173
  19  204.2039
  20  319.0277
  21  306.8535
  22  317.9659
  23  197.9225
  24  322.9176
  25  252.0569
  26  316.4276
  27  300.2761
  28  205.9691
  29  188.0803
  30  252.0339
  31  222.537
  32  390.0565
  33  231.9169
  34  272.0733
  35  236.4212
  36  136.4119
  37  123.2771
  38  278.1409
  39  253.5196
  40  234.9011
  41  132.6034
  42  364.0394
  43  218.8553
  44  238.2978
  45  189.1624
  46  346.7914
  47  229.6304
  48  106.1146
  49  313.5875
  50  350.0509
  51  223.9194
  52  302.1462
  53  264.8563
  54  313.4614
  55  185.0306
  56  250.2555
  57  224.1061
  58  144.3423
  59  136.029
  60  260.952
  61  201.96
  62  146.1796
  63  243.4533
  64  195.5016
  65  133.7468
  66  184.3803
  67  209.4761
  68  194.21
  69  91.28862
  70  135.4946
  71  308.6093
  72  276.3149
  73  163.39
  74  299.2048
  75  301.1579
  76  350.5152
  77  373.1189
  78  261.4152
  79  159.0047
  80  193.3946
  81  140.512
  82  159.7734
  83  202.3263
  84  139.3294
  85  307.3596
  86  244.6125
  87  313.0266
  88  289.0764
  89  223.2194
  90  114.9831
  91  140.3166
  92  249.7784
  93  285.8667
  94  283.1346
  95  223.9096
  96  154.0884
  97  272.7677
  98  244.9618
  99  338.1146
 100  192.3091
 101  203.6773
 102  170.9877
 103  330.6557
 104  257.5886
 105  267.0039
 106  234.0222
 107  258.2615
 108  100.6481
 109  196.675
 110  193.9783
 111  206.954
 112  110.2551
 113  312.5557
 114  293.0698
 115  165.2128
 116  104.2492
 117  312.554
 118  205.1048
 119  235.9932
 120  166.4382
 121  315.1505
 122  149.0149
 123  124.1231
 124  119.036
 125  273.2551
 126  186.9621
 127  239.9578
 128  211.8174
 129  245.2799
 130  174.7302
 131  339.1042
 132  195.677
 133  253.4988
 134  184.13
 135  285.023
 136  243.783
 137  238.7332
 138  171.0238
 139  211.8701
 140  180.3585
 141  136.6577
 142  195.0636
 143  221.6066
 144  217.5606
 145  374.6744
 146  320.7888
 147  306.9006
 148  187.7228
 149  136.6611
 150  82.61427
 151  73.2931
 152  30.16571
 153  62.71178
 154  9.153872
 155  165.6687
 156  303.3691
 157  188.7457
 158  63.37357
 159  165.3162
 160  316.3483
 161  353.5799
 162  177.8578
 163  244.6971
 164  353.8394
 165  319.2967
 166  84.74503
 167  57.56937
 168  198.9501
 169  119.6514
 170  110.1177
 171  198.9191
 172  229.9721
 173  162.9521
 174  192.3185
 175  164.9794
 176  144.0608
 177  253.7223
 178  301.9956
 179  365.0464
 180  357.9793
 181  282.2785
 182  263.4254
 183  233.6415
 184  212.6334
 185  207.8902
 186  300.3973
 187  99.01077
 188  181.4261
 189  189.1282
 190  263.3068
 191  205.5042
 192  278.4881
 193  262.4645
 194  236.1299
 195  72.54826
 196  313.9449
 197  217.7829
 198  232.482
 199  216.4253
 200  231.9731
 201  152.9599
 202  146.9822
 203  202.7706
 204  245.3468
 205  146.5035
 206  210.0729
 207  245.1392
 208  431.6959
 209  223.3469
 210  174.6477
 211  148.2446
 212  213.1024
 213  207.4565
 214  409.1281
 215  268.1811
 216  229.9272
 217  238.7625
 218  435.9324
 219  359.594
 220  239.4423
 221  271.8686
 222  205.2249
 223  215.7182
 224  384.4594
 225  197.5248
 226  258.1569
 227  169.0858
 228  145.5429
 229  112.4727
 230  239.9979
 231  288.9154
 232  201.4179
 233  89.61146
 234  225.1245
 235  176.5651
 236  219.2433
 237  204.8478
 238  225.1295
 239  204.2554
 240  76.24927
 241  105.7796
 242  126.9301
 243  259.6819
 244  167.7684
 245  189.0305
 246  201.4337
 247  302.3786
 248  402.0579
 249  405.691
 250  269.6923
 251  324.2175
 252  178.4504
 253  256.648
 254  293.6235
 255  295.7582
 256  311.1833
 257  372.2303
 258  212.4947
 259  113.7287
 260  111.8152
 261  189.791
 262  103.7386
 263  214.9794
 264  150.7714
 265  212.3849
 266  149.9152
 267  306.9957
 268  239.4485
 269  159.4736
 270  208.555
 271  346.7389
 272  250.4018
 273  213.1044
 274  218.0105
 275  225.7004
 276  145.1392
 277  283.0403
 278  314.3741
 279  381.699
 280  268.2679
 281  419.9601
 282  260.1583
 283  282.9275
 284  188.9093
 285  285.575
 286  83.37556
 287  123.7888
 288  203.315
 289  350.6633
 290  217.9146
 291  240.8043
 292  223.9472
 293  287.1794
 294  251.4003
 295  201.4899
 296  231.4015
 297  400.3747
 298  256.8829
 299  382.3566
 300  253.8442
 301  219.4758
 302  186.1909
 303  173.7611
 304  275.6089
 305  262.6729
 306  81.16927
 307  222.2094
 308  191.1337
 309  205.5619
 310  228.6307
 311  213.3303
 312  111.7679
 313  184.8151
 314  279.5984
 315  158.351
 316  4.023175
 317  127.4705
 318  252.5275
 319  164.3791
 320  276.0369
 321  381.2785
 322  255.4999
 323  197.807
 324  211.5693
 325  293.4778
 326  225.6386
 327  328.4907
 328  227.6051
 329  96.36813
 330  84.88171
 331  266.163
 332  401.8456
 333  275.8506
 334  195.489
 335  179.2059
 336  155.3209
 337  272.3084
 338  312.519
 339  206.9616
 340  353.1075
 341  230.2772
 342  104.3611
 343  108.0052
 344  146.3877
 345  173.0472
 346  318.0241
 347  303.3285
 348  373.6676
 349  284.9413
 350  263.1973
 351  147.6484
 352  144.0313
 353  257.0177
 354  191.1071
 355  131.2105
 356  308.9722
 357  233.7893
 358  322.0976
 359  255.1679
 360  236.9562
 361  225.3953
 362  286.8875
 363  228.2987
 364  319.4546
 365  243.0666
 366  151.4367
 367  130.0615
 368  247.2084
 369  235.3464
 370  253.3599
 371  245.2451
 372  313.5666
 373  367.1191
 374  342.6695
 375  133.1012
 376  201.7368
 377  213.4123
 378  270.6534
 379  294.9395
 380  309.2882
 381  311.166
 382  159.4649
 383  111.2248
 384  303.7142
 385  258.4319
 386  231.8166
 387  123.3279
 388  138.9072
 389  260.931
 390  258.6118
 391  213.2622
 392  315.8126
 393  137.2201
 394  291.4597
 395  310.3951
 396  345.5151
 397  178.8636
 398  276.1234
 399  248.1818
 400  268.6045
 401  186.7104
 402  151.4545
 403  337.0058
 404  347.5781
 405  139.3986
 406  92.52612
 407  227.3058
 408  294.3022
 409  227.4453
 410  185.2023
 411  329.0325
 412  233.6807
 413  148.9286
 414  84.25149
 415  103.4313
 416  198.1383
 417  228.14
 418  304.3654
 419  160.8361
 420  97.50478
 421  198.3777
 422  164.0589
 423  317.0228
 424  274.4362
 425  385.8038
 426  269.5904
 427  304.2897
 428  286.0554
 429  202
 430  18.11469
 431  157.2929
 432  337.4043
 433  334.1133
 434  251.6327
 435  363.2186
 436  280.2664
 437  279.8924
 438  269.6398
 439  257.6117
 440  206.911
 441  249.0286
 442  97.43491
 443  245.8523
 444  185.4744
 445  245.2506
 446  209.4049
 447  112.2487
 448  29.18907
 449  279.056
 450  306.9131
 451  300.9862
 452  169.195
 453  300.5126
 454  286.7403
 455  468.1406
 456  289.3141
 457  340.6541
 458  274.6673
 459  229.8895
 460  35.33195
 461  206.3723
 462  180.487
 463  264.3427
 464  187.4766
 465  366.55
 466  356.8217
 467  370.5081
 468  315.5477
 469  310.6229
 470  344.0458
 471  247.3904
 472  183.7298
 473  276.0631
 474  198.0632
 475  257.6017
 476  262.8871
 477  273.4079
 478  210.4402
 479  151.7328
 480  14.27048
 481  160.7897
 482  291.8139
 483  308.7025
 484  344.383
 485  301.6724
 486  318.1684
 487  208.2486
 488  142.8602
 489  285.9005
 490  350.4565
 491  302.886
 492  393.0974
 493  359.5857
 494  239.4886
 495  263.194
 496  261.3757
 497  343.203
 498  307.4742
 499  271.4552
 500  321.7565
 501  312.1619
 502  360.515
 503  395.8654
 504  397.0824
 505  327.1246
 506  287.2937
 507  397.5222
 508  482.308
 509  501.9213
 510  746.5005
 511  1017.238
