# Input file       =  1191021321.110226_cleaned.dat
# Candidate        =  PSR_0332+5434
# Telescope        =  AR
# Epoch_topo       =  58028.968785997982
# Epoch_bary       =  N/A
# T_sample         =  0.002
# Data Folded      =  7340032
# Data Avg         =  0.0106921501270553
# Data StdDev      =  1.00005898322481 
# Profile Bins     =  512
# Profile Avg      =  154.13292540646  
# Profile StdDev   =  119.740098617368 
# Reduced chi-sqr  =  1.407
# Prob(Noise)      <  3.22e-09   (~5.8 sigma)
# P_topo (ms)      =  714.473706223099  +/- 0.000227
# P'_topo (s/s)    =  -0                +/- 1.2e-10
# P''_topo (s/s^2) =  0                 +/- 5.29e-14
# P_bary (ms)      =  N/A
# P'_bary (s/s)    =  N/A
# P''_bary (s/s^2) =  N/A
# P_orb (s)        =  N/A
# asin(i)/c (s)    =  N/A
# eccentricity     =  N/A
# w (rad)          =  N/A
# T_peri           =  N/A
######################################################
   0  753.0476
   1  709.6215
   2  612.2698
   3  597.3261
   4  351.9965
   5  140.1946
   6  219.3956
   7  220.1079
   8  218.7224
   9  174.5858
  10  181.7902
  11  128.887
  12  187.2984
  13  294.2525
  14  250.8593
  15  177.8218
  16  194.6476
  17  273.4789
  18  280.3507
  19  178.1115
  20  199.7055
  21  160.614
  22  133.5082
  23  -49.95313
  24  23.49736
  25  213.9213
  26  143.0103
  27  -21.2359
  28  40.61552
  29  213.2212
  30  319.1743
  31  167.8471
  32  105.618
  33  28.97165
  34  71.23463
  35  157.6624
  36  124.0285
  37  29.94879
  38  63.93523
  39  0.8925633
  40  125.4439
  41  92.7407
  42  180.4001
  43  292.8334
  44  254.2168
  45  179.6089
  46  200.5346
  47  193.2122
  48  241.5601
  49  67.82028
  50  -62.36852
  51  30.46334
  52  132.5217
  53  292.743
  54  190.3356
  55  187.0331
  56  189.1048
  57  161.5692
  58  123.5413
  59  17.714
  60  88.92111
  61  167.1949
  62  111.5968
  63  1.535361
  64  44.34629
  65  133.2261
  66  149.5014
  67  182.214
  68  294.3479
  69  122.7098
  70  84.98343
  71  85.23778
  72  18.29466
  73  243.2379
  74  218.6535
  75  187.5527
  76  90.22284
  77  262.5074
  78  87.1754
  79  121.7714
  80  157.7071
  81  58.86592
  82  119.8616
  83  113.0348
  84  251.1964
  85  192.7442
  86  -2.701968
  87  124.9462
  88  91.31958
  89  -1.088911
  90  -111.6151
  91  -31.11657
  92  132.4055
  93  64.07727
  94  89.38191
  95  162.5955
  96  160.5698
  97  -28.20956
  98  140.391
  99  297.8996
 100  106.3099
 101  112.9372
 102  210.8123
 103  61.47482
 104  205.7669
 105  292.9976
 106  306.3227
 107  154.3595
 108  35.02207
 109  55.04514
 110  81.46815
 111  76.29298
 112  91.30176
 113  161.4758
 114  45.03529
 115  134.1888
 116  124.8952
 117  232.1737
 118  137.0794
 119  71.76393
 120  -20.80891
 121  117.0963
 122  -24.54449
 123  126.3273
 124  189.4913
 125  69.86001
 126  70.09834
 127  157.6895
 128  77.16766
 129  38.55661
 130  64.70613
 131  198.3655
 132  174.8126
 133  106.7392
 134  115.1084
 135  180.6493
 136  73.13247
 137  122.6585
 138  122.8386
 139  116.4673
 140  22.11322
 141  152.0283
 142  232.126
 143  128.1785
 144  94.46559
 145  174.3672
 146  251.7775
 147  221.0977
 148  174.9295
 149  203.4798
 150  44.38719
 151  69.55715
 152  92.43569
 153  135.4282
 154  264.2941
 155  219.0689
 156  55.04534
 157  188.0842
 158  179.0416
 159  -4.121657
 160  55.0355
 161  95.43964
 162  247.1716
 163  173.9012
 164  39.80279
 165  94.22476
 166  205.6234
 167  175.9174
 168  273.1002
 169  58.88843
 170  102.4244
 171  99.38434
 172  202.6237
 173  308.2682
 174  240.5886
 175  356.7663
 176  128.4931
 177  75.39344
 178  122.4291
 179  255.7919
 180  173.94
 181  37.94147
 182  -105.161
 183  -103.2363
 184  77.57471
 185  270.3508
 186  217.3388
 187  236.2256
 188  242.0293
 189  115.9128
 190  177.0396
 191  234.1624
 192  2.616463
 193  15.58748
 194  116.6341
 195  105.5343
 196  237.6532
 197  82.58424
 198  71.37356
 199  -26.79698
 200  70.9632
 201  77.91463
 202  50.01312
 203  166.265
 204  129.7452
 205  200.8122
 206  200.108
 207  167.0522
 208  254.1525
 209  88.65991
 210  180.9989
 211  287.2637
 212  141.3269
 213  88.41939
 214  59.2925
 215  116.3723
 216  126.1968
 217  116.7207
 218  71.85052
 219  46.45145
 220  116.1155
 221  174.8396
 222  114.714
 223  43.60534
 224  -4.772552
 225  -117.4744
 226  -9.313272
 227  173.2161
 228  163.2902
 229  120.552
 230  26.9496
 231  -28.24124
 232  226.5331
 233  146.4474
 234  45.01709
 235  149.6967
 236  78.98834
 237  -4.345965
 238  108.5472
 239  116.003
 240  228.3115
 241  209.4017
 242  154.5378
 243  203.2318
 244  276.1076
 245  110.1654
 246  51.61548
 247  96.8446
 248  214.2549
 249  14.53906
 250  95.67603
 251  220.8151
 252  336.5084
 253  175.0202
 254  -72.21317
 255  114.5926
 256  143.3281
 257  203.128
 258  99.2092
 259  66.88605
 260  40.97355
 261  122.7243
 262  185.4891
 263  240.5633
 264  267.4849
 265  281.529
 266  210.6592
 267  246.3699
 268  372.5758
 269  309.4431
 270  184.4312
 271  146.6853
 272  87.17456
 273  151.7446
 274  138.6215
 275  32.76422
 276  67.99191
 277  134.0282
 278  142.1041
 279  169.3073
 280  -1.819461
 281  -54.83382
 282  86.00417
 283  163.5717
 284  138.0457
 285  190.6662
 286  100.4462
 287  156.5389
 288  267.9882
 289  235.1172
 290  71.95389
 291  148.023
 292  231.646
 293  139.6751
 294  157.7897
 295  37.21308
 296  -38.55126
 297  2.337887
 298  42.38416
 299  107.2869
 300  80.83164
 301  60.35204
 302  79.20491
 303  4.275192
 304  104.1724
 305  108.5949
 306  136.3274
 307  209.9431
 308  281.8913
 309  238.4388
 310  267.5262
 311  206.5325
 312  96.40248
 313  142.3261
 314  147.7341
 315  194.4109
 316  182.59
 317  131.2847
 318  235.7438
 319  125.4987
 320  226.9313
 321  251.7107
 322  176.1851
 323  217.5866
 324  136.8475
 325  174.6806
 326  88.00556
 327  168.9074
 328  265.6651
 329  145.3864
 330  134.5947
 331  126.4397
 332  89.19883
 333  246.0928
 334  302.8661
 335  192.4043
 336  100.7053
 337  52.7883
 338  164.4287
 339  66.29478
 340  185.0702
 341  356.624
 342  322.7205
 343  235.3215
 344  114.5737
 345  170.3839
 346  240.6459
 347  124.5501
 348  207.0197
 349  114.3562
 350  229.8352
 351  252.5643
 352  219.0794
 353  160.5504
 354  89.08307
 355  75.72194
 356  127.9743
 357  146.1337
 358  164.9849
 359  220.6576
 360  228.198
 361  135.6799
 362  127.0135
 363  173.2601
 364  205.9232
 365  65.91039
 366  230.0717
 367  337.8854
 368  185.2401
 369  245.2831
 370  227.0859
 371  236.7978
 372  197.1948
 373  234.6032
 374  120.2383
 375  109.9579
 376  151.3363
 377  189.7286
 378  244.5326
 379  252.2213
 380  206.2047
 381  187.4826
 382  348.3743
 383  186.2153
 384  182.9745
 385  270.1336
 386  310.1743
 387  213.7165
 388  190.5089
 389  296.5637
 390  276.8677
 391  316.6176
 392  345.1028
 393  139.8932
 394  116.7697
 395  283.4183
 396  269.6894
 397  190.7287
 398  41.79485
 399  173.5357
 400  147.0219
 401  167.971
 402  175.977
 403  233.4039
 404  176.7734
 405  75.05785
 406  148.4253
 407  95.92713
 408  155.0344
 409  81.31676
 410  74.62124
 411  133.0713
 412  176.988
 413  256.8198
 414  161.9769
 415  56.12616
 416  214.2522
 417  173.0439
 418  191.7616
 419  272.5939
 420  333.164
 421  202.9257
 422  13.78088
 423  66.11919
 424  176.7401
 425  164.1811
 426  75.33257
 427  128.7504
 428  174.4067
 429  174.493
 430  -4.699068
 431  91.65311
 432  81.15983
 433  -35.12873
 434  91.72912
 435  46.02024
 436  85.15665
 437  44.49362
 438  161.4481
 439  183.4759
 440  80.02667
 441  -33.76939
 442  127.9044
 443  53.42374
 444  32.45622
 445  38.36801
 446  186.5366
 447  144.2195
 448  74.06084
 449  38.27094
 450  208.8227
 451  195.9292
 452  211.9677
 453  256.2499
 454  228.5643
 455  234.6845
 456  166.3486
 457  153.6897
 458  158.8268
 459  120.6781
 460  240.6871
 461  209.6793
 462  225.3717
 463  233.4941
 464  184.8158
 465  134.6713
 466  70.66738
 467  193.2852
 468  272.0048
 469  135.6876
 470  78.11236
 471  165.1834
 472  180.7962
 473  276.423
 474  138.0526
 475  92.25807
 476  108.9721
 477  169.9755
 478  266.6239
 479  248.8697
 480  155.9951
 481  157.7381
 482  191.3694
 483  192.0205
 484  24.93819
 485  10.42619
 486  36.30336
 487  81.46675
 488  80.15341
 489  170.8672
 490  82.90518
 491  71.24553
 492  198.0065
 493  103.4535
 494  173.3607
 495  170.5748
 496  221.0564
 497  174.0519
 498  74.1338
 499  189.1982
 500  260.5652
 501  242.735
 502  256.6347
 503  180.3242
 504  138.8704
 505  300.1317
 506  322.482
 507  270.4071
 508  337.788
 509  399.5256
 510  599.71
 511  618.7291
