# Input file       =  1192313732.119416_cleaned.dat
# Candidate        =  PSR_0332+5434
# Telescope        =  AR
# Epoch_topo       =  58043.927246752501
# Epoch_bary       =  N/A
# T_sample         =  0.002
# Data Folded      =  7340032
# Data Avg         =  0.0167312584553897
# Data StdDev      =  1.00002755489681 
# Profile Bins     =  512
# Profile Avg      =  239.866352389218 
# Profile StdDev   =  119.736335608228 
# Reduced chi-sqr  =  2.011
# Prob(Noise)      <  5.7e-37   (~12.6 sigma)
# P_topo (ms)      =  714.483749395679  +/- 0.000214
# P'_topo (s/s)    =  -0                +/- 1.13e-10
# P''_topo (s/s^2) =  0                 +/- 4.99e-14
# P_bary (ms)      =  N/A
# P'_bary (s/s)    =  N/A
# P''_bary (s/s^2) =  N/A
# P_orb (s)        =  N/A
# asin(i)/c (s)    =  N/A
# eccentricity     =  N/A
# w (rad)          =  N/A
# T_peri           =  N/A
######################################################
   0  1228.052
   1  1129.505
   2  977.7435
   3  650.093
   4  499.8473
   5  285.4286
   6  353.1072
   7  356.0568
   8  240.8758
   9  369.6216
  10  474.0539
  11  384.4001
  12  414.3207
  13  428.0985
  14  402.2352
  15  345.4806
  16  200.6322
  17  232.876
  18  327.9148
  19  345.3
  20  223.9253
  21  152.0931
  22  154.1618
  23  367.6457
  24  412.862
  25  248.712
  26  150.9017
  27  124.4505
  28  132.332
  29  189.5035
  30  241.9655
  31  251.6705
  32  122.1836
  33  160.7322
  34  216.6892
  35  178.6386
  36  120.468
  37  286.3275
  38  365.9707
  39  297.3276
  40  177.4994
  41  274.2579
  42  167.6931
  43  113.6762
  44  247.7644
  45  339.847
  46  387.3713
  47  346.7885
  48  334.2121
  49  416.8969
  50  349.3661
  51  268.4097
  52  250.0354
  53  440.2029
  54  364.2469
  55  329.1039
  56  253.843
  57  155.5741
  58  239.7258
  59  247.0456
  60  195.3471
  61  292.9536
  62  188.1821
  63  98.8288
  64  153.1507
  65  244.1295
  66  230.4293
  67  162.2438
  68  172.0684
  69  99.31013
  70  135.0982
  71  174.429
  72  118.7394
  73  207.5488
  74  189.6372
  75  183.6003
  76  253.5166
  77  239.1968
  78  281.8155
  79  221.3785
  80  168.1784
  81  166.9713
  82  199.421
  83  324.3179
  84  252.5979
  85  265.1461
  86  354.2113
  87  335.2025
  88  166.2297
  89  339.1998
  90  261.3191
  91  263.7574
  92  343.25
  93  216.1147
  94  300.6328
  95  368.7959
  96  296.6727
  97  257.9706
  98  211.8166
  99  313.8946
 100  338.2047
 101  314.0037
 102  220.8037
 103  322.5876
 104  284.8005
 105  290.0827
 106  94.23266
 107  180.5427
 108  237.2701
 109  262.5024
 110  185.6917
 111  16.3457
 112  119.6786
 113  160.6727
 114  246.9664
 115  346.9862
 116  251.0047
 117  59.63323
 118  193.119
 119  377.2169
 120  219.033
 121  241.1324
 122  228.0133
 123  200.9661
 124  242.153
 125  415.5476
 126  180.5021
 127  70.31791
 128  218.2077
 129  100.2393
 130  130.3614
 131  149.8723
 132  91.69724
 133  201.9893
 134  221.3981
 135  215.7719
 136  106.4008
 137  52.94773
 138  52.70055
 139  17.21004
 140  178.7523
 141  165.0757
 142  79.89954
 143  231.6603
 144  364.3809
 145  258.0009
 146  154.0445
 147  288.653
 148  391.6364
 149  285.9143
 150  123.7213
 151  157.8485
 152  161.3242
 153  235.3051
 154  363.984
 155  441.2746
 156  323.2322
 157  362.0984
 158  193.7126
 159  147.2586
 160  195.006
 161  228.8481
 162  283.1282
 163  205.3717
 164  98.16789
 165  148.6223
 166  252.2122
 167  297.6495
 168  113.9934
 169  221.7448
 170  239.5566
 171  145.1338
 172  48.12616
 173  65.03133
 174  240.5706
 175  245.3058
 176  166.8158
 177  108.2776
 178  147.5259
 179  226.5485
 180  272.4503
 181  229.871
 182  272.9305
 183  322.532
 184  303.8452
 185  202.7194
 186  155.5254
 187  257.2024
 188  166.2553
 189  233.8189
 190  323.1615
 191  225.9399
 192  161.9855
 193  168.5603
 194  272.9286
 195  229.8916
 196  284.248
 197  241.9201
 198  282.4579
 199  210.9342
 200  111.0963
 201  149.372
 202  159.8617
 203  288.0179
 204  308.2258
 205  147.9271
 206  144.3611
 207  296.2477
 208  384.2071
 209  392.1513
 210  292.6163
 211  226.8576
 212  176.3846
 213  285.7474
 214  232.4984
 215  181.4916
 216  287.7413
 217  171.4624
 218  211.4553
 219  217.8947
 220  279.0313
 221  289.089
 222  46.97831
 223  131.458
 224  220.6593
 225  285.1067
 226  181.1001
 227  164.7909
 228  125.6623
 229  153.676
 230  218.7698
 231  244.2104
 232  194.9941
 233  351.9268
 234  263.2994
 235  266.2473
 236  198.4873
 237  211.1869
 238  279.8706
 239  221.7566
 240  220.1278
 241  255.6707
 242  337.376
 243  336.4979
 244  348.2944
 245  309.0848
 246  246.7028
 247  375.8033
 248  250.0605
 249  137.4932
 250  210.7769
 251  78.71567
 252  88.0206
 253  142.7538
 254  178.1209
 255  306.832
 256  182.0337
 257  348.519
 258  296.1932
 259  206.3219
 260  211.8365
 261  242.3497
 262  201.3596
 263  230.4959
 264  353.2241
 265  206.5869
 266  256.8117
 267  259.491
 268  290.9339
 269  164.6826
 270  58.28186
 271  12.50502
 272  143.717
 273  247.7084
 274  261.2709
 275  324.6398
 276  309.9984
 277  326.2864
 278  252.7613
 279  229.0528
 280  226.3788
 281  264.4995
 282  174.7267
 283  124.0946
 284  163.31
 285  200.9317
 286  120.7712
 287  111.8941
 288  245.0915
 289  262.5059
 290  290.7526
 291  179.3778
 292  250.0932
 293  332.4397
 294  386.3908
 295  285.778
 296  190.4201
 297  202.1496
 298  152.4627
 299  139.6684
 300  165.9669
 301  137.2678
 302  196.0275
 303  179.9349
 304  296.728
 305  365.3406
 306  236.772
 307  264.9375
 308  305.3918
 309  271.5673
 310  188.7413
 311  207.8723
 312  136.4921
 313  241.5261
 314  250.1042
 315  221.2136
 316  219.9323
 317  239.8157
 318  167.6162
 319  197.4206
 320  298.1103
 321  372.5259
 322  202.969
 323  205.8347
 324  259.7581
 325  225.0158
 326  343.5908
 327  250.5681
 328  243.1333
 329  257.1042
 330  183.0656
 331  82.74746
 332  121.5963
 333  131.9704
 334  267.076
 335  110.4427
 336  110.5571
 337  158.7329
 338  213.8083
 339  297.5258
 340  254.3393
 341  322.0731
 342  431.6895
 343  274.8962
 344  176.6532
 345  112.3428
 346  101.0759
 347  26.87631
 348  61.87376
 349  117.0064
 350  208.0761
 351  312.2062
 352  361.754
 353  230.7097
 354  139.3264
 355  152.3851
 356  261.5811
 357  261.5175
 358  186.7385
 359  266.4262
 360  148.6375
 361  240.9017
 362  190.5272
 363  195.2696
 364  145.3705
 365  279.8531
 366  288.9939
 367  239.369
 368  257.8793
 369  199.1736
 370  271.1467
 371  383.1603
 372  258.9955
 373  198.8248
 374  208.9373
 375  193.9504
 376  166.1094
 377  255.1648
 378  235.827
 379  201.211
 380  9.664091
 381  105.3463
 382  233.0979
 383  290.3009
 384  176.3452
 385  111.0253
 386  89.58231
 387  173.4148
 388  169.115
 389  198.4256
 390  289.8725
 391  218.6797
 392  135.3294
 393  252.0334
 394  181.7116
 395  209.4814
 396  22.69097
 397  -10.20189
 398  87.41965
 399  120.2089
 400  218.4518
 401  149.111
 402  144.8513
 403  223.6172
 404  267.0329
 405  153.6508
 406  204.7103
 407  331.509
 408  204.2483
 409  196.869
 410  302.1095
 411  277.6205
 412  198.3552
 413  184.0746
 414  228.2798
 415  345.2133
 416  119.531
 417  119.0603
 418  99.17014
 419  157.8359
 420  235.0008
 421  117.0612
 422  163.3574
 423  265.9176
 424  231.6759
 425  246.136
 426  206.5423
 427  113.9322
 428  202.7115
 429  123.373
 430  174.6559
 431  261.4643
 432  183.9898
 433  275.8689
 434  191.8865
 435  173.2968
 436  139.605
 437  89.30325
 438  92.3196
 439  375.5013
 440  380.6046
 441  298.3526
 442  266.3795
 443  291.6978
 444  333.3665
 445  259.816
 446  72.10371
 447  283.3935
 448  332.3461
 449  369.1371
 450  311.36
 451  286.5472
 452  419.2491
 453  222.7736
 454  168.6016
 455  270.3687
 456  302.3591
 457  363.3231
 458  350.4058
 459  280.4422
 460  224.9164
 461  157.6832
 462  199.5475
 463  274.7386
 464  417.224
 465  429.5606
 466  197.9269
 467  282.0432
 468  291.452
 469  266.2689
 470  341.3712
 471  403.0964
 472  346.6706
 473  133.8406
 474  98.9456
 475  276.334
 476  172.7553
 477  57.79506
 478  110.0813
 479  198.2372
 480  166.5495
 481  43.67937
 482  89.53699
 483  224.5227
 484  259.6049
 485  325.6652
 486  306.1376
 487  198.5766
 488  229.4904
 489  248.888
 490  280.2484
 491  356.6754
 492  404.0429
 493  406.2843
 494  406.3959
 495  169.9951
 496  171.7559
 497  244.946
 498  212.807
 499  274.0245
 500  208.3335
 501  222.4507
 502  282.0673
 503  281.4311
 504  271.633
 505  317.6054
 506  379.7588
 507  390.9487
 508  396.2808
 509  645.0678
 510  919.7707
 511  1039.671
