# Input file       =  1192729877.127806_cleaned.dat
# Candidate        =  PSR_0332+5434
# Telescope        =  AR
# Epoch_topo       =  58048.743739905163
# Epoch_bary       =  N/A
# T_sample         =  0.002
# Data Folded      =  7143424
# Data Avg         =  0.00775433913717976
# Data StdDev      =  1.00008137291809 
# Profile Bins     =  512
# Profile Avg      =  108.100172194346 
# Profile StdDev   =  118.128196135767 
# Reduced chi-sqr  =  1.487
# Prob(Noise)      <  4.89e-12   (~6.8 sigma)
# P_topo (ms)      =  714.487603398513  +/- 0.000211
# P'_topo (s/s)    =  -0                +/- 1.15e-10
# P''_topo (s/s^2) =  0                 +/- 5.2e-14
# P_bary (ms)      =  N/A
# P'_bary (s/s)    =  N/A
# P''_bary (s/s^2) =  N/A
# P_orb (s)        =  N/A
# asin(i)/c (s)    =  N/A
# eccentricity     =  N/A
# w (rad)          =  N/A
# T_peri           =  N/A
######################################################
   0  730.616
   1  719.9204
   2  469.9247
   3  211.1196
   4  124.7854
   5  120.3409
   6  80.80605
   7  11.20697
   8  5.73643
   9  110.3635
  10  195.3232
  11  182.8642
  12  203.5896
  13  209.9795
  14  140.9981
  15  292.1441
  16  294.9434
  17  186.5307
  18  178.428
  19  123.06
  20  7.307279
  21  -22.13888
  22  93.56328
  23  130.5099
  24  87.177
  25  49.38298
  26  62.06134
  27  47.43502
  28  29.89978
  29  91.14062
  30  -8.169923
  31  -89.84148
  32  -80.21184
  33  74.30418
  34  -15.67971
  35  -109.1904
  36  59.40193
  37  119.176
  38  50.06336
  39  196.2475
  40  40.4418
  41  43.42218
  42  92.30112
  43  24.62322
  44  113.7462
  45  113.8435
  46  119.9215
  47  82.73485
  48  23.15187
  49  128.5292
  50  99.19009
  51  31.83107
  52  80.92536
  53  116.4949
  54  121.924
  55  189.2111
  56  100.9136
  57  25.52611
  58  -12.00844
  59  138.9876
  60  160.6624
  61  74.51263
  62  192.9182
  63  265.909
  64  52.78524
  65  36.4963
  66  81.71584
  67  95.9797
  68  53.17301
  69  110.6861
  70  184.2895
  71  213.6546
  72  162.381
  73  42.15879
  74  175.5617
  75  86.42842
  76  12.2366
  77  9.323149
  78  173.7407
  79  91.6974
  80  -28.67768
  81  -63.168
  82  90.63139
  83  140.2731
  84  120.777
  85  220.7482
  86  196.2164
  87  144.0224
  88  58.55932
  89  104.7198
  90  196.4142
  91  151.9117
  92  244.5447
  93  223.8941
  94  136.9441
  95  106.0279
  96  96.94276
  97  129.2976
  98  67.0574
  99  158.6385
 100  191.8551
 101  208.5527
 102  132.9772
 103  119.9118
 104  114.7828
 105  185.2185
 106  79.06711
 107  78.72519
 108  168.7575
 109  201.4185
 110  103.7434
 111  56.55542
 112  55.52338
 113  -7.879303
 114  -114.8319
 115  32.82442
 116  140.8045
 117  136.1853
 118  113.6902
 119  77.29804
 120  -25.47805
 121  20.32603
 122  -33.78818
 123  91.66811
 124  136.7569
 125  151.7716
 126  146.0234
 127  57.12952
 128  39.05168
 129  110.8051
 130  230.82
 131  169.7721
 132  121.0688
 133  24.82474
 134  83.70417
 135  356.4861
 136  234.0101
 137  75.7205
 138  120.6277
 139  111.188
 140  4.414034
 141  -9.065454
 142  80.54686
 143  62.51485
 144  194.9447
 145  164.6685
 146  159.3618
 147  76.08435
 148  81.99663
 149  -10.52252
 150  98.26573
 151  129.5556
 152  36.52534
 153  106.2539
 154  194.0394
 155  67.54343
 156  117.1254
 157  158.4638
 158  87.42112
 159  70.66994
 160  110.1039
 161  185.1949
 162  78.77666
 163  16.20476
 164  137.2571
 165  206.0203
 166  186.5036
 167  242.2316
 168  226.6322
 169  30.86438
 170  126.2225
 171  142.6737
 172  112.5127
 173  211.8689
 174  238.2651
 175  262.4433
 176  143.8418
 177  62.32514
 178  128.8256
 179  86.64151
 180  25.81007
 181  94.84768
 182  164.9245
 183  165.095
 184  90.16777
 185  100.813
 186  65.90332
 187  56.20495
 188  90.87783
 189  89.84358
 190  15.89957
 191  235.5698
 192  262.4839
 193  204.1765
 194  171.6449
 195  96.43205
 196  -34.22338
 197  -65.48702
 198  -84.98004
 199  15.60176
 200  -8.974343
 201  -11.93798
 202  40.2666
 203  -46.05921
 204  40.25444
 205  66.17493
 206  122.8011
 207  66.49748
 208  25.40426
 209  26.80083
 210  33.19315
 211  19.92198
 212  71.98824
 213  89.87456
 214  140.0064
 215  172.4864
 216  163.9128
 217  121.8869
 218  184.3326
 219  278.0801
 220  230.6878
 221  184.9408
 222  -35.84719
 223  139.1759
 224  167.4528
 225  141.2258
 226  269.2348
 227  158.3853
 228  247.1708
 229  126.965
 230  4.497768
 231  128.3926
 232  265.0526
 233  143.899
 234  80.45018
 235  131.8442
 236  4.352255
 237  58.23139
 238  19.94419
 239  62.93282
 240  125.7629
 241  90.39641
 242  27.87786
 243  48.9647
 244  151.4413
 245  112.7655
 246  29.37381
 247  96.34498
 248  -104.8281
 249  -109.7335
 250  -42.65808
 251  40.48215
 252  85.10849
 253  72.8912
 254  177.6202
 255  87.84116
 256  63.84888
 257  -56.63706
 258  39.32747
 259  101.1613
 260  143.6481
 261  127.9333
 262  -89.75451
 263  -80.29552
 264  0.7182738
 265  9.061765
 266  28.92872
 267  76.3351
 268  50.46701
 269  118.0522
 270  112.6815
 271  99.73666
 272  136.1162
 273  318.5425
 274  189.968
 275  28.72075
 276  144.061
 277  215.8286
 278  159.7068
 279  -17.1881
 280  100.1566
 281  82.71732
 282  -55.27273
 283  -62.28358
 284  139.7804
 285  70.75332
 286  63.45425
 287  57.46881
 288  76.74699
 289  116.4664
 290  117.909
 291  163.9256
 292  179.203
 293  67.15655
 294  -47.42658
 295  -54.00798
 296  -57.04771
 297  8.065353
 298  84.37594
 299  16.63736
 300  -20.89086
 301  -87.2001
 302  -25.19289
 303  -101.2568
 304  -19.19858
 305  -14.75648
 306  16.94337
 307  115.8007
 308  110.3924
 309  192.7751
 310  162.4673
 311  62.30842
 312  157.3299
 313  283.2808
 314  209.5448
 315  122.8961
 316  67.41873
 317  62.14105
 318  123.703
 319  109.7574
 320  80.01055
 321  15.11642
 322  -17.40885
 323  83.9898
 324  185.6593
 325  182.545
 326  75.1042
 327  139.7522
 328  109.0165
 329  68.13447
 330  133.0989
 331  118.7311
 332  209.9653
 333  125.2482
 334  95.53064
 335  42.00157
 336  -55.58868
 337  -88.89253
 338  -17.50474
 339  57.31384
 340  92.60456
 341  130.9718
 342  168.3888
 343  121.3375
 344  240.6429
 345  250.6409
 346  183.1892
 347  108.5327
 348  180.9763
 349  112.4223
 350  149.855
 351  148.7988
 352  73.23717
 353  53.88705
 354  55.52993
 355  157.5907
 356  205.3245
 357  157.8552
 358  7.842382
 359  20.9404
 360  110.5559
 361  57.27269
 362  74.20507
 363  241.642
 364  78.30633
 365  131.9027
 366  261.3236
 367  114.0629
 368  65.5196
 369  20.06418
 370  -26.1254
 371  79.45245
 372  201.6022
 373  210.0202
 374  124.5477
 375  52.38976
 376  -23.46753
 377  64.24549
 378  160.3879
 379  143.4337
 380  12.78967
 381  64.38478
 382  100.8395
 383  72.313
 384  90.84686
 385  -0.8885513
 386  40.23347
 387  105.8068
 388  30.54164
 389  98.57907
 390  213.5628
 391  242.3902
 392  190.3981
 393  70.25765
 394  -24.01903
 395  14.40436
 396  8.36049
 397  77.23579
 398  -43.01611
 399  83.95199
 400  147.6449
 401  161.3419
 402  240.3608
 403  248.9129
 404  277.2718
 405  137.8275
 406  139.677
 407  266.4892
 408  242.8889
 409  165.5775
 410  112.2597
 411  63.76258
 412  75.37804
 413  52.45662
 414  115.4755
 415  184.7954
 416  181.2931
 417  215.8174
 418  195.5021
 419  9.870373
 420  25.05264
 421  168.7289
 422  113.2865
 423  36.62457
 424  28.38618
 425  110.7587
 426  206.4828
 427  174.1693
 428  42.96796
 429  78.00278
 430  -8.113411
 431  80.41493
 432  233.3257
 433  151.3195
 434  140.2981
 435  70.88136
 436  199.6341
 437  245.8372
 438  136.2668
 439  165.3718
 440  174.2607
 441  105.753
 442  106.881
 443  108.9263
 444  34.49611
 445  -6.010831
 446  -53.29177
 447  -32.48241
 448  148.9238
 449  69.47658
 450  -46.2718
 451  71.60598
 452  70.80306
 453  109.703
 454  178.5196
 455  121.7653
 456  210.99
 457  266.4315
 458  255.2869
 459  77.57574
 460  -50.55116
 461  10.92983
 462  163.984
 463  -10.09045
 464  -8.796432
 465  76.9533
 466  81.49307
 467  176.075
 468  209.7123
 469  126.0888
 470  51.80331
 471  117.6418
 472  111.6955
 473  122.6434
 474  237.4617
 475  160.3828
 476  -36.02918
 477  139.6218
 478  184.4806
 479  137.9016
 480  152.1026
 481  121.255
 482  105.0198
 483  35.30607
 484  60.75673
 485  109.464
 486  153.3887
 487  -14.95117
 488  -117.5723
 489  -9.666298
 490  72.54297
 491  177.7664
 492  292.8623
 493  270.7287
 494  185.9394
 495  107.621
 496  178.2774
 497  93.4154
 498  105.2747
 499  85.49022
 500  4.07942
 501  43.35772
 502  84.83513
 503  158.2958
 504  145.4929
 505  161.9787
 506  258.2736
 507  402.6607
 508  400.9375
 509  454.5696
 510  705.6389
 511  786.4311
