# Input file       =  1192328641.147617_cleaned.dat
# Candidate        =  PSR_0332+5434
# Telescope        =  AR
# Epoch_topo       =  58044.099804949270
# Epoch_bary       =  N/A
# T_sample         =  0.002
# Data Folded      =  7340032
# Data Avg         =  0.0165233653650388
# Data StdDev      =  1.00003099806936 
# Profile Bins     =  512
# Profile Avg      =  236.897591695085 
# Profile StdDev   =  119.736747869732 
# Reduced chi-sqr  =  1.486
# Prob(Noise)      <  5.23e-12   (~6.8 sigma)
# P_topo (ms)      =  714.484217170972  +/- 0.000218
# P'_topo (s/s)    =  -0                +/- 1.15e-10
# P''_topo (s/s^2) =  0                 +/- 5.09e-14
# P_bary (ms)      =  N/A
# P'_bary (s/s)    =  N/A
# P''_bary (s/s^2) =  N/A
# P_orb (s)        =  N/A
# asin(i)/c (s)    =  N/A
# eccentricity     =  N/A
# w (rad)          =  N/A
# T_peri           =  N/A
######################################################
   0  997.5186
   1  922.8116
   2  721.664
   3  593.4529
   4  265.0113
   5  150.193
   6  199.5809
   7  211.6039
   8  308.3487
   9  210.3452
  10  246.123
  11  452.332
  12  430.9075
  13  435.9135
  14  357.3281
  15  218.8959
  16  117.6579
  17  193.4514
  18  222.0961
  19  205.0439
  20  187.5508
  21  202.1308
  22  213.2915
  23  207.5792
  24  158.7937
  25  219.8264
  26  307.8083
  27  150.8166
  28  105.975
  29  121.4837
  30  353.414
  31  406.5529
  32  207.657
  33  289.1469
  34  382.1309
  35  407.9143
  36  418.5204
  37  228.9686
  38  249.1885
  39  332.4414
  40  317.3272
  41  348.9058
  42  254.6173
  43  145.5316
  44  264.3788
  45  304.9331
  46  305.1577
  47  283.8498
  48  158.7233
  49  154.0341
  50  157.2896
  51  238.332
  52  188.0174
  53  118.8377
  54  135.3598
  55  220.4463
  56  123.73
  57  200.323
  58  379.1573
  59  311.6333
  60  241.4512
  61  254.8493
  62  252.6077
  63  190.7037
  64  130.634
  65  186.5022
  66  131.8923
  67  41.44102
  68  165.85
  69  300.8777
  70  195.2746
  71  72.26282
  72  241.779
  73  336.0909
  74  389.1599
  75  423.7941
  76  260.9722
  77  114.8788
  78  154.2526
  79  233.4053
  80  347.469
  81  153.4413
  82  59.28168
  83  255.5504
  84  320.0973
  85  379.3049
  86  306.7963
  87  304.7133
  88  256.4876
  89  274.7965
  90  327.8113
  91  338.7518
  92  319.5695
  93  365.9198
  94  338.7797
  95  127.1397
  96  261.6219
  97  288.7635
  98  175.5511
  99  133.574
 100  241.9983
 101  276.8291
 102  189.9679
 103  278.9603
 104  362.2294
 105  251.0259
 106  225.2458
 107  285.7602
 108  318.2383
 109  284.2069
 110  189.612
 111  172.1682
 112  86.42199
 113  128.2826
 114  198.3594
 115  56.17707
 116  -52.47017
 117  107.5445
 118  203.8408
 119  296.2093
 120  133.4558
 121  135.1013
 122  201.125
 123  264.9886
 124  217.061
 125  250.3589
 126  93.10836
 127  66.15722
 128  137.1763
 129  254.8276
 130  157.4577
 131  81.891
 132  299.1123
 133  274.4574
 134  313.7639
 135  439.0992
 136  230.4885
 137  248.6377
 138  284.6088
 139  284.9392
 140  381.8836
 141  300.8553
 142  187.9754
 143  272.0111
 144  173.4077
 145  115.9366
 146  195.4954
 147  193.4317
 148  396.9254
 149  315.7082
 150  283.408
 151  280.6322
 152  280.6002
 153  310.0357
 154  316.115
 155  238.3389
 156  96.36953
 157  237.7014
 158  283.8044
 159  215.6904
 160  268.8483
 161  324.0295
 162  223.608
 163  160.5815
 164  261.457
 165  155.0374
 166  228.1436
 167  113.1257
 168  147.2102
 169  194.5421
 170  198.3446
 171  227.0762
 172  157.9054
 173  99.72334
 174  253.0718
 175  430.0103
 176  429.226
 177  275.6578
 178  114.5792
 179  55.57055
 180  214.6326
 181  238.6701
 182  220.9465
 183  373.8389
 184  330.0466
 185  258.7778
 186  173.142
 187  133.2248
 188  230.1341
 189  287.3978
 190  206.1084
 191  184.4342
 192  216.6557
 193  236.7411
 194  196.2425
 195  192.07
 196  328.2694
 197  436.6459
 198  255.6132
 199  260.2916
 200  122.831
 201  102.4313
 202  94.93156
 203  85.15842
 204  138.067
 205  205.2109
 206  148.1287
 207  84.87435
 208  101.5797
 209  166.4152
 210  250.7737
 211  198.784
 212  307.1514
 213  136.9597
 214  256.5235
 215  187.6052
 216  241.1045
 217  175.0022
 218  212.9151
 219  275.2538
 220  252.1807
 221  300.2067
 222  197.5305
 223  280.3618
 224  327.3697
 225  211.1917
 226  154.2756
 227  175.8972
 228  204.6595
 229  236.9987
 230  254.8901
 231  224.3183
 232  93.00591
 233  277.4944
 234  297.1293
 235  192.594
 236  157.5204
 237  192.0833
 238  166.1205
 239  256.7521
 240  344.4495
 241  336.8247
 242  330.2502
 243  166.4525
 244  254.3972
 245  292.1889
 246  183.3023
 247  318.3995
 248  224.9883
 249  219.3317
 250  334.3893
 251  303.5576
 252  341.0078
 253  273.14
 254  310.2321
 255  406.183
 256  333.821
 257  238.1614
 258  170.8618
 259  239.1205
 260  352.0192
 261  278.2675
 262  168.1459
 263  223.5501
 264  206.136
 265  274.6324
 266  262.0725
 267  171.724
 268  259.5921
 269  252.3135
 270  244.4021
 271  318.3182
 272  301.1336
 273  100.465
 274  131.9877
 275  289.7369
 276  201.794
 277  244.2253
 278  204.6289
 279  178.2093
 280  173.3047
 281  118.7197
 282  96.85177
 283  215.989
 284  258.005
 285  223.4017
 286  241.4463
 287  288.0804
 288  213.4872
 289  184.0752
 290  223.4871
 291  258.1901
 292  189.4614
 293  229.5244
 294  168.6071
 295  133.5696
 296  113.4053
 297  185.1924
 298  271.3792
 299  269.6861
 300  153.2206
 301  165.0602
 302  259.2292
 303  180.6084
 304  274.6781
 305  151.0556
 306  188.1304
 307  301.8573
 308  322.6594
 309  316.6245
 310  299.6614
 311  235.5553
 312  190.8542
 313  249.3678
 314  330.7385
 315  133.5371
 316  149.7448
 317  290.0446
 318  309.68
 319  163.4494
 320  171.2286
 321  70.01065
 322  78.13528
 323  88.46089
 324  195.8106
 325  313.3292
 326  253.8126
 327  142.4896
 328  179.3912
 329  346.9417
 330  277.5373
 331  257.4993
 332  324.0209
 333  284.4793
 334  288.1032
 335  322.6894
 336  185.3196
 337  225.9306
 338  41.50123
 339  126.4033
 340  250.7847
 341  338.8426
 342  378.8584
 343  365.9424
 344  360.6648
 345  313.2464
 346  116.1069
 347  234.9279
 348  351.7768
 349  325.4574
 350  341.1484
 351  247.1165
 352  183.5466
 353  83.74577
 354  196.1844
 355  258.9955
 356  201.8696
 357  209.3951
 358  186.8319
 359  226.7253
 360  230.2975
 361  238.9398
 362  314.9879
 363  240.5628
 364  230.6337
 365  270.0278
 366  262.4787
 367  263.3604
 368  247.3916
 369  206.4542
 370  289.5606
 371  296.7242
 372  319.994
 373  284.4918
 374  204.2958
 375  261.1735
 376  353.4534
 377  331.3263
 378  111.9107
 379  115.5239
 380  200.4518
 381  88.7311
 382  141.4186
 383  254.2033
 384  303.1195
 385  218.119
 386  253.7233
 387  380.5775
 388  257.4401
 389  186.19
 390  184.4534
 391  250.1833
 392  234.8844
 393  203.6232
 394  277.6794
 395  215.5256
 396  147.0578
 397  234.1152
 398  328.5373
 399  274.6874
 400  224.6669
 401  187.1422
 402  202.606
 403  249.5304
 404  274.8426
 405  255.337
 406  156.8822
 407  116.7218
 408  134.2589
 409  135.4271
 410  293.394
 411  336.5916
 412  204.9135
 413  198.4459
 414  254.7832
 415  300.3395
 416  262.9991
 417  164.2539
 418  215.0957
 419  255.2758
 420  162.7155
 421  83.75132
 422  138.7858
 423  307.9785
 424  220.1577
 425  152.6126
 426  128.8203
 427  214.7358
 428  155.9392
 429  171.7326
 430  249.4051
 431  313.264
 432  334.8546
 433  331.4396
 434  211.5997
 435  149.3915
 436  116.4398
 437  171.1879
 438  210.6273
 439  107.1343
 440  153.2686
 441  163.8372
 442  185.5191
 443  243.9879
 444  253.4645
 445  126.0928
 446  133.5417
 447  146.5246
 448  266.7409
 449  289.6006
 450  172.4039
 451  181.5993
 452  276.0141
 453  246.1078
 454  283.8819
 455  186.8776
 456  114.1865
 457  195.613
 458  170.2026
 459  229.5746
 460  233.3879
 461  213.5062
 462  300.977
 463  215.0064
 464  82.38175
 465  70.15353
 466  120.3528
 467  292.5922
 468  202.9189
 469  85.67597
 470  218.7954
 471  133.7943
 472  191.9512
 473  264.2246
 474  241.9864
 475  250.2715
 476  274.5847
 477  245.4865
 478  235.1622
 479  171.578
 480  267.2149
 481  189.3377
 482  129.66
 483  256.9682
 484  198.4923
 485  190.2731
 486  100.3263
 487  191.8202
 488  203.5777
 489  146.3074
 490  145.5369
 491  360.1896
 492  277.092
 493  417.1174
 494  350.2649
 495  257.3637
 496  275.9289
 497  273.1662
 498  128.0331
 499  112.2742
 500  49.10032
 501  123.6824
 502  183.9005
 503  298.0664
 504  362.0214
 505  349.1318
 506  386.8324
 507  404.9716
 508  329.3258
 509  433.8192
 510  801.3858
 511  962.0537
