# Input file       =  1192830597.138417_cleaned.dat
# Candidate        =  PSR_0332+5434
# Telescope        =  AR
# Epoch_topo       =  58049.909480768714
# Epoch_bary       =  N/A
# T_sample         =  0.002
# Data Folded      =  7340032
# Data Avg         =  0.018760006308033
# Data StdDev      =  1.00004463257329 
# Profile Bins     =  512
# Profile Avg      =  268.904613784944 
# Profile StdDev   =  119.738380370287 
# Reduced chi-sqr  =  1.423
# Prob(Noise)      <  9.36e-10   (~6.0 sigma)
# P_topo (ms)      =  714.488589038723  +/- 0.000218
# P'_topo (s/s)    =  -0                +/- 1.15e-10
# P''_topo (s/s^2) =  0                 +/- 5.09e-14
# P_bary (ms)      =  N/A
# P'_bary (s/s)    =  N/A
# P''_bary (s/s^2) =  N/A
# P_orb (s)        =  N/A
# asin(i)/c (s)    =  N/A
# eccentricity     =  N/A
# w (rad)          =  N/A
# T_peri           =  N/A
######################################################
   0  926.9529
   1  830.6727
   2  735.8658
   3  493.346
   4  252.5026
   5  158.696
   6  280.9258
   7  319.2593
   8  197.476
   9  131.1168
  10  114.5474
  11  137.5686
  12  137.2422
  13  323.9395
  14  325.786
  15  310.0364
  16  175.1586
  17  231.8744
  18  353.625
  19  285.218
  20  182.531
  21  123.2416
  22  226.7974
  23  211.5809
  24  177.2111
  25  206.4499
  26  176.653
  27  190.6535
  28  236.2707
  29  185.9062
  30  87.86103
  31  161.0459
  32  254.4659
  33  317.4774
  34  322.0462
  35  216.0485
  36  219.6335
  37  241.8966
  38  180.2566
  39  219.0932
  40  220.4922
  41  263.0267
  42  178.9026
  43  235.3807
  44  258.7389
  45  182.7647
  46  209.5044
  47  422.2693
  48  299.1396
  49  375.8974
  50  284.2026
  51  250.818
  52  184.473
  53  214.4891
  54  438.4076
  55  343.1767
  56  202.5393
  57  152.144
  58  239.7202
  59  263.925
  60  248.4548
  61  184.7507
  62  110.0071
  63  247.6556
  64  263.9012
  65  301.5739
  66  308.2408
  67  341.5671
  68  340.9619
  69  225.2193
  70  261.8447
  71  200.5871
  72  222.7251
  73  180.3831
  74  343.1414
  75  313.6964
  76  289.5219
  77  286.097
  78  203.0465
  79  163.6035
  80  239.9101
  81  256.0154
  82  240.9863
  83  286.6299
  84  325.3923
  85  328.6
  86  228.6661
  87  113.7719
  88  155.6584
  89  261.6688
  90  191.3235
  91  75.28413
  92  108.859
  93  146.6856
  94  170.4915
  95  289.7983
  96  276.524
  97  258.0993
  98  250.8774
  99  206.8064
 100  241.8718
 101  372.9817
 102  329.9612
 103  242.5853
 104  168.8828
 105  181.9993
 106  81.26596
 107  90.15251
 108  208.8039
 109  261.337
 110  299.9554
 111  262.0962
 112  295.601
 113  313.772
 114  228.5127
 115  296.9809
 116  336.1268
 117  422.2239
 118  280.5528
 119  223.4313
 120  265.0443
 121  373.9846
 122  338.3393
 123  254.3503
 124  242.6772
 125  275.5476
 126  298.6433
 127  324.9297
 128  210.418
 129  320.1184
 130  315.9355
 131  234.6784
 132  172.7298
 133  208.3589
 134  280.3457
 135  275.5185
 136  194.8687
 137  200.4139
 138  280.4524
 139  247.5169
 140  324.6191
 141  356.8102
 142  252.5898
 143  186.752
 144  183.9156
 145  216.5492
 146  214.0612
 147  199.6879
 148  121.1425
 149  184.6186
 150  428.4256
 151  259.2167
 152  201.4774
 153  194.2696
 154  154.6199
 155  226.2131
 156  207.0697
 157  287.256
 158  311.6669
 159  351.0693
 160  261.4413
 161  197.7871
 162  282.8178
 163  280.3976
 164  323.4084
 165  462.6892
 166  331.9299
 167  287.2747
 168  247.0632
 169  241.6071
 170  274.1135
 171  288.5309
 172  268.0794
 173  287.2339
 174  346.8121
 175  335.1152
 176  367.6821
 177  343.601
 178  309.8715
 179  325.1435
 180  409.1331
 181  344.5369
 182  331.9355
 183  476.5295
 184  403.3636
 185  325.3773
 186  220.1341
 187  195.563
 188  367.9685
 189  338.5896
 190  269.1241
 191  297.3927
 192  363.3199
 193  301.8665
 194  354.941
 195  337.1682
 196  294.9236
 197  345.0956
 198  293.9203
 199  336.6039
 200  312.1304
 201  226.9732
 202  163.5989
 203  295.813
 204  323.7001
 205  356.7113
 206  323.73
 207  231.1189
 208  165.5314
 209  129.3376
 210  226.9985
 211  222.0544
 212  375.0055
 213  390.0088
 214  223.0767
 215  265.4736
 216  196.2988
 217  197.4731
 218  486.1792
 219  480.8776
 220  357.2405
 221  360.9346
 222  361.9815
 223  362.8719
 224  336.1632
 225  383.8106
 226  388.18
 227  309.666
 228  247.5093
 229  270.7293
 230  185.0649
 231  226.3861
 232  129.0443
 233  203.9815
 234  329.8549
 235  302.3374
 236  249.8114
 237  129.7386
 238  207.8119
 239  203.7433
 240  222.8707
 241  257.6509
 242  409.2432
 243  405.7551
 244  330.8377
 245  290.0218
 246  325.7401
 247  271.0231
 248  390.2428
 249  327.4172
 250  231.0288
 251  248.2514
 252  258.2949
 253  203.6793
 254  188.9906
 255  307.3424
 256  356.6648
 257  471.0959
 258  354.5242
 259  264.9688
 260  261.7332
 261  224.2944
 262  135.5626
 263  137.6939
 264  175.834
 265  244.5576
 266  224.8131
 267  182.084
 268  280.1539
 269  321.2408
 270  241.2887
 271  273.048
 272  296.1964
 273  400.4987
 274  391.3694
 275  313.6504
 276  447.4813
 277  300.8192
 278  256.0369
 279  335.3589
 280  229.7122
 281  337.0464
 282  381.4139
 283  248.2327
 284  157.9014
 285  164.8487
 286  175.1686
 287  213.2948
 288  241.3297
 289  210.175
 290  215.9913
 291  368.5967
 292  370.4154
 293  294.0494
 294  283.0206
 295  339.2338
 296  340.9147
 297  245.0869
 298  412.0643
 299  340.7587
 300  265.5731
 301  251.0357
 302  275.1243
 303  275.2037
 304  228.4669
 305  283.5923
 306  350.6729
 307  259.2119
 308  315.6163
 309  273.0075
 310  350.7186
 311  272.2891
 312  210.2367
 313  81.68415
 314  174.5221
 315  268.6299
 316  248.2599
 317  256.5195
 318  244.8568
 319  328.9359
 320  215.4045
 321  93.47254
 322  281.7466
 323  467.9078
 324  477.7109
 325  233.2818
 326  163.0251
 327  202.126
 328  222.0875
 329  97.77077
 330  217.4564
 331  392.8015
 332  386.5172
 333  341.5981
 334  234.6839
 335  306.4103
 336  406.2426
 337  325.8039
 338  157.918
 339  337.3823
 340  496.5322
 341  283.9303
 342  263.7246
 343  316.6167
 344  194.0781
 345  192.4746
 346  247.0559
 347  203.8285
 348  318.9923
 349  221.3281
 350  229.1575
 351  268.1082
 352  174.7909
 353  244.378
 354  287.9539
 355  273.23
 356  390.9636
 357  301.7201
 358  218.6588
 359  260.2088
 360  276.4888
 361  218.355
 362  273.5898
 363  330.5228
 364  282.039
 365  160.9389
 366  175.5796
 367  310.6406
 368  306.3316
 369  351.5607
 370  249.9977
 371  213.6069
 372  356.0049
 373  266.1316
 374  208.4784
 375  239.6346
 376  115.7147
 377  64.65597
 378  169.4409
 379  113.0742
 380  153.4426
 381  226.0798
 382  312.5636
 383  350.4287
 384  253.1957
 385  279.3279
 386  328.8602
 387  299.9118
 388  330.4688
 389  262.3229
 390  186.8611
 391  259.9387
 392  292.2398
 393  216.9636
 394  214.7435
 395  347.9059
 396  332.6506
 397  270.4355
 398  245.3707
 399  165.4334
 400  170.2949
 401  268.1725
 402  239.8911
 403  221.7918
 404  114.9912
 405  223.6387
 406  205.4064
 407  314.8976
 408  138.5784
 409  155.8091
 410  291.4778
 411  258.4112
 412  173.5333
 413  132.2905
 414  48.18661
 415  20.93193
 416  174.6684
 417  200.7215
 418  349.9009
 419  271.5882
 420  248.9097
 421  236.381
 422  136.3142
 423  218.934
 424  314.7973
 425  349.4437
 426  287.8266
 427  92.36853
 428  216.7123
 429  257.9006
 430  188.8787
 431  137.4873
 432  166.5624
 433  195.1636
 434  143.1698
 435  131.5457
 436  184.2701
 437  285.7216
 438  287.2626
 439  349.1781
 440  207.9318
 441  188.6902
 442  177.5955
 443  180.7634
 444  260.4714
 445  319.0359
 446  207.1074
 447  162.0337
 448  285.2323
 449  263.1611
 450  282.0294
 451  286.8097
 452  264.1481
 453  285.7443
 454  296.6501
 455  247.6423
 456  258.4421
 457  187.1172
 458  234.8633
 459  439.3925
 460  482.7779
 461  345.5753
 462  216.6888
 463  293.6988
 464  327.9324
 465  262.6811
 466  307.915
 467  277.3676
 468  304.4513
 469  258.3329
 470  150.9896
 471  198.453
 472  159.9034
 473  97.04032
 474  99.84354
 475  51.07655
 476  76.41402
 477  227.5455
 478  92.92635
 479  164.4213
 480  363.2549
 481  458.8101
 482  361.97
 483  357.315
 484  353.2977
 485  354.737
 486  282.2331
 487  265.3433
 488  339.367
 489  237.3063
 490  239.9481
 491  318.7459
 492  411.3696
 493  398.4172
 494  355.8703
 495  307.3825
 496  332.4418
 497  294.9543
 498  189.7632
 499  265.3398
 500  264.4456
 501  324.7291
 502  378.113
 503  284.8152
 504  287.1453
 505  336.1522
 506  366.1779
 507  284.9462
 508  326.8864
 509  678.6417
 510  839.392
 511  1028.158
