# Input file       =  1192385205.116898_cleaned.dat
# Candidate        =  PSR_0332+5434
# Telescope        =  AR
# Epoch_topo       =  58044.754480519652
# Epoch_bary       =  N/A
# T_sample         =  0.002
# Data Folded      =  7208960
# Data Avg         =  0.0320864946623349
# Data StdDev      =  1.00010063539099 
# Profile Bins     =  512
# Profile Avg      =  451.820649466639 
# Profile StdDev   =  118.671117106081 
# Reduced chi-sqr  =  1.340
# Prob(Noise)      <  4.03e-07   (~4.9 sigma)
# P_topo (ms)      =  714.48438159078   +/- 0.000104
# P'_topo (s/s)    =  -0                +/- 5.59e-11
# P''_topo (s/s^2) =  0                 +/- 2.51e-14
# P_bary (ms)      =  N/A
# P'_bary (s/s)    =  N/A
# P''_bary (s/s^2) =  N/A
# P_orb (s)        =  N/A
# asin(i)/c (s)    =  N/A
# eccentricity     =  N/A
# w (rad)          =  N/A
# T_peri           =  N/A
######################################################
   0  1086.114
   1  1145.654
   2  909.6514
   3  598.9535
   4  441.7807
   5  473.6772
   6  450.1057
   7  457.9637
   8  627.8549
   9  618.4459
  10  472.2093
  11  542.8991
  12  550.9501
  13  513.5823
  14  479.161
  15  460.3971
  16  636.0049
  17  515.6826
  18  628.8664
  19  622.3502
  20  373.9453
  21  277.873
  22  479.6218
  23  565.6326
  24  490.5394
  25  431.9988
  26  401.051
  27  526.444
  28  374.8873
  29  454.5118
  30  493.1002
  31  349.224
  32  403.6889
  33  538.794
  34  451.4785
  35  445.773
  36  351.2467
  37  448.4041
  38  395.8508
  39  410.8443
  40  419.472
  41  384.6397
  42  312.5187
  43  222.0254
  44  323.1208
  45  382.6527
  46  453.5247
  47  432.1053
  48  383.8859
  49  433.7793
  50  371.1157
  51  461.6673
  52  555.7686
  53  472.759
  54  361.8896
  55  467.1362
  56  497.0507
  57  388.6282
  58  320.7726
  59  335.1674
  60  428.9167
  61  305.4789
  62  376.1501
  63  337.0925
  64  345.8939
  65  354.9039
  66  376.7596
  67  443.3182
  68  405.9532
  69  410.9318
  70  392.3184
  71  435.4826
  72  418.4855
  73  374.2662
  74  412.5462
  75  323.2172
  76  302.785
  77  533.0494
  78  495.9042
  79  571.2057
  80  471.4648
  81  365.1299
  82  202.668
  83  407.7789
  84  260.8238
  85  405.3212
  86  417.0228
  87  420.5932
  88  525.8502
  89  460.8004
  90  552.9958
  91  476.1367
  92  484.3026
  93  584.4471
  94  573.1107
  95  591.4976
  96  452.8052
  97  426.817
  98  617.2713
  99  467.0351
 100  467.1857
 101  392.9169
 102  448.7797
 103  322.2625
 104  225.0925
 105  406.9113
 106  460.6364
 107  436.572
 108  538.2553
 109  454.0785
 110  495.6146
 111  520.5781
 112  619.2571
 113  484.4953
 114  453.7397
 115  535.9412
 116  538.5139
 117  605.4924
 118  511.4359
 119  454.2473
 120  420.2127
 121  551.9478
 122  560.6871
 123  450.2678
 124  491.6224
 125  557.9943
 126  552.9083
 127  479.631
 128  441.785
 129  466.9022
 130  422.3705
 131  505.1433
 132  536.5704
 133  545.5541
 134  451.8607
 135  424.1793
 136  367.2976
 137  386.6915
 138  459.9871
 139  450.4281
 140  530.962
 141  591.52
 142  485.7009
 143  406.4136
 144  344.6088
 145  536.6199
 146  489.2384
 147  402.2132
 148  422.1458
 149  381.4846
 150  495.5481
 151  488.1384
 152  521.3
 153  501.1413
 154  318.3993
 155  424.2802
 156  424.4785
 157  494.625
 158  548.219
 159  572.8998
 160  500.7753
 161  481.9894
 162  567.0079
 163  531.8325
 164  347.0684
 165  355.237
 166  494.3863
 167  536.0507
 168  332.5536
 169  388.2847
 170  479.9496
 171  555.7817
 172  496.5162
 173  486.2065
 174  449.174
 175  470.4829
 176  403.5131
 177  459.5515
 178  503.5377
 179  392.7519
 180  370.9111
 181  353.0814
 182  395.0715
 183  332.6791
 184  484.5494
 185  524.9319
 186  498.3138
 187  512.5467
 188  464.4226
 189  507.7404
 190  405.4067
 191  427.7661
 192  509.9546
 193  433.6346
 194  461.2575
 195  436.0056
 196  363.6499
 197  326.8288
 198  504.4284
 199  449.9974
 200  343.5724
 201  511.0864
 202  404.9234
 203  341.5734
 204  329.5251
 205  500.608
 206  481.2034
 207  342.985
 208  346.2933
 209  382.5702
 210  501.8702
 211  429.0711
 212  365.9061
 213  440.2148
 214  331.7814
 215  319.6445
 216  444.8887
 217  317.0389
 218  337.0966
 219  464.3173
 220  483.6526
 221  479.584
 222  442.9517
 223  483.8403
 224  350.4814
 225  303.4568
 226  424.211
 227  581.5775
 228  480.042
 229  397.7957
 230  407.3344
 231  412.2923
 232  423.5281
 233  381.7002
 234  376.9078
 235  379.6252
 236  429.8561
 237  462.0579
 238  587.7957
 239  449.171
 240  449.2994
 241  402.0266
 242  457.4064
 243  465.1581
 244  431.4904
 245  474.6563
 246  411.2464
 247  431.3777
 248  489.5831
 249  378.3672
 250  423.8402
 251  442.9925
 252  519.1967
 253  435.5995
 254  363.5132
 255  488.5593
 256  575.6943
 257  342.9128
 258  424.3834
 259  570.9587
 260  485.4077
 261  385.0159
 262  355.1117
 263  351.3784
 264  307.7429
 265  418.0868
 266  374.1012
 267  463.7466
 268  520.7055
 269  480.7365
 270  397.3784
 271  352.9095
 272  431.4868
 273  514.9496
 274  543.0037
 275  530.5808
 276  523.0799
 277  359.2024
 278  330.915
 279  418.1523
 280  492.8466
 281  468.0188
 282  506.2869
 283  561.5822
 284  661.4526
 285  516.8305
 286  467.5692
 287  383.8466
 288  448.0167
 289  386.6733
 290  274.0187
 291  394.0979
 292  394.7052
 293  468.1393
 294  510.0155
 295  515.3986
 296  540.5351
 297  546.647
 298  506.9388
 299  529.5327
 300  495.7675
 301  437.1876
 302  523.3127
 303  547.6266
 304  500.0128
 305  579.0374
 306  542.5218
 307  389.8542
 308  426.3582
 309  472.8627
 310  534.4555
 311  371.6337
 312  373.0453
 313  286.2781
 314  154.4706
 315  158.5073
 316  264.7429
 317  335.4893
 318  379.1305
 319  344.3595
 320  354.405
 321  477.2306
 322  505.8962
 323  434.8423
 324  455.1693
 325  394.2332
 326  368.6883
 327  458.8603
 328  373.4639
 329  473.0048
 330  365.9089
 331  481.4302
 332  480.7345
 333  456.7428
 334  463.6918
 335  470.4796
 336  462.288
 337  426.7565
 338  373.654
 339  365.8613
 340  412.7244
 341  518.2725
 342  620.2722
 343  452.7635
 344  469.2442
 345  404.1502
 346  382.5708
 347  251.1871
 348  310.8541
 349  370.5194
 350  411.5613
 351  549.5095
 352  400.9705
 353  297.6758
 354  341.7837
 355  387.0015
 356  412.4886
 357  346.1776
 358  340.7464
 359  351.5267
 360  476.6642
 361  433.1148
 362  321.4201
 363  391.6184
 364  352.5339
 365  471.6416
 366  421.9392
 367  447.5592
 368  391.6526
 369  422.261
 370  505.9736
 371  519.1359
 372  456.4401
 373  364.8365
 374  402.3245
 375  480.6169
 376  364.6972
 377  459.504
 378  526.9925
 379  505.6095
 380  472.9312
 381  545.8326
 382  614.0143
 383  562.9277
 384  503.0971
 385  407.3717
 386  338.2167
 387  392.5884
 388  414.1226
 389  439.5019
 390  330.8018
 391  386.4192
 392  326.601
 393  401.8622
 394  395.4205
 395  517.7189
 396  482.2503
 397  423.6816
 398  535.9327
 399  526.0878
 400  372.058
 401  327.8073
 402  421.0339
 403  501.8274
 404  474.7298
 405  488.7119
 406  528.879
 407  493.7285
 408  517.0182
 409  570.5887
 410  473.0285
 411  335.937
 412  265.3791
 413  336.4474
 414  492.6848
 415  517.8038
 416  364.5628
 417  476.905
 418  530.4882
 419  486.1647
 420  441.5497
 421  405.9995
 422  459.2692
 423  456.4293
 424  420.4436
 425  539.4767
 426  326.4376
 427  351.2158
 428  389.0984
 429  383.8747
 430  455.923
 431  390.5546
 432  474.7225
 433  535.2597
 434  593.1655
 435  433.2897
 436  508.6838
 437  568.1807
 438  576.4636
 439  528.1315
 440  458.5166
 441  437.3179
 442  415.9292
 443  440.8173
 444  379.7936
 445  466.3394
 446  473.4591
 447  546.5952
 448  438.4404
 449  411.7045
 450  450.6535
 451  448.8823
 452  522.5374
 453  496.1463
 454  434.3167
 455  473.8255
 456  496.1127
 457  500.6651
 458  495.3106
 459  519.3666
 460  441.1826
 461  322.0691
 462  428.54
 463  461.2656
 464  426.5625
 465  470.6643
 466  506.2073
 467  459.6482
 468  238.1077
 469  252.0165
 470  342.7181
 471  437.7979
 472  513.1727
 473  454.5311
 474  551.8647
 475  528.2308
 476  467.945
 477  424.9982
 478  364.3705
 479  289.2824
 480  370.1289
 481  427.2407
 482  480.749
 483  467.6906
 484  520.9842
 485  548.4537
 486  484.3743
 487  360.0745
 488  393.0193
 489  326.2421
 490  417.0541
 491  424.2607
 492  525.751
 493  528.6107
 494  495.5577
 495  461.2887
 496  474.5172
 497  405.8196
 498  462.0898
 499  681.0717
 500  674.3517
 501  495.4384
 502  406.1932
 503  465.7701
 504  546.1418
 505  548.3392
 506  556.5865
 507  589.6664
 508  576.7543
 509  765.9731
 510  895.8408
 511  1001.993
