# Input file       =  1192729877.127806_cleaned.dat
# Candidate        =  PSR_0332+5434
# Telescope        =  AR
# Epoch_topo       =  58048.743739905163
# Epoch_bary       =  N/A
# T_sample         =  0.002
# Data Folded      =  7143424
# Data Avg         =  0.00775433913717976
# Data StdDev      =  1.00008137291809 
# Profile Bins     =  512
# Profile Avg      =  108.100172200178 
# Profile StdDev   =  118.128196135767 
# Reduced chi-sqr  =  1.497
# Prob(Noise)      <  1.98e-12   (~6.9 sigma)
# P_topo (ms)      =  714.487603412214  +/- 0.000212
# P'_topo (s/s)    =  -0                +/- 1.15e-10
# P''_topo (s/s^2) =  0                 +/- 5.21e-14
# P_bary (ms)      =  N/A
# P'_bary (s/s)    =  N/A
# P''_bary (s/s^2) =  N/A
# P_orb (s)        =  N/A
# asin(i)/c (s)    =  N/A
# eccentricity     =  N/A
# w (rad)          =  N/A
# T_peri           =  N/A
######################################################
   0  765.8323
   1  727.3491
   2  653.0455
   3  318.3856
   4  168.2712
   5  94.02873
   6  131.1386
   7  35.53357
   8  14.32902
   9  28.76297
  10  172.2367
  11  188.8628
  12  190.1079
  13  213.9913
  14  180.99
  15  189.3052
  16  332.2757
  17  212.287
  18  183.272
  19  168.8573
  20  84.63052
  21  -29.19309
  22  17.73435
  23  128.7387
  24  107.4757
  25  64.8205
  26  58.01199
  27  70.60164
  28  27.72371
  29  62.91964
  30  56.87269
  31  -36.50576
  32  -120.7749
  33  -5.804003
  34  53.80358
  35  -72.0704
  36  -68.53415
  37  129.1947
  38  59.81581
  39  126.5272
  40  170.7828
  41  -7.984463
  42  91.42207
  43  46.51148
  44  48.81104
  45  135.5135
  46  97.81173
  47  122.3189
  48  31.86476
  49  72.84103
  50  142.2986
  51  59.30341
  52  25.34036
  53  131.0135
  54  94.01615
  55  186.5918
  56  136.2844
  57  74.23766
  58  -8.649197
  59  43.09406
  60  187.7328
  61  110.2996
  62  95.8783
  63  267.2179
  64  176.5287
  65  24.66419
  66  48.37968
  67  112.6617
  68  49.38346
  69  84.88507
  70  136.2821
  71  207.5027
  72  216.6899
  73  83.0794
  74  99.50423
  75  152.8229
  76  50.26263
  77  -25.54607
  78  112.2155
  79  146.0609
  80  42.70324
  81  -80.92144
  82  7.147223
  83  134.1571
  84  132.9359
  85  151.7553
  86  234.5648
  87  165.1814
  88  107.6046
  89  62.37307
  90  148.3436
  91  192.5538
  92  147.1813
  93  301.2929
  94  148.4757
  95  145.7485
  96  70.39715
  97  127.3134
  98  97.96611
  99  87.02921
 100  187.3896
 101  217.4302
 102  158.2848
 103  134.8403
 104  96.98853
 105  170.4232
 106  159.8416
 107  41.15423
 108  114.941
 109  196.8165
 110  171.0698
 111  59.25804
 112  57.36695
 113  71.38741
 114  -102.1783
 115  -58.4525
 116  69.97253
 117  184.1375
 118  115.5607
 119  111.5163
 120  10.3046
 121  3.806643
 122  -11.94963
 123  5.161767
 124  124.6197
 125  157.649
 126  140.6313
 127  126.1967
 128  20.40879
 129  59.59009
 130  178.5029
 131  216.6348
 132  149.9608
 133  81.72666
 134  7.161312
 135  216.9096
 136  360.4506
 137  140.2862
 138  72.8611
 139  145.1402
 140  58.36989
 141  -33.78468
 142  41.34295
 143  68.13886
 144  128.7161
 145  201.89
 146  159.1742
 147  115.3352
 148  82.09399
 149  43.28302
 150  15.03531
 151  134.002
 152  91.3478
 153  18.96995
 154  204.7333
 155  104.8679
 156  97.6653
 157  140.7472
 158  133.4305
 159  79.48756
 160  65.36349
 161  165.6635
 162  146.7514
 163  31.19962
 164  60.68401
 165  190.566
 166  194.4408
 167  184.5433
 168  278.2415
 169  112.6953
 170  56.92999
 171  161.5501
 172  111.7536
 173  140.9606
 174  222.8071
 175  269.9699
 176  223.9813
 177  88.26659
 178  84.5318
 179  134.1376
 180  56.20154
 181  31.63399
 182  143.4142
 183  165.1129
 184  151.3809
 185  55.97145
 186  111.1251
 187  48.35355
 188  74.90803
 189  106.8712
 190  35.4149
 191  103.1523
 192  292.2007
 193  216.1569
 194  183.2239
 195  144.8067
 196  41.19107
 197  -60.94621
 198  -68.01505
 199  -57.89026
 200  46.4371
 201  -47.6063
 202  31.08387
 203  3.832328
 204  -41.50668
 205  74.6184
 206  72.21181
 207  127.44
 208  30.08421
 209  20.60202
 210  36.83384
 211  25.99693
 212  33.77047
 213  88.41764
 214  106.8242
 215  172.7196
 216  167.6744
 217  146.3023
 218  125.8433
 219  248.5199
 220  251.5553
 221  239.3578
 222  65.10091
 223  13.64474
 224  183.4299
 225  134.5196
 226  222.2947
 227  229.5193
 228  161.198
 229  229.638
 230  46.21216
 231  29.54681
 232  221.1895
 233  220.6586
 234  115.8124
 235  104.2042
 236  87.42669
 237  -9.71171
 238  68.79641
 239  16.81445
 240  107.9752
 241  123.1242
 242  54.98446
 243  23.16656
 244  70.37677
 245  178.0314
 246  45.11792
 247  86.75546
 248  16.85551
 249  -136.9027
 250  -66.05211
 251  -22.83058
 252  84.7253
 253  46.63422
 254  158.7187
 255  121.1582
 256  97.73396
 257  -1.376005
 258  -47.2592
 259  94.84533
 260  99.67211
 261  183.0633
 262  26.6206
 263  -130.0227
 264  -40.64558
 265  16.39797
 266  15.15512
 267  55.16856
 268  44.32055
 269  99.50443
 270  108.8329
 271  122.099
 272  88.27797
 273  226.014
 274  305.0137
 275  75.55386
 276  70.45655
 277  186.8867
 278  235.7722
 279  33.43025
 280  37.603
 281  116.8174
 282  38.34844
 283  -119.8788
 284  39.14826
 285  129.3597
 286  64.88908
 287  50.82709
 288  65.18418
 289  107.968
 290  111.7476
 291  138.2387
 292  181.0148
 293  146.9728
 294  7.288415
 295  -68.3437
 296  -56.79177
 297  -35.08997
 298  58.75777
 299  61.16043
 300  -11.36171
 301  -57.64121
 302  -66.10704
 303  -45.11708
 304  -81.01975
 305  13.6013
 306  -36.72998
 307  74.86027
 308  113.1037
 309  148.0665
 310  202.0285
 311  101.1786
 312  71.09921
 313  234.4728
 314  264.3318
 315  174.118
 316  102.9205
 317  43.47814
 318  89.69079
 319  134.3211
 320  84.27979
 321  91.8858
 322  -60.38358
 323  50.86296
 324  96.85172
 325  250.2726
 326  97.50053
 327  124.4859
 328  126.4362
 329  73.78908
 330  99.32463
 331  117.0154
 332  179.8952
 333  177.3231
 334  100.1577
 335  83.43472
 336  -4.139965
 337  -90.10215
 338  -51.52923
 339  -0.8563778
 340  105.2897
 341  81.80354
 342  190.262
 343  104.8417
 344  195.2944
 345  222.5122
 346  257.685
 347  118.668
 348  163.8873
 349  138.4568
 350  117.628
 351  171.4541
 352  121.1371
 353  58.00906
 354  40.91286
 355  101.7309
 356  180.9143
 357  201.156
 358  91.3519
 359  -15.71372
 360  75.59161
 361  113.3066
 362  19.20225
 363  180.3395
 364  170.1871
 365  50.48896
 366  231.4836
 367  210.0285
 368  76.45786
 369  54.0964
 370  -24.21331
 371  24.73878
 372  125.5756
 373  232.6258
 374  159.9319
 375  122.9508
 376  -20.08888
 377  17.69989
 378  81.09469
 379  217.3794
 380  52.32551
 381  30.36919
 382  82.243
 383  93.48943
 384  88.51524
 385  41.90445
 386  14.33547
 387  57.63926
 388  102.7921
 389  10.36517
 390  189.9263
 391  201.7623
 392  249.3727
 393  127.1065
 394  31.53154
 395  -10.92296
 396  -2.327303
 397  56.69789
 398  30.27998
 399  -17.90875
 400  122.1307
 401  155.7311
 402  195.9238
 403  255.4303
 404  250.7665
 405  233.7683
 406  110.2714
 407  203.3644
 408  267.7198
 409  199.9889
 410  150.8108
 411  88.22738
 412  67.99902
 413  59.64876
 414  83.93134
 415  162.0601
 416  180.2297
 417  188.5231
 418  230.7829
 419  123.3916
 420  -34.45572
 421  102.8203
 422  168.8422
 423  71.06562
 424  22.16043
 425  53.88549
 426  166.7031
 427  211.1833
 428  94.25941
 429  60.23013
 430  41.19284
 431  -9.803464
 432  175.5426
 433  184.1207
 434  189.6453
 435  77.39018
 436  137.1983
 437  227.6689
 438  198.5356
 439  129.3682
 440  175.6196
 441  173.2188
 442  60.99956
 443  152.26
 444  41.58474
 445  43.88007
 446  -27.83458
 447  -71.2095
 448  62.27172
 449  152.7399
 450  -18.88081
 451  -8.480087
 452  74.2881
 453  80.60644
 454  160.4037
 455  134.0272
 456  140.7071
 457  268.0478
 458  270.4796
 459  194.6741
 460  -8.439403
 461  -40.28746
 462  93.79238
 463  122.7482
 464  -64.7509
 465  62.17074
 466  64.97253
 467  119.5189
 468  203.3306
 469  191.7341
 470  75.86477
 471  77.22173
 472  126.4037
 473  112.5545
 474  145.7298
 475  259.3905
 476  25.1154
 477  49.46526
 478  165.9706
 479  161.6606
 480  135.0313
 481  145.3041
 482  112.8119
 483  69.23212
 484  43.7123
 485  68.91283
 486  168.0746
 487  81.48628
 488  -72.9677
 489  -90.90564
 490  46.53918
 491  98.88879
 492  242.354
 493  284.2383
 494  251.1137
 495  125.2992
 496  145.5901
 497  166.8511
 498  66.8366
 499  133.8639
 500  10.32872
 501  30.32958
 502  39.56944
 503  135.2228
 504  158.1722
 505  153.1954
 506  192.4482
 507  334.2475
 508  418.8616
 509  385.6591
 510  570.503
 511  762.788
