# Input file       =  1192313732.119416_cleaned.dat
# Candidate        =  PSR_0332+5434
# Telescope        =  AR
# Epoch_topo       =  58043.927246752501
# Epoch_bary       =  N/A
# T_sample         =  0.002
# Data Folded      =  7340032
# Data Avg         =  0.0167312584553897
# Data StdDev      =  1.00002755489681 
# Profile Bins     =  512
# Profile Avg      =  239.866352391898 
# Profile StdDev   =  119.736335608228 
# Reduced chi-sqr  =  2.000
# Prob(Noise)      <  2.22e-36   (~12.5 sigma)
# P_topo (ms)      =  714.483749364781  +/- 0.000214
# P'_topo (s/s)    =  -0                +/- 1.13e-10
# P''_topo (s/s^2) =  0                 +/- 4.98e-14
# P_bary (ms)      =  N/A
# P'_bary (s/s)    =  N/A
# P''_bary (s/s^2) =  N/A
# P_orb (s)        =  N/A
# asin(i)/c (s)    =  N/A
# eccentricity     =  N/A
# w (rad)          =  N/A
# T_peri           =  N/A
######################################################
   0  1197.331
   1  1060.991
   2  802.6461
   3  547.3645
   4  370.8024
   5  286.1826
   6  386.0038
   7  285.1842
   8  290.1978
   9  472.1957
  10  412.9422
  11  385.214
  12  428.4308
  13  418.5304
  14  380.2156
  15  257.9803
  16  178.5226
  17  315.0073
  18  332.9683
  19  316.6336
  20  153.6219
  21  155.0122
  22  253.9685
  23  417.9254
  24  343.342
  25  158.5541
  26  156.5464
  27  120.4706
  28  140.307
  29  233.0232
  30  243.5287
  31  206.0182
  32  114.3568
  33  212.7227
  34  191.5919
  35  125.9575
  36  200.5007
  37  336.582
  38  363.0844
  39  207.9529
  40  236.6105
  41  249.2692
  42  96.77033
  43  186.5149
  44  297.7035
  45  382.8454
  46  362.4621
  47  341.4814
  48  370.9736
  49  410.6443
  50  287.7598
  51  229.2595
  52  363.7614
  53  414.7487
  54  334.1048
  55  295.5194
  56  197.7082
  57  184.0846
  58  272.6114
  59  204.7697
  60  257.9438
  61  259.7163
  62  105.7562
  63  116.0864
  64  211.0966
  65  251.0268
  66  190.2664
  67  168.8301
  68  139.9008
  69  87.08919
  70  179.5801
  71  137.1775
  72  165.8933
  73  205.8519
  74  170.8558
  75  228.4472
  76  269.2849
  77  234.3401
  78  283.015
  79  160.9215
  80  182.5431
  81  142.3253
  82  295.9232
  83  286.471
  84  253.9432
  85  308.9025
  86  379.0176
  87  217.8516
  88  242.5891
  89  332.2177
  90  235.1008
  91  344.9398
  92  272.4238
  93  221.9241
  94  370.4493
  95  329.3084
  96  281.1085
  97  210.612
  98  270.6649
  99  330.6935
 100  333.2301
 101  247.726
 102  274.3593
 103  308.294
 104  314.5538
 105  152.4174
 106  135.3032
 107  205.7828
 108  258.0555
 109  245.9124
 110  66.38481
 111  74.08459
 112  146.993
 113  193.1987
 114  321.6392
 115  324.5867
 116  124.6714
 117  80.6143
 118  337.9811
 119  292.7715
 120  221.3958
 121  237.7278
 122  226.0966
 123  177.5912
 124  370.1075
 125  317.7798
 126  78.97853
 127  164.1243
 128  169.3651
 129  82.63037
 130  163.3249
 131  107.7766
 132  153.4021
 133  223.3116
 134  225.4034
 135  154.3525
 136  54.75618
 137  68.1606
 138  32.1963
 139  76.34026
 140  217.0931
 141  86.78132
 142  163.0471
 143  318.7021
 144  331.9562
 145  159.0308
 146  232.1584
 147  349.4307
 148  369.6221
 149  161.3068
 150  145.664
 151  163.8292
 152  186.578
 153  305.7071
 154  422.1053
 155  370.7062
 156  345.9078
 157  292.0586
 158  138.5898
 159  177.3196
 160  211.5594
 161  255.8353
 162  276.3192
 163  100.9487
 164  137.6936
 165  193.1043
 166  317.102
 167  184.4395
 168  134.0213
 169  272.2945
 170  185.1182
 171  91.3206
 172  27.77619
 173  166.6397
 174  267.6636
 175  189.7382
 176  147.5001
 177  104.5211
 178  208.1008
 179  234.8455
 180  271.9641
 181  227.9069
 182  332.5511
 183  309.4536
 184  261.4572
 185  139.1022
 186  224.7115
 187  224.4995
 188  162.2942
 189  320.8877
 190  254.7754
 191  205.9839
 192  137.1781
 193  232.2776
 194  237.5326
 195  263.2669
 196  281.415
 197  255.7059
 198  251.621
 199  138.1517
 200  136.145
 201  152.4446
 202  224.213
 203  320.335
 204  239.0253
 205  108.5301
 206  221.2543
 207  361.0583
 208  394.7586
 209  348.508
 210  242.7088
 211  195.6962
 212  230.9628
 213  302.1264
 214  156.2966
 215  253.7623
 216  227.6983
 217  188.612
 218  220.3867
 219  222.7912
 220  334.6849
 221  143.2162
 222  66.57403
 223  176.1961
 224  282.5824
 225  224.2889
 226  169.4518
 227  136.9058
 228  138.0533
 229  182.0081
 230  252.064
 231  200.1101
 232  292.7712
 233  308.0284
 234  256.8145
 235  247.6261
 236  188.5219
 237  257.4153
 238  236.8221
 239  221.5246
 240  226.4111
 241  316.5148
 242  326.907
 243  353.605
 244  319.0383
 245  269.9935
 246  314.6895
 247  361.6911
 248  147.0801
 249  176.8252
 250  159.1094
 251  41.50768
 252  149.974
 253  126.6398
 254  279.1999
 255  241.4299
 256  241.175
 257  365.5796
 258  234.9892
 259  195.4171
 260  247.937
 261  207.895
 262  202.1751
 263  319.8537
 264  273.0946
 265  206.8646
 266  286.5598
 267  259.7505
 268  250.6019
 269  92.63036
 270  19.21524
 271  76.10052
 272  208.6788
 273  255.7107
 274  312.6956
 275  308.1299
 276  323.234
 277  290.0086
 278  223.8272
 279  229.5261
 280  259.675
 281  232.998
 282  123.8255
 283  131.1861
 284  192.0944
 285  188.5735
 286  79.07286
 287  191.0647
 288  233.1654
 289  298.0962
 290  234.5571
 291  201.1402
 292  316.8678
 293  368.1293
 294  355.9681
 295  190.0356
 296  211.7889
 297  160.983
 298  169.6955
 299  143.2725
 300  153.6207
 301  150.5978
 302  206.0518
 303  208.6919
 304  376.6905
 305  274.6901
 306  246.1105
 307  295.3284
 308  294.993
 309  227.7013
 310  197.3579
 311  160.8921
 312  176.0862
 313  276.3301
 314  225.9861
 315  223.8882
 316  218.834
 317  213.9358
 318  166.1784
 319  262.0887
 320  350.9164
 321  289.2176
 322  150.5859
 323  275.308
 324  230.0647
 325  295.7075
 326  315.8632
 327  208.8954
 328  272.9597
 329  223.4561
 330  118.9424
 331  96.9625
 332  110.7608
 333  225.3545
 334  216.9843
 335  53.42043
 336  161.8979
 337  155.3102
 338  308.7288
 339  257.8224
 340  272.3209
 341  401.7103
 342  367.9076
 343  215.5592
 344  118.8861
 345  121.1511
 346  41.27496
 347  44.89122
 348  92.05344
 349  167.4079
 350  279.6761
 351  334.7974
 352  318.6048
 353  158.9035
 354  134.9275
 355  205.3434
 356  298.0834
 357  181.9205
 358  251.9066
 359  176.6689
 360  209.7997
 361  220.9196
 362  199.1764
 363  155.4031
 364  209.9376
 365  321.1173
 366  241.5539
 367  238.1474
 368  246.9875
 369  182.2563
 370  386.5528
 371  299.9
 372  238.5242
 373  185.7113
 374  211.9341
 375  153.7942
 376  235.4349
 377  240.5564
 378  244.3175
 379  77.74342
 380  41.62005
 381  176.8744
 382  290.1492
 383  211.3772
 384  161.0192
 385  65.75755
 386  140.0098
 387  187.3546
 388  157.8362
 389  277.6258
 390  267.7757
 391  144.536
 392  213.4653
 393  214.4612
 394  191.7915
 395  126.689
 396  -26.90895
 397  61.32372
 398  90.52808
 399  184.7764
 400  192.2559
 401  131.5242
 402  171.1916
 403  275.6606
 404  194.117
 405  152.2776
 406  297.3456
 407  287.4144
 408  165.6474
 409  266.5251
 410  290.3402
 411  235.8311
 412  184.3165
 413  182.2823
 414  336.1497
 415  237.3439
 416  84.83447
 417  115.3859
 418  113.5432
 419  221.1482
 420  199.0345
 421  76.25283
 422  266.981
 423  228.1968
 424  250.2335
 425  223.0944
 426  150.4216
 427  175.2424
 428  155.4822
 429  123.9382
 430  227.1978
 431  235.4533
 432  231.996
 433  231.915
 434  176.0732
 435  154.2351
 436  132.6801
 437  37.35778
 438  257.5124
 439  414.1002
 440  331.3478
 441  265.3067
 442  279.557
 443  301.3863
 444  346.9648
 445  109.3976
 446  177.5841
 447  358.5621
 448  319.9166
 449  381.4603
 450  244.9857
 451  394.6084
 452  328.0503
 453  148.8228
 454  237.1751
 455  297.9074
 456  319.0804
 457  371.9316
 458  307.7612
 459  264.614
 460  174.6051
 461  159.1965
 462  257.8227
 463  327.048
 464  470.2575
 465  289.4383
 466  216.0556
 467  335.1861
 468  244.1527
 469  313.9956
 470  367.9652
 471  396.3757
 472  227.3476
 473  64.15614
 474  229.9455
 475  242.2055
 476  96.20133
 477  66.80489
 478  163.6513
 479  204.432
 480  79.68619
 481  48.77945
 482  174.7454
 483  251.5692
 484  285.9763
 485  334.793
 486  260.2296
 487  187.6373
 488  247.8882
 489  251.0811
 490  335.2457
 491  381.4311
 492  410.059
 493  415.5837
 494  300.8178
 495  116.9583
 496  239.2975
 497  211.4366
 498  247.2691
 499  247.4462
 500  201.0185
 501  256.4786
 502  310.1536
 503  250.3307
 504  303.9565
 505  350.9449
 506  398.1295
 507  377.8205
 508  479.6611
 509  845.1996
 510  964.9285
 511  1172.399
