# Input file       =  1192759393.134662_cleaned.dat
# Candidate        =  PSR_0332+5434
# Telescope        =  AR
# Epoch_topo       =  58049.085360354882
# Epoch_bary       =  N/A
# T_sample         =  0.002
# Data Folded      =  7340032
# Data Avg         =  0.0178380855522949
# Data StdDev      =  1.0001098422952  
# Profile Bins     =  512
# Profile Avg      =  255.721633897621 
# Profile StdDev   =  119.746188128293 
# Reduced chi-sqr  =  1.552
# Prob(Noise)      <  1.45e-14   (~7.6 sigma)
# P_topo (ms)      =  714.488232142878  +/- 0.000165
# P'_topo (s/s)    =  -0                +/- 8.69e-11
# P''_topo (s/s^2) =  0                 +/- 3.84e-14
# P_bary (ms)      =  N/A
# P'_bary (s/s)    =  N/A
# P''_bary (s/s^2) =  N/A
# P_orb (s)        =  N/A
# asin(i)/c (s)    =  N/A
# eccentricity     =  N/A
# w (rad)          =  N/A
# T_peri           =  N/A
######################################################
   0  899.4245
   1  1098.391
   2  873.2614
   3  513.4683
   4  454.0414
   5  316.3707
   6  243.6665
   7  368.4233
   8  230.7303
   9  258.4178
  10  304.7858
  11  433.1301
  12  426.269
  13  428.2562
  14  309.2697
  15  301.3378
  16  395.7312
  17  413.8905
  18  292.2923
  19  345.48
  20  349.5247
  21  269.484
  22  223.6139
  23  246.5673
  24  129.4933
  25  282.8582
  26  427.1801
  27  379.588
  28  396.7853
  29  332.18
  30  369.6747
  31  372.1668
  32  229.4307
  33  396.2173
  34  388.2507
  35  210.3932
  36  181.3072
  37  231.0399
  38  201.4607
  39  286.2023
  40  389.4326
  41  416.9578
  42  329.5694
  43  255.4628
  44  375.2559
  45  239.4713
  46  313.7103
  47  359.1381
  48  381.3907
  49  376.0207
  50  300.1127
  51  183.2646
  52  142.7395
  53  250.2167
  54  335.3629
  55  328.3868
  56  258.4512
  57  282.9117
  58  291.1014
  59  207.3768
  60  217.2615
  61  312.9988
  62  292.171
  63  112.164
  64  143.4637
  65  273.3636
  66  331.2203
  67  243.5136
  68  199.9518
  69  291.857
  70  280.7832
  71  247.447
  72  294.5121
  73  216.428
  74  97.9436
  75  123.9255
  76  287.5442
  77  330.4973
  78  354.5916
  79  429.4076
  80  250.8635
  81  221.8789
  82  251.7959
  83  267.8806
  84  344.1706
  85  356.6333
  86  173.5863
  87  133.691
  88  227.8056
  89  196.7947
  90  155.2402
  91  107.5799
  92  53.23271
  93  133.1667
  94  128.0425
  95  97.71542
  96  135.9156
  97  329.102
  98  353.315
  99  306.6364
 100  281.6408
 101  233.8568
 102  280.963
 103  336.7475
 104  316.2986
 105  245.1004
 106  274.9353
 107  389.8759
 108  276.9322
 109  222.8795
 110  128.9956
 111  125.2988
 112  196.1041
 113  139.8783
 114  201.0934
 115  262.301
 116  253.7188
 117  277.6212
 118  163.846
 119  174.8427
 120  196.1587
 121  158.69
 122  203.3904
 123  321.3018
 124  325.2509
 125  228.4574
 126  274.9997
 127  369.6496
 128  301.9475
 129  231.1982
 130  192.9362
 131  293.9129
 132  338.1098
 133  167.1445
 134  163.7328
 135  270.9115
 136  349.3867
 137  224.5804
 138  246.5296
 139  107.298
 140  208.2572
 141  186.3395
 142  351.3983
 143  267.9022
 144  314.1742
 145  282.7911
 146  30.20848
 147  242.374
 148  364.7121
 149  303.3895
 150  177.0278
 151  267.385
 152  298.5526
 153  273.715
 154  280.4504
 155  279.3912
 156  223.8758
 157  172.4447
 158  150.2587
 159  205.2773
 160  175.4671
 161  227.5479
 162  317.9435
 163  319.0603
 164  199.0264
 165  246.14
 166  334.5096
 167  309.1574
 168  221.775
 169  181.0647
 170  223.299
 171  211.2422
 172  216.472
 173  281.6575
 174  298.9015
 175  230.5878
 176  308.3694
 177  193.067
 178  204.2951
 179  282.3983
 180  227.3722
 181  254.034
 182  202.7092
 183  297.6778
 184  405.5612
 185  115.6075
 186  67.02061
 187  215.8612
 188  178.5067
 189  231.8283
 190  228.1879
 191  305.5381
 192  378.6251
 193  378.299
 194  336.697
 195  213.2135
 196  165.8788
 197  320.5999
 198  323.9244
 199  225.0511
 200  368.6982
 201  426.4014
 202  315.527
 203  334.2164
 204  259.8208
 205  179.2767
 206  244.1013
 207  219.5302
 208  170.89
 209  219.0281
 210  192.9088
 211  218.9521
 212  293.7066
 213  181.7995
 214  212.5007
 215  127.8632
 216  177.3271
 217  294.3652
 218  376.064
 219  283.4904
 220  260.3268
 221  268.2177
 222  232.4105
 223  244.476
 224  130.2917
 225  115.7187
 226  253.2999
 227  332.681
 228  138.1956
 229  56.61301
 230  158.4361
 231  301.4858
 232  300.0538
 233  271.0615
 234  216.7926
 235  117.4003
 236  114.4374
 237  213.7755
 238  293.6949
 239  337.4344
 240  268.8442
 241  278.5896
 242  316.6586
 243  259.5675
 244  245.5605
 245  337.4887
 246  310.7588
 247  158
 248  66.95785
 249  196.7774
 250  306.6448
 251  258.6798
 252  329.2091
 253  343.0292
 254  239.3821
 255  280.9188
 256  236.1932
 257  220.2414
 258  332.1567
 259  339.5169
 260  151.7958
 261  105.2679
 262  80.09768
 263  128.7053
 264  255.3462
 265  264.3796
 266  306.7624
 267  318.462
 268  184.1509
 269  255.4998
 270  140.6567
 271  144.4848
 272  124.6709
 273  172.1206
 274  211.7682
 275  30.17957
 276  139.2731
 277  296.8623
 278  250.404
 279  187.1562
 280  293.8533
 281  317.5681
 282  312.8259
 283  284.2092
 284  246.1181
 285  241.9396
 286  276.5498
 287  208.8887
 288  213.9519
 289  255.9307
 290  224.797
 291  193.6227
 292  134.2143
 293  164.4412
 294  176.0671
 295  124.3707
 296  108.8629
 297  241.9094
 298  223.9629
 299  384.9998
 300  378.8536
 301  326.5556
 302  367.6088
 303  226.9857
 304  233.577
 305  186.4158
 306  190.2061
 307  217.782
 308  328.6336
 309  357.1091
 310  404.5818
 311  379.7426
 312  260.1998
 313  151.9738
 314  184.7407
 315  268.0586
 316  298.5457
 317  150.1612
 318  202.7454
 319  169.7872
 320  193.8171
 321  225.2483
 322  200.7756
 323  196.4507
 324  116.8328
 325  178.1642
 326  166.3399
 327  226.7264
 328  265.1916
 329  248.2115
 330  184.7512
 331  108.2293
 332  225.207
 333  191.8228
 334  99.21383
 335  136.2887
 336  98.82076
 337  221.0257
 338  292.9971
 339  126.5055
 340  120.6311
 341  311.0291
 342  281.3666
 343  174.3742
 344  152.3206
 345  160.3301
 346  181.1767
 347  275.848
 348  187.0501
 349  256.955
 350  125.8389
 351  175.8992
 352  260.4257
 353  249.5707
 354  238.9145
 355  323.6903
 356  409.1074
 357  274.0458
 358  258.2804
 359  348.5865
 360  273.8924
 361  190.0191
 362  420.7673
 363  547.9825
 364  339.6013
 365  195.0126
 366  309.5071
 367  304.7985
 368  343.8593
 369  182.9775
 370  204.4595
 371  207.1025
 372  211.1647
 373  269.7155
 374  250.1096
 375  207.2033
 376  123.1864
 377  96.4413
 378  94.02352
 379  130.482
 380  416.746
 381  415.315
 382  277.4456
 383  182.619
 384  137.4125
 385  262.5118
 386  294.52
 387  230.5082
 388  213.6889
 389  177.6013
 390  254.4878
 391  172.4912
 392  196.879
 393  210.8947
 394  267.3934
 395  249.6115
 396  254.8051
 397  290.2544
 398  212.5742
 399  129.3933
 400  199.6562
 401  335.8101
 402  282.231
 403  262.1277
 404  197.9184
 405  71.1048
 406  130.7544
 407  102.7378
 408  193.9904
 409  300.9501
 410  322.5427
 411  164.1578
 412  189.9204
 413  208.1649
 414  244.7296
 415  262.0932
 416  259.0229
 417  317.7336
 418  322.5103
 419  302.4783
 420  210.472
 421  139.4826
 422  201.3455
 423  293.1818
 424  199.5134
 425  114.7921
 426  119.656
 427  204.349
 428  206.426
 429  315.1298
 430  224.6983
 431  203.5244
 432  229.9778
 433  147.8923
 434  174.3291
 435  243.7325
 436  176.5075
 437  344.0533
 438  250.7575
 439  177.3952
 440  120.3274
 441  149.8638
 442  353.3911
 443  349.5101
 444  337.8542
 445  362.7579
 446  322.7307
 447  269.9041
 448  262.3898
 449  235.8871
 450  259.8413
 451  216.0482
 452  320.9466
 453  266.1644
 454  202.0546
 455  316.1448
 456  365.8682
 457  208.4841
 458  196.5555
 459  206.3395
 460  96.135
 461  97.68207
 462  255.5722
 463  333.4193
 464  366.4947
 465  244.0668
 466  285.0132
 467  373.1418
 468  314.6159
 469  340.9996
 470  359.3806
 471  354.4126
 472  375.2899
 473  198.6134
 474  224.9025
 475  42.10736
 476  104.1423
 477  201.3188
 478  333.8918
 479  267.1933
 480  264.1772
 481  166.4477
 482  209.032
 483  162.3902
 484  203.678
 485  286.8229
 486  235.0777
 487  216.0992
 488  268.0751
 489  269.204
 490  304.5935
 491  229.3949
 492  252.6492
 493  115.333
 494  279.9212
 495  361.2177
 496  343.455
 497  274.6304
 498  322.2144
 499  122.7576
 500  116.1433
 501  371.2897
 502  378.3552
 503  273.308
 504  328.7171
 505  450.6425
 506  309.054
 507  245.7667
 508  429.8808
 509  644.4379
 510  857.3292
 511  825.617
