# Input file       =  1192673223.132615_cleaned.dat
# Candidate        =  PSR_0332+5434
# Telescope        =  AR
# Epoch_topo       =  58048.088022368232
# Epoch_bary       =  N/A
# T_sample         =  0.002
# Data Folded      =  7340032
# Data Avg         =  0.014366770734914
# Data StdDev      =  1.00008246013463 
# Profile Bins     =  512
# Profile Avg      =  205.96501213925  
# Profile StdDev   =  119.742909579065 
# Reduced chi-sqr  =  1.542
# Prob(Noise)      <  3.58e-14   (~7.5 sigma)
# P_topo (ms)      =  714.487405436935  +/- 0.000118
# P'_topo (s/s)    =  -0                +/- 6.21e-11
# P''_topo (s/s^2) =  0                 +/- 2.74e-14
# P_bary (ms)      =  N/A
# P'_bary (s/s)    =  N/A
# P''_bary (s/s^2) =  N/A
# P_orb (s)        =  N/A
# asin(i)/c (s)    =  N/A
# eccentricity     =  N/A
# w (rad)          =  N/A
# T_peri           =  N/A
######################################################
   0  903.4589
   1  985.398
   2  722.1505
   3  407.9201
   4  317.2775
   5  313.1162
   6  263.4987
   7  181.1535
   8  104.851
   9  253.3372
  10  186.9304
  11  180.9707
  12  302.15
  13  229.445
  14  313.1448
  15  372.2992
  16  243.3424
  17  216.8899
  18  154.4895
  19  163.0864
  20  168.0265
  21  84.801
  22  38.76753
  23  236.7308
  24  219.6917
  25  205.8547
  26  117.7791
  27  158.2576
  28  271.1068
  29  128.216
  30  205.8514
  31  178.0314
  32  107.0805
  33  132.5404
  34  88.75596
  35  216.0293
  36  196.1392
  37  251.0756
  38  313.5622
  39  52.05431
  40  72.62148
  41  201.8805
  42  242.6706
  43  160.5397
  44  201.1183
  45  282.7156
  46  219.0885
  47  151.6824
  48  160.0252
  49  143.2809
  50  167.6424
  51  221.503
  52  314.0757
  53  233.0333
  54  185.4531
  55  235.3546
  56  318.914
  57  329.692
  58  272.7887
  59  279.6044
  60  360.7671
  61  214.9448
  62  181.1643
  63  216.961
  64  128.9754
  65  153.1352
  66  200.3302
  67  255.4037
  68  291.7524
  69  165.6596
  70  161.925
  71  177.905
  72  324.1815
  73  290.4695
  74  367.279
  75  331.3361
  76  157.9224
  77  41.7438
  78  156.1294
  79  254.6945
  80  235.9357
  81  253.5866
  82  279.3087
  83  125.4905
  84  97.68927
  85  180.3768
  86  136.6095
  87  129.6809
  88  208.0806
  89  185.2711
  90  190.3817
  91  247.584
  92  282.209
  93  146.3194
  94  201.4683
  95  76.28329
  96  26.7062
  97  122.0866
  98  257.2826
  99  197.3221
 100  39.92668
 101  28.18522
 102  240.701
 103  341.0157
 104  230.2228
 105  241.8649
 106  126.7357
 107  89.42654
 108  109.6388
 109  216.6352
 110  175.0065
 111  151.8667
 112  208.9905
 113  125.3951
 114  251.2589
 115  100.6034
 116  61.55918
 117  96.65351
 118  238.9581
 119  174.0145
 120  135.321
 121  168.9866
 122  194.4985
 123  173.136
 124  145.651
 125  105.8503
 126  117.7921
 127  221.3547
 128  396.2885
 129  155.7622
 130  121.0901
 131  200.6568
 132  212.4442
 133  199.754
 134  182.418
 135  273.4189
 136  293.3857
 137  302.1912
 138  389.4467
 139  178.2683
 140  148.2988
 141  230.6382
 142  213.9234
 143  117.7545
 144  165.2599
 145  190.4645
 146  196.6151
 147  155.8968
 148  203.1695
 149  233.5308
 150  192.3254
 151  234.4366
 152  179.5679
 153  206.5189
 154  243.0781
 155  99.35035
 156  220.8723
 157  188.091
 158  123.9408
 159  265.9653
 160  276.8161
 161  149.7907
 162  107.5989
 163  250.9739
 164  289.0851
 165  136.4927
 166  61.25875
 167  159.2363
 168  235.7965
 169  158.1183
 170  232.0385
 171  169.6274
 172  82.14539
 173  152.5876
 174  305.7716
 175  63.94758
 176  104.8468
 177  128.6166
 178  118.3316
 179  102.6097
 180  49.81272
 181  153.4627
 182  101.3518
 183  93.59593
 184  152.5044
 185  220.7522
 186  163.4582
 187  186.4213
 188  176.4272
 189  56.64288
 190  18.78021
 191  182.243
 192  296.4214
 193  255.5449
 194  125.6383
 195  214.8394
 196  111.8741
 197  172.327
 198  236.7177
 199  282.9037
 200  259.3753
 201  255.6091
 202  218.9944
 203  120.9667
 204  141.1089
 205  276.3583
 206  273.4656
 207  312.6938
 208  306.9047
 209  321.8557
 210  344.0224
 211  250.9207
 212  265.2896
 213  305.7355
 214  250.7142
 215  199.2251
 216  199.8481
 217  166.6304
 218  139.7418
 219  159.1402
 220  297.5053
 221  235.7319
 222  220.3847
 223  141.158
 224  196.5879
 225  150.6716
 226  255.2849
 227  136.1138
 228  200.2847
 229  207.5186
 230  197.8767
 231  188.6906
 232  123.4254
 233  94.2719
 234  35.1473
 235  140.1888
 236  255.1684
 237  214.8295
 238  187.0416
 239  230.8032
 240  -29.9923
 241  99.12956
 242  319.2405
 243  247.1872
 244  162.0649
 245  145.2599
 246  213.349
 247  114.6938
 248  85.47457
 249  208.2252
 250  326.172
 251  321.3639
 252  310.6294
 253  287.0332
 254  289.5241
 255  184.3727
 256  88.1465
 257  80.68869
 258  215.4379
 259  170.7553
 260  214.6025
 261  239.4632
 262  214.0443
 263  236.7288
 264  374.5297
 265  221.655
 266  181.1242
 267  183.1343
 268  223.3274
 269  216.3232
 270  83.93332
 271  113.3797
 272  131.9743
 273  242.5883
 274  301.3929
 275  111.1212
 276  77.9229
 277  75.80991
 278  85.40372
 279  50.2197
 280  188.5649
 281  223.9423
 282  107.428
 283  50.85921
 284  205.706
 285  128.9982
 286  173.1863
 287  225.8622
 288  294.0895
 289  330.5908
 290  297.0796
 291  234.0436
 292  187.2585
 293  77.89551
 294  88.16297
 295  214.9859
 296  326.4576
 297  296.0291
 298  141.1433
 299  226.3518
 300  179.6183
 301  106.1339
 302  245.3143
 303  225.0316
 304  207.9972
 305  258.4814
 306  127.5666
 307  241.451
 308  212.2928
 309  169.9816
 310  161.6013
 311  229.7062
 312  258.8564
 313  261.9142
 314  85.66216
 315  -33.62858
 316  71.32242
 317  112.7265
 318  100.1266
 319  136.1736
 320  204.6571
 321  258.6281
 322  238.3167
 323  218.973
 324  135.4328
 325  34.02417
 326  84.58648
 327  217.9287
 328  300.0753
 329  338.2737
 330  313.5954
 331  254.7364
 332  155.4828
 333  129.1073
 334  99.16293
 335  122.7664
 336  136.2293
 337  85.65153
 338  85.64099
 339  159.6274
 340  182.0265
 341  208.0033
 342  255.0212
 343  167.2124
 344  103.4742
 345  279.5178
 346  213.4874
 347  168.5338
 348  239.7293
 349  252.1108
 350  198.4867
 351  161.8057
 352  282.1198
 353  331.3188
 354  316.9627
 355  329.3479
 356  186.2861
 357  11.88273
 358  13.21301
 359  178.4027
 360  139.8603
 361  114.7536
 362  222.1519
 363  201.5379
 364  279.9658
 365  216.7413
 366  179.9693
 367  254.7642
 368  163.115
 369  117.0667
 370  241.307
 371  205.3317
 372  48.51414
 373  -30.09545
 374  158.4547
 375  229.3201
 376  90.90158
 377  200.9142
 378  368.3021
 379  247.4242
 380  156.0219
 381  102.3376
 382  253.5059
 383  235.9545
 384  183.8781
 385  225.5634
 386  215.6807
 387  270.207
 388  264.7682
 389  208.7253
 390  171.8678
 391  179.1018
 392  154.1531
 393  197.8727
 394  131.967
 395  173.5833
 396  83.19203
 397  307.6959
 398  378.9811
 399  239.4534
 400  231.3978
 401  112.8402
 402  127.8661
 403  115.9346
 404  153.3341
 405  187.017
 406  216.9977
 407  227.6222
 408  120.087
 409  122.6828
 410  203.679
 411  204.0127
 412  243.0688
 413  210.0851
 414  302.6412
 415  176.2249
 416  238.7786
 417  296.8013
 418  87.70017
 419  191.1565
 420  116.3825
 421  181.1723
 422  219.5967
 423  371.4147
 424  248.802
 425  283.2058
 426  309.751
 427  112.9474
 428  155.8349
 429  292.847
 430  214.3403
 431  105.6929
 432  184.0607
 433  119.6945
 434  124.1703
 435  456.7361
 436  252.4691
 437  26.67981
 438  102.6273
 439  229.8033
 440  236.494
 441  251.9534
 442  134.375
 443  261.0805
 444  298.8577
 445  227.6692
 446  89.52475
 447  89.01157
 448  132.0749
 449  148.5447
 450  161.5111
 451  182.2802
 452  49.47383
 453  131.0616
 454  166.0418
 455  152.7973
 456  305.8937
 457  344.6821
 458  160.4897
 459  213.872
 460  215.3845
 461  213.1045
 462  263.6994
 463  203.087
 464  372.2685
 465  233.618
 466  344.7262
 467  306.7607
 468  197.851
 469  327.5848
 470  230.3324
 471  364.1216
 472  296.5166
 473  202.468
 474  200.4603
 475  307.3641
 476  221.3401
 477  195.7693
 478  293.2215
 479  478.3777
 480  279.6175
 481  119.7124
 482  90.8762
 483  120.0124
 484  224.1213
 485  255.4538
 486  213.6857
 487  128.4276
 488  125.9464
 489  119.6443
 490  139.1931
 491  157.9703
 492  208.8626
 493  299.9256
 494  270.5098
 495  276.8375
 496  285.2949
 497  84.72844
 498  290.8771
 499  336.3037
 500  230.3283
 501  187.0007
 502  312.3417
 503  266.123
 504  280.6996
 505  313.6833
 506  313.7407
 507  456.0185
 508  498.6578
 509  737.2761
 510  832.0933
 511  851.1061
