# Input file       =  1192399868.133724_cleaned.dat
# Candidate        =  PSR_0332+5434
# Telescope        =  AR
# Epoch_topo       =  58044.924191362545
# Epoch_bary       =  N/A
# T_sample         =  0.002
# Data Folded      =  7340032
# Data Avg         =  0.0155643795082456
# Data StdDev      =  0.999964079101611
# Profile Bins     =  512
# Profile Avg      =  223.139879480348 
# Profile StdDev   =  119.728735458533 
# Reduced chi-sqr  =  1.443
# Prob(Noise)      <  1.88e-10   (~6.3 sigma)
# P_topo (ms)      =  714.484526047662  +/- 0.00025
# P'_topo (s/s)    =  -0                +/- 1.32e-10
# P''_topo (s/s^2) =  0                 +/- 5.83e-14
# P_bary (ms)      =  N/A
# P'_bary (s/s)    =  N/A
# P''_bary (s/s^2) =  N/A
# P_orb (s)        =  N/A
# asin(i)/c (s)    =  N/A
# eccentricity     =  N/A
# w (rad)          =  N/A
# T_peri           =  N/A
######################################################
   0  933.9912
   1  910.593
   2  898.8906
   3  524.9547
   4  215.4122
   5  169.1608
   6  315.3732
   7  346.4506
   8  188.1637
   9  56.75179
  10  247.6656
  11  330.464
  12  210.7939
  13  180.2951
  14  189.0514
  15  259.4565
  16  311.6071
  17  206.3658
  18  126.8492
  19  148.0804
  20  197.3537
  21  244.9963
  22  148.5472
  23  195.5642
  24  259.8387
  25  140.855
  26  159.5862
  27  262.4005
  28  229.8608
  29  170.2823
  30  129.8365
  31  111.4292
  32  198.344
  33  136.1606
  34  85.07527
  35  182.7144
  36  301.0329
  37  240.1047
  38  258.5284
  39  320.7605
  40  158.3803
  41  191.0396
  42  180.8385
  43  211.5656
  44  268.9483
  45  139.3874
  46  8.906272
  47  164.9913
  48  181.5847
  49  89.27393
  50  220.7188
  51  138.6775
  52  139.6346
  53  32.50631
  54  209.9269
  55  224.1888
  56  86.0233
  57  154.8344
  58  217.2787
  59  216.1021
  60  238.4149
  61  275.4467
  62  288.8543
  63  245.1064
  64  209.776
  65  125.513
  66  159.4256
  67  165.4035
  68  90.43599
  69  78.03144
  70  135.4237
  71  137.9932
  72  212.6921
  73  221.8745
  74  142.8564
  75  174.1924
  76  243.3185
  77  289.0389
  78  214.3913
  79  257.2121
  80  173.2554
  81  143.3255
  82  132.5361
  83  259.3989
  84  315.6789
  85  232.4444
  86  282.559
  87  243.463
  88  212.4939
  89  197.2526
  90  237.3664
  91  156.9047
  92  80.7546
  93  152.9951
  94  259.3894
  95  183.102
  96  342.8393
  97  266.5471
  98  209.9028
  99  149.454
 100  169.0252
 101  306.2524
 102  332.8954
 103  169.7413
 104  97.70587
 105  138.2349
 106  225.7005
 107  251.556
 108  257.8652
 109  247.7936
 110  250.8663
 111  233.4136
 112  208.3846
 113  150.3726
 114  189.5783
 115  225.6722
 116  217.8482
 117  114.7593
 118  178.5481
 119  154.5878
 120  250.2269
 121  292.9438
 122  336.3385
 123  214.6512
 124  236.2634
 125  244.4619
 126  195.9265
 127  287.9825
 128  313.8533
 129  253.8925
 130  111.5446
 131  255.5179
 132  357.0403
 133  269.1696
 134  52.27006
 135  109.6575
 136  150.0454
 137  235.3871
 138  318.9618
 139  200.9754
 140  152.1061
 141  263.8639
 142  257.8105
 143  206.9185
 144  243.6743
 145  186.0232
 146  287.2988
 147  315.4202
 148  192.1809
 149  130.6913
 150  180.9292
 151  129.0412
 152  183.5314
 153  160.1097
 154  250.5423
 155  210.3443
 156  243.2017
 157  262.1199
 158  142.7437
 159  165.4471
 160  158.0862
 161  149.8018
 162  219.6617
 163  287.4569
 164  291.1271
 165  268.9715
 166  159.5818
 167  113.4741
 168  83.49917
 169  155.613
 170  114.3716
 171  210.5992
 172  46.52168
 173  121.054
 174  118.6699
 175  370.3097
 176  357.5034
 177  269.8341
 178  42.73476
 179  112.3985
 180  184.0418
 181  234.7738
 182  267.531
 183  206.2068
 184  188.2295
 185  146.4938
 186  263.3025
 187  261.3922
 188  296.0585
 189  416.0844
 190  248.9212
 191  216.6395
 192  112.8978
 193  164.5732
 194  146.7437
 195  167.858
 196  84.42332
 197  244.7734
 198  213.913
 199  160.4945
 200  155.8973
 201  174.7602
 202  377.795
 203  324.3642
 204  251.5234
 205  254.9299
 206  104.6194
 207  194.0579
 208  304.9972
 209  330.0303
 210  244.1198
 211  295.2329
 212  222.9606
 213  279.5152
 214  252.1513
 215  245.849
 216  121.276
 217  215.2695
 218  213.8315
 219  394.9155
 220  346.3133
 221  223.347
 222  205.7444
 223  176.0197
 224  245.3442
 225  264.0379
 226  254.1926
 227  181.4774
 228  243.8877
 229  279.9695
 230  262.5887
 231  311.1871
 232  266.9784
 233  248.177
 234  322.486
 235  268.8589
 236  291.4937
 237  276.7856
 238  314.3475
 239  213.697
 240  96.52533
 241  186.0601
 242  290.5143
 243  285.0952
 244  324.9141
 245  268.1968
 246  167.9678
 247  283.0103
 248  275.846
 249  260.1367
 250  198.6808
 251  161.8903
 252  249.563
 253  183.2396
 254  223.5679
 255  269.4816
 256  315.2933
 257  361.5394
 258  326.8863
 259  202.3802
 260  372.9815
 261  270.683
 262  183.1568
 263  112.8682
 264  216.2657
 265  205.7763
 266  160.0945
 267  189.9352
 268  94.20914
 269  154.9182
 270  237.4072
 271  262.2193
 272  294.3539
 273  214.2344
 274  204.5757
 275  252.1279
 276  239.3203
 277  193.1459
 278  250.5991
 279  298.061
 280  311.5677
 281  182.6608
 282  169.2628
 283  360.7757
 284  199.0763
 285  194.3181
 286  273.7017
 287  163.929
 288  216.4337
 289  249.5405
 290  340.0255
 291  219.7553
 292  175.8084
 293  280.8186
 294  309.9413
 295  290.5848
 296  172.0522
 297  155.8421
 298  166.1582
 299  238.4546
 300  172.8933
 301  207.3338
 302  164.8561
 303  177.6246
 304  144.9581
 305  97.92042
 306  60.04593
 307  326.9326
 308  276.9485
 309  158.8313
 310  112.3833
 311  51.06432
 312  121.345
 313  315.7102
 314  151.6566
 315  144.8115
 316  252.0945
 317  252.4033
 318  192.6671
 319  111.0655
 320  272.3083
 321  232.5117
 322  181.3931
 323  304.9257
 324  175.0538
 325  247.9685
 326  296.8601
 327  188.9158
 328  280.9447
 329  258.0723
 330  366.5793
 331  175.885
 332  138.2733
 333  192.4017
 334  283.8246
 335  272.9809
 336  226.2382
 337  295.412
 338  352.6149
 339  297.1624
 340  271.6539
 341  243.7284
 342  267.2687
 343  201.1436
 344  268.8844
 345  145.2363
 346  197.2419
 347  175.2872
 348  313.7228
 349  230.2365
 350  121.1483
 351  241.5081
 352  273.4319
 353  224.78
 354  267.088
 355  251.0783
 356  213.0622
 357  290.8505
 358  257.8904
 359  279.6537
 360  170.7806
 361  211.6057
 362  133.6045
 363  125.0974
 364  139.9189
 365  35.34905
 366  296.1857
 367  389.7075
 368  360.2773
 369  298.5293
 370  232.0819
 371  204.9269
 372  196.544
 373  250.2758
 374  266.7745
 375  189.7229
 376  192.2953
 377  224.302
 378  188.5176
 379  236.1549
 380  194.7045
 381  232.8614
 382  233.0332
 383  295.6225
 384  162.5032
 385  211.6838
 386  167.8233
 387  175.5215
 388  192.2728
 389  50.48863
 390  152.8944
 391  167.1498
 392  150.8939
 393  130.0909
 394  108.4425
 395  125.3438
 396  148.0664
 397  147.071
 398  145.6665
 399  111.0052
 400  110.1103
 401  142.0746
 402  248.1182
 403  224.0547
 404  148.5134
 405  67.22421
 406  197.7536
 407  219.2144
 408  147.4695
 409  237.3452
 410  252.4204
 411  204.6073
 412  264.8899
 413  213.083
 414  162.4035
 415  97.19761
 416  240.0971
 417  114.7832
 418  145.8563
 419  254.6926
 420  306.4415
 421  287.8794
 422  205.0942
 423  230.8428
 424  157.0516
 425  307.5599
 426  268.3051
 427  158.9729
 428  142.8758
 429  81.41149
 430  98.21922
 431  212.6323
 432  281.932
 433  273.4125
 434  295.7701
 435  211.3615
 436  174.9056
 437  142.1189
 438  101.5212
 439  129.3051
 440  110.4462
 441  234.3163
 442  258.513
 443  159.0744
 444  144.7989
 445  252.4631
 446  274.6868
 447  318.2741
 448  273.4
 449  176.0128
 450  143.4917
 451  82.49125
 452  206.0788
 453  221.5787
 454  281.1712
 455  334.939
 456  224.4499
 457  173.5172
 458  187.7052
 459  226.9093
 460  206.3814
 461  100.1969
 462  139.5025
 463  353.1057
 464  367.7173
 465  201.0887
 466  199.6499
 467  316.6289
 468  250.8426
 469  288.3337
 470  127.6531
 471  72.50874
 472  94.93559
 473  154.372
 474  283.2984
 475  169.3184
 476  196.0662
 477  253.1853
 478  235.0506
 479  202.0263
 480  85.59251
 481  175.4583
 482  296.1307
 483  300.5797
 484  202.3872
 485  200.2898
 486  297.6974
 487  157.0101
 488  82.66352
 489  232.4856
 490  275.194
 491  350.5052
 492  300.6652
 493  218.406
 494  293.3094
 495  313.0592
 496  213.2392
 497  323.5483
 498  367.2003
 499  191.3895
 500  102.6985
 501  241.3124
 502  191.1734
 503  216.5009
 504  243.2092
 505  163.6156
 506  390.5853
 507  500.1529
 508  486.4199
 509  668.7307
 510  878.2699
 511  990.3744
