# Input file       =  1192141432.122322_cleaned.dat
# Candidate        =  PSR_0332+5434
# Telescope        =  AR
# Epoch_topo       =  58041.933033823174
# Epoch_bary       =  N/A
# T_sample         =  0.002
# Data Folded      =  7340032
# Data Avg         =  0.0123280780084314
# Data StdDev      =  1.00001491650456 
# Profile Bins     =  512
# Profile Avg      =  176.774802436412 
# Profile StdDev   =  119.734822375149 
# Reduced chi-sqr  =  1.551
# Prob(Noise)      <  1.55e-14   (~7.6 sigma)
# P_topo (ms)      =  714.48223423045   +/- 0.000161
# P'_topo (s/s)    =  -0                +/- 8.5e-11
# P''_topo (s/s^2) =  0                 +/- 3.75e-14
# P_bary (ms)      =  N/A
# P'_bary (s/s)    =  N/A
# P''_bary (s/s^2) =  N/A
# P_orb (s)        =  N/A
# asin(i)/c (s)    =  N/A
# eccentricity     =  N/A
# w (rad)          =  N/A
# T_peri           =  N/A
######################################################
   0  870.8309
   1  773.0602
   2  544.8708
   3  401.459
   4  337.1765
   5  238.3384
   6  168.8912
   7  146.0399
   8  133.317
   9  77.14558
  10  90.38997
  11  244.4516
  12  199.8645
  13  335.6613
  14  299.3112
  15  309.8443
  16  242.5032
  17  184.5733
  18  258.8759
  19  247.8806
  20  246.6485
  21  130.2882
  22  17.41669
  23  -10.41765
  24  101.8715
  25  285.5815
  26  333.1508
  27  234.1237
  28  260.1995
  29  188.3043
  30  142.1814
  31  228.1233
  32  286.9432
  33  194.5361
  34  42.93319
  35  11.68596
  36  176.6861
  37  231.5666
  38  208.9801
  39  189.3947
  40  215.5493
  41  278.304
  42  251.4522
  43  328.2009
  44  199.4321
  45  175.0706
  46  222.3927
  47  145.1961
  48  16.17919
  49  61.80278
  50  34.22961
  51  38.19881
  52  153.9437
  53  186.1616
  54  102.3394
  55  238.3396
  56  179.0263
  57  67.78796
  58  -20.26209
  59  75.18959
  60  75.36113
  61  85.11912
  62  131.1623
  63  143.0831
  64  247.4681
  65  183.7511
  66  116.0796
  67  -1.373529
  68  91.43295
  69  191.2155
  70  34.51727
  71  12.57748
  72  16.35239
  73  220.7148
  74  170.2868
  75  97.29209
  76  96.59905
  77  115.0351
  78  47.23629
  79  158.8478
  80  159.543
  81  119.4331
  82  128.9989
  83  194.2302
  84  71.26083
  85  -76.77618
  86  26.79208
  87  136.3154
  88  80.34909
  89  60.62091
  90  135.1652
  91  184.801
  92  22.12878
  93  44.33421
  94  225.2389
  95  148.4275
  96  170.8085
  97  150.4708
  98  162.2723
  99  119.6168
 100  237.6798
 101  188.315
 102  207.4537
 103  143.0532
 104  143.4067
 105  212.2552
 106  204.8388
 107  139.4189
 108  165.8772
 109  150.6662
 110  257.028
 111  236.6221
 112  243.0836
 113  237.2241
 114  148.7514
 115  165.328
 116  35.6119
 117  144.8362
 118  235.5125
 119  97.02666
 120  60.54104
 121  59.71176
 122  15.0405
 123  152.3058
 124  205.3998
 125  110.5539
 126  148.4553
 127  242.7836
 128  55.51052
 129  96.89629
 130  158.8601
 131  173.5436
 132  109.5874
 133  42.65166
 134  184.1533
 135  227.3348
 136  212.4457
 137  87.81676
 138  55.39611
 139  75.60969
 140  258.0998
 141  255.223
 142  41.50644
 143  45.96604
 144  46.11118
 145  90.88953
 146  150.2814
 147  118.4362
 148  177.2465
 149  236.8269
 150  228.1816
 151  73.58871
 152  26.62637
 153  105.154
 154  245.8034
 155  223.4404
 156  158.5284
 157  94.79668
 158  64.70349
 159  140.8959
 160  161.4375
 161  191.3559
 162  51.49287
 163  183.5828
 164  158.1972
 165  111.5225
 166  159.3972
 167  193.469
 168  80.87142
 169  173.9465
 170  175.6735
 171  82.76328
 172  62.40338
 173  99.72298
 174  276.2952
 175  123.547
 176  160.8976
 177  196.9765
 178  146.251
 179  110.4223
 180  22.13784
 181  45.17361
 182  121.5197
 183  202.112
 184  149.3192
 185  217.2329
 186  199.3681
 187  263.5106
 188  221.3593
 189  93.52327
 190  262.1895
 191  216.1507
 192  105.317
 193  19.33465
 194  50.78463
 195  -37.86374
 196  80.40806
 197  146.837
 198  23.66096
 199  113.8364
 200  144.8209
 201  -4.811642
 202  -4.561771
 203  97.14648
 204  140.566
 205  374.1381
 206  465.9042
 207  331.3766
 208  173.6053
 209  232.1681
 210  165.9744
 211  230.2796
 212  293.8891
 213  169.6815
 214  130.8557
 215  184.2958
 216  219.2565
 217  245.5118
 218  174.9509
 219  185.3849
 220  254.3401
 221  163.3469
 222  100.0187
 223  196.7368
 224  264.0525
 225  157.9435
 226  166.2645
 227  329.8836
 228  236.6926
 229  171.449
 230  120.4028
 231  8.208784
 232  61.36572
 233  127.0899
 234  194.1288
 235  156.2798
 236  62.63639
 237  196.5274
 238  114.4708
 239  178.0997
 240  151.0264
 241  91.95153
 242  88.9259
 243  106.9446
 244  -21.01455
 245  153.7652
 246  204.9992
 247  198.7854
 248  167.856
 249  112.9369
 250  197.1967
 251  169.4246
 252  74.74265
 253  160.7733
 254  302.3326
 255  359.9785
 256  160.2081
 257  216.4723
 258  153.6268
 259  66.00178
 260  88.83835
 261  164.2435
 262  236.2758
 263  255.9784
 264  285.5112
 265  372.2239
 266  188.0666
 267  186.8133
 268  169.9684
 269  256.2845
 270  221.5057
 271  138.9914
 272  233.594
 273  268.1171
 274  47.24678
 275  189.9955
 276  212.094
 277  160.1567
 278  97.5416
 279  28.2551
 280  121.2118
 281  124.893
 282  147.7629
 283  161.0708
 284  43.3994
 285  48.68485
 286  63.71339
 287  253.1182
 288  328.9525
 289  165.5918
 290  102.2965
 291  193.4531
 292  109.7181
 293  215.6196
 294  167.4917
 295  261.8147
 296  174.4729
 297  249.5608
 298  235.2386
 299  170.4743
 300  130.5083
 301  142.5741
 302  251.2294
 303  248.9632
 304  145.1345
 305  382.5635
 306  421.0398
 307  221.0561
 308  0.8689014
 309  90.08836
 310  140.219
 311  333.7582
 312  298.4332
 313  192.0028
 314  225.3196
 315  154.2092
 316  187.7994
 317  156.0862
 318  226.495
 319  322.2007
 320  180.0747
 321  119.772
 322  200.478
 323  232.0444
 324  308.0504
 325  250.3794
 326  200.485
 327  137.4265
 328  135.7183
 329  119.4045
 330  107.2216
 331  101.021
 332  142.1139
 333  173.1916
 334  -26.51295
 335  114.5029
 336  130.1739
 337  155.1536
 338  246.4572
 339  213.6868
 340  299.0547
 341  385.9226
 342  272.3576
 343  153.2265
 344  157.1135
 345  126.8891
 346  126.1398
 347  177.4343
 348  75.06958
 349  39.88987
 350  264.391
 351  292.5364
 352  168.4672
 353  106.1033
 354  156.6416
 355  175.2096
 356  166.2457
 357  171.4741
 358  161.0374
 359  117.2046
 360  257.7388
 361  351.6505
 362  163.8862
 363  90.3063
 364  41.94528
 365  9.737408
 366  96.14064
 367  -28.63491
 368  -30.35591
 369  111.3912
 370  205.4285
 371  238.2905
 372  260.1902
 373  193.3502
 374  224.4629
 375  274.5245
 376  182.73
 377  180.6447
 378  174.6205
 379  171.9419
 380  175.2915
 381  157.9766
 382  337.0826
 383  293.8008
 384  175.2691
 385  192.029
 386  285.1473
 387  177.3129
 388  215.1726
 389  249.2541
 390  173.3618
 391  159.3776
 392  128.1127
 393  142.31
 394  77.28171
 395  148.8215
 396  173.7658
 397  178.3227
 398  242.4512
 399  168.635
 400  186.5059
 401  280.4642
 402  33.8145
 403  32.16485
 404  242.5956
 405  284.4372
 406  246.4801
 407  54.63525
 408  120.8037
 409  174.9788
 410  248.9109
 411  300.8622
 412  247.8118
 413  241.9012
 414  245.8162
 415  342.6312
 416  204.7251
 417  252.8363
 418  87.36784
 419  92.61285
 420  199.1621
 421  302.606
 422  335.1924
 423  280.3271
 424  217.9886
 425  150.4421
 426  139.3732
 427  94.29951
 428  70.29471
 429  87.90796
 430  53.7514
 431  92.0714
 432  105.6922
 433  218.1466
 434  314.2694
 435  153.2711
 436  53.98017
 437  299.2776
 438  387.9651
 439  183.7429
 440  115.7535
 441  174.0788
 442  267.0144
 443  277.7123
 444  199.1999
 445  232.8415
 446  298.3497
 447  168.496
 448  143.1618
 449  137.6402
 450  93.92408
 451  100.5997
 452  163.3759
 453  223.8526
 454  115.3987
 455  77.08111
 456  149.0038
 457  134.3889
 458  198.8919
 459  245.0679
 460  182.2567
 461  250.1014
 462  250.211
 463  257.995
 464  224.3917
 465  223.2408
 466  245.6134
 467  169.0892
 468  87.90352
 469  -33.1799
 470  -0.008482609
 471  187.5785
 472  267.434
 473  287.9598
 474  198.8289
 475  181.1725
 476  185.303
 477  62.12766
 478  92.98842
 479  234.2351
 480  264.6195
 481  142.6053
 482  122.1118
 483  116.9956
 484  221.3512
 485  204.0606
 486  174.5898
 487  167.1144
 488  154.7545
 489  203.3233
 490  200.9085
 491  292.9517
 492  340.2003
 493  403.0196
 494  289.8631
 495  207.0618
 496  267.6665
 497  165.8422
 498  -15.63683
 499  187.6194
 500  210.3707
 501  139.6427
 502  182.0499
 503  254.128
 504  206.6003
 505  311.2078
 506  340.9118
 507  453.6841
 508  376.9009
 509  611.0315
 510  819.8699
 511  848.9379
