# Input file       =  1192902154.145084_cleaned.dat
# Candidate        =  PSR_0332+5434
# Telescope        =  AR
# Epoch_topo       =  58050.737686864399
# Epoch_bary       =  N/A
# T_sample         =  0.002
# Data Folded      =  7208960
# Data Avg         =  0.0183291139448044
# Data StdDev      =  0.999969773430197
# Profile Bins     =  512
# Profile Avg      =  258.032732774063 
# Profile StdDev   =  118.655589133671 
# Reduced chi-sqr  =  1.497
# Prob(Noise)      <  2.04e-12   (~6.9 sigma)
# P_topo (ms)      =  714.48928094077   +/- 0.000193
# P'_topo (s/s)    =  -0                +/- 1.04e-10
# P''_topo (s/s^2) =  0                 +/- 4.66e-14
# P_bary (ms)      =  N/A
# P'_bary (s/s)    =  N/A
# P''_bary (s/s^2) =  N/A
# P_orb (s)        =  N/A
# asin(i)/c (s)    =  N/A
# eccentricity     =  N/A
# w (rad)          =  N/A
# T_peri           =  N/A
######################################################
   0  894.3306
   1  934.4892
   2  838.9634
   3  563.2645
   4  359.175
   5  389.042
   6  242.391
   7  221.4575
   8  364.8654
   9  298.2728
  10  298.5042
  11  253.6315
  12  326.2498
  13  296.8412
  14  225.427
  15  289.8212
  16  176.6316
  17  94.51878
  18  165.477
  19  269.7087
  20  165.2511
  21  182.6013
  22  270.8602
  23  220.8716
  24  273.0746
  25  257.2692
  26  206.8075
  27  121.9954
  28  212.0101
  29  60.34424
  30  73.18256
  31  157.4156
  32  86.45961
  33  241.2992
  34  205.1118
  35  162.8651
  36  78.15272
  37  162.5282
  38  257.1
  39  240.1554
  40  328.337
  41  388.1869
  42  342.4846
  43  239.3335
  44  301.7635
  45  273.5946
  46  332.173
  47  384.3241
  48  292.4158
  49  235.8707
  50  329.3409
  51  289.5208
  52  177.7138
  53  268.7634
  54  307.1689
  55  289.7607
  56  242.3377
  57  271.1405
  58  249.47
  59  312.7223
  60  258.6996
  61  173.9383
  62  233.1824
  63  316.027
  64  282.2685
  65  215.4426
  66  208.5562
  67  244.3765
  68  205.0442
  69  362.7517
  70  231.4173
  71  159.7929
  72  256.4211
  73  220.9774
  74  149.063
  75  101.7892
  76  196.7204
  77  280.5099
  78  181.2585
  79  238.1739
  80  299.9122
  81  116.5803
  82  230.1132
  83  290.2334
  84  158.4023
  85  114.4944
  86  153.2618
  87  196.0744
  88  255.0772
  89  281.2682
  90  263.7724
  91  180.2043
  92  210.0249
  93  381.5463
  94  305.1533
  95  289.1242
  96  238.522
  97  105.0147
  98  143.8294
  99  79.72952
 100  250.3589
 101  309.8396
 102  186.3956
 103  254.5504
 104  210.001
 105  227.8852
 106  183.1036
 107  134.211
 108  297.4519
 109  292.9834
 110  225.1221
 111  274.5032
 112  237.5303
 113  230.8317
 114  273.7838
 115  216.9662
 116  236.2823
 117  277.8314
 118  258.7815
 119  230.871
 120  204.8569
 121  276.1999
 122  338.6688
 123  216.4111
 124  163.3845
 125  191.5797
 126  120.184
 127  183.7007
 128  186.6157
 129  192.3642
 130  152.5505
 131  195.4852
 132  366.7977
 133  495.702
 134  317.8695
 135  99.41171
 136  109.7952
 137  251.6335
 138  289.8538
 139  200.6615
 140  254.4509
 141  216.6315
 142  160.2712
 143  140.2678
 144  253.9829
 145  250.3708
 146  305.8729
 147  240.9915
 148  220.6015
 149  315.8658
 150  417.1952
 151  397.4973
 152  315.8483
 153  277.948
 154  340.2002
 155  337.3248
 156  290.8535
 157  385.8905
 158  325.8892
 159  155.895
 160  237.8455
 161  215.1016
 162  332.1368
 163  309.5604
 164  344.6017
 165  347.8304
 166  300.6453
 167  267.4226
 168  314.364
 169  332.0645
 170  185.1926
 171  200.7892
 172  279.1629
 173  279.2437
 174  188.1701
 175  206.4098
 176  316.5639
 177  241.5864
 178  165.8312
 179  61.20005
 180  200.7635
 181  261.7635
 182  241.6866
 183  280.9951
 184  321.307
 185  219.772
 186  135.5529
 187  212.3537
 188  214.7495
 189  307.0115
 190  342.2719
 191  301.7955
 192  327.9841
 193  268.3115
 194  193.5857
 195  68.34259
 196  191.7735
 197  218.6219
 198  75.02175
 199  98.45712
 200  254.391
 201  214.9769
 202  197.7056
 203  241.722
 204  352.4217
 205  207.4539
 206  199.8258
 207  222.6668
 208  308.4932
 209  244.1731
 210  200.1505
 211  230.0663
 212  291.0782
 213  234.9062
 214  282.1739
 215  361.8082
 216  363.2017
 217  220.4919
 218  305.0284
 219  420.4716
 220  416.8708
 221  308.1388
 222  336.1417
 223  276.6204
 224  303.2457
 225  257.4217
 226  224.4959
 227  273.0856
 228  239.7926
 229  276.479
 230  294.0383
 231  310.3556
 232  319.4279
 233  234.9627
 234  254.5566
 235  125.9928
 236  156.3215
 237  241.9911
 238  225.7735
 239  273.5063
 240  223.1408
 241  235.0362
 242  190.236
 243  235.4538
 244  258.6125
 245  288.4607
 246  127.0562
 247  271.597
 248  321.4945
 249  250.4589
 250  201.7923
 251  100.2858
 252  254.5012
 253  322.7685
 254  371.2544
 255  308.0278
 256  315.8853
 257  375.6103
 258  424.5213
 259  309.0773
 260  342.7073
 261  292.9645
 262  237.8601
 263  243.9464
 264  255.1135
 265  336.3723
 266  253.605
 267  130.3728
 268  120.9009
 269  131.0405
 270  258.129
 271  271.3224
 272  245.9173
 273  174.357
 274  200.5908
 275  273.0575
 276  333.0508
 277  221.6865
 278  72.8828
 279  73.67123
 280  202.8079
 281  315.917
 282  315.7169
 283  283.7912
 284  249.8041
 285  248.8403
 286  204.9558
 287  296.613
 288  266.5375
 289  282.2258
 290  284.4031
 291  356.3075
 292  273.0673
 293  184.9876
 294  17.67885
 295  29.91972
 296  251.1621
 297  317.5899
 298  249.3095
 299  205.3381
 300  427.7679
 301  345.5866
 302  222.5384
 303  321.2909
 304  259.0861
 305  351.8961
 306  317.3228
 307  252.5669
 308  301.8632
 309  316.2729
 310  250.7878
 311  301.3907
 312  322.1313
 313  294.0441
 314  332.9731
 315  356.4013
 316  162.228
 317  164.0262
 318  188.478
 319  198.8361
 320  230.0813
 321  413.7837
 322  217.0363
 323  178.181
 324  158.6181
 325  267.9632
 326  253.3189
 327  304.1084
 328  379.6194
 329  233.9937
 330  205.6304
 331  179.2041
 332  292.2089
 333  319.8979
 334  176.2183
 335  209.3941
 336  211.1617
 337  307.1808
 338  292.0734
 339  239.4409
 340  263.4326
 341  313.3631
 342  230.324
 343  231.1307
 344  221.4075
 345  149.502
 346  227.1276
 347  149.5702
 348  109.1493
 349  179.4643
 350  232.6996
 351  343.2472
 352  228.6243
 353  89.79251
 354  180.2261
 355  184.1374
 356  273.2582
 357  325.7172
 358  315.8482
 359  294.3213
 360  193.6972
 361  132.0288
 362  180.0575
 363  130.6649
 364  190.6844
 365  327.4278
 366  434.6269
 367  216.531
 368  211.3702
 369  234.4396
 370  276.9917
 371  164.0778
 372  155.6304
 373  272.441
 374  282.2657
 375  218.6403
 376  297.9337
 377  351.4636
 378  269.5727
 379  321.5603
 380  362.9534
 381  507.8474
 382  274.0708
 383  199.1069
 384  232.1326
 385  291.5592
 386  258.6558
 387  306.5325
 388  311.7114
 389  254.8191
 390  280.683
 391  221.9704
 392  207.6289
 393  232.1138
 394  250.3029
 395  268.5888
 396  174.5747
 397  210.2897
 398  158.7941
 399  243.8588
 400  261.0703
 401  336.1744
 402  345.0231
 403  333.1057
 404  274.3445
 405  300.739
 406  267.509
 407  225.9967
 408  257.532
 409  287.1869
 410  310.2723
 411  205.8794
 412  206.951
 413  426.9288
 414  373.766
 415  243.522
 416  260.3313
 417  203.9597
 418  308.3764
 419  292.9771
 420  232.8035
 421  191.6782
 422  140.4344
 423  200.5013
 424  220.8331
 425  330.5344
 426  296.4656
 427  235.8012
 428  146.3239
 429  190.9149
 430  261.9984
 431  252.9001
 432  254.9171
 433  222.8828
 434  232.0204
 435  220.1156
 436  279.3597
 437  170.9967
 438  191.2404
 439  212.3244
 440  256.3688
 441  252.7574
 442  222.6146
 443  280.4153
 444  415.1282
 445  233.3254
 446  313.9151
 447  372.5567
 448  186.4903
 449  201.5143
 450  333.6219
 451  242.8355
 452  235.3172
 453  231.1203
 454  238.7086
 455  225.1992
 456  272.7814
 457  218.8652
 458  119.0779
 459  251.2501
 460  203.921
 461  199.8315
 462  220.5233
 463  203.8899
 464  146.7563
 465  119.5464
 466  142.7331
 467  88.0732
 468  104.9992
 469  286.2625
 470  229.282
 471  235.329
 472  260.9081
 473  192.4154
 474  20.64264
 475  46.02932
 476  224.435
 477  417.7339
 478  423.0465
 479  232.5763
 480  138.5481
 481  137.1767
 482  118.5042
 483  166.4489
 484  219.2318
 485  263.485
 486  421.7491
 487  452.2965
 488  309.5217
 489  317.6952
 490  397.0099
 491  381.306
 492  412.8902
 493  382.7574
 494  338.5771
 495  443.3794
 496  320.8355
 497  178.4046
 498  92.49065
 499  280.7902
 500  247.2517
 501  287.0221
 502  332.5869
 503  416.2486
 504  476.1426
 505  428.8992
 506  333.053
 507  330.4854
 508  478.6589
 509  616.1606
 510  876.3501
 511  1025.557
