# Input file       =  1192055239.118371_cleaned.dat
# Candidate        =  PSR_0332+5434
# Telescope        =  AR
# Epoch_topo       =  58040.935429610778
# Epoch_bary       =  N/A
# T_sample         =  0.002
# Data Folded      =  7340032
# Data Avg         =  0.010774073737336
# Data StdDev      =  1.00014227307672 
# Profile Bins     =  512
# Profile Avg      =  154.447998796902 
# Profile StdDev   =  119.750071164236 
# Reduced chi-sqr  =  1.645
# Prob(Noise)      <  1.81e-18   (~8.7 sigma)
# P_topo (ms)      =  714.481495786167  +/- 0.000187
# P'_topo (s/s)    =  -0                +/- 9.85e-11
# P''_topo (s/s^2) =  0                 +/- 4.35e-14
# P_bary (ms)      =  N/A
# P'_bary (s/s)    =  N/A
# P''_bary (s/s^2) =  N/A
# P_orb (s)        =  N/A
# asin(i)/c (s)    =  N/A
# eccentricity     =  N/A
# w (rad)          =  N/A
# T_peri           =  N/A
######################################################
   0  1013.195
   1  997.7207
   2  602.3373
   3  325.0046
   4  263.5334
   5  277.1928
   6  190.3913
   7  178.543
   8  151.2751
   9  142.4038
  10  171.5547
  11  76.0762
  12  38.13648
  13  44.1327
  14  224.4033
  15  310.878
  16  120.9781
  17  87.99686
  18  106.6643
  19  49.04752
  20  163.891
  21  51.26785
  22  20.54927
  23  162.2344
  24  142.3816
  25  27.8129
  26  135.7474
  27  35.979
  28  117.1804
  29  139.4255
  30  93.59928
  31  46.35566
  32  209.8202
  33  111.6155
  34  141.7713
  35  147.6836
  36  129.4842
  37  -34.26652
  38  188.529
  39  214.5046
  40  187.433
  41  80.64973
  42  71.17831
  43  158.622
  44  135.3942
  45  211.0857
  46  291.8485
  47  168.4702
  48  136.8595
  49  183.7601
  50  135.256
  51  59.34605
  52  178.1184
  53  201.3571
  54  210.8558
  55  286.9134
  56  239.356
  57  127.9882
  58  140.3845
  59  157.6096
  60  105.0273
  61  118.5589
  62  66.67776
  63  69.18995
  64  152.4819
  65  148.5048
  66  187.6833
  67  190.4444
  68  146.0446
  69  144.905
  70  222.3127
  71  330.762
  72  182.9428
  73  143.0814
  74  291.7316
  75  183.5871
  76  70.56523
  77  98.33674
  78  246.5263
  79  108.4625
  80  123.5799
  81  103.3432
  82  91.5916
  83  155.6089
  84  179.0129
  85  173.6216
  86  94.75797
  87  80.32169
  88  113.7915
  89  121.0673
  90  135.4864
  91  275.1473
  92  207.9862
  93  33.94004
  94  80.79645
  95  142.5495
  96  150.0352
  97  4.43327
  98  62.58074
  99  140.2775
 100  238.4982
 101  206.3136
 102  119.2501
 103  198.2313
 104  166.2097
 105  105.2717
 106  92.56905
 107  144.977
 108  13.60463
 109  104.8958
 110  248.5066
 111  173.6648
 112  220.4348
 113  179.615
 114  207.5144
 115  206.9688
 116  145.2165
 117  141.8063
 118  52.75011
 119  84.72484
 120  163.0664
 121  195.614
 122  271.2682
 123  176.757
 124  185.0325
 125  137.3137
 126  116.8708
 127  129.2671
 128  240.9909
 129  188.5846
 130  147.2519
 131  165.4232
 132  175.8647
 133  303.9874
 134  175.4729
 135  71.78902
 136  49.16336
 137  40.70423
 138  44.49484
 139  207.1166
 140  187.0364
 141  217.1832
 142  255.4018
 143  259.6635
 144  189.917
 145  64.12064
 146  69.00023
 147  203.7592
 148  201.8666
 149  193.0877
 150  116.5879
 151  118.1195
 152  26.48257
 153  41.81306
 154  108.6522
 155  229.7756
 156  193.4095
 157  198.2215
 158  190.5486
 159  -5.443454
 160  45.19409
 161  201.4323
 162  227.1427
 163  127.1169
 164  206.4462
 165  261.2934
 166  266.1905
 167  207.9852
 168  70.99022
 169  155.7494
 170  238.3945
 171  132.8357
 172  -34.63754
 173  104.0509
 174  195.2189
 175  195.977
 176  170.1473
 177  117.3096
 178  115.8193
 179  146.8216
 180  196.3572
 181  241.4305
 182  278.9371
 183  256.7058
 184  67.72733
 185  160.5204
 186  206.8102
 187  -13.49061
 188  7.105637
 189  131.8141
 190  281.6585
 191  177.687
 192  135.0582
 193  136.3709
 194  112.0959
 195  166.0836
 196  149.9726
 197  97.92451
 198  15.33957
 199  194.6494
 200  211.4461
 201  182.6669
 202  297.1629
 203  263.8565
 204  199.2195
 205  119.6567
 206  212.9151
 207  160.89
 208  143.7324
 209  138.4886
 210  164.3229
 211  211.15
 212  161.3717
 213  221.4874
 214  194.0553
 215  141.1044
 216  221.9287
 217  225.5461
 218  143.3723
 219  144.5429
 220  218.2526
 221  129.1345
 222  40.06324
 223  103.5197
 224  75.03577
 225  81.42403
 226  145.8262
 227  148.1472
 228  131.8551
 229  149.3902
 230  144.4623
 231  223.6303
 232  126.2318
 233  134.0227
 234  116.549
 235  111.2591
 236  117.7916
 237  153.8536
 238  193.4501
 239  325.8813
 240  97.66199
 241  30.69344
 242  69.17324
 243  118.1621
 244  123.845
 245  150.8003
 246  178.2176
 247  141.0904
 248  208.394
 249  111.4785
 250  -67.08956
 251  -88.33204
 252  24.98658
 253  137.0704
 254  117.75
 255  173.0718
 256  211.8422
 257  161.8655
 258  67.33574
 259  126.2073
 260  245.4128
 261  187.5561
 262  121.453
 263  203.316
 264  221.1035
 265  150.8924
 266  206.869
 267  291.3002
 268  166.4383
 269  174.7248
 270  129.9373
 271  76.01048
 272  84.6438
 273  72.62114
 274  196.5919
 275  239.3977
 276  263.3523
 277  279.653
 278  247.7996
 279  228.9311
 280  304.3387
 281  293.6382
 282  65.7737
 283  76.35509
 284  92.46657
 285  106.4828
 286  180.823
 287  288.1294
 288  189.1393
 289  123.5303
 290  142.6032
 291  176.592
 292  203.7859
 293  260.8876
 294  151.6776
 295  240.2638
 296  184.4572
 297  60.71572
 298  75.13543
 299  136.5361
 300  48.28194
 301  150.2989
 302  293.3434
 303  281.5149
 304  133.5864
 305  137.8475
 306  222.4956
 307  146.4323
 308  143.9072
 309  98.20206
 310  -102.8288
 311  52.27588
 312  273.1648
 313  63.88811
 314  157.0901
 315  34.70569
 316  105.5029
 317  121.0004
 318  86.34298
 319  2.599423
 320  20.9535
 321  252.3296
 322  131.8258
 323  -32.9971
 324  184.5744
 325  103.8852
 326  -3.621939
 327  48.86621
 328  79.61329
 329  -18.71358
 330  -33.44311
 331  22.28269
 332  206.5251
 333  137.0126
 334  92.7356
 335  129.8906
 336  204.1535
 337  176.6589
 338  176.4115
 339  177.2311
 340  168.2541
 341  174.4009
 342  288.4742
 343  190.7267
 344  213.9013
 345  176.4537
 346  30.44441
 347  77.60853
 348  201.1767
 349  247.6516
 350  220.6265
 351  87.36026
 352  224.5814
 353  197.619
 354  69.68357
 355  82.84734
 356  231.0744
 357  273.2962
 358  231.1558
 359  36.82888
 360  79.52339
 361  114.1442
 362  46.60665
 363  83.63104
 364  177.2084
 365  202.9907
 366  153.2495
 367  90.54619
 368  -19.09397
 369  3.384429
 370  128.3783
 371  185.3025
 372  216.6299
 373  132.2515
 374  203.3586
 375  86.13565
 376  -26.55448
 377  28.86817
 378  247.4842
 379  203.5876
 380  210.5099
 381  143.6431
 382  166.726
 383  59.95144
 384  73.43779
 385  140.438
 386  171.8652
 387  177.9826
 388  111.136
 389  72.61626
 390  197.407
 391  149.669
 392  227.3905
 393  138.4668
 394  164.078
 395  144.6767
 396  90.86398
 397  115.1156
 398  14.0615
 399  23.34684
 400  127.0757
 401  124.8775
 402  117.0612
 403  115.7487
 404  -34.15573
 405  87.72827
 406  179.8397
 407  51.13265
 408  257.2907
 409  277.2012
 410  318.979
 411  183.6071
 412  180.0474
 413  -14.79506
 414  50.73145
 415  11.2714
 416  108.7677
 417  124.3839
 418  92.45716
 419  66.40566
 420  -30.28982
 421  7.334516
 422  102.1353
 423  79.97361
 424  59.35432
 425  59.11438
 426  123.2632
 427  270.9645
 428  137.0178
 429  113.0972
 430  48.68635
 431  91.52905
 432  -68.38725
 433  -7.639261
 434  161.909
 435  161.9354
 436  124.042
 437  247.6544
 438  235.3783
 439  94.42471
 440  58.09237
 441  73.73473
 442  -4.875771
 443  68.33433
 444  214.3585
 445  133.8689
 446  91.1378
 447  156.9169
 448  207.4912
 449  82.82058
 450  69.43381
 451  58.02125
 452  102.1404
 453  134.8737
 454  151.5397
 455  283.7306
 456  209.1655
 457  264.7001
 458  149.516
 459  165.5985
 460  185.9136
 461  77.64736
 462  42.72649
 463  174.9062
 464  266.0265
 465  82.29789
 466  150.3617
 467  153.9342
 468  178.2545
 469  194.7781
 470  244.7865
 471  195.7395
 472  164.5789
 473  126.5698
 474  190.0259
 475  162.4297
 476  38.42464
 477  160.8374
 478  292.1062
 479  291.8585
 480  119.7559
 481  90.42267
 482  69.58844
 483  65.68958
 484  185.9586
 485  223.5515
 486  180.9389
 487  105.5806
 488  124.2209
 489  205.5263
 490  274.5989
 491  203.0054
 492  108.4542
 493  124.7894
 494  218.7856
 495  208.3731
 496  163.3688
 497  176.2047
 498  189.7967
 499  87.30373
 500  121.803
 501  97.66528
 502  213.4017
 503  302.8035
 504  207.1401
 505  195.3894
 506  196.9211
 507  294.0711
 508  457.2587
 509  617.0438
 510  874.7043
 511  1060.272
