# Input file       =  1192414777.133384_cleaned.dat
# Candidate        =  PSR_0332+5434
# Telescope        =  AR
# Epoch_topo       =  58045.096749228978
# Epoch_bary       =  N/A
# T_sample         =  0.002
# Data Folded      =  7340032
# Data Avg         =  0.00398118755827605
# Data StdDev      =  1.00008459920653 
# Profile Bins     =  512
# Profile Avg      =  57.0999154876124 
# Profile StdDev   =  119.743165696639 
# Reduced chi-sqr  =  1.658
# Prob(Noise)      <  4.45e-19   (~8.8 sigma)
# P_topo (ms)      =  714.484995747735  +/- 0.000178
# P'_topo (s/s)    =  -0                +/- 9.37e-11
# P''_topo (s/s^2) =  0                 +/- 4.14e-14
# P_bary (ms)      =  N/A
# P'_bary (s/s)    =  N/A
# P''_bary (s/s^2) =  N/A
# P_orb (s)        =  N/A
# asin(i)/c (s)    =  N/A
# eccentricity     =  N/A
# w (rad)          =  N/A
# T_peri           =  N/A
######################################################
   0  814.7798
   1  852.1709
   2  682.0862
   3  266.6271
   4  171.5392
   5  105.4572
   6  161.7891
   7  109.8949
   8  118.0018
   9  71.90166
  10  98.78234
  11  -41.06589
  12  21.40043
  13  82.26672
  14  110.8782
  15  -37.4924
  16  96.77892
  17  196.129
  18  179.9617
  19  135.1432
  20  -37.132
  21  -29.67664
  22  106.0862
  23  22.55006
  24  15.41634
  25  -15.14612
  26  33.31673
  27  14.49103
  28  -31.29923
  29  -71.37329
  30  -85.26791
  31  -113.6425
  32  -107.7878
  33  -52.66184
  34  14.8112
  35  28.27111
  36  23.31631
  37  -106.8399
  38  36.62992
  39  158.5361
  40  65.76068
  41  25.56324
  42  33.95146
  43  62.33376
  44  45.15248
  45  46.34072
  46  8.338476
  47  19.15896
  48  -1.068706
  49  45.88299
  50  39.55185
  51  15.79961
  52  54.17546
  53  -57.51435
  54  -37.28135
  55  230.1783
  56  197.2348
  57  170.8489
  58  116.0018
  59  0.5973313
  60  73.26607
  61  -37.91061
  62  31.50375
  63  131.4803
  64  125.1217
  65  122.0585
  66  102.1403
  67  27.57518
  68  113.4727
  69  118.8548
  70  90.36088
  71  -1.346889
  72  149.6348
  73  188.0261
  74  45.651
  75  22.0511
  76  109.1858
  77  47.28137
  78  -18.41187
  79  -6.104127
  80  -98.18842
  81  -91.06338
  82  43.7323
  83  97.29484
  84  67.8868
  85  -9.366179
  86  37.80562
  87  69.21494
  88  147.1583
  89  -15.65616
  90  -66.90429
  91  -24.89585
  92  45.38454
  93  39.4009
  94  -33.95247
  95  -27.92194
  96  -58.66306
  97  -5.504895
  98  124.3994
  99  286.8029
 100  176.6402
 101  -21.35344
 102  82.79875
 103  141.6114
 104  76.62919
 105  79.33044
 106  73.50263
 107  32.34029
 108  -106.485
 109  -125.2806
 110  -17.25336
 111  -21.4885
 112  51.75094
 113  74.32212
 114  5.046521
 115  33.64119
 116  -13.20206
 117  88.95968
 118  63.74781
 119  -41.68227
 120  15.8788
 121  33.58953
 122  8.263317
 123  -71.65233
 124  -58.29211
 125  127.9031
 126  139.583
 127  123.7893
 128  4.590173
 129  37.92572
 130  -77.68391
 131  -91.25354
 132  -65.26891
 133  -45.22014
 134  84.52761
 135  87.90897
 136  -16.66516
 137  0.8308597
 138  26.55695
 139  96.80381
 140  204.2395
 141  22.42127
 142  -48.04436
 143  66.74408
 144  116.7567
 145  -43.82681
 146  -111.2457
 147  9.999713
 148  45.71233
 149  77.64686
 150  61.12732
 151  43.09655
 152  131.9408
 153  136.0148
 154  109.5038
 155  114.6079
 156  179.0266
 157  127.9625
 158  155.3533
 159  140.1345
 160  -120.6824
 161  -124.6851
 162  -76.12496
 163  -112.0257
 164  45.07642
 165  191.3764
 166  169.0528
 167  129.3201
 168  23.69333
 169  31.22387
 170  7.487855
 171  140.5951
 172  144.9407
 173  116.9026
 174  78.60383
 175  -119.7933
 176  -190.7047
 177  -84.21056
 178  47.00911
 179  84.99035
 180  126.5179
 181  44.8263
 182  -22.59469
 183  73.29395
 184  0.7418597
 185  -7.57368
 186  -24.66236
 187  -1.662344
 188  91.94893
 189  10.55563
 190  37.04813
 191  -40.99263
 192  36.78618
 193  -9.979289
 194  -78.31956
 195  -154.5164
 196  -4.358986
 197  -24.91854
 198  111.7573
 199  99.00935
 200  123.7035
 201  -14.60244
 202  -19.20792
 203  35.04739
 204  108.5977
 205  100.2127
 206  -7.557809
 207  -37.26405
 208  15.36388
 209  163.1778
 210  138.3089
 211  -16.00716
 212  96.02873
 213  120.5073
 214  119.3842
 215  189.704
 216  201.344
 217  142.6435
 218  -0.7105714
 219  13.74999
 220  -10.97759
 221  -0.8084202
 222  -35.92461
 223  33.94107
 224  66.44526
 225  66.79618
 226  8.815559
 227  -32.79472
 228  122.0168
 229  -60.39688
 230  26.73344
 231  109.3882
 232  14.32008
 233  -68.62663
 234  72.10693
 235  22.50366
 236  -99.94402
 237  -60.17078
 238  74.90144
 239  -41.89143
 240  51.51665
 241  263.1581
 242  193.1181
 243  96.35475
 244  54.08131
 245  113.1038
 246  11.89004
 247  21.94713
 248  67.66679
 249  16.59213
 250  54.1156
 251  117.3758
 252  96.26347
 253  29.85358
 254  -45.6601
 255  -10.72472
 256  49.45082
 257  44.2049
 258  8.332471
 259  -34.59219
 260  -33.20482
 261  50.84922
 262  127.6654
 263  140.3453
 264  92.31558
 265  32.02142
 266  74.80536
 267  -42.37622
 268  17.02463
 269  94.3114
 270  155.0778
 271  140.3886
 272  118.1024
 273  55.92551
 274  3.615853
 275  -8.397509
 276  56.86709
 277  139.6314
 278  32.30772
 279  185.2743
 280  219.446
 281  102.0817
 282  -41.10437
 283  45.92583
 284  145.4778
 285  98.41743
 286  20.98645
 287  189.638
 288  186.6228
 289  134.5262
 290  37.3426
 291  68.16573
 292  271.4626
 293  201.1371
 294  320.8427
 295  322.4202
 296  158.4037
 297  48.69838
 298  21.95576
 299  90.19184
 300  58.61608
 301  -10.32814
 302  73.11946
 303  42.77479
 304  -19.50341
 305  5.464599
 306  81.62137
 307  -3.856699
 308  52.52723
 309  105.6228
 310  271.5916
 311  153.879
 312  39.80208
 313  117.9208
 314  20.02011
 315  61.3849
 316  61.60677
 317  46.56327
 318  35.33269
 319  -48.99562
 320  -3.3258
 321  54.26212
 322  218.2244
 323  142.6402
 324  -28.84844
 325  -48.90796
 326  42.72789
 327  -38.27607
 328  -183.8162
 329  -118.6574
 330  -23.10291
 331  -29.16153
 332  96.22984
 333  54.91507
 334  60.86004
 335  35.97813
 336  -71.94311
 337  -12.56577
 338  -47.34834
 339  -81.30023
 340  -15.35418
 341  -55.40247
 342  19.28454
 343  95.39487
 344  -74.60017
 345  -79.15472
 346  17.85399
 347  -21.07346
 348  -50.60446
 349  -130.0991
 350  -20.7416
 351  19.49105
 352  34.31754
 353  36.14202
 354  25.1578
 355  43.87232
 356  44.78494
 357  109.5035
 358  117.0827
 359  46.24324
 360  -48.19687
 361  -69.03971
 362  -72.8878
 363  112.3387
 364  45.70952
 365  32.30301
 366  117.029
 367  231.5429
 368  56.2594
 369  -79.5839
 370  -31.84708
 371  97.23746
 372  81.95654
 373  131.6921
 374  275.1699
 375  147.2993
 376  21.90063
 377  -161.0242
 378  -47.63382
 379  4.888939
 380  10.74232
 381  22.0624
 382  39.72503
 383  69.65453
 384  68.21299
 385  125.6457
 386  42.77599
 387  100.6457
 388  44.87008
 389  -4.613278
 390  22.43419
 391  104.5597
 392  -16.52063
 393  47.57412
 394  78.81596
 395  134.6136
 396  125.8549
 397  31.9606
 398  104.5334
 399  135.9279
 400  -72.5209
 401  -132.645
 402  19.02335
 403  -42.23755
 404  93.77827
 405  58.53143
 406  -12.70526
 407  110.9914
 408  79.06385
 409  83.63853
 410  89.11808
 411  -56.92432
 412  94.3403
 413  162.204
 414  138.0034
 415  183.2142
 416  -13.77015
 417  -22.81186
 418  -32.96941
 419  -22.22182
 420  228.9174
 421  186.214
 422  38.76767
 423  73.49207
 424  -59.77185
 425  -5.410936
 426  94.74983
 427  -65.51826
 428  -31.8659
 429  82.51435
 430  111.0845
 431  124.0714
 432  59.4339
 433  133.5391
 434  197.2343
 435  36.58716
 436  113.3121
 437  48.08405
 438  120.1186
 439  87.72132
 440  22.03278
 441  22.76695
 442  22.85891
 443  -25.11312
 444  -55.24896
 445  28.73409
 446  97.81915
 447  35.3716
 448  112.8284
 449  16.14988
 450  -53.29163
 451  -3.208159
 452  -37.79576
 453  70.34169
 454  184.1858
 455  207.0838
 456  35.06097
 457  -75.70877
 458  -84.43961
 459  -1.23884
 460  16.64082
 461  91.25397
 462  91.67845
 463  2.536273
 464  -67.7032
 465  100.0496
 466  138.417
 467  183.1208
 468  292.5547
 469  176.9305
 470  43.41417
 471  -87.84753
 472  -31.65292
 473  -75.49397
 474  -42.34463
 475  82.21874
 476  69.73875
 477  139.3146
 478  94.70123
 479  10.4617
 480  -65.08816
 481  14.9938
 482  89.87598
 483  167.4087
 484  93.09393
 485  -52.39985
 486  -71.48613
 487  98.16711
 488  126.451
 489  64.12953
 490  -9.566334
 491  107.5046
 492  134.005
 493  124.7252
 494  67.73303
 495  194.9378
 496  58.20686
 497  50.1693
 498  211.2758
 499  89.20458
 500  23.28195
 501  133.0743
 502  34.81011
 503  169.6561
 504  192.9689
 505  193.8453
 506  212.8639
 507  110.4918
 508  93.37434
 509  431.3712
 510  651.9555
 511  836.7339
