# Input file       =  1192471422.139069_cleaned.dat
# Candidate        =  PSR_0332+5434
# Telescope        =  AR
# Epoch_topo       =  58045.752362720705
# Epoch_bary       =  N/A
# T_sample         =  0.002
# Data Folded      =  7143424
# Data Avg         =  0.0175098999680722
# Data StdDev      =  1.00000027420358 
# Profile Bins     =  512
# Profile Avg      =  244.297251402114 
# Profile StdDev   =  118.118616870406 
# Reduced chi-sqr  =  1.901
# Prob(Noise)      <  5.65e-31   (~11.5 sigma)
# P_topo (ms)      =  714.485169068     +/- 0.000181
# P'_topo (s/s)    =  -0                +/- 9.81e-11
# P''_topo (s/s^2) =  0                 +/- 4.45e-14
# P_bary (ms)      =  N/A
# P'_bary (s/s)    =  N/A
# P''_bary (s/s^2) =  N/A
# P_orb (s)        =  N/A
# asin(i)/c (s)    =  N/A
# eccentricity     =  N/A
# w (rad)          =  N/A
# T_peri           =  N/A
######################################################
   0  1185.656
   1  1019.472
   2  678.6747
   3  486.4287
   4  344.0996
   5  350.357
   6  235.9185
   7  142.8654
   8  197.5427
   9  209.4592
  10  190.0177
  11  181.8017
  12  243.3136
  13  379.8025
  14  421.5357
  15  403.1332
  16  358.4236
  17  239.8087
  18  166.4416
  19  152.3897
  20  228.2348
  21  191.7624
  22  93.93159
  23  93.32138
  24  147.1514
  25  186.26
  26  264.7506
  27  193.5243
  28  254.0219
  29  133.9206
  30  173.4207
  31  325.4216
  32  172.4323
  33  86.0586
  34  161.1264
  35  197.5817
  36  191.3542
  37  259.5555
  38  213.2734
  39  242.9983
  40  228.9597
  41  211.3885
  42  190.5457
  43  160.848
  44  191.3104
  45  199.0479
  46  205.7593
  47  299.8736
  48  314.7743
  49  228.2601
  50  354.1839
  51  255.9025
  52  161.5638
  53  364.6596
  54  275.679
  55  86.4166
  56  197.8329
  57  313.1194
  58  309.7801
  59  191.004
  60  202.404
  61  168.2875
  62  289.0334
  63  242.1131
  64  89.57191
  65  199.9155
  66  195.8511
  67  215.7551
  68  101.0914
  69  46.05186
  70  84.37594
  71  271.1827
  72  191.0209
  73  172.2558
  74  203.059
  75  154.2595
  76  172.9897
  77  235.6529
  78  202.5684
  79  188.2171
  80  101.172
  81  231.1895
  82  203.2011
  83  202.12
  84  281.3044
  85  249.3429
  86  220.4186
  87  420.6808
  88  356.157
  89  223.4582
  90  243.0195
  91  196.467
  92  147.0805
  93  131.2134
  94  239.4584
  95  233.2604
  96  161.9383
  97  153.5154
  98  244.5859
  99  242.6853
 100  152.4334
 101  230.967
 102  204.229
 103  125.1507
 104  137.3554
 105  164.4531
 106  203.9069
 107  201.2258
 108  222.404
 109  192.5459
 110  264.9648
 111  222.545
 112  308.0633
 113  292.7908
 114  258.8678
 115  284.2303
 116  145.691
 117  109.3955
 118  115.8096
 119  150.0961
 120  152.0202
 121  233.4539
 122  259.4066
 123  148.6966
 124  141.0198
 125  77.38673
 126  81.28885
 127  144.5608
 128  212.4588
 129  306.4682
 130  221.0591
 131  249.2971
 132  167.5753
 133  206.8409
 134  287.5267
 135  308.8777
 136  256.9833
 137  164.2943
 138  233.6062
 139  396.3071
 140  398.429
 141  285.6387
 142  267.0613
 143  220.0558
 144  232.9518
 145  431.0919
 146  260.4169
 147  139.8518
 148  228.3823
 149  271.1433
 150  271.5505
 151  244.8559
 152  250.674
 153  281.7315
 154  292.2318
 155  236.9037
 156  233.694
 157  266.2594
 158  361.2315
 159  303.6419
 160  305.4141
 161  283.7149
 162  278.6089
 163  325.3083
 164  171.1689
 165  138.6726
 166  233.8131
 167  251.4543
 168  186.5328
 169  203.7301
 170  181.5434
 171  240.9289
 172  264.7006
 173  250.9817
 174  176.5675
 175  143.3751
 176  196.618
 177  217.9915
 178  196.2949
 179  266.3152
 180  278.6485
 181  275.5576
 182  233.5651
 183  106.6486
 184  177.8091
 185  171.4163
 186  254.7642
 187  184.5611
 188  141.271
 189  200.6244
 190  122.004
 191  310.2699
 192  481.0539
 193  358.7914
 194  169.5746
 195  98.18862
 196  178.4057
 197  231.0998
 198  253.1648
 199  352.9717
 200  302.9066
 201  359.5351
 202  408.2471
 203  285.2526
 204  241.8773
 205  389.5762
 206  436.9747
 207  459.716
 208  346.3329
 209  187.8094
 210  135.3787
 211  227.1685
 212  377.3028
 213  315.0598
 214  374.2784
 215  378.4977
 216  352.7232
 217  242.3969
 218  275.6349
 219  317.811
 220  281.3601
 221  245.3871
 222  289.5814
 223  283.7569
 224  278.7659
 225  407.7141
 226  348.3391
 227  314.2516
 228  219.4728
 229  217.7579
 230  314.6238
 231  152.0317
 232  260.1941
 233  313.0346
 234  381.481
 235  366.2502
 236  230.7052
 237  302.8643
 238  291.156
 239  450.0038
 240  466.4766
 241  306.5727
 242  168.7611
 243  114.5201
 244  185.9542
 245  253.028
 246  249.9299
 247  294.7747
 248  283.6856
 249  149.0845
 250  140.6315
 251  221.8644
 252  236.6616
 253  311.1579
 254  220.0159
 255  35.74542
 256  156.2107
 257  180.1491
 258  145.0251
 259  128.9236
 260  134.1368
 261  198.9135
 262  296.6667
 263  336.9568
 264  168.8952
 265  75.01499
 266  221.3078
 267  220.2587
 268  192.4552
 269  246.239
 270  331.501
 271  340.6964
 272  318.39
 273  334.768
 274  283.3641
 275  74.16824
 276  180.1778
 277  244.0771
 278  215.7807
 279  260.2831
 280  312.5944
 281  311.5221
 282  286.8572
 283  240.954
 284  310.0236
 285  225.9483
 286  110.5521
 287  101.1247
 288  209.0089
 289  382.0233
 290  202.1987
 291  387.41
 292  517.8734
 293  409.8926
 294  349.8442
 295  390.31
 296  303.7742
 297  198.3597
 298  210.2137
 299  260.8161
 300  303.7317
 301  196.0664
 302  178.6021
 303  230.578
 304  229.5863
 305  218.9166
 306  281.4907
 307  272.0525
 308  222.2014
 309  222.5614
 310  305.4543
 311  263.1039
 312  203.2832
 313  146.0189
 314  158.7344
 315  217.8622
 316  104.0724
 317  195.2178
 318  350.258
 319  284.9707
 320  353.6137
 321  370.0136
 322  350.4565
 323  324.5561
 324  245.0555
 325  253.9331
 326  228.6292
 327  255.6802
 328  285.5622
 329  252.7329
 330  313.7144
 331  357.6656
 332  267.0627
 333  145.8232
 334  173.9397
 335  186.9415
 336  230.0535
 337  327.6401
 338  444.1621
 339  409.623
 340  456.3686
 341  293.4706
 342  286.7519
 343  252.6367
 344  164.5253
 345  254.8025
 346  284.9842
 347  225.799
 348  247.728
 349  229.3125
 350  213.0165
 351  218.8605
 352  259.1027
 353  321.455
 354  289.5095
 355  311.3612
 356  318.3715
 357  208.0012
 358  118.0697
 359  105.3588
 360  224.8079
 361  188.1117
 362  372.88
 363  398.6211
 364  309.0592
 365  295.2626
 366  253.2071
 367  232.5343
 368  284.7914
 369  124.8104
 370  289.6421
 371  256.0148
 372  145.6165
 373  318.4181
 374  270.9279
 375  180.1929
 376  146.1529
 377  364.869
 378  324.055
 379  141.8569
 380  124.4528
 381  131.1277
 382  118.1524
 383  208.0628
 384  184.4099
 385  233.9165
 386  307.2564
 387  175.5737
 388  84.00957
 389  121.2705
 390  211.5765
 391  275.9591
 392  236.7071
 393  235.5744
 394  282.728
 395  47.46617
 396  1.401702
 397  137.1908
 398  224.05
 399  210.4255
 400  129.4725
 401  194.9778
 402  224.771
 403  119.8083
 404  170.1342
 405  115.5576
 406  55.70361
 407  99.11527
 408  207.9487
 409  222.3961
 410  205.2141
 411  211.7768
 412  295.5091
 413  228.4432
 414  280.7149
 415  308.127
 416  288.4359
 417  309.0922
 418  276.9341
 419  294.3477
 420  217.9196
 421  200.2274
 422  325.2202
 423  256.5934
 424  125.5401
 425  165.6972
 426  168.406
 427  193.0771
 428  144.3165
 429  132.4603
 430  13.49556
 431  69.95842
 432  181.3113
 433  63.13848
 434  193.789
 435  171.4516
 436  135.1266
 437  90.71659
 438  129.2223
 439  264.2143
 440  281.3442
 441  155.0156
 442  230.617
 443  201.8819
 444  71.76305
 445  231.978
 446  268.9662
 447  309.7235
 448  254.2788
 449  267.3154
 450  336.2737
 451  116.1864
 452  57.03632
 453  76.87354
 454  56.82889
 455  202.5381
 456  200.436
 457  178.2355
 458  144.1544
 459  174.3927
 460  168.6874
 461  143.7894
 462  109.6805
 463  218.8994
 464  217.2577
 465  313.9279
 466  383.741
 467  245.8153
 468  130.9583
 469  184.6061
 470  294.8183
 471  317.7267
 472  146.2651
 473  104.3743
 474  162.9079
 475  219.2456
 476  136.9803
 477  204.924
 478  231.2373
 479  172.1439
 480  103.3836
 481  296.0182
 482  418.9676
 483  239.7133
 484  140.9043
 485  201.3528
 486  312.1371
 487  316.4626
 488  330.23
 489  261.8191
 490  140.6904
 491  248.535
 492  283.5913
 493  311.9832
 494  336.799
 495  229.2126
 496  262.243
 497  220.6416
 498  216.0726
 499  233.676
 500  271.3354
 501  351.6605
 502  339.6014
 503  337.4624
 504  332.4804
 505  449.8888
 506  530.0728
 507  539.427
 508  489.6095
 509  709.8958
 510  960.8534
 511  1103.043
