# Input file       =  1192212944.130537_cleaned.dat
# Candidate        =  PSR_0332+5434
# Telescope        =  AR
# Epoch_topo       =  58042.760719103440
# Epoch_bary       =  N/A
# T_sample         =  0.002
# Data Folded      =  7405568
# Data Avg         =  0.0291545109991232
# Data StdDev      =  0.999961880153663
# Profile Bins     =  512
# Profile Avg      =  421.560772551066 
# Profile StdDev   =  120.2617864914   
# Reduced chi-sqr  =  1.376
# Prob(Noise)      <  3.21e-08   (~5.4 sigma)
# P_topo (ms)      =  714.482843948352  +/- 0.000162
# P'_topo (s/s)    =  -0                +/- 8.47e-11
# P''_topo (s/s^2) =  0                 +/- 3.71e-14
# P_bary (ms)      =  N/A
# P'_bary (s/s)    =  N/A
# P''_bary (s/s^2) =  N/A
# P_orb (s)        =  N/A
# asin(i)/c (s)    =  N/A
# eccentricity     =  N/A
# w (rad)          =  N/A
# T_peri           =  N/A
######################################################
   0  1255.028
   1  1031.034
   2  857.792
   3  644.4795
   4  397.628
   5  441.2615
   6  472.2628
   7  321.6717
   8  428.6063
   9  343.6596
  10  310.1484
  11  254.3049
  12  429.0565
  13  341.9557
  14  446.1533
  15  489.4752
  16  295.8475
  17  402.7315
  18  441.8795
  19  403.3358
  20  374.7069
  21  475.1091
  22  358.4222
  23  419.3423
  24  489.2788
  25  525.8257
  26  472.3179
  27  532.1478
  28  401.4485
  29  316.1935
  30  366.4967
  31  360.1559
  32  494.7801
  33  599.9203
  34  529.8987
  35  490.2367
  36  431.9537
  37  517.2573
  38  453.6113
  39  452.1395
  40  536.1979
  41  550.2415
  42  298.7482
  43  344.8165
  44  448.3564
  45  593.016
  46  382.2564
  47  367.6284
  48  457.0799
  49  494.5007
  50  583.8633
  51  475.8334
  52  288.2791
  53  283.1511
  54  421.9364
  55  385.8928
  56  390.7567
  57  468.726
  58  326.4229
  59  314.7536
  60  452.5616
  61  454.7651
  62  322.2193
  63  366.9502
  64  379.3098
  65  263.0873
  66  174.6567
  67  266.4583
  68  406.0038
  69  385.1559
  70  444.4834
  71  503.3534
  72  360.6358
  73  518.6678
  74  500.8073
  75  423.882
  76  412.2053
  77  396.1172
  78  508.9675
  79  445.4846
  80  348.5258
  81  397.5962
  82  327.3442
  83  314.2321
  84  349.8661
  85  395.4224
  86  498.4201
  87  473.2982
  88  477.5327
  89  462.368
  90  396.9864
  91  358.9456
  92  344.525
  93  270.2936
  94  359.1063
  95  469.7502
  96  543.3906
  97  505.0413
  98  394.8814
  99  428.2486
 100  364.4557
 101  446.0903
 102  420.493
 103  347.9462
 104  423.4871
 105  506.8894
 106  424.9592
 107  309.8508
 108  329.3396
 109  511.8304
 110  477.348
 111  443.4736
 112  379.4076
 113  429.4496
 114  330.7526
 115  355.9729
 116  340.7863
 117  416.8278
 118  484.7463
 119  407.2207
 120  396.9506
 121  431.8808
 122  343.1876
 123  264.9292
 124  231.8217
 125  420.3615
 126  477.5202
 127  299.0982
 128  327.4336
 129  381.1656
 130  370.666
 131  313.9562
 132  352.6148
 133  338.9916
 134  329.5596
 135  383.272
 136  357.8964
 137  376.3127
 138  433.5702
 139  400.4403
 140  323.1078
 141  435.0284
 142  470.2937
 143  494.0852
 144  441.4134
 145  411.7554
 146  387.9879
 147  406.986
 148  292.3759
 149  424.936
 150  627.1501
 151  621.2303
 152  553.3236
 153  455.5888
 154  508.3047
 155  381.1188
 156  455.9511
 157  398.0517
 158  509.1359
 159  541.2285
 160  395.3213
 161  332.0932
 162  362.8992
 163  558.2482
 164  493.4128
 165  336.0692
 166  351.5917
 167  393.1608
 168  452.011
 169  335.4167
 170  458.1349
 171  472.0118
 172  578.2258
 173  475.7
 174  562.1341
 175  605.368
 176  461.5168
 177  474.2118
 178  546.3319
 179  329.1596
 180  274.4769
 181  420.8979
 182  348.804
 183  342.5027
 184  421.8082
 185  431.3252
 186  287.6333
 187  251.1296
 188  305.0786
 189  440.0343
 190  324.5121
 191  357.3185
 192  402.802
 193  438.9514
 194  539.2017
 195  394.7826
 196  398.0374
 197  457.8589
 198  449.0261
 199  394.117
 200  377.9751
 201  435.7968
 202  483.5286
 203  441.1649
 204  501.7366
 205  460.4984
 206  393.0109
 207  433.0655
 208  334.1175
 209  244.2887
 210  322.7793
 211  405.7973
 212  274.9731
 213  290.8098
 214  490.3339
 215  449.9847
 216  542.6588
 217  467.8521
 218  341.7369
 219  387.4057
 220  431.0531
 221  424.8353
 222  406.3343
 223  495.0982
 224  515.9277
 225  485.5595
 226  526.3262
 227  506.4605
 228  503.3105
 229  482.7601
 230  437.191
 231  507.8026
 232  481.2693
 233  376.1927
 234  464.3699
 235  483.0602
 236  493.0212
 237  536.7602
 238  547.712
 239  422.8897
 240  495.6973
 241  492.3148
 242  422.7135
 243  594.0793
 244  642.921
 245  558.1399
 246  442.8186
 247  494.7964
 248  519.4189
 249  484.0157
 250  363.0974
 251  400.7141
 252  428.9522
 253  430.296
 254  398.2738
 255  461.9962
 256  426.6607
 257  352.5245
 258  416.894
 259  473.302
 260  602.5814
 261  513.3556
 262  471.5146
 263  281.5044
 264  286.9993
 265  455.9221
 266  465.2098
 267  471.814
 268  561.5921
 269  553.3726
 270  349.2834
 271  327.6071
 272  276.9305
 273  432.545
 274  447.5797
 275  402.6747
 276  372.2243
 277  374.8332
 278  435.5395
 279  387.5345
 280  284.5446
 281  407.4702
 282  377.5206
 283  444.6187
 284  282.3782
 285  155.7314
 286  239.348
 287  276.7372
 288  403.2076
 289  417.9568
 290  420.7642
 291  345.0318
 292  250.802
 293  281.9509
 294  324.7063
 295  297.0974
 296  260.0017
 297  257.8955
 298  409.7229
 299  555.5415
 300  443.6039
 301  562.5718
 302  527.5035
 303  438.1472
 304  491.3529
 305  477.4508
 306  355.3322
 307  331.5248
 308  401.7954
 309  440.5141
 310  455.3011
 311  425.7814
 312  385.6203
 313  386.2127
 314  347.9723
 315  265.1845
 316  351.5612
 317  441.1695
 318  428.3217
 319  408.632
 320  476.6023
 321  492.8264
 322  446.6825
 323  496.8644
 324  479.2061
 325  409.8578
 326  408.6321
 327  362.0955
 328  460.4048
 329  517.162
 330  430.0545
 331  344.8642
 332  407.3828
 333  392.7454
 334  409.8228
 335  450.9706
 336  479.5826
 337  458.0961
 338  367.9352
 339  260.2754
 340  386.8295
 341  453.3848
 342  463.5268
 343  423.897
 344  476.5931
 345  498.0739
 346  447.9562
 347  481.4399
 348  319.292
 349  316.5174
 350  484.0317
 351  373.6576
 352  322.9517
 353  379.2101
 354  316.2496
 355  466.7043
 356  465.6008
 357  495.8134
 358  432.9061
 359  387.7836
 360  525.4492
 361  527.2879
 362  469.3897
 363  357.5388
 364  377.6489
 365  370.4149
 366  396.2745
 367  444.2184
 368  414.9446
 369  473.2658
 370  294.9967
 371  360.6106
 372  321.7386
 373  245.1273
 374  276.9518
 375  347.2095
 376  325.7911
 377  327.0334
 378  379.6358
 379  487.0944
 380  382.0533
 381  376.6241
 382  362.7704
 383  510.3364
 384  519.2227
 385  552.7615
 386  403.8071
 387  374.0141
 388  396.9942
 389  423.5051
 390  292.3262
 391  434.0992
 392  462.049
 393  494.6227
 394  531.4536
 395  508.304
 396  467.215
 397  377.8368
 398  408.3618
 399  580.4415
 400  584.3878
 401  478.1809
 402  383.0205
 403  334.9137
 404  334.7855
 405  416.6853
 406  348.4798
 407  240.1405
 408  345.7454
 409  400.8614
 410  326.1875
 411  200.948
 412  288.6604
 413  431.7761
 414  393.9758
 415  406.5041
 416  278.7498
 417  376.029
 418  329.5811
 419  397.2446
 420  453.7511
 421  307.2448
 422  344.9778
 423  387.5316
 424  411.6458
 425  414.0436
 426  497.1873
 427  317.9729
 428  358.2913
 429  481.6593
 430  425.7945
 431  416.6309
 432  436.5951
 433  362.4448
 434  438.2596
 435  552.2824
 436  501.973
 437  350.2887
 438  398.422
 439  535.7545
 440  508.5855
 441  444.5511
 442  379.6188
 443  366.1434
 444  382.1542
 445  459.6787
 446  364.121
 447  438.2266
 448  509.4817
 449  425.9734
 450  371.0875
 451  324.7289
 452  325.3473
 453  283.5602
 454  430.0389
 455  482.9733
 456  512.3062
 457  392.3706
 458  387.9021
 459  316.0311
 460  306.9531
 461  327.8603
 462  318.5762
 463  332.6748
 464  275.1664
 465  362.3601
 466  565.5088
 467  503.3273
 468  327.0392
 469  386.6464
 470  448.2561
 471  511.304
 472  400.3977
 473  472.1807
 474  493.3484
 475  565.9696
 476  500.3102
 477  508.0882
 478  433.7049
 479  511.3379
 480  488.321
 481  352.0373
 482  482.0077
 483  511.4044
 484  502.1151
 485  417.1941
 486  356.1501
 487  316.0289
 488  352.9349
 489  391.9705
 490  465.7146
 491  447.5499
 492  457.2693
 493  417.5618
 494  507.4787
 495  377.4298
 496  361.2919
 497  349.4576
 498  442.5013
 499  495.1936
 500  262.107
 501  338.3812
 502  417.5227
 503  392.2603
 504  367.4153
 505  401.8228
 506  426.7062
 507  515.0355
 508  542.9934
 509  652.9327
 510  892.2623
 511  1071.503
