# Input file       =  1192572168.134948_cleaned.dat
# Candidate        =  PSR_0332+5434
# Telescope        =  AR
# Epoch_topo       =  58046.918404339674
# Epoch_bary       =  N/A
# T_sample         =  0.002
# Data Folded      =  7340032
# Data Avg         =  0.0144739777297526
# Data StdDev      =  1.00008942907569 
# Profile Bins     =  512
# Profile Avg      =  207.487871218898 
# Profile StdDev   =  119.743743991539 
# Reduced chi-sqr  =  1.863
# Prob(Noise)      <  5.73e-29   (~11.1 sigma)
# P_topo (ms)      =  714.486117144927  +/- 0.000269
# P'_topo (s/s)    =  -0                +/- 1.42e-10
# P''_topo (s/s^2) =  0                 +/- 6.26e-14
# P_bary (ms)      =  N/A
# P'_bary (s/s)    =  N/A
# P''_bary (s/s^2) =  N/A
# P_orb (s)        =  N/A
# asin(i)/c (s)    =  N/A
# eccentricity     =  N/A
# w (rad)          =  N/A
# T_peri           =  N/A
######################################################
   0  1141.037
   1  1030.032
   2  826.3823
   3  476.0336
   4  232.5438
   5  242.5111
   6  222.892
   7  124.7391
   8  154.8229
   9  342.0362
  10  200.9799
  11  205.4393
  12  204.3103
  13  260.9538
  14  200.5313
  15  370.3022
  16  426.3187
  17  181.9903
  18  182.6688
  19  206.9474
  20  301.5738
  21  233.4343
  22  342.7014
  23  367.8277
  24  250.4695
  25  262.8842
  26  289.5359
  27  302.9808
  28  364.9311
  29  243.6432
  30  240.4858
  31  266.295
  32  260.5452
  33  223.3426
  34  204.7168
  35  343.0244
  36  302.2523
  37  234.1806
  38  269.2258
  39  218.0089
  40  202.0186
  41  241.5688
  42  279.9871
  43  195.7492
  44  122.7449
  45  121.4069
  46  -28.92508
  47  1.312108
  48  95.29823
  49  201.7292
  50  214.3561
  51  115.4122
  52  231.668
  53  173.3387
  54  179.8962
  55  243.0773
  56  182.8811
  57  120.9147
  58  287.9539
  59  261.2268
  60  85.12206
  61  30.28484
  62  201.7745
  63  -1.697571
  64  102.0294
  65  249.2924
  66  235.6045
  67  297.4479
  68  344.8033
  69  250.863
  70  163.5237
  71  201.9843
  72  236.9981
  73  227.0582
  74  198.8646
  75  217.9786
  76  172.5107
  77  217.1212
  78  135.5999
  79  201.8665
  80  206.69
  81  214.6019
  82  194.9382
  83  314.1094
  84  211.8429
  85  120.5191
  86  138.9011
  87  75.80096
  88  70.04878
  89  181.8544
  90  163.2972
  91  129.9226
  92  12.02771
  93  143.2429
  94  230.3846
  95  219.9036
  96  250.6149
  97  238.5863
  98  203.7679
  99  273.3409
 100  139.9469
 101  85.07249
 102  118.8594
 103  197.0541
 104  279.1188
 105  344.1003
 106  253.2923
 107  179.1114
 108  98.13822
 109  104.7784
 110  168.4929
 111  192.024
 112  196.5652
 113  140.0935
 114  124.5846
 115  229.0546
 116  306.3582
 117  311.9402
 118  315.0439
 119  168.9824
 120  181.7524
 121  140.3345
 122  216.1181
 123  362.3886
 124  257.8616
 125  262.015
 126  230.7043
 127  269.4201
 128  140.1834
 129  48.57103
 130  148.2237
 131  187.7482
 132  212.547
 133  243.1379
 134  313.8773
 135  267.2676
 136  103.0107
 137  128.3669
 138  261.5203
 139  205.8465
 140  223.4521
 141  160.2364
 142  120.2474
 143  238.0638
 144  99.2022
 145  227.6714
 146  257.8586
 147  130.2859
 148  279.5213
 149  392.8782
 150  460.7964
 151  413.8309
 152  284.5205
 153  211.9711
 154  298.1698
 155  209.1705
 156  174.0144
 157  185.9087
 158  252.1489
 159  184.4488
 160  345.7193
 161  348.5772
 162  166.4463
 163  141.7513
 164  170.6258
 165  222.1957
 166  242.2002
 167  228.6678
 168  249.1604
 169  202.0938
 170  122.5806
 171  68.59431
 172  177.8879
 173  247.0018
 174  202.7254
 175  182.7693
 176  206.4209
 177  106.4523
 178  168.6577
 179  236.1711
 180  137.978
 181  109.8958
 182  223.448
 183  268.8918
 184  331.4883
 185  284.1136
 186  190.3311
 187  203.0344
 188  175.0339
 189  202.0342
 190  130.3108
 191  54.32491
 192  280.1641
 193  298.8654
 194  294.6718
 195  213.2197
 196  315.2176
 197  226.9919
 198  107.4131
 199  305.0146
 200  244.7097
 201  406.2678
 202  332.605
 203  361.4838
 204  472.8061
 205  250.7116
 206  167.1767
 207  180.8377
 208  207.6735
 209  255.5979
 210  116.6488
 211  193.2007
 212  181.966
 213  120.4342
 214  103.3266
 215  227.9916
 216  163.5938
 217  140.2047
 218  262.1015
 219  267.5064
 220  281.7437
 221  167.7041
 222  234.5085
 223  305.5658
 224  309.0359
 225  370.6195
 226  236.4174
 227  154.2002
 228  241.3611
 229  253.5859
 230  126.7616
 231  254.6377
 232  191.7211
 233  275.5156
 234  139.0438
 235  95.66585
 236  161.6358
 237  234.9755
 238  169.0652
 239  123.0585
 240  220.0244
 241  274.6334
 242  131.4366
 243  46.00714
 244  80.97808
 245  59.13822
 246  98.57075
 247  137.2068
 248  139.3916
 249  90.21392
 250  214.8331
 251  195.0114
 252  178.5999
 253  160.287
 254  187.5712
 255  159.0469
 256  195.4934
 257  231.8847
 258  173.8632
 259  312.8082
 260  230.7398
 261  260.1231
 262  122.4325
 263  97.13659
 264  67.95132
 265  205.1781
 266  308.087
 267  261.6231
 268  204.1245
 269  211.02
 270  260.7256
 271  120.5193
 272  177.7317
 273  200.4012
 274  110.7642
 275  107.2428
 276  138.6117
 277  219.4931
 278  393.2866
 279  195.5354
 280  175.2443
 281  222.4431
 282  205.0347
 283  127.242
 284  189.8807
 285  218.6317
 286  281.41
 287  189.7394
 288  233.5171
 289  269.1398
 290  204.4973
 291  327.4433
 292  290.0789
 293  258.7833
 294  179.8063
 295  191.9613
 296  151.5323
 297  91.28294
 298  66.2282
 299  79.94039
 300  79.57173
 301  90.90805
 302  50.27781
 303  130.9456
 304  173.1966
 305  119.0645
 306  188.9567
 307  384.6849
 308  123.0524
 309  84.76818
 310  144.1867
 311  322.6192
 312  280.3149
 313  329.3501
 314  243.8839
 315  140.4778
 316  410.6175
 317  292.1662
 318  226.0323
 319  116.6181
 320  170.3335
 321  240.807
 322  156.9535
 323  323.9501
 324  319.5918
 325  278.5258
 326  328.0908
 327  280.0507
 328  226.6076
 329  150.681
 330  67.41129
 331  -60.66595
 332  50.89707
 333  162.424
 334  126.1101
 335  86.25448
 336  146.9784
 337  -31.45528
 338  132.5863
 339  57.58774
 340  155.5692
 341  52.04008
 342  210.2599
 343  298.2705
 344  225.3157
 345  207.276
 346  255.5916
 347  324.894
 348  311.4471
 349  175.5236
 350  187.4373
 351  146.6188
 352  167.3061
 353  137.8013
 354  89.89008
 355  98.38855
 356  262.3844
 357  176.054
 358  190.2641
 359  192.8892
 360  37.64262
 361  81.20189
 362  108.4035
 363  160.2289
 364  101.6721
 365  93.46928
 366  99.19138
 367  207.2583
 368  208.8715
 369  196.3808
 370  151.2895
 371  161.4219
 372  260.6874
 373  270.6972
 374  255.0531
 375  110.0307
 376  113.4314
 377  211.0384
 378  153.8332
 379  219.1567
 380  249.0889
 381  88.36357
 382  77.30567
 383  111.786
 384  198.8692
 385  244.1255
 386  129.5346
 387  192.6796
 388  177.949
 389  187.1547
 390  142.6334
 391  59.63187
 392  220.6779
 393  284.6961
 394  201.5281
 395  49.46307
 396  6.655567
 397  76.60955
 398  206.3241
 399  245.199
 400  258.255
 401  71.18278
 402  194.056
 403  249.9002
 404  189.7568
 405  273.0556
 406  231.6982
 407  66.61205
 408  112.0879
 409  91.05949
 410  130.8058
 411  81.99341
 412  175.7991
 413  270.4271
 414  225.6872
 415  181.0981
 416  107.5473
 417  150.7913
 418  306.6941
 419  384.1669
 420  181.681
 421  46.8854
 422  216.8714
 423  268.8781
 424  185.1346
 425  134.4566
 426  212.356
 427  176.0761
 428  161.2499
 429  185.1592
 430  259.7462
 431  188.0193
 432  69.35094
 433  233.3339
 434  345.2668
 435  367.8756
 436  219.4731
 437  224.1418
 438  249.5146
 439  252.656
 440  196.1358
 441  86.30781
 442  146.641
 443  15.47642
 444  83.60427
 445  176.2254
 446  206.9816
 447  88.71837
 448  73.6027
 449  106.5718
 450  199.1674
 451  114.8097
 452  59.05805
 453  144.1639
 454  140.4513
 455  -37.12774
 456  188.998
 457  263.2736
 458  209.8518
 459  58.42994
 460  163.8231
 461  144.3692
 462  71.2096
 463  150.1147
 464  255.8074
 465  277.1938
 466  248.845
 467  204.8615
 468  28.75031
 469  44.65508
 470  128.6334
 471  110.9128
 472  200.7379
 473  172.6992
 474  156.4634
 475  113.9973
 476  79.48627
 477  79.11948
 478  117.5283
 479  276.1766
 480  314.1308
 481  229.7946
 482  145.1952
 483  195.1393
 484  225.2809
 485  251.3353
 486  210.3729
 487  323.8693
 488  259.5669
 489  139.4105
 490  157.0699
 491  240.833
 492  271.3026
 493  320.7877
 494  295.2327
 495  199.1514
 496  156.9455
 497  312.5659
 498  327.869
 499  215.6577
 500  226.3037
 501  249.0965
 502  187.0178
 503  280.1081
 504  309.6869
 505  382.26
 506  423.8951
 507  483.8014
 508  502.2571
 509  637.8314
 510  843.1024
 511  1070.674
