# Input file       =  1192070158.12806_cleaned.dat
# Candidate        =  PSR_0332+5434
# Telescope        =  AR
# Epoch_topo       =  58041.108103334031
# Epoch_bary       =  N/A
# T_sample         =  0.002
# Data Folded      =  7340032
# Data Avg         =  0.0150967541804679
# Data StdDev      =  1.00063567515078 
# Profile Bins     =  512
# Profile Avg      =  216.42702075855  
# Profile StdDev   =  119.809147692718 
# Reduced chi-sqr  =  1.428
# Prob(Noise)      <  6.28e-10   (~6.1 sigma)
# P_topo (ms)      =  714.481957005399  +/- 0.000203
# P'_topo (s/s)    =  -0                +/- 1.07e-10
# P''_topo (s/s^2) =  0                 +/- 4.74e-14
# P_bary (ms)      =  N/A
# P'_bary (s/s)    =  N/A
# P''_bary (s/s^2) =  N/A
# P_orb (s)        =  N/A
# asin(i)/c (s)    =  N/A
# eccentricity     =  N/A
# w (rad)          =  N/A
# T_peri           =  N/A
######################################################
   0  1020.998
   1  961.6028
   2  637.9037
   3  307.0367
   4  247.6724
   5  303.7022
   6  277.7399
   7  177.4047
   8  201.7746
   9  198.2936
  10  224.3528
  11  315.726
  12  291.3543
  13  300.9933
  14  337.7038
  15  311.8696
  16  334.1354
  17  239.3575
  18  224.9997
  19  301.7535
  20  248.9764
  21  253.167
  22  164.0568
  23  208.0586
  24  302.3482
  25  302.5552
  26  227.7001
  27  67.79409
  28  144.4509
  29  147.233
  30  157.9242
  31  217.9419
  32  173.7534
  33  215.3553
  34  282.7323
  35  442.8645
  36  398.4252
  37  332.6768
  38  249.0659
  39  322.0697
  40  252.1861
  41  143.8686
  42  158.1611
  43  81.67654
  44  106.5181
  45  134.1292
  46  165.5461
  47  157.9017
  48  69.1248
  49  84.64121
  50  268.3857
  51  181.2132
  52  113.2313
  53  94.45632
  54  4.507656
  55  138.8283
  56  245.1609
  57  230.5705
  58  288.2999
  59  251.6241
  60  164.2566
  61  98.16051
  62  124.8161
  63  267.488
  64  215.4461
  65  185.1523
  66  195.6075
  67  211.3904
  68  230.9665
  69  333.5601
  70  331.0542
  71  360.1415
  72  210.9724
  73  183.9689
  74  157.375
  75  121.1636
  76  154.6603
  77  103.9285
  78  125.5079
  79  189.855
  80  180.8785
  81  242.4841
  82  197.6636
  83  236.1618
  84  208.9427
  85  304.0494
  86  217.4886
  87  170.6192
  88  211.3734
  89  211.4022
  90  275.0042
  91  178.0541
  92  88.69354
  93  111.9354
  94  263.4046
  95  376.1129
  96  107.8499
  97  165.2544
  98  177.9134
  99  158.9188
 100  231.0142
 101  257.6996
 102  121.2222
 103  106.3166
 104  269.2448
 105  192.7234
 106  88.075
 107  150.1613
 108  113.9017
 109  158.986
 110  197.6124
 111  281.3563
 112  306.1447
 113  152.5558
 114  134.1337
 115  185.7742
 116  266.4121
 117  197.9427
 118  268.8063
 119  320.5398
 120  347.4222
 121  271.9955
 122  236.5415
 123  215.8863
 124  210.4874
 125  114.4166
 126  106.6101
 127  74.51323
 128  183.4008
 129  225.5949
 130  123.1334
 131  125.1458
 132  72.13667
 133  76.00346
 134  125.4466
 135  187.9962
 136  191.2336
 137  215.116
 138  107.1066
 139  145.9708
 140  273.438
 141  346.0466
 142  336.0479
 143  314.8244
 144  152.0826
 145  184.0684
 146  143.3416
 147  128.9535
 148  166.7898
 149  208.8797
 150  330.7362
 151  200.4677
 152  222.7204
 153  338.767
 154  268.703
 155  173.3605
 156  155.7058
 157  133.65
 158  128.2359
 159  276.1068
 160  362.6583
 161  343.3252
 162  254.241
 163  235.9225
 164  138.4921
 165  200.8484
 166  169.8051
 167  248.8461
 168  256.0094
 169  360.5088
 170  352.4107
 171  248.8643
 172  194.6163
 173  254.6011
 174  308.5538
 175  307.9679
 176  106.9788
 177  248.3846
 178  230.0836
 179  159.8157
 180  242.8133
 181  162.146
 182  235.1169
 183  260.9099
 184  307.2751
 185  224.0605
 186  183.3241
 187  267.1662
 188  256.9227
 189  226.8705
 190  160.5077
 191  76.12111
 192  193.1077
 193  167.3979
 194  116.3263
 195  126.5287
 196  106.7672
 197  245.2702
 198  298.6098
 199  348.7795
 200  65.05181
 201  172.6013
 202  149.7144
 203  229.6786
 204  261.1431
 205  167.2813
 206  322.2994
 207  290.0453
 208  270.1408
 209  182.5366
 210  144.2381
 211  253.0623
 212  313.6605
 213  240.2744
 214  260.8474
 215  257.4943
 216  305.4631
 217  177.9912
 218  211.4138
 219  365.7643
 220  295.326
 221  197.1938
 222  216.4604
 223  210.3298
 224  167.8826
 225  260.6313
 226  134.0502
 227  118.1612
 228  217.3425
 229  240.4427
 230  258.8028
 231  176.3453
 232  227.2438
 233  94.68752
 234  166.7299
 235  352.203
 236  237.5263
 237  144.3105
 238  134.1085
 239  133.7919
 240  155.0728
 241  141.5932
 242  145.6561
 243  295.0421
 244  310.3546
 245  202.4372
 246  188.8884
 247  228.9964
 248  206.3915
 249  230.668
 250  255.1517
 251  296.7119
 252  250.4281
 253  301.0628
 254  309.103
 255  136.0623
 256  134.1527
 257  41.79661
 258  55.13331
 259  199.6599
 260  162.1287
 261  308.838
 262  362.0032
 263  350.8134
 264  197.2538
 265  268.6834
 266  209.4075
 267  246.8642
 268  316.3607
 269  152.4165
 270  149.4439
 271  332.6301
 272  356.496
 273  303.1941
 274  186.4244
 275  252.6206
 276  349.7334
 277  308.2727
 278  262.4336
 279  119.4988
 280  163.8189
 281  188.8071
 282  205.1422
 283  296.9839
 284  260.2845
 285  294.8446
 286  248.4227
 287  295.4745
 288  228.4212
 289  131.688
 290  116.8164
 291  141.0663
 292  53.44321
 293  159.212
 294  192.6589
 295  232.0079
 296  145.8066
 297  139.2107
 298  152.5452
 299  201.3747
 300  181.0425
 301  209.0961
 302  128.5796
 303  287.3977
 304  256.2021
 305  154.6134
 306  245.0675
 307  189.8889
 308  109.3292
 309  183.51
 310  230.8417
 311  268.9902
 312  212.6725
 313  75.49329
 314  70.03922
 315  299.8578
 316  321.4565
 317  191.5822
 318  266.0254
 319  264.7245
 320  236.2524
 321  116.8055
 322  183.4628
 323  138.4635
 324  69.67927
 325  56.0353
 326  192.8615
 327  276.8703
 328  448.124
 329  277.6746
 330  177.3694
 331  226.3673
 332  243.5081
 333  275.8719
 334  210.2401
 335  145.3263
 336  225.5548
 337  227.1884
 338  240.098
 339  344.9787
 340  301.3574
 341  232.7349
 342  322.4335
 343  282.719
 344  236.2242
 345  327.5914
 346  281.7119
 347  285.6417
 348  282.7491
 349  259.3754
 350  218.9346
 351  132.214
 352  194.7694
 353  309.8286
 354  211.1384
 355  151.7883
 356  121.4461
 357  205.6807
 358  236.7115
 359  301.0636
 360  252.9989
 361  300.3964
 362  239.8303
 363  232.9801
 364  189.5854
 365  220.4637
 366  166.4335
 367  98.89759
 368  264.5865
 369  320.5101
 370  109.8247
 371  150.4765
 372  244.8263
 373  262.2829
 374  286.3417
 375  278.6017
 376  206.2847
 377  238.0647
 378  218.982
 379  126.3255
 380  27.91332
 381  21.35316
 382  -5.302221
 383  128.9821
 384  22.29145
 385  84.90966
 386  215.594
 387  354.0162
 388  238.1295
 389  237.764
 390  183.4019
 391  192.5953
 392  189.8584
 393  233.2357
 394  321.8326
 395  245.2141
 396  257.8836
 397  298.8959
 398  158.9946
 399  62.16243
 400  114.3398
 401  276.2646
 402  216.4122
 403  300.4365
 404  271.0933
 405  222.9494
 406  205.3997
 407  127.2437
 408  183.3091
 409  136.3346
 410  207.3957
 411  250.119
 412  180.2021
 413  163.0435
 414  106.7234
 415  171.3139
 416  -12.38244
 417  140.5393
 418  320.6063
 419  192.6667
 420  218.1595
 421  200.4662
 422  181.5906
 423  98.6974
 424  148.8194
 425  173.3184
 426  136.116
 427  246.5685
 428  199.2751
 429  185.3666
 430  134.1165
 431  179.26
 432  134.5199
 433  176.8952
 434  81.2041
 435  143.1621
 436  208.9382
 437  257.68
 438  178.9619
 439  180.8898
 440  165.2192
 441  37.26146
 442  68.91862
 443  160.9973
 444  157.0171
 445  112.0298
 446  205.8948
 447  225.4166
 448  163.4359
 449  96.35077
 450  104.9845
 451  177.6966
 452  183.6181
 453  202.9782
 454  188.7477
 455  247.6261
 456  270.1692
 457  231.8731
 458  201.2994
 459  180.3099
 460  160.7239
 461  280.2117
 462  295.8424
 463  225.9094
 464  155.8122
 465  218.8809
 466  406.8243
 467  298.0233
 468  326.8708
 469  248.7412
 470  257.178
 471  80.70788
 472  199.8656
 473  316.4504
 474  266.8791
 475  334.0461
 476  247.7695
 477  154.2179
 478  146.7645
 479  121.6477
 480  185.7083
 481  129.3832
 482  124.7939
 483  68.84373
 484  103.1889
 485  87.09884
 486  -14.6871
 487  100.6532
 488  313.2725
 489  144.2172
 490  257.6839
 491  167.5212
 492  141.17
 493  208.6717
 494  277.0561
 495  235.0866
 496  280.1169
 497  176.0419
 498  224.2533
 499  285.0586
 500  248.3568
 501  154.8764
 502  193.8413
 503  127.7763
 504  205.2816
 505  314.3164
 506  319.6946
 507  356.2678
 508  480.8906
 509  510.8814
 510  796.3299
 511  934.0128
