# Input file       =  1192744465.139344_cleaned.dat
# Candidate        =  PSR_0332+5434
# Telescope        =  AR
# Epoch_topo       =  58048.912582631296
# Epoch_bary       =  N/A
# T_sample         =  0.002
# Data Folded      =  7340032
# Data Avg         =  0.0131456833064944
# Data StdDev      =  1.00000513937853 
# Profile Bins     =  512
# Profile Avg      =  188.456717770204 
# Profile StdDev   =  119.733651730162 
# Reduced chi-sqr  =  1.751
# Prob(Noise)      <  2.14e-23   (~9.9 sigma)
# P_topo (ms)      =  714.487754531305  +/- 0.000164
# P'_topo (s/s)    =  -0                +/- 8.65e-11
# P''_topo (s/s^2) =  0                 +/- 3.82e-14
# P_bary (ms)      =  N/A
# P'_bary (s/s)    =  N/A
# P''_bary (s/s^2) =  N/A
# P_orb (s)        =  N/A
# asin(i)/c (s)    =  N/A
# eccentricity     =  N/A
# w (rad)          =  N/A
# T_peri           =  N/A
######################################################
   0  838.4896
   1  927.1009
   2  867.2424
   3  646.3862
   4  315.2916
   5  267.7961
   6  176.5172
   7  41.69544
   8  221.1402
   9  256.4539
  10  236.1952
  11  236.4599
  12  209.2975
  13  147.7482
  14  238.1226
  15  418.3272
  16  340.49
  17  229.527
  18  245.4999
  19  264.5079
  20  102.2927
  21  179.2409
  22  186.8502
  23  204.2508
  24  202.819
  25  150.8925
  26  141.5097
  27  254.493
  28  121.3425
  29  163.0102
  30  255.0201
  31  254.0474
  32  186.2788
  33  223.7451
  34  240.9812
  35  137.4608
  36  181.8527
  37  194.7902
  38  173.3128
  39  159.8176
  40  86.55919
  41  78.41137
  42  179.1482
  43  181.9842
  44  200.1852
  45  226.7129
  46  318.1908
  47  248.8425
  48  168.4853
  49  83.91795
  50  33.58187
  51  158.7068
  52  286.8206
  53  183.7813
  54  189.7631
  55  97.97424
  56  -13.15734
  57  64.73563
  58  131.9753
  59  194.1189
  60  163.5197
  61  152.5093
  62  189.3742
  63  133.9191
  64  213.5993
  65  259.7888
  66  220.3712
  67  22.25606
  68  -19.30967
  69  67.04028
  70  110.2755
  71  142.0623
  72  184.2409
  73  216.6371
  74  158.0411
  75  140.8846
  76  271.4631
  77  215.2907
  78  1.222373
  79  115.113
  80  139.531
  81  103.0444
  82  -48.06628
  83  72.04572
  84  165.706
  85  69.27151
  86  74.32321
  87  178.8875
  88  93.73882
  89  116.9251
  90  130.6575
  91  103.5313
  92  179.0207
  93  158.1208
  94  152.7211
  95  180.4849
  96  183.9921
  97  159.9874
  98  146.1422
  99  202.9199
 100  231.2137
 101  72.93227
 102  -2.78015
 103  67.80021
 104  307.4595
 105  186.8472
 106  160.4303
 107  174.8151
 108  183.6229
 109  77.27102
 110  136.1774
 111  147.0707
 112  147.4332
 113  133.0601
 114  324.3967
 115  193.3169
 116  164.4816
 117  221.7402
 118  162.3583
 119  79.98988
 120  149.3673
 121  -25.97996
 122  25.51456
 123  137.6672
 124  114.4377
 125  129.5789
 126  201.7539
 127  167.8173
 128  74.89284
 129  -45.6086
 130  36.46002
 131  -86.7702
 132  22.88829
 133  50.77913
 134  170.7198
 135  243.015
 136  75.52431
 137  27.2527
 138  39.8462
 139  43.54317
 140  46.8793
 141  6.221552
 142  110.4327
 143  186.4529
 144  139.1902
 145  167.5546
 146  168.5015
 147  112.1773
 148  181.7021
 149  205.5427
 150  131.2598
 151  131.653
 152  145.0558
 153  86.8271
 154  128.2882
 155  65.96012
 156  151.1151
 157  101.0313
 158  26.66323
 159  72.16518
 160  158.8964
 161  228.4306
 162  137.3566
 163  187.6917
 164  116.9136
 165  -6.840744
 166  86.28365
 167  192.7695
 168  232.0065
 169  120.9697
 170  74.68221
 171  20.55443
 172  -35.45789
 173  201.016
 174  266.7961
 175  132.8457
 176  109.3993
 177  48.43075
 178  8.762999
 179  183.2832
 180  268.6879
 181  240.6659
 182  245.8698
 183  125.0039
 184  165.6314
 185  121.0626
 186  -16.4287
 187  122.4254
 188  155.2321
 189  143.0535
 190  156.7107
 191  55.05009
 192  49.86151
 193  87.65137
 194  271.8788
 195  164.9545
 196  115.4516
 197  103.494
 198  151.8485
 199  155.4492
 200  57.05888
 201  143.6261
 202  170.9315
 203  169.7956
 204  195.9864
 205  147.7427
 206  191.1187
 207  232.5803
 208  169.134
 209  159.9627
 210  178.092
 211  145.7819
 212  143.571
 213  181.9194
 214  141.237
 215  146.5231
 216  131.01
 217  165.8742
 218  334.7603
 219  270.0323
 220  261.0353
 221  227.7
 222  38.11754
 223  131.8954
 224  106.8048
 225  132.0038
 226  153.1578
 227  224.0079
 228  194.3053
 229  124.1364
 230  107.8721
 231  54.79053
 232  239.2389
 233  271.7111
 234  279.158
 235  267.5587
 236  290.7798
 237  263.6168
 238  252.3405
 239  215.6906
 240  77.35994
 241  171.8498
 242  172.9478
 243  136.5663
 244  152.0989
 245  283.0609
 246  159.5546
 247  61.36996
 248  133.1495
 249  211.9778
 250  377.1376
 251  416.5499
 252  342.0011
 253  344.7909
 254  267.1128
 255  301.6215
 256  351.3867
 257  317.9415
 258  302.2152
 259  234.5041
 260  191.4959
 261  138.8799
 262  61.61023
 263  100.1851
 264  149.7391
 265  189.1279
 266  334.692
 267  289.279
 268  286.7496
 269  216.0291
 270  174.1939
 271  233.1874
 272  78.52609
 273  186.8084
 274  156.909
 275  137.5974
 276  225.5286
 277  300.3302
 278  259.735
 279  207.0672
 280  180.0247
 281  75.23771
 282  145.8232
 283  217.2439
 284  171.1585
 285  362.8374
 286  278.5542
 287  225.1625
 288  290.0722
 289  276.3528
 290  272.6769
 291  174.569
 292  275.3113
 293  362.5057
 294  227.2048
 295  177.0194
 296  196.2989
 297  136.9394
 298  245.0915
 299  336.3139
 300  359.7417
 301  251.6296
 302  190.4968
 303  220.8032
 304  304.7307
 305  386.1031
 306  274.3477
 307  216.3511
 308  367.7082
 309  333.4448
 310  244.2423
 311  12.96103
 312  95.48238
 313  167.5134
 314  182.8699
 315  249.218
 316  289.2892
 317  211.1926
 318  230.2373
 319  156.2987
 320  91.04563
 321  103.973
 322  272.9207
 323  282.6998
 324  280.9891
 325  217.7172
 326  245.4701
 327  280.7383
 328  167.3938
 329  117.7765
 330  99.16333
 331  159.1666
 332  349.5315
 333  382.5685
 334  188.7691
 335  130.3502
 336  188.1256
 337  233.9686
 338  255.8988
 339  308.6851
 340  310.3877
 341  302.0371
 342  211.071
 343  295.0085
 344  229.2189
 345  213.7834
 346  214.762
 347  189.2412
 348  314.3194
 349  237.9576
 350  256.6996
 351  289.4089
 352  151.8653
 353  103.1792
 354  49.0235
 355  90.81829
 356  73.26187
 357  204.3278
 358  372.7158
 359  225.7461
 360  141.8836
 361  226.6745
 362  251.1604
 363  162.8224
 364  168.7699
 365  157.5671
 366  216.1866
 367  112.4395
 368  56.61295
 369  125.5107
 370  191.4429
 371  264.7584
 372  224.7105
 373  96.50356
 374  49.40007
 375  122.9924
 376  177.6752
 377  283.99
 378  336.7943
 379  319.483
 380  271.3685
 381  293.3146
 382  220.744
 383  -1.365514
 384  165.2683
 385  187.9107
 386  215.5176
 387  163.4826
 388  221.3395
 389  96.18248
 390  81.45747
 391  238.9495
 392  227.0553
 393  129.6546
 394  204.3589
 395  321.8626
 396  200.8909
 397  37.36771
 398  3.849799
 399  256.2003
 400  187.0458
 401  253.9546
 402  280.4975
 403  378.977
 404  351.6399
 405  183.8965
 406  319.9729
 407  302.7785
 408  184.8537
 409  208.1846
 410  186.9477
 411  206.3897
 412  164.0296
 413  106.304
 414  73.03918
 415  209.7294
 416  237.1623
 417  235.1443
 418  174.7618
 419  250.5232
 420  300.7708
 421  292.3245
 422  187.1135
 423  175.7124
 424  156.7413
 425  231.8276
 426  244.3433
 427  231.5137
 428  75.37629
 429  97.03987
 430  216.1745
 431  161.1803
 432  224.9792
 433  140.5603
 434  138.274
 435  95.38228
 436  105.6055
 437  205.9063
 438  107.1572
 439  219.6364
 440  351.4225
 441  156.2746
 442  71.76527
 443  163.7569
 444  188.7534
 445  96.98433
 446  134.0796
 447  334.6527
 448  315.3564
 449  304.0083
 450  234.0559
 451  85.30173
 452  119.324
 453  298.7399
 454  264.8367
 455  180.6826
 456  231.0328
 457  213.8757
 458  116.0905
 459  97.7184
 460  152.278
 461  45.3471
 462  136.9072
 463  160.1566
 464  45.38123
 465  168.0076
 466  227.3585
 467  139.5769
 468  78.87672
 469  98.9082
 470  108.7691
 471  106.3822
 472  80.32273
 473  117.5083
 474  66.16232
 475  253.3263
 476  232.0042
 477  152.9252
 478  263.5225
 479  179.6445
 480  200.3353
 481  362.2635
 482  400.2138
 483  275.0331
 484  217.5525
 485  258.6243
 486  59.10449
 487  70.07879
 488  -7.837066
 489  70.13069
 490  75.96954
 491  104.293
 492  217.1837
 493  231.2506
 494  273.7189
 495  254.3138
 496  231.3317
 497  205.7208
 498  66.48621
 499  36.62054
 500  30.09085
 501  95.90011
 502  348.9543
 503  335.3856
 504  248.5276
 505  295.4904
 506  429.6803
 507  414.503
 508  377.7179
 509  506.3425
 510  777.8475
 511  924.6503
