# Input file       =  1192471422.139069_cleaned.dat
# Candidate        =  PSR_0332+5434
# Telescope        =  AR
# Epoch_topo       =  58045.752362720705
# Epoch_bary       =  N/A
# T_sample         =  0.002
# Data Folded      =  7143424
# Data Avg         =  0.0175098999680722
# Data StdDev      =  1.00000027420358 
# Profile Bins     =  512
# Profile Avg      =  244.297251406192 
# Profile StdDev   =  118.118616870406 
# Reduced chi-sqr  =  1.909
# Prob(Noise)      <  1.95e-31   (~11.6 sigma)
# P_topo (ms)      =  714.485169288314  +/- 0.000181
# P'_topo (s/s)    =  -0                +/- 9.81e-11
# P''_topo (s/s^2) =  0                 +/- 4.45e-14
# P_bary (ms)      =  N/A
# P'_bary (s/s)    =  N/A
# P''_bary (s/s^2) =  N/A
# P_orb (s)        =  N/A
# asin(i)/c (s)    =  N/A
# eccentricity     =  N/A
# w (rad)          =  N/A
# T_peri           =  N/A
######################################################
   0  1135.172
   1  1170.26
   2  848.6489
   3  591.7672
   4  417.0628
   5  330.6724
   6  331.8086
   7  155.8144
   8  168.9501
   9  197.613
  10  202.5401
  11  182.8415
  12  194.9786
  13  301.8142
  14  409.9562
  15  430.3553
  16  385.1202
  17  321.1944
  18  178.1959
  19  158.8003
  20  181.8506
  21  237.201
  22  151.0018
  23  70.92822
  24  127.5518
  25  148.8696
  26  236.2083
  27  232.8064
  28  220.4588
  29  221.3935
  30  87.86753
  31  291.0372
  32  275.5139
  33  105.1785
  34  108.6618
  35  180.4708
  36  199.8221
  37  211.7443
  38  250.7007
  39  222.4222
  40  243.9266
  41  226.9283
  42  199.1265
  43  169.3528
  44  174.3234
  45  197.4811
  46  209.6831
  47  217.7379
  48  348.0632
  49  236.5284
  50  289.6759
  51  347.3751
  52  176.6029
  53  235.8349
  54  388.214
  55  151.4886
  56  133.634
  57  245.0713
  58  339.2875
  59  244.441
  60  206.7525
  61  181.3113
  62  207.316
  63  298.4029
  64  153.4002
  65  116.5034
  66  211.3264
  67  209.0511
  68  180.7579
  69  73.09269
  70  35.67211
  71  172.3765
  72  275.5915
  73  144.3526
  74  216.2008
  75  163.4135
  76  158.012
  77  197.5986
  78  231.2961
  79  186.6433
  80  162.5777
  81  129.7078
  82  258.9651
  83  170.0511
  84  241.1866
  85  295.4171
  86  209.3757
  87  306.0082
  88  437.0255
  89  255.1953
  90  249.262
  91  213.0822
  92  191.4878
  93  110.756
  94  180.7751
  95  267.8799
  96  196.1134
  97  152.6632
  98  172.4723
  99  266.3432
 100  193.3942
 101  177.5757
 102  248.3331
 103  156.5794
 104  125.4637
 105  139.151
 106  200.1048
 107  190.8175
 108  234.8247
 109  173.3581
 110  239.1133
 111  239.7138
 112  261.1601
 113  326.1282
 114  257.4517
 115  285.8911
 116  228.1406
 117  112.4407
 118  108.0727
 119  128.5977
 120  157.6648
 121  177.9636
 122  272.8986
 123  185.4684
 124  159.8211
 125  112.5244
 126  65.29097
 127  103.6746
 128  162.6454
 129  289.0973
 130  271.7849
 131  224.8003
 132  219.3235
 133  151.0377
 134  259.5431
 135  300.8264
 136  286.9312
 137  222.6646
 138  159.8771
 139  335.3118
 140  410.5969
 141  350.4831
 142  250.485
 143  263.2354
 144  193.4363
 145  330.6248
 146  406.2399
 147  147.9774
 148  194.0555
 149  258.5995
 150  271.4782
 151  270.1865
 152  229.1969
 153  272.8845
 154  291.0971
 155  264.5838
 156  233.1168
 157  235.6485
 158  310.1375
 159  340.2679
 160  299.5628
 161  307.6012
 162  272.4909
 163  308.6513
 164  276.3038
 165  124.7962
 166  180.2887
 167  253.1941
 168  235.2797
 169  180.2456
 170  200.0396
 171  182.3133
 172  271.1404
 173  258.9458
 174  226.6709
 175  143.7257
 176  162.3349
 177  222.157
 178  207.6294
 179  221.8926
 180  279.6351
 181  281.6503
 182  262.1031
 183  169.8596
 184  121.1112
 185  185.1935
 186  200.1423
 187  266.7429
 188  124.444
 189  171.0469
 190  168.4158
 191  165.5066
 192  442.9494
 193  433.5909
 194  278.8448
 195  99.21883
 196  130.3845
 197  198.6147
 198  253.239
 199  298.933
 200  356.3708
 201  288.9649
 202  403.3346
 203  361.8822
 204  236.2399
 205  307.4855
 206  424.674
 207  463.7869
 208  407.434
 209  296.8302
 210  133.1047
 211  172.1423
 212  296.8678
 213  361.2909
 214  324.1575
 215  387.883
 216  377.5038
 217  289.5706
 218  243.907
 219  314.6328
 220  307.0481
 221  257.7573
 222  244.8876
 223  307.8318
 224  256.0055
 225  341.9217
 226  403.3297
 227  321.8379
 228  296.9587
 229  171.9493
 230  295.0907
 231  229.47
 232  184.0643
 233  299.4542
 234  337.2198
 235  397.264
 236  287.2124
 237  259.3991
 238  294.8873
 239  345.8031
 240  496.1584
 241  409.9329
 242  231.8119
 243  121.1888
 244  141.4219
 245  230.8127
 246  258.9215
 247  251.4701
 248  308.9932
 249  227.1398
 250  126.6345
 251  175.7956
 252  229.3105
 253  272.8136
 254  298.6977
 255  128.9814
 256  26.29396
 257  227.3544
 258  127.2904
 259  171.1647
 260  108.7278
 261  169.7488
 262  230.7673
 263  341.6284
 264  269.8683
 265  100.5745
 266  129.1042
 267  244.7778
 268  196.0617
 269  201.9465
 270  291.6463
 271  339.2353
 272  336.029
 273  321.6303
 274  332.4077
 275  203.9563
 276  66.17639
 277  246.4813
 278  210.4696
 279  212.9944
 280  318.1189
 281  293.2565
 282  328.3511
 283  247.1776
 284  282.887
 285  300.8977
 286  154.3071
 287  97.33076
 288  114.4129
 289  325.6532
 290  306.1916
 291  239.9787
 292  486.8662
 293  483.7839
 294  356.2193
 295  380.546
 296  369.1816
 297  248.6707
 298  197.6624
 299  214.2375
 300  301.392
 301  243.9168
 302  182.9933
 303  201.08
 304  250.3418
 305  214.7109
 306  236.6853
 307  291.5761
 308  246.4709
 309  219.8156
 310  250.8071
 311  319.1772
 312  215.467
 313  195.1419
 314  121.588
 315  204.3366
 316  186.7887
 317  83.60295
 318  308.4843
 319  297.8632
 320  319.9763
 321  377.08
 322  355.9092
 323  349.8219
 324  281.516
 325  249.8882
 326  242.9484
 327  240.1783
 328  266.0057
 329  273.6357
 330  242.6389
 331  361.174
 332  338.2435
 333  198.6889
 334  157.9789
 335  167.5892
 336  229.0545
 337  231.6136
 338  412.4101
 339  410.1108
 340  446.2239
 341  399.1807
 342  254.4029
 343  305.0804
 344  192.1356
 345  181.7122
 346  321.3307
 347  222.2056
 348  266.2343
 349  217.275
 350  237.4099
 351  204.1186
 352  226.2643
 353  289.2097
 354  321.9885
 355  297.4605
 356  320.3129
 357  271.9072
 358  154.0531
 359  97.9777
 360  161.0805
 361  222.5491
 362  248.9747
 363  425.3893
 364  357.2433
 365  285.8026
 366  292.5906
 367  214.4672
 368  280.3589
 369  199.7204
 370  174.5554
 371  341.772
 372  154.0149
 373  236.5699
 374  295.176
 375  258.3796
 376  113.4942
 377  245.2641
 378  392.2279
 379  225.8711
 380  115.356
 381  139.2558
 382  108.7143
 383  172.639
 384  197.9758
 385  199.7621
 386  270.0298
 387  271.5688
 388  103.4566
 389  100.1515
 390  163.195
 391  261.2746
 392  259.9428
 393  220.2213
 394  264.6462
 395  213.3974
 396  -23.51855
 397  77.4534
 398  167.3108
 399  239.6618
 400  161.7646
 401  129.0597
 402  248.9612
 403  152.9736
 404  167.9569
 405  133.5336
 406  102.0296
 407  19.85709
 408  177.6452
 409  213.7503
 410  230.6266
 411  184.0442
 412  257.9443
 413  284.26
 414  225.348
 415  315.7687
 416  277.3886
 417  319.7664
 418  283.1737
 419  278.4218
 420  286.9786
 421  165.9015
 422  292.5771
 423  296.3484
 424  192.3556
 425  108.4754
 426  191.8361
 427  185.8232
 428  177.3575
 429  130.8562
 430  90.68877
 431  1.133381
 432  175.7143
 433  100.8027
 434  128.3046
 435  178.6912
 436  164.5889
 437  101.7664
 438  88.87337
 439  181.1606
 440  301.4919
 441  220.215
 442  154.6098
 443  279.7946
 444  101.6566
 445  150.0311
 446  253.35
 447  283.8864
 448  303.1051
 449  212.9777
 450  347.9604
 451  234.779
 452  79.22161
 453  72.89966
 454  64.40469
 455  103.8614
 456  220.1915
 457  188.5901
 458  147.5873
 459  168.4075
 460  165.9694
 461  168.8061
 462  119.8708
 463  150.6188
 464  231.856
 465  243.0174
 466  353.5271
 467  353.0109
 468  163.5869
 469  157.7615
 470  226.9433
 471  347.0218
 472  232.6895
 473  104.158
 474  125.0148
 475  206.0715
 476  189.8858
 477  136.8691
 478  243.6151
 479  204.6887
 480  133.9134
 481  148.6259
 482  394.0715
 483  366.8441
 484  151.6534
 485  165.7017
 486  251.002
 487  327.4485
 488  319.5906
 489  312.4498
 490  191.3584
 491  176.6152
 492  277.7614
 493  302.2583
 494  324.3383
 495  286.1219
 496  223.3339
 497  267.8997
 498  205.2749
 499  232.9655
 500  238.601
 501  313.5896
 502  350.7425
 503  337.3534
 504  336.0692
 505  365.7446
 506  513.253
 507  537.5145
 508  524.209
 509  535.2811
 510  834.4349
 511  1040.741
