# Input file       =  1192486011.12838_cleaned.dat
# Candidate        =  PSR_0332+5434
# Telescope        =  AR
# Epoch_topo       =  58045.921216763658
# Epoch_bary       =  N/A
# T_sample         =  0.002
# Data Folded      =  7340032
# Data Avg         =  0.0147912265712355
# Data StdDev      =  1.00006388427599 
# Profile Bins     =  512
# Profile Avg      =  212.095165262499 
# Profile StdDev   =  119.740685435107 
# Reduced chi-sqr  =  2.030
# Prob(Noise)      <  4.46e-38   (~12.8 sigma)
# P_topo (ms)      =  714.485315539127  +/- 0.000236
# P'_topo (s/s)    =  -0                +/- 1.25e-10
# P''_topo (s/s^2) =  0                 +/- 5.51e-14
# P_bary (ms)      =  N/A
# P'_bary (s/s)    =  N/A
# P''_bary (s/s^2) =  N/A
# P_orb (s)        =  N/A
# asin(i)/c (s)    =  N/A
# eccentricity     =  N/A
# w (rad)          =  N/A
# T_peri           =  N/A
######################################################
   0  1290.976
   1  1224.557
   2  1063.094
   3  684.9653
   4  211.8982
   5  69.93671
   6  152.3375
   7  254.7123
   8  200.4595
   9  108.3784
  10  53.90976
  11  197.3598
  12  195.2423
  13  287.2098
  14  248.8361
  15  148.62
  16  100.6842
  17  241.2693
  18  373.5659
  19  342.4885
  20  210.8672
  21  265.9224
  22  199.5067
  23  272.9529
  24  267.5699
  25  298.2141
  26  145.5112
  27  155.5605
  28  169.6365
  29  120.3993
  30  72.56066
  31  1.61104
  32  112.6334
  33  223.8487
  34  272.703
  35  176.3646
  36  171.9643
  37  284.3336
  38  184.3539
  39  116.8993
  40  177.1966
  41  149.8293
  42  199.0673
  43  315.3677
  44  225.6245
  45  237.4525
  46  337.7402
  47  275.2981
  48  180.6672
  49  215.2908
  50  248.0856
  51  252.1145
  52  201.1064
  53  126.1848
  54  183.2667
  55  242.2917
  56  124.1974
  57  67.96566
  58  140.1796
  59  217.0633
  60  169.4037
  61  99.89061
  62  198.891
  63  201.9442
  64  98.61842
  65  114.9879
  66  141.1853
  67  112.1137
  68  220.9887
  69  213.1597
  70  157.0616
  71  92.85934
  72  -14.8662
  73  60.76945
  74  104.9131
  75  148.9701
  76  70.69611
  77  92.79457
  78  195.2386
  79  261.3216
  80  148.7821
  81  50.86777
  82  136.0197
  83  320.7599
  84  258.4734
  85  205.6612
  86  211.402
  87  137.9128
  88  181.7372
  89  224.8796
  90  127.0618
  91  238.5341
  92  287.4588
  93  351.6921
  94  198.6153
  95  214.7066
  96  294.5749
  97  221.1125
  98  271.8544
  99  263.9344
 100  215.4885
 101  161.4643
 102  125.947
 103  180.0917
 104  201.375
 105  107.51
 106  178.4533
 107  276.8152
 108  415.3473
 109  397.3877
 110  358.1844
 111  373.3135
 112  436.8421
 113  442.7978
 114  309.759
 115  214.5435
 116  193.7531
 117  260.331
 118  254.2789
 119  337.0453
 120  350.1432
 121  306.1932
 122  201.4253
 123  210.5046
 124  189.6168
 125  253.5331
 126  177.3868
 127  236.712
 128  201.8077
 129  203.9435
 130  156.0746
 131  162.6944
 132  137.0937
 133  213.4152
 134  328.7263
 135  230.5583
 136  237.1069
 137  292.3227
 138  233.3282
 139  200.6358
 140  203.825
 141  194.4366
 142  243.1725
 143  314.8385
 144  252.2948
 145  244.7814
 146  236.4105
 147  179.7083
 148  202.1758
 149  280.8264
 150  174.2907
 151  107.678
 152  341.2009
 153  338.5829
 154  323.9507
 155  192.62
 156  281.273
 157  258.7229
 158  209.574
 159  362.4181
 160  193.0173
 161  90.25977
 162  193.4384
 163  262.1955
 164  281.8942
 165  167.0785
 166  58.40131
 167  163.3196
 168  112.6787
 169  117.1974
 170  173.6351
 171  163.0207
 172  144.0799
 173  262.8173
 174  140.9012
 175  180.8051
 176  166.5452
 177  252.8038
 178  230.8589
 179  265.351
 180  311.4687
 181  198.1162
 182  124.4052
 183  196.239
 184  270.6714
 185  271.5644
 186  322.7309
 187  147.1012
 188  -8.68279
 189  98.26521
 190  194.2081
 191  152.1915
 192  123.3643
 193  226.0222
 194  313.5282
 195  233.7807
 196  285.1187
 197  305.6041
 198  174.6519
 199  237.6012
 200  277.1937
 201  219.9073
 202  224.4506
 203  257.8949
 204  224.2693
 205  168.1385
 206  210.629
 207  414.2378
 208  403.2003
 209  178.9285
 210  232.794
 211  305.4484
 212  201.7413
 213  55.60384
 214  99.31166
 215  185.0125
 216  230.6701
 217  167.1114
 218  108.3713
 219  390.9796
 220  269.557
 221  173.5748
 222  188.655
 223  133.4541
 224  164.7297
 225  204.7265
 226  168.1334
 227  220.4596
 228  44.89837
 229  198.7421
 230  281.2437
 231  273.4941
 232  251.7277
 233  176.6473
 234  156.2949
 235  314.5309
 236  279.7645
 237  249.9001
 238  347.4491
 239  260.9187
 240  154.34
 241  166.0434
 242  321.823
 243  197.9784
 244  190.9455
 245  195.1298
 246  169.1967
 247  234.0467
 248  112.8363
 249  143.2739
 250  168.6436
 251  168.5829
 252  155.0836
 253  153.1728
 254  83.30894
 255  106.8292
 256  299.7768
 257  352.4634
 258  250.3982
 259  63.64183
 260  103.8071
 261  263.8694
 262  245.6836
 263  146.0225
 264  255.7406
 265  272.641
 266  260.6053
 267  357.7903
 268  396.3868
 269  340.6522
 270  108.6868
 271  233.2641
 272  221.0748
 273  181.8869
 274  105.1892
 275  216.5654
 276  312.5543
 277  250.4981
 278  186.4878
 279  207.3825
 280  180.9032
 281  209.2334
 282  260.6283
 283  350.4895
 284  321.6607
 285  259.2539
 286  221.9859
 287  107.8599
 288  157.1806
 289  319.9787
 290  276.2007
 291  310.2364
 292  128.7902
 293  113.0069
 294  167.8505
 295  210.9605
 296  155.0318
 297  175.6414
 298  262.5111
 299  232.8879
 300  292.7844
 301  163.7988
 302  171.1218
 303  207.543
 304  141.8187
 305  58.50489
 306  116.5478
 307  180.0082
 308  161.8794
 309  179.2529
 310  191.2536
 311  145.1956
 312  196.6838
 313  233.7145
 314  269.3269
 315  131.9139
 316  210.9729
 317  270.6445
 318  207.1136
 319  310.1696
 320  205.8687
 321  243.9919
 322  186.5286
 323  213.4319
 324  162.3372
 325  139.711
 326  153.9048
 327  305.961
 328  322.3294
 329  152.4584
 330  183.6567
 331  228.776
 332  259.0445
 333  299.0349
 334  273.38
 335  184.6708
 336  -10.60944
 337  164.5802
 338  201.0892
 339  115.9959
 340  129.7072
 341  248.9416
 342  196.6524
 343  161.3325
 344  87.17337
 345  141.3804
 346  232.6018
 347  208.5952
 348  81.63216
 349  122.1249
 350  143.5611
 351  116.8472
 352  162.3053
 353  165.7251
 354  164.7394
 355  212.0785
 356  220.4163
 357  212.3021
 358  316.8892
 359  178.2859
 360  182.7536
 361  273.4081
 362  264.223
 363  304.4518
 364  271.3405
 365  167.1559
 366  221.8324
 367  231.4723
 368  227.8942
 369  247.5199
 370  357.2245
 371  217.6974
 372  112.4818
 373  81.27804
 374  203.6118
 375  171.8838
 376  296.8779
 377  325.835
 378  249.4827
 379  152.0824
 380  76.82511
 381  178.243
 382  236.5123
 383  280.7795
 384  182.246
 385  106.3632
 386  156.7408
 387  255.9631
 388  226.6475
 389  72.45881
 390  230.4894
 391  260.8972
 392  236.8067
 393  148.3541
 394  175.6407
 395  147.9991
 396  189.5428
 397  242.3744
 398  145.1285
 399  -0.2198254
 400  58.51316
 401  202.1813
 402  296.0497
 403  215.3762
 404  219.2823
 405  255.5377
 406  143.0338
 407  137.4787
 408  240.4786
 409  193.2289
 410  210.3118
 411  190.0014
 412  233.5757
 413  124.9533
 414  222.306
 415  221.6521
 416  211.7492
 417  226.9057
 418  304.796
 419  209.0316
 420  120.7703
 421  182.6889
 422  192.9056
 423  149.0241
 424  105.5397
 425  168.3801
 426  -7.985746
 427  152.628
 428  269.381
 429  244.2036
 430  48.92574
 431  50.83691
 432  165.4169
 433  176.9824
 434  36.75583
 435  181.0489
 436  155.1048
 437  299.4934
 438  294.419
 439  239.6042
 440  151.3609
 441  232.838
 442  173.7446
 443  201.393
 444  208.8569
 445  131.432
 446  194.587
 447  265.8505
 448  333.2292
 449  239.6122
 450  150.67
 451  172.6889
 452  218.2171
 453  157.3134
 454  154.438
 455  238.6229
 456  237.4839
 457  189.2366
 458  85.37891
 459  223.448
 460  232.3372
 461  121.4372
 462  49.67475
 463  201.2137
 464  237.7686
 465  17.96483
 466  -4.513636
 467  50.77153
 468  55.50535
 469  77.08533
 470  2.939085
 471  118.2904
 472  152.0465
 473  49.48685
 474  89.07942
 475  78.75879
 476  158.5006
 477  175.9444
 478  94.49422
 479  117.5217
 480  92.91105
 481  5.124155
 482  27.26264
 483  72.44409
 484  124.9243
 485  230.3001
 486  303.388
 487  260.7325
 488  71.16387
 489  2.610311
 490  177.5366
 491  408.2983
 492  351.2596
 493  310.1556
 494  262.8237
 495  149.607
 496  194.2031
 497  225.9892
 498  181.4823
 499  165.6144
 500  175.4025
 501  212.6548
 502  273.2037
 503  224.7947
 504  386.864
 505  389.6302
 506  366.0348
 507  400.7606
 508  530.0359
 509  627.7532
 510  793.293
 511  1001.952
