# Input file       =  1192299056.166723_cleaned.dat
# Candidate        =  PSR_0332+5434
# Telescope        =  AR
# Epoch_topo       =  58043.757386188925
# Epoch_bary       =  N/A
# T_sample         =  0.002
# Data Folded      =  7208960
# Data Avg         =  0.0282677861179979
# Data StdDev      =  1.00020414913626 
# Profile Bins     =  512
# Profile Avg      =  398.003345869817 
# Profile StdDev   =  118.683399961778 
# Reduced chi-sqr  =  1.478
# Prob(Noise)      <  1.07e-11   (~6.7 sigma)
# P_topo (ms)      =  714.483606324774  +/- 0.000199
# P'_topo (s/s)    =  -0                +/- 1.07e-10
# P''_topo (s/s^2) =  0                 +/- 4.8e-14
# P_bary (ms)      =  N/A
# P'_bary (s/s)    =  N/A
# P''_bary (s/s^2) =  N/A
# P_orb (s)        =  N/A
# asin(i)/c (s)    =  N/A
# eccentricity     =  N/A
# w (rad)          =  N/A
# T_peri           =  N/A
######################################################
   0  1229.241
   1  1154.039
   2  940.769
   3  621.4687
   4  405.1063
   5  416.7763
   6  480.3484
   7  522.2233
   8  526.4688
   9  443.1698
  10  401.038
  11  504.4019
  12  563.4293
  13  596.2012
  14  572.8254
  15  563.8807
  16  452.4205
  17  428.2699
  18  531.6241
  19  439.8332
  20  258.8926
  21  360.1704
  22  324.0876
  23  269.0813
  24  193.976
  25  250.8717
  26  333.4632
  27  385.0218
  28  386.6704
  29  346.527
  30  228.491
  31  352.2455
  32  361.8048
  33  325.1009
  34  309.7027
  35  342.7111
  36  363.8502
  37  315.2968
  38  461.6821
  39  484.5383
  40  356.3793
  41  308.6126
  42  367.8144
  43  378.9266
  44  278.3073
  45  346.7056
  46  432.4844
  47  423.3447
  48  453.3429
  49  435.8416
  50  372.6534
  51  394.5859
  52  331.7729
  53  411.8528
  54  380.4265
  55  477.0963
  56  470.9179
  57  350.8717
  58  480.2961
  59  387.5815
  60  334.4054
  61  360.149
  62  431.7226
  63  415.1825
  64  470.6841
  65  362.5262
  66  362.383
  67  292.074
  68  355.5623
  69  446.054
  70  389.5436
  71  416.224
  72  347.5547
  73  353.9348
  74  396.3054
  75  493.9719
  76  362.9798
  77  364.6975
  78  353.1497
  79  526.3316
  80  419.1722
  81  262.1745
  82  235.5488
  83  465.7468
  84  595.8417
  85  456.4348
  86  358.0087
  87  380.7187
  88  362.6221
  89  406.3134
  90  401.3314
  91  523.3178
  92  462.2953
  93  381.3502
  94  330.9917
  95  436.562
  96  527.2799
  97  442.3973
  98  357.7446
  99  399.797
 100  497.4061
 101  503.2096
 102  367.9721
 103  440.8065
 104  398.9896
 105  422.952
 106  358.6707
 107  386.1158
 108  482.005
 109  445.9588
 110  340.0091
 111  393.7013
 112  457.6048
 113  475.1697
 114  359.3936
 115  257.6774
 116  359.8559
 117  438.842
 118  312.8886
 119  415.8515
 120  430.4795
 121  367.4124
 122  552.3605
 123  410.3437
 124  281.1828
 125  300.0039
 126  244.265
 127  220.2252
 128  286.5769
 129  323.8772
 130  303.7461
 131  320.6048
 132  300.8275
 133  254.3692
 134  307.1887
 135  342.3591
 136  286.62
 137  369.7281
 138  416.9616
 139  380.8713
 140  399.7954
 141  282.602
 142  294.0041
 143  373.3764
 144  443.0582
 145  386.9673
 146  343.0812
 147  382.7668
 148  314.6387
 149  404.9341
 150  429.3128
 151  315.7146
 152  369.3896
 153  328.4766
 154  332.1436
 155  477.8839
 156  418.9637
 157  310.4815
 158  323.1359
 159  280.0742
 160  419.9879
 161  368.1764
 162  384.1108
 163  301.5807
 164  430.2166
 165  541.8541
 166  484.484
 167  431.3698
 168  447.5714
 169  408.9803
 170  490.7163
 171  545.5333
 172  474.7479
 173  404.942
 174  402.6164
 175  495.5195
 176  513.7491
 177  397.7424
 178  322.5961
 179  348.4281
 180  386.7749
 181  459.8176
 182  376.6242
 183  336.4238
 184  445.0622
 185  389.204
 186  437.1551
 187  439.2547
 188  399.4819
 189  469.0212
 190  440.6075
 191  387.0967
 192  293.4102
 193  408.713
 194  525.2078
 195  479.0099
 196  430.5761
 197  380.699
 198  421.1138
 199  387.7638
 200  420.3193
 201  453.1456
 202  412.2225
 203  403.5143
 204  507.82
 205  485.6993
 206  337.2755
 207  368.2263
 208  416.4348
 209  476.9109
 210  426.742
 211  358.1747
 212  278.4651
 213  175.4521
 214  326.2802
 215  308.519
 216  288.6443
 217  298.56
 218  390.9859
 219  379.2712
 220  375.08
 221  378.3385
 222  356.2701
 223  383.9046
 224  348.8925
 225  277.3862
 226  282.9721
 227  346.9363
 228  248.6582
 229  322.299
 230  387.0527
 231  215.5767
 232  249.7276
 233  313.2561
 234  333.2092
 235  380.4354
 236  471.4799
 237  436.8818
 238  320.9226
 239  208.383
 240  252.7821
 241  263.714
 242  395.4165
 243  456.3277
 244  525.5765
 245  363.2482
 246  281.483
 247  388.011
 248  422.3805
 249  441.8476
 250  362.2905
 251  375.3545
 252  297.3402
 253  266.627
 254  305.085
 255  353.4633
 256  339.5429
 257  330.9928
 258  344.9433
 259  284.7311
 260  249.9452
 261  304.3921
 262  425.5379
 263  405.321
 264  307.2542
 265  416.5611
 266  428.3593
 267  380.2597
 268  362.8094
 269  363.4197
 270  321.4341
 271  298.3904
 272  354.6091
 273  339.2973
 274  246.2976
 275  391.2119
 276  520.9141
 277  500.3822
 278  454.6178
 279  440.342
 280  389.5015
 281  278.2148
 282  307.9146
 283  471.8173
 284  397.681
 285  311.0298
 286  318.1491
 287  377.6933
 288  343.0848
 289  339.7409
 290  415.9837
 291  402.3856
 292  310.9743
 293  311.1445
 294  375.2945
 295  475.5655
 296  364.8046
 297  282.825
 298  392.8683
 299  457.1958
 300  380.4557
 301  369.4271
 302  433.972
 303  376.4301
 304  421.2862
 305  372.9088
 306  454.7829
 307  466.9048
 308  502.1224
 309  474.2361
 310  397.4499
 311  364.9526
 312  309.7807
 313  464.9234
 314  387.2439
 315  317.2583
 316  372.573
 317  360.8484
 318  397.8489
 319  369.7305
 320  356.8399
 321  377.3378
 322  432.4471
 323  550.6073
 324  384.4492
 325  271.3359
 326  238.9579
 327  248.0687
 328  331.1653
 329  388.6433
 330  383.9054
 331  347.6548
 332  309.2768
 333  301.0117
 334  293.6837
 335  312.1229
 336  342.8465
 337  416.803
 338  375.8637
 339  350.8369
 340  395.6245
 341  366.0381
 342  410.8425
 343  421.4293
 344  444.3749
 345  350.5854
 346  314.1562
 347  334.1719
 348  481.9039
 349  503.2872
 350  291.9521
 351  271.5481
 352  337.8234
 353  369.7229
 354  388.1378
 355  379.4141
 356  395.1142
 357  513.84
 358  400.2469
 359  307.7465
 360  229.162
 361  306.2943
 362  401.9128
 363  348.1812
 364  350.1566
 365  430.9128
 366  401.3181
 367  398.2357
 368  354.5034
 369  309.5473
 370  399.1902
 371  435.1519
 372  521.4407
 373  480.0615
 374  422.8494
 375  376.9267
 376  338.7209
 377  256.2987
 378  290.0011
 379  433.7502
 380  536.6672
 381  510.6636
 382  430.9562
 383  447.3818
 384  436.3221
 385  448.9531
 386  476.7515
 387  418.849
 388  359.5218
 389  407.0164
 390  417.7603
 391  474.7471
 392  513.2815
 393  560.3395
 394  443.481
 395  367.1888
 396  465.5607
 397  365.926
 398  438.8586
 399  443.4816
 400  356.2737
 401  321.5164
 402  397.846
 403  343.894
 404  239.31
 405  351.1511
 406  371.0119
 407  501.2367
 408  431.2471
 409  425.2751
 410  344.4783
 411  336.9175
 412  483.45
 413  390.3177
 414  429.2276
 415  454.1456
 416  393.5498
 417  405.2256
 418  441.8664
 419  482.1169
 420  579.5569
 421  328.1996
 422  277.5867
 423  339.0996
 424  377.6969
 425  334.179
 426  468.7645
 427  492.4997
 428  484.6022
 429  444.859
 430  402.5261
 431  359.7193
 432  328.7422
 433  400.5007
 434  347.7411
 435  280.0581
 436  440.986
 437  395.7878
 438  426.739
 439  433.5953
 440  323.0211
 441  275.9644
 442  305.4641
 443  296.5295
 444  257.1659
 445  364.4739
 446  540.2615
 447  501.3477
 448  443.5117
 449  360.3372
 450  372.1013
 451  563.0801
 452  548.547
 453  450.0041
 454  435.415
 455  413.2475
 456  379.8228
 457  300.1989
 458  329.7253
 459  333.1575
 460  355.1092
 461  393.7693
 462  353.2761
 463  430.6218
 464  466.6427
 465  491.0822
 466  364.0006
 467  464.8829
 468  527.8737
 469  354.1847
 470  349.258
 471  412.634
 472  435.6559
 473  352.0119
 474  465.3264
 475  451.7744
 476  379.5643
 477  328.2944
 478  407.2475
 479  362.1262
 480  388.7937
 481  394.5422
 482  307.0078
 483  444.0521
 484  501.2607
 485  393.7965
 486  426.1147
 487  422.3995
 488  346.7907
 489  371.4331
 490  281.0095
 491  326.779
 492  425.6001
 493  366.8498
 494  499.0235
 495  577.4307
 496  512.6
 497  351.9044
 498  362.3139
 499  439.5565
 500  447.1173
 501  501.4893
 502  424.8899
 503  471.4662
 504  478.3301
 505  526.7393
 506  549.9341
 507  455.9562
 508  622.8055
 509  863.4409
 510  963.4128
 511  1116.235
