# Input file       =  1192328641.147617_cleaned.dat
# Candidate        =  PSR_0332+5434
# Telescope        =  AR
# Epoch_topo       =  58044.099804949270
# Epoch_bary       =  N/A
# T_sample         =  0.002
# Data Folded      =  7340032
# Data Avg         =  0.0165233653650388
# Data StdDev      =  1.00003099806936 
# Profile Bins     =  512
# Profile Avg      =  236.897591731454 
# Profile StdDev   =  119.736747869732 
# Reduced chi-sqr  =  1.484
# Prob(Noise)      <  6.46e-12   (~6.8 sigma)
# P_topo (ms)      =  714.484217040277  +/- 0.000221
# P'_topo (s/s)    =  -0                +/- 1.17e-10
# P''_topo (s/s^2) =  0                 +/- 5.15e-14
# P_bary (ms)      =  N/A
# P'_bary (s/s)    =  N/A
# P''_bary (s/s^2) =  N/A
# P_orb (s)        =  N/A
# asin(i)/c (s)    =  N/A
# eccentricity     =  N/A
# w (rad)          =  N/A
# T_peri           =  N/A
######################################################
   0  970.7712
   1  995.854
   2  810.2184
   3  682.6497
   4  463.5924
   5  162.769
   6  195.4571
   7  182.3293
   8  286.2872
   9  254.8066
  10  181.4914
  11  339.1004
  12  476.9798
  13  416.2148
  14  445.5391
  15  268.4343
  16  183.7497
  17  122.3998
  18  227.7821
  19  208.8635
  20  190.368
  21  201.5658
  22  211.0995
  23  212.2884
  24  190.8934
  25  149.129
  26  289.5118
  27  241.6638
  28  124.5252
  29  95.39886
  30  213.7393
  31  428.5242
  32  316.184
  33  193.4464
  34  371.8724
  35  363.5067
  36  450.2064
  37  335.9196
  38  199.0733
  39  309.9405
  40  314.0261
  41  344.6124
  42  326.0187
  43  181.3484
  44  172.8919
  45  313.9508
  46  298.0157
  47  305.0087
  48  228.0345
  49  136.8786
  50  160.836
  51  185.6195
  52  241.7614
  53  150.434
  54  105.5305
  55  187.5172
  56  175.7815
  57  125.9618
  58  297.0112
  59  388.0435
  60  248.677
  61  253.801
  62  247.8466
  63  249.0704
  64  147.2553
  65  152.8575
  66  168.7724
  67  96.70674
  68  61.7674
  69  254.4347
  70  267.2144
  71  112.3617
  72  126.3278
  73  310.4396
  74  358.9163
  75  400.9748
  76  386.5846
  77  158.9288
  78  137.8997
  79  166.3342
  80  307.8843
  81  297.873
  82  52.59892
  83  150.5639
  84  295.2783
  85  357.0328
  86  371.6971
  87  285.8959
  88  296.9696
  89  260.5892
  90  281.8458
  91  341.4469
  92  317.0487
  93  346.9965
  94  380.7469
  95  233.5284
  96  152.2083
  97  314.1715
  98  244.2158
  99  123.0778
 100  185.0827
 101  260.7895
 102  253.1386
 103  196.9956
 104  333.7196
 105  331.1357
 106  214.8666
 107  264.1193
 108  297.9873
 109  318.5713
 110  235.0215
 111  185.4497
 112  128.0609
 113  83.32927
 114  164.0566
 115  169.6753
 116  -21.14872
 117  -0.8766553
 118  172.1076
 119  248.8667
 120  245.9876
 121  102.1907
 122  157.7441
 123  253.2667
 124  225.8639
 125  245.8978
 126  194.5661
 127  57.45642
 128  103.7171
 129  176.6105
 130  267.0379
 131  62.74055
 132  183.5699
 133  318.7086
 134  262.5985
 135  383.7627
 136  382.3315
 137  170.6349
 138  322.6194
 139  243.5252
 140  350.4567
 141  356.3151
 142  230.5495
 143  221.9968
 144  250.8939
 145  130.1877
 146  148.5888
 147  190.45
 148  277.4044
 149  401.2635
 150  268.4362
 151  287.0059
 152  284.0515
 153  273.3082
 154  356.1304
 155  268.1306
 156  177.4566
 157  115.3308
 158  289.316
 159  256.7854
 160  220.4218
 161  317.9605
 162  291.7242
 163  158.4191
 164  233.8597
 165  194.1909
 166  188.6907
 167  184.1931
 168  112.8919
 169  174.2923
 170  197.5131
 171  207.5048
 172  208.0408
 173  123.5292
 174  147.3923
 175  352.7233
 176  464.794
 177  356.6883
 178  202.9559
 179  50.3124
 180  121.0553
 181  258.9204
 182  207.3622
 183  292.6769
 184  372.4088
 185  292.0678
 186  226.458
 187  135.2393
 188  169.9533
 189  276.2951
 190  261.327
 191  180.1335
 192  195.659
 193  229.3494
 194  227.7473
 195  171.1889
 196  236.0947
 197  421.4544
 198  357.554
 199  258.4322
 200  191.5847
 201  100.163
 202  88.83217
 203  106.2648
 204  89.62986
 205  193.7034
 206  175.7492
 207  126.823
 208  76.54176
 209  118.7683
 210  223.6223
 211  211.358
 212  273.2191
 213  222.938
 214  168.4933
 215  262.8143
 216  182.3961
 217  239.3969
 218  154.7533
 219  261.7585
 220  258.5864
 221  279.9044
 222  259.3356
 223  204.0798
 224  323.9025
 225  292.1691
 226  167.3182
 227  167.2631
 228  176.571
 229  222.6015
 230  230.3419
 231  279.1009
 232  137.9186
 233  166.7752
 234  313.1458
 235  260.8557
 236  157.3599
 237  173.7882
 238  190.7044
 239  166.7417
 240  325.0519
 241  331.3638
 242  356.584
 243  250.916
 244  160.2137
 245  333.0431
 246  213.8112
 247  239.4469
 248  295.6915
 249  193.0344
 250  303.0226
 251  316.2143
 252  308.5409
 253  317.556
 254  275.4731
 255  361.7626
 256  392.4675
 257  281.4367
 258  204.6905
 259  192.8571
 260  286.0345
 261  354.0862
 262  205.6554
 263  197.6387
 264  212.8586
 265  218.7927
 266  300.1982
 267  202.0386
 268  207.2561
 269  258.2805
 270  257.4592
 271  261.3537
 272  345.7731
 273  207.2779
 274  85.13501
 275  227.2764
 276  261.9573
 277  200.1799
 278  237.5701
 279  177.3606
 280  174.1746
 281  150.5498
 282  95.70091
 283  147.7418
 284  261.4549
 285  235.8256
 286  227.5143
 287  248.2689
 288  287.0266
 289  161.7904
 290  206.1458
 291  249.099
 292  235.5882
 293  224.8782
 294  193.4043
 295  141.392
 296  107.6085
 297  157.8717
 298  216.0263
 299  284.9525
 300  215.735
 301  142.6143
 302  227.8074
 303  208.3561
 304  217.341
 305  253.585
 306  120.0343
 307  267.0892
 308  300.879
 309  342.7383
 310  296.8276
 311  281.3151
 312  209.4389
 313  207.0206
 314  305.3529
 315  254.3548
 316  99.30527
 317  220.0969
 318  326.4263
 319  226.4868
 320  180.413
 321  112.113
 322  64.16254
 323  75.4445
 324  128.1705
 325  267.4387
 326  316.6879
 327  198.1898
 328  127.2774
 329  263.8685
 330  332.3782
 331  245.0806
 332  296.6383
 333  311.0998
 334  264.536
 335  328.7153
 336  249.9079
 337  210.0081
 338  152.6705
 339  42.86307
 340  195.6721
 341  299.3575
 342  360.7819
 343  388.1367
 344  353.0935
 345  356.1505
 346  207.9243
 347  134.6674
 348  311.6917
 349  338.6468
 350  324.6754
 351  324.7202
 352  204.0664
 353  149.4127
 354  102.7886
 355  249.1502
 356  241.4936
 357  189.6691
 358  214.2021
 359  199.8656
 360  232.0971
 361  228.5254
 362  269.5433
 363  308.1894
 364  199.3894
 365  264.2977
 366  253.4928
 367  265.4638
 368  272.8801
 369  223.1937
 370  240.3172
 371  303.8839
 372  302.9039
 373  313.0305
 374  229.6524
 375  209.36
 376  313.4968
 377  363.7551
 378  249.0326
 379  66.01639
 380  181.7012
 381  151.5472
 382  82.98367
 383  210.4973
 384  279.0332
 385  299.6794
 386  174.3413
 387  357.1199
 388  313.3879
 389  217.3182
 390  177.9197
 391  222.3815
 392  256.1894
 393  201.0781
 394  231.1461
 395  279.8095
 396  160.338
 397  181.7352
 398  294.5577
 399  313.5419
 400  237.0827
 401  214.99
 402  168.0726
 403  239.968
 404  251.7146
 405  287.3588
 406  213.7847
 407  112.3512
 408  146.8121
 409  106.8469
 410  203.8903
 411  327.7424
 412  296.8118
 413  181.1482
 414  228.4801
 415  276.3191
 416  296.6555
 417  223.2189
 418  166.6375
 419  252.3676
 420  207.2323
 421  125.7912
 422  76.00233
 423  231.2115
 424  282.8759
 425  204.4029
 426  113.6176
 427  191.4017
 428  181.6853
 429  143.5595
 430  213.9118
 431  265.1363
 432  344.4875
 433  332.0469
 434  294.3522
 435  173.3056
 436  131.8427
 437  126.7271
 438  201.1423
 439  172.5002
 440  94.75286
 441  186.7743
 442  149.3055
 443  221.5081
 444  256.0541
 445  218.6798
 446  100.3515
 447  142.3299
 448  183.6023
 449  314.7974
 450  240.3632
 451  149.3114
 452  229.7251
 453  265.3036
 454  249.7878
 455  272.0279
 456  127.7574
 457  154.454
 458  197.9703
 459  170.9138
 460  266.8261
 461  198.5859
 462  264.7738
 463  285.2144
 464  137.4805
 465  73.60446
 466  42.37379
 467  219.6248
 468  266.1293
 469  143.7712
 470  133.899
 471  226.9531
 472  122.5239
 473  246.5004
 474  264.4735
 475  215.3124
 476  296.2705
 477  232.3745
 478  267.1802
 479  165.1809
 480  224.1609
 481  253.9115
 482  142.6804
 483  188.4436
 484  247.8696
 485  197.7133
 486  144.6531
 487  141.3525
 488  202.5554
 489  195.5489
 490  87.31584
 491  266.0753
 492  329.4301
 493  332.4634
 494  412.821
 495  298.0946
 496  236.673
 497  299.0104
 498  211.8496
 499  106.0559
 500  91.1188
 501  60.17004
 502  175.2274
 503  209.0479
 504  355.6594
 505  332.3894
 506  386.5116
 507  374.4811
 508  392.4977
 509  312.0063
 510  599.8398
 511  932.9367
