# Input file       =  1192988327.145844_cleaned.dat
# Candidate        =  PSR_0332+5434
# Telescope        =  AR
# Epoch_topo       =  58051.735059558378
# Epoch_bary       =  N/A
# T_sample         =  0.002
# Data Folded      =  7208960
# Data Avg         =  0.0123916297054971
# Data StdDev      =  1.00025049340865 
# Profile Bins     =  512
# Profile Avg      =  174.46136316569  
# Profile StdDev   =  118.688899134942 
# Reduced chi-sqr  =  1.586
# Prob(Noise)      <  5.97e-16   (~8.0 sigma)
# P_topo (ms)      =  714.49013504098   +/- 0.000161
# P'_topo (s/s)    =  -0                +/- 8.63e-11
# P''_topo (s/s^2) =  0                 +/- 3.88e-14
# P_bary (ms)      =  N/A
# P'_bary (s/s)    =  N/A
# P''_bary (s/s^2) =  N/A
# P_orb (s)        =  N/A
# asin(i)/c (s)    =  N/A
# eccentricity     =  N/A
# w (rad)          =  N/A
# T_peri           =  N/A
######################################################
   0  906.1301
   1  923.1171
   2  791.4764
   3  642.0007
   4  438.5061
   5  268.4973
   6  165.9833
   7  244.6775
   8  274.4536
   9  221.4665
  10  135.0775
  11  169.4109
  12  243.0043
  13  321.627
  14  298.3044
  15  280.6957
  16  176.9007
  17  199.1472
  18  253.9027
  19  308.9049
  20  253.4762
  21  269.9577
  22  325.9629
  23  190.3018
  24  229.9194
  25  192.8054
  26  291.5163
  27  243.334
  28  132.9987
  29  151.7411
  30  57.79618
  31  -54.34813
  32  54.06968
  33  259.7479
  34  277.9193
  35  217.4536
  36  11.60962
  37  11.57744
  38  168.5779
  39  240.9269
  40  154.8761
  41  204.1957
  42  311.6956
  43  299.1283
  44  157.8442
  45  162.3959
  46  136.286
  47  312.419
  48  127.7341
  49  145.4352
  50  240.937
  51  202.948
  52  64.87688
  53  111.1191
  54  124.6757
  55  175.9801
  56  352.8688
  57  216.633
  58  128.9803
  59  76.88605
  60  249.9224
  61  206.0051
  62  42.73035
  63  53.14086
  64  100.5054
  65  141.0007
  66  90.16552
  67  211.3599
  68  137.7773
  69  48.95679
  70  128.8368
  71  249.969
  72  290.756
  73  135.9866
  74  125.1959
  75  141.3938
  76  185.4946
  77  145.3426
  78  142.587
  79  243.5077
  80  151.0801
  81  138.0834
  82  193.2117
  83  201.99
  84  209.0961
  85  139.6438
  86  149.7283
  87  238.0979
  88  161.8596
  89  67.00486
  90  104.5307
  91  219.4486
  92  387.0013
  93  259.6971
  94  256.2798
  95  221.1214
  96  124.0351
  97  82.0196
  98  184.0983
  99  304.0652
 100  232.9044
 101  290.5618
 102  234.1381
 103  326.352
 104  273.5039
 105  210.3856
 106  95.31606
 107  153.3187
 108  320.7706
 109  235.4798
 110  101.5461
 111  36.70687
 112  65.86031
 113  40.63693
 114  154.3049
 115  280.741
 116  211.578
 117  154.3967
 118  155.4245
 119  169.9505
 120  201.8058
 121  225.4242
 122  189.5522
 123  86.58286
 124  -3.534227
 125  323.0212
 126  210.26
 127  149.1989
 128  106.6911
 129  147.8663
 130  193.8018
 131  39.54742
 132  89.33794
 133  287.6476
 134  191.1915
 135  68.9542
 136  52.973
 137  91.42488
 138  141.9321
 139  153.5055
 140  158.374
 141  111.8207
 142  80.85649
 143  128.8044
 144  192.4454
 145  255.0068
 146  274.0098
 147  236.7155
 148  195.6274
 149  151.5523
 150  39.74389
 151  216.0112
 152  229.1647
 153  145.606
 154  241.0544
 155  344.7491
 156  184.9179
 157  98.55576
 158  295.0203
 159  170.1292
 160  99.69846
 161  216.0755
 162  133.5443
 163  100.8905
 164  46.77964
 165  160.9693
 166  247.6094
 167  292.4028
 168  339.4584
 169  318.8199
 170  372.2029
 171  245.9987
 172  264.6425
 173  197.817
 174  138.6431
 175  169.458
 176  253.2678
 177  227.1616
 178  197.0771
 179  105.0656
 180  180.6935
 181  151.0802
 182  205.0953
 183  102.2638
 184  221.805
 185  314.7643
 186  197.2981
 187  147.7203
 188  150.2629
 189  120.4325
 190  115.1864
 191  180.6134
 192  145.1892
 193  55.8197
 194  171.778
 195  234.4401
 196  205.4198
 197  131.052
 198  106.7929
 199  210.3818
 200  205.8137
 201  164.4124
 202  154.0827
 203  142.8564
 204  16.68361
 205  8.14957
 206  43.90567
 207  105.3359
 208  96.75292
 209  103.5734
 210  154.5838
 211  197.9877
 212  166.1577
 213  47.23929
 214  22.85751
 215  57.89663
 216  150.8152
 217  59.53614
 218  52.93929
 219  233.1522
 220  163.227
 221  179.6428
 222  285.1885
 223  263.6886
 224  212.1345
 225  144.5186
 226  148.1363
 227  314.8074
 228  413.0861
 229  270.2636
 230  165.4052
 231  168.3023
 232  160.8414
 233  135.9223
 234  193.178
 235  201.475
 236  109.0618
 237  189.7527
 238  67.0126
 239  155.4054
 240  190.2067
 241  177.0102
 242  138.8974
 243  -13.8897
 244  64.38528
 245  84.51247
 246  116.9561
 247  165.0809
 248  48.12812
 249  125.1102
 250  73.84972
 251  -57.81018
 252  84.12169
 253  96.42158
 254  133.1755
 255  202.0649
 256  125.5278
 257  -0.3567557
 258  31.00821
 259  24.74575
 260  52.19623
 261  220.4407
 262  224.8677
 263  124.9816
 264  74.90276
 265  10.87248
 266  48.43921
 267  202.2685
 268  315.627
 269  185.3858
 270  162.1836
 271  214.8309
 272  148.161
 273  119.1572
 274  227.1426
 275  301.3181
 276  299.522
 277  87.6357
 278  24.84455
 279  108.9063
 280  127.7244
 281  250.4953
 282  197.308
 283  87.30488
 284  56.9566
 285  57.20193
 286  207.7533
 287  65.26553
 288  110.3689
 289  251.4811
 290  198.5886
 291  158.8377
 292  67.76752
 293  11.14794
 294  128.6879
 295  149.8475
 296  107.1592
 297  163.5709
 298  104.4149
 299  138.8381
 300  118.4173
 301  237.8359
 302  242.9781
 303  158.4433
 304  319.8473
 305  237.5941
 306  233.6928
 307  146.518
 308  173.3991
 309  130.7847
 310  47.30092
 311  62.42836
 312  87.02733
 313  129.662
 314  117.2719
 315  132.6525
 316  149.2778
 317  280.2788
 318  188.7301
 319  63.32112
 320  104.8581
 321  134.2328
 322  55.39871
 323  111.9559
 324  198.4964
 325  249.6059
 326  150.1679
 327  204.9367
 328  316.3792
 329  166.0275
 330  190.8691
 331  114.4914
 332  53.39911
 333  139.167
 334  86.59741
 335  121.0434
 336  173.8477
 337  226.6002
 338  214.1997
 339  83.32135
 340  -8.404858
 341  85.94235
 342  93.29411
 343  171.2764
 344  247.9073
 345  213.4941
 346  260.4033
 347  216.3282
 348  146.1652
 349  92.0221
 350  209.449
 351  203.4535
 352  131.3449
 353  50.75937
 354  102.0952
 355  196.8652
 356  158.7082
 357  261.3128
 358  201.5418
 359  287.1476
 360  198.1368
 361  130.1151
 362  84.3699
 363  58.33531
 364  152.1242
 365  94.05447
 366  198.3612
 367  143.4428
 368  120.2972
 369  91.10353
 370  59.19814
 371  65.29542
 372  312.7735
 373  334.737
 374  268.4083
 375  164.9572
 376  82.75809
 377  94.95634
 378  259.3581
 379  347.0405
 380  306.8575
 381  182.1762
 382  56.95227
 383  206.6136
 384  183.4941
 385  201.6634
 386  245.796
 387  243.5268
 388  167.6723
 389  111.9326
 390  130.8685
 391  159.6558
 392  213.6635
 393  109.6602
 394  95.8364
 395  46.40165
 396  -10.91635
 397  152.6363
 398  155.6817
 399  283.2394
 400  73.79668
 401  130.0518
 402  103.4458
 403  257.6728
 404  234.7469
 405  227.1426
 406  244.7416
 407  105.3247
 408  162.4987
 409  347.0679
 410  222.5475
 411  207.5263
 412  169.6383
 413  213.26
 414  207.1417
 415  96.57877
 416  158.8201
 417  251.3693
 418  153.184
 419  93.58481
 420  194.2777
 421  204.2842
 422  56.88471
 423  67.02932
 424  207.8123
 425  177.7476
 426  133.3997
 427  42.54242
 428  41.03648
 429  -22.29247
 430  -19.13269
 431  102.8707
 432  152.4926
 433  274.5991
 434  368.8779
 435  193.3461
 436  38.548
 437  146.5958
 438  234.2601
 439  140.198
 440  91.26565
 441  120.9533
 442  121.0105
 443  70.18674
 444  72.42892
 445  46.61275
 446  223.8201
 447  136.0572
 448  56.87744
 449  42.87083
 450  77.83043
 451  179.5916
 452  308.1414
 453  319.7792
 454  287.1389
 455  189.674
 456  200.9539
 457  165.5829
 458  75.68451
 459  210.3184
 460  166.3134
 461  97.86348
 462  52.28508
 463  123.3032
 464  168.7411
 465  68.71125
 466  100.2518
 467  48.34496
 468  150.3397
 469  103.8692
 470  98.97927
 471  207.6999
 472  230.5238
 473  249.9056
 474  164.742
 475  134.4333
 476  66.38
 477  116.2783
 478  162.0765
 479  195.2319
 480  140.9229
 481  61.40176
 482  110.5439
 483  253.4294
 484  227.0292
 485  174.2093
 486  176.6896
 487  150.1059
 488  222.4312
 489  199.0556
 490  60.77658
 491  118.6489
 492  301.2062
 493  266.0733
 494  234.1646
 495  275.5565
 496  271.7623
 497  227.9158
 498  204.385
 499  133.8924
 500  199.5078
 501  188.6361
 502  232.3731
 503  68.68829
 504  203.367
 505  303.5053
 506  355.2121
 507  377.5472
 508  406.5699
 509  415.9489
 510  719.5983
 511  759.5955
