# Input file       =  1192931700.156139_cleaned.dat
# Candidate        =  PSR_0332+5434
# Telescope        =  AR
# Epoch_topo       =  58051.079654584944
# Epoch_bary       =  N/A
# T_sample         =  0.002
# Data Folded      =  7340032
# Data Avg         =  0.016192716851165
# Data StdDev      =  1.00004703609549 
# Profile Bins     =  512
# Profile Avg      =  232.153716844111 
# Profile StdDev   =  119.738668151299 
# Reduced chi-sqr  =  1.411
# Prob(Noise)      <  2.38e-09   (~5.9 sigma)
# P_topo (ms)      =  714.489915908416  +/- 0.00014
# P'_topo (s/s)    =  -0                +/- 7.4e-11
# P''_topo (s/s^2) =  0                 +/- 3.27e-14
# P_bary (ms)      =  N/A
# P'_bary (s/s)    =  N/A
# P''_bary (s/s^2) =  N/A
# P_orb (s)        =  N/A
# asin(i)/c (s)    =  N/A
# eccentricity     =  N/A
# w (rad)          =  N/A
# T_peri           =  N/A
######################################################
   0  998.6228
   1  1005.97
   2  563.8376
   3  343.1006
   4  358.5474
   5  277.641
   6  208.2252
   7  177.8078
   8  247.3739
   9  362.5861
  10  434.1618
  11  325.9859
  12  268.5611
  13  217.1556
  14  299.2092
  15  305.9803
  16  223.9721
  17  185.1817
  18  205.7103
  19  113.5235
  20  140.3476
  21  179.8543
  22  289.7849
  23  348.078
  24  208.9722
  25  227.097
  26  180.3837
  27  42.08001
  28  227.1481
  29  190.8021
  30  181.0105
  31  117.808
  32  156.4622
  33  274.7406
  34  164.2106
  35  168.6688
  36  197.8477
  37  175.7009
  38  190.288
  39  228.9795
  40  325.9895
  41  265.3604
  42  267.5359
  43  241.0811
  44  279.9215
  45  216.486
  46  175.5784
  47  139.2274
  48  246.1579
  49  376.7769
  50  310.4726
  51  230.7586
  52  144.4174
  53  264.9256
  54  173.9122
  55  198.308
  56  283.6513
  57  325.1625
  58  251.8174
  59  287.5887
  60  312.4896
  61  295.3114
  62  230.8004
  63  303.8048
  64  279.1484
  65  189.6521
  66  351.3625
  67  245.4914
  68  226.293
  69  252.8293
  70  248.7313
  71  193.5396
  72  118.1738
  73  64.20988
  74  161.9935
  75  147.4926
  76  167.122
  77  295.8239
  78  318.959
  79  277.2054
  80  225.9133
  81  313.1735
  82  289.8997
  83  231.2432
  84  145.3889
  85  243.1365
  86  198.8378
  87  257.8595
  88  177.2975
  89  164.7097
  90  191.8666
  91  278.2393
  92  282.9944
  93  217.605
  94  199.7108
  95  142.5552
  96  93.9922
  97  190.3942
  98  93.41997
  99  159.9475
 100  199.2339
 101  229.3306
 102  234.7627
 103  50.18697
 104  193.056
 105  340.4382
 106  440.6455
 107  241.0752
 108  170.11
 109  266.4331
 110  347.8808
 111  224.7569
 112  183.2091
 113  150.9945
 114  204.8487
 115  288.462
 116  156.461
 117  154.8947
 118  105.2111
 119  250.415
 120  210.2337
 121  189.5004
 122  185.1806
 123  189.6919
 124  281.1702
 125  194.875
 126  290.2158
 127  306.5163
 128  273.9136
 129  262.8601
 130  266.2177
 131  247.4892
 132  266.5845
 133  291.359
 134  264.8612
 135  198.3844
 136  35.80969
 137  35.06754
 138  38.27472
 139  144.2598
 140  260.9186
 141  449.815
 142  362.5264
 143  255.0629
 144  231.3436
 145  312.0557
 146  284.7855
 147  261.2985
 148  307.416
 149  298.8889
 150  238.2659
 151  289.7191
 152  256.4737
 153  197.2686
 154  267.2466
 155  250.3468
 156  269.1394
 157  315.8714
 158  216.3873
 159  135.7945
 160  268.6468
 161  270.733
 162  215.9071
 163  202.6239
 164  254.7695
 165  292.8522
 166  200.313
 167  137.6392
 168  124.1959
 169  183.1306
 170  252.6255
 171  204.6017
 172  205.2868
 173  132.6944
 174  250.6204
 175  249.3451
 176  201.2456
 177  230.7152
 178  250.1512
 179  265.1575
 180  141.2158
 181  241.7685
 182  236.1941
 183  269.4064
 184  307.0527
 185  219.329
 186  159.8697
 187  153.3897
 188  100.9505
 189  147.1367
 190  289.654
 191  254.5206
 192  270.7523
 193  301.8184
 194  181.9249
 195  149.7997
 196  228.7909
 197  216.2437
 198  331.8707
 199  327.9636
 200  246.2528
 201  129.9935
 202  146.1373
 203  187.7124
 204  180.0587
 205  251.3772
 206  233.8482
 207  278.505
 208  294.387
 209  148.7581
 210  318.2412
 211  381.363
 212  277.9138
 213  359.8277
 214  271.4347
 215  255.6994
 216  117.5427
 217  106.9071
 218  190.511
 219  337.2208
 220  340.7751
 221  231.8053
 222  309.5695
 223  239.3585
 224  248.9754
 225  176.5457
 226  184.354
 227  276.9194
 228  204.4575
 229  126.6907
 230  276.8448
 231  337.5674
 232  300.5595
 233  194.6593
 234  150.0599
 235  132.597
 236  95.81512
 237  192.5627
 238  250.0578
 239  244.5945
 240  203.0637
 241  133.5061
 242  180.2078
 243  210.967
 244  233.8302
 245  178.1563
 246  147.5264
 247  209.4802
 248  202.6555
 249  173.0762
 250  176.4638
 251  64.30989
 252  150.6595
 253  310.1929
 254  311.1575
 255  271.6995
 256  296.9724
 257  272.9837
 258  331.1403
 259  241.9474
 260  159.5188
 261  144.732
 262  279.1724
 263  160.0592
 264  164.059
 265  70.79293
 266  256.799
 267  343.4165
 268  213.7603
 269  92.85059
 270  225.2093
 271  259.306
 272  201.604
 273  150.3726
 274  326.1642
 275  294.2967
 276  242.5705
 277  316.6083
 278  285.8904
 279  227.3217
 280  232.1587
 281  191.9297
 282  294.8061
 283  342.709
 284  320.5593
 285  287.8195
 286  237.3238
 287  186.9095
 288  171.3649
 289  368.0344
 290  205.8711
 291  171.1869
 292  171.1738
 293  236.881
 294  371.0133
 295  293.6974
 296  313.9578
 297  274.2651
 298  222.5972
 299  165.3465
 300  174.0296
 301  315.4956
 302  425.491
 303  355.4579
 304  294.4559
 305  213.3565
 306  234.0426
 307  282.2167
 308  310.7035
 309  212.4859
 310  142.644
 311  63.33952
 312  137.0399
 313  182.398
 314  337.9033
 315  314.8955
 316  263.2961
 317  239.6472
 318  235.5735
 319  118.6585
 320  239.6852
 321  261.0244
 322  327.3679
 323  218.5133
 324  204.0243
 325  201.9144
 326  127.2154
 327  101.7365
 328  102.7931
 329  15.83606
 330  182.9615
 331  246.5107
 332  280.6747
 333  239.0314
 334  294.7254
 335  356.4814
 336  278.9087
 337  130.4794
 338  230.1791
 339  276.4752
 340  179.6017
 341  380.595
 342  316.3145
 343  270.337
 344  219.3759
 345  128.9498
 346  235.8792
 347  265.9133
 348  174.0411
 349  202.3734
 350  214.2138
 351  221.6954
 352  212.5769
 353  277.87
 354  264.4352
 355  238.4369
 356  147.2959
 357  196.0013
 358  220.3158
 359  145.4846
 360  239.8517
 361  274.7344
 362  153.2544
 363  154.0417
 364  147.6991
 365  269.7701
 366  278.6973
 367  128.2637
 368  92.04938
 369  127.304
 370  175.8751
 371  139.5243
 372  165.7064
 373  272.3601
 374  189.6576
 375  80.93317
 376  93.77412
 377  234.833
 378  240.6556
 379  190.3987
 380  177.7241
 381  269.9243
 382  125.3676
 383  215.7388
 384  108.9379
 385  181.4165
 386  236.472
 387  272.3826
 388  278.9302
 389  276.1548
 390  247.9369
 391  177.7835
 392  173.8758
 393  336.9835
 394  380.6595
 395  251.1553
 396  314.2654
 397  245.0203
 398  136.4049
 399  309.7484
 400  284.765
 401  180.7807
 402  134.5765
 403  331.0954
 404  469.6049
 405  368.8223
 406  206.0394
 407  122.2808
 408  85.72427
 409  53.37095
 410  33.67492
 411  176.0576
 412  253.9303
 413  170.8474
 414  334.1182
 415  220.7947
 416  218.6802
 417  300.3286
 418  290.4124
 419  231.4166
 420  121.7089
 421  111.6905
 422  152.7161
 423  165.3118
 424  135.7992
 425  167.2637
 426  155.4642
 427  347.9437
 428  208.5194
 429  213.776
 430  322.7417
 431  204.0737
 432  210.7228
 433  244.7425
 434  113.4855
 435  176.7616
 436  268.7175
 437  166.2618
 438  134.7297
 439  145.7811
 440  257.5057
 441  250.0109
 442  255.5933
 443  195.6711
 444  245.0161
 445  252.0289
 446  231.0128
 447  172.3837
 448  159.0605
 449  215.4825
 450  230.6816
 451  406.1539
 452  195.7289
 453  142.5052
 454  183.9946
 455  177.7929
 456  307.0326
 457  178.8809
 458  216.3148
 459  330.1746
 460  202.7667
 461  57.22131
 462  148.6389
 463  363.8021
 464  424.0775
 465  199.6916
 466  100.5557
 467  188.0417
 468  200.2087
 469  76.88518
 470  201.05
 471  258.0777
 472  241.4077
 473  252.0047
 474  218.466
 475  153.1216
 476  93.52142
 477  82.55514
 478  134.3835
 479  201.3178
 480  81.89754
 481  37.97898
 482  164.8732
 483  283.7926
 484  327.307
 485  335.054
 486  179.8182
 487  51.61059
 488  3.619993
 489  94.017
 490  202.1212
 491  298.1711
 492  327.3125
 493  172.0106
 494  109.5908
 495  204.8756
 496  214.1517
 497  227.6189
 498  268.6823
 499  266.2304
 500  351.4771
 501  319.3611
 502  313.8161
 503  381.2515
 504  400.632
 505  351.9617
 506  334.2677
 507  304.4684
 508  383.3841
 509  642.0025
 510  830.6672
 511  926.5505
