# Input file       =  1192141432.122322_cleaned.dat
# Candidate        =  PSR_0332+5434
# Telescope        =  AR
# Epoch_topo       =  58041.933033823174
# Epoch_bary       =  N/A
# T_sample         =  0.002
# Data Folded      =  7340032
# Data Avg         =  0.0123280780084314
# Data StdDev      =  1.00001491650456 
# Profile Bins     =  512
# Profile Avg      =  176.77480244204  
# Profile StdDev   =  119.734822375149 
# Reduced chi-sqr  =  1.544
# Prob(Noise)      <  3.15e-14   (~7.5 sigma)
# P_topo (ms)      =  714.482234230118  +/- 0.000156
# P'_topo (s/s)    =  -0                +/- 8.25e-11
# P''_topo (s/s^2) =  0                 +/- 3.64e-14
# P_bary (ms)      =  N/A
# P'_bary (s/s)    =  N/A
# P''_bary (s/s^2) =  N/A
# P_orb (s)        =  N/A
# asin(i)/c (s)    =  N/A
# eccentricity     =  N/A
# w (rad)          =  N/A
# T_peri           =  N/A
######################################################
   0  872.2605
   1  833.8218
   2  701.8097
   3  438.7612
   4  396.6258
   5  274.6734
   6  208.049
   7  142.325
   8  163.0731
   9  117.6507
  10  55.11705
  11  170.5906
  12  202.8432
  13  264.3939
  14  326.7254
  15  299.5919
  16  292.4041
  17  208.9966
  18  214.5347
  19  279.9078
  20  218.8161
  21  227.8882
  22  57.06777
  23  -5.383444
  24  32.12797
  25  182.9248
  26  339.4982
  27  279.9228
  28  237.75
  29  248.9193
  30  148.9495
  31  183.4057
  32  243.7342
  33  275.9329
  34  108.0623
  35  18.65869
  36  61.09953
  37  241.2246
  38  214.8389
  39  197.7933
  40  186.3293
  41  259.7083
  42  246.8276
  43  305.2125
  44  279.9845
  45  184.1586
  46  182.1026
  47  208.1808
  48  76.92433
  49  29.81118
  50  67.70195
  51  26.50336
  52  71.09599
  53  203.7078
  54  118.5851
  55  167.3949
  56  241.1444
  57  116.68
  58  10.91708
  59  -7.10767
  60  110.659
  61  60.68711
  62  127.1153
  63  133.0019
  64  189.7867
  65  236.7783
  66  148.6511
  67  52.58109
  68  22.24818
  69  169.517
  70  129.839
  71  -3.053055
  72  -0.8423458
  73  116.3921
  74  234.0139
  75  119.7288
  76  82.58932
  77  122.5416
  78  72.57761
  79  80.60851
  80  182.6257
  81  130.9088
  82  114.1276
  83  163.5993
  84  180.4704
  85  -21.78257
  86  -51.42273
  87  91.79763
  88  122.0753
  89  47.28142
  90  89.95898
  91  172.1333
  92  149.7476
  93  -30.32325
  94  154.9848
  95  205.0465
  96  132.8671
  97  162.9563
  98  158.1786
  99  117.0997
 100  199.6908
 101  225.3916
 102  199.0166
 103  192.7341
 104  114.4638
 105  171.2253
 106  230.441
 107  159.912
 108  163.9256
 109  138.123
 110  194.1116
 111  275.2795
 112  213.3109
 113  277.8499
 114  172.7891
 115  171.894
 116  107.6201
 117  39.53718
 118  217.7083
 119  184.9657
 120  58.89085
 121  78.15242
 122  33.90171
 123  54.92525
 124  210.7224
 125  138.8205
 126  118.6852
 127  201.4374
 128  200.2825
 129  17.23807
 130  159.7349
 131  147.4914
 132  162.7035
 133  47.28701
 134  116.7247
 135  216.598
 136  232.4764
 137  143.1908
 138  73.53159
 139  57.2931
 140  130.7221
 141  298.1679
 142  146.7393
 143  31.19879
 144  49.75371
 145  73.52357
 146  108.9792
 147  155.1196
 148  108.7534
 149  224.2407
 150  240.3006
 151  167.0723
 152  44.98617
 153  63.95251
 154  156.7359
 155  257.0022
 156  174.8399
 157  146.598
 158  61.30275
 159  110.1729
 160  139.1517
 161  207.7902
 162  105.3982
 163  93.90906
 164  201.3338
 165  128.8326
 166  117.233
 167  194.4855
 168  146.4075
 169  101.863
 170  205.4298
 171  113.4837
 172  71.14704
 173  43.39467
 174  213.6786
 175  222.2763
 176  114.4638
 177  204.7911
 178  174.5863
 179  134.7394
 180  53.57316
 181  24.3257
 182  70.37858
 183  171.7183
 184  194.536
 185  155.6585
 186  236.6567
 187  181.5546
 188  297.347
 189  122.1752
 190  171.9957
 191  265.7435
 192  155.9785
 193  53.24302
 194  51.22117
 195  22.56136
 196  -26.92517
 197  152.1329
 198  81.33981
 199  48.70322
 200  155.2709
 201  79.0751
 202  -43.77182
 203  64.27602
 204  86.84168
 205  249.5934
 206  429.5126
 207  453.5831
 208  224.0577
 209  206.1017
 210  194.8887
 211  187.7389
 212  274.9913
 213  257.8978
 214  117.612
 215  162.8535
 216  191.2547
 217  258.7216
 218  203.9636
 219  164.6619
 220  224.3035
 221  220.246
 222  131.9789
 223  107.9751
 224  267.767
 225  226.8154
 226  109.1651
 227  258.9436
 228  303.6172
 229  206.9798
 230  147.1122
 231  70.48666
 232  5.541046
 233  117.5216
 234  141.3075
 235  219.5825
 236  64.35345
 237  137.9642
 238  182.6949
 239  114.7501
 240  185.5847
 241  105.8645
 242  83.10508
 243  142.8739
 244  18.31659
 245  42.11748
 246  188.9812
 247  211.102
 248  190.0712
 249  119.5851
 250  154.7014
 251  204.9406
 252  131.2088
 253  74.44312
 254  233.5004
 255  355.3543
 256  266.7742
 257  157.7865
 258  223.9493
 259  91.39326
 260  82.50813
 261  111.9792
 262  202.1038
 263  250.1452
 264  253.368
 265  349.4394
 266  305.3932
 267  157.5621
 268  190.4879
 269  188.1677
 270  271.2368
 271  170.1708
 272  149.9756
 273  297.9949
 274  146.5655
 275  85.46881
 276  235.2019
 277  187.7517
 278  131.9999
 279  59.4938
 280  58.48289
 281  148.3083
 282  110.8106
 283  181.2654
 284  96.59468
 285  41.96899
 286  49.94502
 287  118.7199
 288  341.1537
 289  264.813
 290  109.3457
 291  144.5106
 292  154.806
 293  140.6688
 294  216.8736
 295  176.5057
 296  255.9774
 297  172.195
 298  284.0439
 299  209.117
 300  143.2757
 301  117.37
 302  194.7652
 303  279.2466
 304  188.8647
 305  202.9487
 306  449.0795
 307  358.2069
 308  99.12526
 309  9.426258
 310  114.4652
 311  225.5218
 312  350.2562
 313  237.6958
 314  199.6461
 315  206.7156
 316  158.5007
 317  182.3891
 318  165.4232
 319  289.6818
 320  271.7107
 321  134.6642
 322  147.7222
 323  220.1051
 324  263.3029
 325  303.269
 326  233.3354
 327  148.4824
 328  143.1773
 329  128.5659
 330  121.8875
 331  93.96184
 332  104.1836
 333  186.4066
 334  64.09939
 335  23.64061
 336  135.5675
 337  146.3605
 338  193.168
 339  241.3935
 340  221.6436
 341  359.6842
 342  365.1418
 343  214.4817
 344  132.619
 345  146.7708
 346  100.67
 347  165.043
 348  148.7758
 349  32.1757
 350  124.3473
 351  330.5692
 352  227.9134
 353  131.2443
 354  122.8349
 355  173.2588
 356  161.6498
 357  178.4042
 358  162.4988
 359  144.316
 360  143.2723
 361  335.3506
 362  277.3441
 363  106.0855
 364  99.38481
 365  18.2194
 366  46.402
 367  58.85598
 368  -81.31242
 369  52.93613
 370  141.0468
 371  235.128
 372  253.1424
 373  237.5819
 374  186.8689
 375  269.336
 376  227.058
 377  167.271
 378  180.157
 379  165.9459
 380  203.5239
 381  128.104
 382  255.5067
 383  340.2458
 384  245.507
 385  146.8903
 386  251.733
 387  260.8959
 388  154.6078
 389  255.6571
 390  206.739
 391  171.2542
 392  127.632
 393  137.2698
 394  121.9252
 395  92.39561
 396  189.8424
 397  146.4504
 398  227.4837
 399  225.6792
 400  133.0367
 401  253.3326
 402  198.9021
 403  -30.91625
 404  167.7698
 405  238.2702
 406  309.7797
 407  136.3235
 408  82.92844
 409  155.821
 410  197.8289
 411  273.4271
 412  279.8148
 413  247.7525
 414  223.749
 415  306.6131
 416  286.0341
 417  223.4707
 418  182.9829
 419  53.48391
 420  136.7415
 421  254.6994
 422  327.5397
 423  334.3974
 424  234.6697
 425  211.1778
 426  111.4232
 427  160.4258
 428  47.00798
 429  82.21633
 430  61.43935
 431  61.01321
 432  118
 433  116.1479
 434  313.9955
 435  250.4442
 436  92.03878
 437  118.3804
 438  414.2506
 439  291.4962
 440  139.326
 441  113.2651
 442  224.1776
 443  288.4257
 444  246
 445  187.2448
 446  270.1493
 447  260.8494
 448  132.1981
 449  160.1163
 450  100.8612
 451  92.64292
 452  139.1829
 453  212.4959
 454  189.9409
 455  58.89614
 456  108.1483
 457  148.0055
 458  150.9199
 459  241.2446
 460  190.6201
 461  223.1003
 462  256.5711
 463  262.9338
 464  230.786
 465  223.2612
 466  235.1453
 467  238.9345
 468  119.3542
 469  33.89358
 470  -55.60502
 471  91.34664
 472  231.4774
 473  298.4565
 474  249.303
 475  177.7978
 476  188.5482
 477  142.2747
 478  39.98298
 479  160.7973
 480  263.8933
 481  212.9475
 482  137.9897
 483  87.65627
 484  186.9305
 485  197.5349
 486  204.9072
 487  154.5531
 488  164.2922
 489  185.7838
 490  212.2761
 491  254.5807
 492  286.2924
 493  392.0193
 494  351.3654
 495  248.7984
 496  205.1054
 497  279.0644
 498  33.40487
 499  78.8309
 500  212.6937
 501  187.5711
 502  138.4717
 503  244.6286
 504  203.7621
 505  253.9022
 506  309.2592
 507  421.063
 508  407.5166
 509  453.6496
 510  732.1083
 511  831.2417
