# Input file       =  1192830597.138417_cleaned.dat
# Candidate        =  PSR_0332+5434
# Telescope        =  AR
# Epoch_topo       =  58049.909480768714
# Epoch_bary       =  N/A
# T_sample         =  0.002
# Data Folded      =  7340032
# Data Avg         =  0.018760006308033
# Data StdDev      =  1.00004463257329 
# Profile Bins     =  512
# Profile Avg      =  268.904613804286 
# Profile StdDev   =  119.738380370287 
# Reduced chi-sqr  =  1.437
# Prob(Noise)      <  3.1e-10   (~6.2 sigma)
# P_topo (ms)      =  714.488589147022  +/- 0.000218
# P'_topo (s/s)    =  -0                +/- 1.15e-10
# P''_topo (s/s^2) =  0                 +/- 5.07e-14
# P_bary (ms)      =  N/A
# P'_bary (s/s)    =  N/A
# P''_bary (s/s^2) =  N/A
# P_orb (s)        =  N/A
# asin(i)/c (s)    =  N/A
# eccentricity     =  N/A
# w (rad)          =  N/A
# T_peri           =  N/A
######################################################
   0  1009.701
   1  882.6196
   2  779.1476
   3  648.7581
   4  375.0885
   5  172.9092
   6  228.0032
   7  298.6662
   8  291.601
   9  138.0738
  10  126.1414
  11  128.4974
  12  126.0199
  13  202.4772
  14  365.3246
  15  312.7642
  16  256.9906
  17  166.7921
  18  292.5508
  19  344.3896
  20  237.34
  21  150.754
  22  172.9168
  23  240.8909
  24  174.2424
  25  184.3418
  26  202.2598
  27  163.5116
  28  233.5615
  29  211.7905
  30  133.3302
  31  100.3534
  32  213.0824
  33  287.339
  34  334.3538
  35  269.4202
  36  202.5891
  37  245.9748
  38  211.9407
  39  184.9227
  40  233.2539
  41  225.2211
  42  256.8921
  43  154.7906
  44  283.8837
  45  227.2213
  46  149.494
  47  340.4129
  48  373.9534
  49  313.9392
  50  367.8637
  51  242.0335
  52  251.9038
  53  140.3907
  54  336.6197
  55  409.9948
  56  287.5862
  57  144.2013
  58  205.39
  59  250.58
  60  271.3506
  61  223.8428
  62  127.3414
  63  167.6029
  64  256.4414
  65  290.9073
  66  286.976
  67  338.7057
  68  344.0521
  69  298.1919
  70  217.1721
  71  262.0623
  72  199.2758
  73  191.5078
  74  244.6477
  75  360.9511
  76  294.7061
  77  288.9759
  78  265.8968
  79  158.2216
  80  200.1214
  81  257.3795
  82  245.1677
  83  265.521
  84  289.4087
  85  359.0899
  86  272.6136
  87  182.5479
  88  89.13293
  89  232.9251
  90  248.1989
  91  135.2001
  92  74.4967
  93  129.5607
  94  143.0108
  95  211.0856
  96  312.3149
  97  253.1232
  98  272.4226
  99  225.1633
 100  213.6987
 101  300.7373
 102  362.9128
 103  295.7294
 104  197.9436
 105  175.7258
 106  162.1857
 107  37.76525
 108  154.3655
 109  235.1552
 110  288.497
 111  286.0815
 112  269.5819
 113  308.4417
 114  276.5719
 115  247.1495
 116  320.5196
 117  397.63
 118  362.9012
 119  242.4586
 120  211.1089
 121  323.0718
 122  386.6689
 123  295.2994
 124  251.1568
 125  242.9564
 126  272.756
 127  341.6124
 128  265.6234
 129  252.747
 130  340.5744
 131  266.0757
 132  206.669
 133  162.2398
 134  259.12
 135  296.7447
 136  234.7802
 137  183.7476
 138  221.7482
 139  288.637
 140  249.2388
 141  362.0045
 142  327.0412
 143  204.9696
 144  206.5009
 145  174.4928
 146  243.2568
 147  186.9104
 148  187.3817
 149  85.00769
 150  331.3392
 151  380.3467
 152  213.9873
 153  216.5658
 154  170.5014
 155  171.1738
 156  221.0101
 157  225.3068
 158  311.2968
 159  323.4281
 160  330.8034
 161  205.8658
 162  233.4431
 163  287.3584
 164  287.0793
 165  394.579
 166  427.617
 167  303.5161
 168  262.1099
 169  266.1646
 170  223.4089
 171  307.0376
 172  262.6838
 173  278.1009
 174  320.6869
 175  344.5606
 176  352.5536
 177  359.3878
 178  333.5933
 179  289.0605
 180  368.8473
 181  393.66
 182  308.4875
 183  416.1271
 184  450.7314
 185  383.2853
 186  276.795
 187  191.0591
 188  265.693
 189  382.2249
 190  301.8605
 191  251.5817
 192  354.3238
 193  321.9534
 194  313.7781
 195  369.5449
 196  287.2303
 197  345.8573
 198  311.3133
 199  320.3737
 200  326.8036
 201  288.7033
 202  173.6674
 203  199.1591
 204  350.9655
 205  308.5583
 206  385.5
 207  263.4729
 208  210.0595
 209  139.6187
 210  154.1716
 211  237.6345
 212  260.4764
 213  435.6825
 214  317.2479
 215  202.0577
 216  268.4
 217  133.6948
 218  342.6173
 219  531.2786
 220  414.5845
 221  358.3167
 222  362.1415
 223  357.8588
 224  340.1092
 225  355.7881
 226  390.4489
 227  365.6577
 228  258.3081
 229  277.7562
 230  233.1434
 231  201.6697
 232  200.6765
 233  130.2316
 234  270.1309
 235  333.5972
 236  263.9836
 237  227.6414
 238  107.5602
 239  266.7529
 240  149.824
 241  266.052
 242  292.3693
 243  453.6853
 244  359.9865
 245  306.1089
 246  320.2769
 247  286.5445
 248  322.2863
 249  384.266
 250  274.482
 251  235.7647
 252  253.3496
 253  256.2119
 254  166.2493
 255  254.6054
 256  300.1058
 257  434.515
 258  430.2409
 259  314.1752
 260  250.1088
 261  261.7679
 262  182.1197
 263  128.6983
 264  158.1559
 265  173.7043
 266  269.1839
 267  166.6146
 268  242.0339
 269  316.9332
 270  292.4069
 271  238.8974
 272  289.4581
 273  329.2
 274  434.8235
 275  339.2384
 276  354.3547
 277  431.0459
 278  214.5686
 279  339.066
 280  283.2993
 281  250.3143
 282  397.9073
 283  303.3837
 284  210.6111
 285  125.9191
 286  188.3557
 287  186.1396
 288  237.9241
 289  231.6324
 290  184.2775
 291  297.3511
 292  388.3384
 293  332.1631
 294  268.1277
 295  293.8936
 296  399.8888
 297  258.1567
 298  326.6039
 299  394.362
 300  294.8873
 301  262.4212
 302  256.6719
 303  288.6775
 304  241.3201
 305  236.2372
 306  335.8234
 307  307.5187
 308  276.9369
 309  303.585
 310  299.415
 311  341.8802
 312  226.4765
 313  164.0174
 314  73.06323
 315  255.891
 316  257.1285
 317  253.014
 318  247.1437
 319  272.9223
 320  308.3368
 321  143.8286
 322  141.5429
 323  385.8878
 324  489.3024
 325  399.4873
 326  164.948
 327  190.9878
 328  209.5521
 329  178.3937
 330  102.255
 331  317.64
 332  394.1964
 333  371.464
 334  299.3011
 335  236.99
 336  378.3138
 337  396.6174
 338  234.7033
 339  188.3018
 340  454.7003
 341  421.9604
 342  231.8778
 343  293.8229
 344  284.7155
 345  154.6526
 346  263.438
 347  194.6739
 348  257.346
 349  297.0233
 350  192.6623
 351  275.8786
 352  215.6758
 353  190.7927
 354  292.7943
 355  258.8925
 356  328.4773
 357  381.6548
 358  243.9252
 359  214.6008
 360  292.5895
 361  231.7293
 362  258.8395
 363  279.4454
 364  343.2685
 365  214.1099
 366  162.4105
 367  225.2056
 368  321.6852
 369  315.8059
 370  330.1882
 371  204.5428
 372  274.9034
 373  357.3167
 374  216.4162
 375  240.247
 376  202.7811
 377  45.30234
 378  125.1264
 379  147.4911
 380  122.5481
 381  185.321
 382  262.5645
 383  334.0025
 384  328.2837
 385  221.8843
 386  331.0723
 387  305.2019
 388  319.1763
 389  321.3231
 390  192.5668
 391  219.3825
 392  272.0219
 393  281.1089
 394  183.02
 395  276.741
 396  368.7531
 397  294.1758
 398  270.0789
 399  205.2411
 400  155.2412
 401  222.7581
 402  259.1057
 403  247.2387
 404  150.4232
 405  169.1407
 406  212.0476
 407  258.4472
 408  266.2327
 409  92.34316
 410  223.8653
 411  305.2943
 412  211.1926
 413  157.7142
 414  99.85211
 415  12.67566
 416  100.6441
 417  184.735
 418  273.2933
 419  323.5071
 420  257.1239
 421  257.1278
 422  181.1791
 423  159.2066
 424  239.6151
 425  364.9741
 426  332.2771
 427  204.4964
 428  105.2506
 429  274.971
 430  211.2369
 431  173.1805
 432  129.0434
 433  192.6616
 434  173.1696
 435  133.7918
 436  149.794
 437  232.6356
 438  275.2144
 439  326.6845
 440  297.8462
 441  188.6927
 442  182.597
 443  175.7226
 444  207.3407
 445  298.8594
 446  289.7388
 447  140.7384
 448  225.8961
 449  295.0355
 450  267.9863
 451  296.0664
 452  273.4697
 453  259.3976
 454  321.5204
 455  249.1417
 456  269.373
 457  223.1447
 458  171.6681
 459  332.1419
 460  480.3289
 461  446.687
 462  265.6115
 463  240.8354
 464  333.0838
 465  279.5183
 466  280.5292
 467  297.7409
 468  301.7431
 469  270.9305
 470  223.2466
 471  134.135
 472  230.9668
 473  106.8855
 474  105.3534
 475  90.36591
 476  28.06855
 477  169.8022
 478  178.3793
 479  78.62772
 480  249.2621
 481  429.1711
 482  434.6266
 483  341.4376
 484  375.3797
 485  329.438
 486  354.2815
 487  230.6725
 488  335.6699
 489  295.6084
 490  206.7438
 491  268.9826
 492  364.8956
 493  424.0322
 494  390.3682
 495  318.8394
 496  301.019
 497  351.3857
 498  225.9855
 499  226.1574
 500  269.2365
 501  278.5975
 502  359.5083
 503  350.1963
 504  245.5253
 505  345.852
 506  312.5646
 507  383.6824
 508  226.493
 509  502.8252
 510  760.6381
 511  942.8499
