# Input file       =  1192212944.130537_cleaned.dat
# Candidate        =  PSR_0332+5434
# Telescope        =  AR
# Epoch_topo       =  58042.760719103440
# Epoch_bary       =  N/A
# T_sample         =  0.002
# Data Folded      =  7405568
# Data Avg         =  0.0291545109991232
# Data StdDev      =  0.999961880153663
# Profile Bins     =  512
# Profile Avg      =  421.560772548191 
# Profile StdDev   =  120.2617864914   
# Reduced chi-sqr  =  1.360
# Prob(Noise)      <  9.7e-08   (~5.2 sigma)
# P_topo (ms)      =  714.48284393074   +/- 0.00016
# P'_topo (s/s)    =  -0                +/- 8.39e-11
# P''_topo (s/s^2) =  0                 +/- 3.67e-14
# P_bary (ms)      =  N/A
# P'_bary (s/s)    =  N/A
# P''_bary (s/s^2) =  N/A
# P_orb (s)        =  N/A
# asin(i)/c (s)    =  N/A
# eccentricity     =  N/A
# w (rad)          =  N/A
# T_peri           =  N/A
######################################################
   0  1191.066
   1  1187.456
   2  921.3232
   3  796.4453
   4  517.8533
   5  377.7667
   6  487.0099
   7  398.7938
   8  353.5835
   9  420.3457
  10  309.6759
  11  267.5583
  12  343.4804
  13  413.5386
  14  363.1733
  15  511.2531
  16  403.3177
  17  291.1519
  18  445.4698
  19  417.9692
  20  382.608
  21  434.61
  22  419.6694
  23  363.3156
  24  464.3075
  25  519.6496
  26  485.9847
  27  505.4604
  28  490.2408
  29  351.0085
  30  330.165
  31  363.4477
  32  397.9193
  33  561.6359
  34  588.9761
  35  492.7551
  36  466.2304
  37  455.7125
  38  521.9024
  39  423.8345
  40  487.4646
  41  573.6662
  42  438.0133
  43  288.5843
  44  386.9037
  45  538.7588
  46  519.2863
  47  338.6804
  48  403.3489
  49  476.7002
  50  523.1409
  51  570.9613
  52  377.9503
  53  259.0796
  54  369.8128
  55  417.09
  56  353.0727
  57  453.9996
  58  410.0576
  59  315.144
  60  348.7838
  61  505.5576
  62  383.2418
  63  328.7325
  64  385.4826
  65  334.4886
  66  205.7929
  67  197.9069
  68  335.2503
  69  416.8873
  70  374.3304
  71  526.2944
  72  406.8028
  73  420.6862
  74  516.0743
  75  478.8
  76  410.6471
  77  408.5849
  78  432.4332
  79  526.9958
  80  366.7115
  81  375.9409
  82  372.0606
  83  305.7844
  84  338.5122
  85  357.4358
  86  459.75
  87  492.3364
  88  459.9094
  89  481.5754
  90  429.8586
  91  374.7377
  92  361.3369
  93  302.6033
  94  307.1288
  95  393.7433
  96  520.7948
  97  532.6128
  98  465.2456
  99  401.8237
 100  388.8881
 101  397.993
 102  456.3714
 103  385.9377
 104  349.205
 105  491.0341
 106  479.6557
 107  373.6919
 108  268.2328
 109  413.8922
 110  526.5037
 111  472.3808
 112  395.547
 113  422.2668
 114  381.3432
 115  341.9171
 116  344.8775
 117  356.2359
 118  478.1712
 119  444.3066
 120  395.9233
 121  404.9009
 122  406.7339
 123  303.7758
 124  249.5658
 125  282.7854
 126  493.6243
 127  382.1803
 128  303.3603
 129  344.8457
 130  388.7478
 131  323.7558
 132  341.583
 133  350.7858
 134  351.2618
 135  334.495
 136  397.19
 137  336.2731
 138  407.8469
 139  432.0466
 140  348.4221
 141  360.5185
 142  469.1713
 143  480.5657
 144  492.775
 145  406.9257
 146  406.9915
 147  380.1685
 148  381.7324
 149  310.1368
 150  540.2125
 151  638.2766
 152  589.1937
 153  505.6387
 154  484.3173
 155  449.6691
 156  402.6696
 157  428.9677
 158  428.6382
 159  527.9497
 160  515.7372
 161  338.6437
 162  350.0229
 163  423.2647
 164  585.9773
 165  387.6917
 166  352.5299
 167  351.2127
 168  444.5695
 169  382.1512
 170  380.9407
 171  465.2525
 172  538.9307
 173  527.873
 174  496.7284
 175  612.4174
 176  551.1736
 177  431.76
 178  537.7579
 179  454.8881
 180  274.6455
 181  335.1619
 182  425.8437
 183  313.5736
 184  395.5689
 185  421.981
 186  378.4106
 187  255.4722
 188  261.5916
 189  383.0859
 190  396.3348
 191  335.0042
 192  363.9467
 193  428.067
 194  463.1317
 195  523.7397
 196  359.8992
 197  436.3968
 198  459.6762
 199  408.098
 200  398.2112
 201  375.0246
 202  498.3601
 203  454.6973
 204  479.0632
 205  477.0123
 206  417.5818
 207  398.9812
 208  416.5602
 209  271.1581
 210  262.483
 211  398.6706
 212  361.136
 213  221.4327
 214  402.2207
 215  478.9994
 216  495.4202
 217  524.5571
 218  407.8389
 219  323.7965
 220  443.8341
 221  405.6809
 222  430.7882
 223  425.2851
 224  528.2074
 225  483.1617
 226  517.6013
 227  517.671
 228  498.7218
 229  515.9884
 230  440.415
 231  482.8101
 232  503.69
 233  423.8402
 234  394.2846
 235  492.9853
 236  477.003
 237  509.7253
 238  559.144
 239  503.9649
 240  403.1163
 241  537.7235
 242  415.8181
 243  523.1539
 244  623.2506
 245  644.9134
 246  468.8844
 247  472.5275
 248  493.653
 249  524.3832
 250  422.803
 251  376.0022
 252  413.235
 253  435.6807
 254  387.7411
 255  444.4245
 256  449.7879
 257  412.2676
 258  350.4491
 259  445.9437
 260  533.7379
 261  560.1923
 262  523.2562
 263  385.1488
 264  248.5655
 265  386.7863
 266  463.5365
 267  459.9804
 268  488.474
 269  618.9712
 270  439.4314
 271  337.8307
 272  262.5154
 273  356.4394
 274  455.6568
 275  423.6558
 276  393.4966
 277  360.205
 278  411.9931
 279  436.3911
 280  309.7489
 281  338.9845
 282  398.6251
 283  400.9865
 284  410.1503
 285  188.0326
 286  208.9613
 287  239.4084
 288  321.1275
 289  438.3934
 290  406.0128
 291  418.7112
 292  290.5943
 293  240.4815
 294  320.8124
 295  293.8624
 296  304.581
 297  236.6664
 298  307.6611
 299  509.8394
 300  494.8551
 301  482.3716
 302  585.2578
 303  471.615
 304  447.9161
 305  509.8486
 306  421.0592
 307  326.7431
 308  360.0962
 309  414.046
 310  457.3231
 311  442.5385
 312  418.6715
 313  393.147
 314  382.2892
 315  288.1041
 316  290.5433
 317  400.296
 318  460.2411
 319  401.5014
 320  420.9961
 321  519.325
 322  439.6482
 323  474.7898
 324  488.582
 325  462.061
 326  401.0467
 327  380.2608
 328  395.6765
 329  479.3612
 330  529.9044
 331  339.0374
 332  407.0382
 333  399.7368
 334  391.2314
 335  429.9788
 336  466.5619
 337  464.6014
 338  445.7064
 339  277.7312
 340  312.3752
 341  428.2781
 342  467.6235
 343  446.9626
 344  433.4094
 345  507.773
 346  459.4065
 347  470.9052
 348  432.5823
 349  276.8755
 350  391.1918
 351  478.9865
 352  295.9565
 353  377.9446
 354  334.5152
 355  374.1211
 356  493.6951
 357  466.0764
 358  493.6025
 359  398.8726
 360  441.8656
 361  549.0979
 362  475.3156
 363  436.7676
 364  333.9619
 365  408.3357
 366  339.9429
 367  467.7411
 368  393.5128
 369  472.175
 370  373.7721
 371  318.2568
 372  376.4284
 373  276.9307
 374  242.1122
 375  303.5851
 376  340.3438
 377  337.4939
 378  334.586
 379  452.8272
 380  435.3392
 381  353.0628
 382  367.3856
 383  428.4333
 384  542.5422
 385  530.2446
 386  502.1302
 387  359.2772
 388  390.274
 389  422.4166
 390  373.1988
 391  331.1682
 392  463.673
 393  462.885
 394  509.3627
 395  548.0869
 396  482.6214
 397  436.2421
 398  349.522
 399  486.4583
 400  623.0656
 401  521.6485
 402  446.4562
 403  337.086
 404  343.5527
 405  363.5273
 406  417.3801
 407  282.5792
 408  255.8212
 409  385.8611
 410  378.8729
 411  281.865
 412  193.9603
 413  389.4086
 414  397.9766
 415  421.33
 416  335.1563
 417  327.0642
 418  364.0052
 419  346.8278
 420  441.6321
 421  394.1422
 422  302.4721
 423  369.7707
 424  391.1829
 425  404.8867
 426  463.5228
 427  448.5603
 428  286.9003
 429  427.6909
 430  472.9341
 431  388.7592
 432  448.7964
 433  398.463
 434  375.0079
 435  509.1753
 436  536.6708
 437  443.7738
 438  325.2034
 439  493.0199
 440  532.5906
 441  477.1325
 442  414.5004
 443  362.8632
 444  375.0304
 445  416.3826
 446  449.9585
 447  346.6716
 448  508.9767
 449  454.0048
 450  406.7429
 451  340.5834
 452  335.6927
 453  284.1647
 454  344.179
 455  462.2793
 456  504.2007
 457  460.9379
 458  391.5138
 459  353.7098
 460  320.8201
 461  291.5112
 462  334.1674
 463  325.8187
 464  312.8615
 465  291.2511
 466  449.9737
 467  583.8317
 468  403.3395
 469  360.136
 470  396.3781
 471  500.1871
 472  445.2296
 473  420.9595
 474  500.2708
 475  514.7383
 476  559.5724
 477  493.1115
 478  484.025
 479  448.1842
 480  536.9797
 481  391.3129
 482  410.7534
 483  497.2481
 484  530.449
 485  461.5075
 486  390.6655
 487  317.2606
 488  331.5605
 489  369.0655
 490  432.7422
 491  446.4811
 492  474.6896
 493  416.1049
 494  481.8505
 495  456.5399
 496  357.6957
 497  346.4224
 498  375.0248
 499  496.222
 500  399.8508
 501  247.595
 502  402.0765
 503  410.2169
 504  377.0056
 505  369.5544
 506  418.084
 507  453.4284
 508  556.498
 509  548.1146
 510  772.9614
 511  957.4396
