# Input file       =  1192587082.133473_cleaned.dat
# Candidate        =  PSR_0332+5434
# Telescope        =  AR
# Epoch_topo       =  58047.091020063344
# Epoch_bary       =  N/A
# T_sample         =  0.002
# Data Folded      =  7340032
# Data Avg         =  0.0177236557708423
# Data StdDev      =  1.00002868966135 
# Profile Bins     =  512
# Profile Avg      =  254.048530293451 
# Profile StdDev   =  119.736471477032 
# Reduced chi-sqr  =  1.652
# Prob(Noise)      <  8.36e-19   (~8.8 sigma)
# P_topo (ms)      =  714.486590799164  +/- 0.000196
# P'_topo (s/s)    =  -0                +/- 1.03e-10
# P''_topo (s/s^2) =  0                 +/- 4.56e-14
# P_bary (ms)      =  N/A
# P'_bary (s/s)    =  N/A
# P''_bary (s/s^2) =  N/A
# P_orb (s)        =  N/A
# asin(i)/c (s)    =  N/A
# eccentricity     =  N/A
# w (rad)          =  N/A
# T_peri           =  N/A
######################################################
   0  1135.19
   1  1037.745
   2  832.7011
   3  577.2124
   4  323.7686
   5  256.7589
   6  257.1574
   7  309.9753
   8  348.3044
   9  283.8011
  10  204.046
  11  223.1318
  12  208.0459
  13  270.0388
  14  311.1566
  15  337.1719
  16  399.3449
  17  247.8773
  18  221.5867
  19  182.0918
  20  71.11888
  21  152.5384
  22  169.4336
  23  150.1179
  24  308.8255
  25  194.131
  26  171.3208
  27  171.8962
  28  120.0188
  29  289.8128
  30  409.4981
  31  246.9264
  32  240.7288
  33  215.552
  34  144.5164
  35  35.98181
  36  145.7653
  37  241.9406
  38  143.0832
  39  233.3725
  40  311.8913
  41  187.443
  42  137.2526
  43  163.9329
  44  214.8794
  45  153.8002
  46  169.5296
  47  242.8976
  48  264.3438
  49  209.9415
  50  257.8341
  51  178.835
  52  215.6406
  53  211.2216
  54  195.3947
  55  86.32079
  56  305.075
  57  215.4517
  58  207.5081
  59  181.8082
  60  87.90001
  61  168.0232
  62  208.1035
  63  299.9292
  64  277.2645
  65  169.2784
  66  250.9235
  67  198.9475
  68  122.9755
  69  225.166
  70  289.823
  71  258.1573
  72  239.1724
  73  139.0397
  74  188.9537
  75  291.6678
  76  227.9534
  77  210.1562
  78  238.9991
  79  258.3597
  80  276.871
  81  305.3744
  82  345.7237
  83  378.2515
  84  330.6379
  85  335.6017
  86  259.6309
  87  251.7774
  88  252.9128
  89  111.6739
  90  211.9696
  91  267.0938
  92  183.4425
  93  252.174
  94  312.4195
  95  187.2145
  96  173.1821
  97  236.1497
  98  40.79567
  99  100.1818
 100  235.0255
 101  229.7201
 102  219.0809
 103  120.066
 104  187.925
 105  138.5666
 106  242.3211
 107  362.4018
 108  314.0873
 109  222.9658
 110  329.7058
 111  320.9503
 112  182.4677
 113  168.9946
 114  178.9006
 115  182.3105
 116  306.3534
 117  149.9559
 118  158.8294
 119  295.8212
 120  321.9458
 121  212.3234
 122  267.1828
 123  213.6037
 124  129.5629
 125  204.6616
 126  166.4474
 127  199.8213
 128  191.7463
 129  218.2162
 130  260.7812
 131  359.5271
 132  311.8719
 133  130.0304
 134  192.9203
 135  264.2577
 136  230.745
 137  265.0666
 138  301.2007
 139  152.2489
 140  263.0217
 141  250.4444
 142  199.6488
 143  307.5118
 144  263.4113
 145  183.2992
 146  268.4661
 147  360.5896
 148  323.9388
 149  390.4615
 150  395.2629
 151  349.115
 152  413.3
 153  287.4287
 154  293.7821
 155  239.1969
 156  261.9012
 157  273.2119
 158  177.0934
 159  136.5051
 160  219.338
 161  341.3622
 162  392.9553
 163  249.6559
 164  227.6634
 165  385.6483
 166  329.6037
 167  129.9283
 168  101.0306
 169  171.0576
 170  260.9419
 171  266.6688
 172  282.906
 173  189.3488
 174  166.2891
 175  202.1374
 176  176.9373
 177  263.6801
 178  254.25
 179  146.4691
 180  218.3182
 181  303.341
 182  309.5506
 183  284.0838
 184  322.5073
 185  238.2227
 186  258.3868
 187  203.2694
 188  140.9418
 189  182.6051
 190  364.3206
 191  311.7661
 192  306.133
 193  250.7824
 194  307.7773
 195  312.0323
 196  281.984
 197  307.4984
 198  278.9335
 199  326.4859
 200  468.9179
 201  454.9328
 202  383.133
 203  323.5628
 204  198.5058
 205  182.2588
 206  171.5968
 207  158.1878
 208  199.5899
 209  273.2187
 210  323.3228
 211  337.9756
 212  242.3341
 213  230.7385
 214  303.5663
 215  235.8991
 216  261.0133
 217  378.1
 218  440.1642
 219  375.9087
 220  187.531
 221  302.113
 222  324.3962
 223  469.102
 224  378.8264
 225  383.947
 226  341.1035
 227  309.3383
 228  251.1443
 229  214.892
 230  284.9947
 231  290.1177
 232  117.5604
 233  65.76329
 234  147.9527
 235  208.321
 236  237.9549
 237  294.0316
 238  299.5273
 239  139.0308
 240  117.9767
 241  215.5107
 242  183.1213
 243  181.4055
 244  162.6891
 245  290.4965
 246  297.1832
 247  165.6664
 248  92.67265
 249  65.73656
 250  74.83977
 251  219.4701
 252  434.7708
 253  258.8746
 254  166.9514
 255  195.425
 256  212.6147
 257  310.6618
 258  331.8739
 259  382.4306
 260  329.4648
 261  291.8985
 262  223.6812
 263  206.5722
 264  300.3747
 265  306.591
 266  216.9752
 267  276.3484
 268  287.3466
 269  173.6016
 270  218.6213
 271  142.6338
 272  150.0554
 273  186.1195
 274  211.3265
 275  284.9804
 276  348.2312
 277  303.9817
 278  297.8593
 279  309.2853
 280  269.1615
 281  259.7792
 282  269.5238
 283  236.7768
 284  249.4253
 285  216.3291
 286  144.7849
 287  81.41029
 288  104.3777
 289  165.2937
 290  216.6514
 291  239.8494
 292  249.9408
 293  249.1859
 294  276.4919
 295  233.6877
 296  308.9192
 297  369.4051
 298  262.6027
 299  342.8574
 300  289.2107
 301  219.3916
 302  189.4657
 303  181.6225
 304  277.1434
 305  224.6783
 306  214.0165
 307  174.4743
 308  72.13004
 309  264.7972
 310  287.9766
 311  347.0722
 312  376.9069
 313  333.7827
 314  346.8553
 315  278.3963
 316  370.456
 317  352.4078
 318  299.0237
 319  247.1645
 320  206.6438
 321  155.1532
 322  186.2112
 323  275.8666
 324  386.9299
 325  346.565
 326  335.6218
 327  252.4201
 328  189.3394
 329  193.95
 330  236.6425
 331  184.6427
 332  245.0571
 333  236.5554
 334  167.366
 335  178.7828
 336  249.3499
 337  55.4399
 338  146.595
 339  166.8182
 340  165.3267
 341  149.5059
 342  182.3168
 343  254.1683
 344  231.5405
 345  213.1205
 346  295.6609
 347  283.0167
 348  291.6594
 349  309.9769
 350  210.84
 351  266.8295
 352  379.8366
 353  342.3499
 354  458.3896
 355  420.7585
 356  254.6663
 357  334.0638
 358  215.8066
 359  258.6106
 360  265.102
 361  308.3363
 362  193.809
 363  259.4893
 364  338.5439
 365  256.281
 366  225.381
 367  360.7808
 368  339.9201
 369  247.4771
 370  336.4919
 371  175.1238
 372  227.544
 373  100.1372
 374  187.2537
 375  331.2845
 376  345.8728
 377  231.5963
 378  232.047
 379  287.8721
 380  244.1982
 381  251.7378
 382  144.0288
 383  102.8539
 384  167.003
 385  183.7163
 386  258.0289
 387  307.353
 388  231.8522
 389  231.9512
 390  324.1422
 391  354.61
 392  135.7166
 393  122.5656
 394  150.46
 395  159.9324
 396  306.0145
 397  245.4913
 398  221.8412
 399  258.4458
 400  187.1475
 401  197.1862
 402  241.9319
 403  328.9095
 404  336.2186
 405  397.1362
 406  229.1676
 407  274.3845
 408  335.0073
 409  380.9653
 410  243.0292
 411  164.003
 412  180.6765
 413  247.113
 414  265.9785
 415  138.0658
 416  167.6068
 417  236.679
 418  249.9661
 419  313.2604
 420  305.7784
 421  253.706
 422  296.5189
 423  303.2616
 424  203.615
 425  365.0975
 426  455.5518
 427  481.3248
 428  469.3727
 429  412.8045
 430  477.0584
 431  385.0085
 432  297.9415
 433  314.8929
 434  258.7568
 435  176.0665
 436  100.9455
 437  99.30808
 438  103.3704
 439  176.4562
 440  184.7689
 441  289.0168
 442  260.9155
 443  257.8977
 444  229.659
 445  146.8865
 446  51.90224
 447  200.0067
 448  262.3583
 449  262.6401
 450  249.1015
 451  338.1057
 452  289.1698
 453  221.4742
 454  121.3383
 455  122.5004
 456  184.1717
 457  216.012
 458  213.1619
 459  195.5578
 460  187.0159
 461  239.6335
 462  293.7174
 463  265.681
 464  173.9948
 465  231.5609
 466  295.7255
 467  271.4631
 468  367.3191
 469  286.3718
 470  302.4898
 471  257.2226
 472  220.6152
 473  226.9354
 474  139.6514
 475  268.0552
 476  137.1481
 477  170.0954
 478  151.2987
 479  58.89794
 480  100.1289
 481  141.4642
 482  230.6996
 483  213.9112
 484  384.5896
 485  343.1747
 486  233.3344
 487  256.7629
 488  201.8272
 489  191.0994
 490  197.8045
 491  78.98626
 492  67.44456
 493  219.9859
 494  317.9908
 495  215.8644
 496  169.8707
 497  208.0022
 498  296.96
 499  329.278
 500  288.3546
 501  186.4964
 502  129.9832
 503  259.6238
 504  453.5293
 505  419.3075
 506  454.7937
 507  359.9122
 508  354.2403
 509  574.6673
 510  829.5836
 511  1049.796
