# Input file       =  1192902154.145084_cleaned.dat
# Candidate        =  PSR_0332+5434
# Telescope        =  AR
# Epoch_topo       =  58050.737686864399
# Epoch_bary       =  N/A
# T_sample         =  0.002
# Data Folded      =  7208960
# Data Avg         =  0.0183291139448044
# Data StdDev      =  0.999969773430197
# Profile Bins     =  512
# Profile Avg      =  258.032732767754 
# Profile StdDev   =  118.655589133671 
# Reduced chi-sqr  =  1.495
# Prob(Noise)      <  2.42e-12   (~6.9 sigma)
# P_topo (ms)      =  714.489281074954  +/- 0.000192
# P'_topo (s/s)    =  -0                +/- 1.03e-10
# P''_topo (s/s^2) =  0                 +/- 4.63e-14
# P_bary (ms)      =  N/A
# P'_bary (s/s)    =  N/A
# P''_bary (s/s^2) =  N/A
# P_orb (s)        =  N/A
# asin(i)/c (s)    =  N/A
# eccentricity     =  N/A
# w (rad)          =  N/A
# T_peri           =  N/A
######################################################
   0  952.1506
   1  904.6628
   2  934.2096
   3  725.0093
   4  438.6613
   5  377.9238
   6  337.8091
   7  192.5082
   8  288.8485
   9  353.2622
  10  287.9076
  11  294.6358
  12  261.6553
  13  358.5842
  14  222.9055
  15  272.4383
  16  233.5513
  17  144.3468
  18  86.56392
  19  243.445
  20  234.6271
  21  139.7039
  22  264.1252
  23  219.859
  24  260.9688
  25  246.9167
  26  273.2504
  27  126.5003
  28  198.1478
  29  136.0521
  30  41.28927
  31  114.3835
  32  130.1706
  33  151.16
  34  244.2694
  35  170.3681
  36  132.4011
  37  87.19328
  38  233.2922
  39  244.9728
  40  264.1884
  41  375.0123
  42  377.8881
  43  292.4174
  44  244.4423
  45  319.1638
  46  257.2834
  47  394.523
  48  340.4528
  49  258.9459
  50  258.2823
  51  358.7043
  52  197.5071
  53  234.8452
  54  277.2984
  55  322.341
  56  246.912
  57  255.0949
  58  268.0883
  59  261.0996
  60  314.4138
  61  209.3506
  62  186.8688
  63  293.7011
  64  305.0581
  65  246.77
  66  186.7766
  67  247.7821
  68  204.5276
  69  294.6429
  70  309.6107
  71  195.8631
  72  180.6575
  73  271.8704
  74  186.8403
  75  112.0648
  76  142.2246
  77  238.0429
  78  245.4911
  79  168.4187
  80  323.9133
  81  202.7102
  82  140.3594
  83  277.2922
  84  247.4532
  85  111.5587
  86  138.8427
  87  157.1118
  88  239.8802
  89  255.3221
  90  292.2475
  91  229.4241
  92  169.5797
  93  293.5159
  94  376.3733
  95  272.276
  96  291.3602
  97  163.3638
  98  112.5169
  99  122.8023
 100  120.9106
 101  316.1791
 102  249.5364
 103  198.0476
 104  246.6178
 105  217.4326
 106  222.0222
 107  147.8786
 108  179.1252
 109  341.7975
 110  238.2557
 111  254.5041
 112  270.2176
 113  202.1886
 114  273.9631
 115  228.3144
 116  231.8223
 117  252.7621
 118  284.9022
 119  247.6277
 120  211.5967
 121  215.5253
 122  329.0526
 123  299.0853
 124  180.1161
 125  180.0182
 126  143.4047
 127  126.4693
 128  200.0505
 129  194.1658
 130  176.5688
 131  165.0138
 132  263.8529
 133  458.278
 134  437.3586
 135  202.8469
 136  60.89653
 137  185.9202
 138  294.6666
 139  248.2692
 140  217.1073
 141  246.2464
 142  194.3558
 143  132.6608
 144  180.2664
 145  276.1147
 146  258.7932
 147  300.0672
 148  212.5182
 149  246.2538
 150  385.1017
 151  413.5092
 152  375.6484
 153  267.6646
 154  311.5541
 155  341.1847
 156  318.2558
 157  321.7005
 158  414.3967
 159  212.8708
 160  185.0247
 161  217.3242
 162  273.2141
 163  320.5303
 164  326.8253
 165  345.5159
 166  348.4807
 167  265.6258
 168  288.5472
 169  336.6247
 170  271.6038
 171  170.3387
 172  237.7087
 173  301.3552
 174  225.2202
 175  174.0984
 176  257.9134
 177  317.0045
 178  209.6999
 179  100.5459
 180  98.015
 181  247.4278
 182  261.2058
 183  244.5852
 184  312.8966
 185  283.6065
 186  160.3061
 187  170.6366
 188  222.3509
 189  245.5252
 190  339.3519
 191  333.6543
 192  299.108
 193  322.79
 194  220.2007
 195  146.6894
 196  85.40663
 197  246.8932
 198  143.6826
 199  55.95243
 200  188.2186
 201  253.6344
 202  194.7658
 203  187.9453
 204  333.3564
 205  284.1026
 206  203.1058
 207  172.8298
 208  288.8763
 209  282.3078
 210  236.3171
 211  193.2926
 212  249.9732
 213  292.5746
 214  205.5532
 215  373.961
 216  342.0093
 217  325.7907
 218  196.3735
 219  369.8754
 220  440.8252
 221  355.7208
 222  328.9955
 223  319.1779
 224  280.2008
 225  289.5937
 226  224.675
 227  255.7275
 228  258.548
 229  261.243
 230  277.0548
 231  306.2985
 232  311.028
 233  303.9433
 234  206.6353
 235  240.9331
 236  85.25578
 237  216.396
 238  231.2308
 239  259.1428
 240  263.498
 241  216.6251
 242  221.0184
 243  200.6087
 244  240.0986
 245  296.4041
 246  199.1209
 247  169.101
 248  323.4408
 249  287.8571
 250  234.7841
 251  147.9332
 252  140.7682
 253  317.7204
 254  327.2342
 255  368.705
 256  284.7851
 257  339.8604
 258  421.9345
 259  368.2499
 260  326.2791
 261  322.2491
 262  246.9067
 263  247.3947
 264  233.5231
 265  305.0602
 266  331.8781
 267  179.5112
 268  121.9505
 269  102.2152
 270  192.9465
 271  287.157
 272  252.7751
 273  213.744
 274  171.2097
 275  230.599
 276  313.446
 277  304.5746
 278  148.6373
 279  49.94135
 280  128.8258
 281  269.9107
 282  327.4783
 283  310.9596
 284  245.9492
 285  266.9395
 286  190.8935
 287  276.7777
 288  261.7637
 289  300.0905
 290  246.3368
 291  330.9427
 292  332.3057
 293  235.7935
 294  134.6633
 295  -37.41666
 296  136.0842
 297  288.0141
 298  324.1296
 299  188.6097
 300  306.2787
 301  438.2861
 302  252.3933
 303  280.2388
 304  304.2807
 305  284.2644
 306  360.0083
 307  263.7386
 308  266.0777
 309  322.6993
 310  291.4648
 311  247.7416
 312  332.0862
 313  304.767
 314  305.535
 315  360.4669
 316  280.871
 317  123.3031
 318  190.309
 319  201.1199
 320  182.8015
 321  339.0945
 322  337.3771
 323  167.4349
 324  177.7301
 325  188.5187
 326  297.6798
 327  241.2378
 328  368.9318
 329  326.5906
 330  189.1522
 331  207.2117
 332  201.8823
 333  347.5602
 334  253.0195
 335  164.5905
 336  230.5824
 337  228.1824
 338  328.3193
 339  253.7902
 340  239.6756
 341  305.5504
 342  271.7451
 343  228.533
 344  223.8062
 345  208.9361
 346  156.2009
 347  245.6819
 348  79.74419
 349  154.1023
 350  191.4854
 351  296.3269
 352  307.3546
 353  145.6723
 354  117.6934
 355  205.2934
 356  203.9246
 357  314.0815
 358  325.4864
 359  302.9255
 360  272.5949
 361  123.7526
 362  178.6588
 363  140.2273
 364  153.1801
 365  229.3233
 366  415.2338
 367  345.4903
 368  193.6439
 369  214.7001
 370  251.5999
 371  244.032
 372  125.7716
 373  237.3478
 374  281.9902
 375  254.5446
 376  225.2247
 377  345.285
 378  307.2716
 379  297.654
 380  317.3566
 381  467.0917
 382  413.0512
 383  217.265
 384  216.507
 385  264.0206
 386  278.9903
 387  254.4216
 388  337.6225
 389  272.9912
 390  266.1544
 391  266.58
 392  194.8873
 393  231.4514
 394  222.9342
 395  288.438
 396  213.7054
 397  196.5116
 398  172.6678
 399  194.8019
 400  259.1883
 401  287.4869
 402  356.0699
 403  329.8923
 404  319.2463
 405  278.4335
 406  296.4118
 407  234.8349
 408  230.3668
 409  293.1662
 410  284.6688
 411  290.337
 412  161.3262
 413  303.3995
 414  457.1023
 415  268.6718
 416  267.7147
 417  223.2778
 418  238.9633
 419  343.8023
 420  249.7711
 421  201.4947
 422  166.321
 423  143.2884
 424  251.4791
 425  247.9995
 426  357.7105
 427  257.877
 428  189.3448
 429  140.4593
 430  226.1911
 431  283.2495
 432  241.3665
 433  251.6686
 434  214.0194
 435  237.6289
 436  236.4557
 437  237.9961
 438  161.7287
 439  201.562
 440  240.3179
 441  246.4953
 442  244.6913
 443  224.7017
 444  363.2013
 445  347.6687
 446  221.6187
 447  375.8015
 448  302.4791
 449  160.2244
 450  277.5446
 451  311.8209
 452  209.9367
 453  246.3372
 454  234.4692
 455  234.7168
 456  254.696
 457  263.3822
 458  165.1884
 459  145.844
 460  263.9628
 461  178.9975
 462  218.4744
 463  208.0795
 464  189.2032
 465  120.5756
 466  144.3946
 467  123.9798
 468  63.28978
 469  193.4032
 470  281.2451
 471  224.2084
 472  244.8553
 473  253.0639
 474  100.7588
 475  7.970517
 476  125.6559
 477  315.4163
 478  444.8491
 479  340.1581
 480  159.6202
 481  155.9305
 482  129.5541
 483  138.6076
 484  193.9372
 485  229.7786
 486  330.9715
 487  470.2125
 488  377.2774
 489  297.0692
 490  346.2022
 491  399.1878
 492  385.7294
 493  424.5883
 494  362.1672
 495  373.5057
 496  426.3358
 497  227.9138
 498  140.3525
 499  147.7867
 500  305.3557
 501  232.9465
 502  323.684
 503  350.566
 504  455.0194
 505  458.1657
 506  382.4609
 507  320.2762
 508  385.3689
 509  561.8431
 510  691.4581
 511  997.0154
