# Input file       =  1192414777.133384_cleaned.dat
# Candidate        =  PSR_0332+5434
# Telescope        =  AR
# Epoch_topo       =  58045.096749228978
# Epoch_bary       =  N/A
# T_sample         =  0.002
# Data Folded      =  7340032
# Data Avg         =  0.00398118755827605
# Data StdDev      =  1.00008459920653 
# Profile Bins     =  512
# Profile Avg      =  57.099915483311  
# Profile StdDev   =  119.743165696639 
# Reduced chi-sqr  =  1.657
# Prob(Noise)      <  4.9e-19   (~8.8 sigma)
# P_topo (ms)      =  714.484995783722  +/- 0.000174
# P'_topo (s/s)    =  -0                +/- 9.2e-11
# P''_topo (s/s^2) =  0                 +/- 4.06e-14
# P_bary (ms)      =  N/A
# P'_bary (s/s)    =  N/A
# P''_bary (s/s^2) =  N/A
# P_orb (s)        =  N/A
# asin(i)/c (s)    =  N/A
# eccentricity     =  N/A
# w (rad)          =  N/A
# T_peri           =  N/A
######################################################
   0  834.0123
   1  829.1137
   2  411.778
   3  202.4438
   4  106.5602
   5  147.8976
   6  137.8911
   7  127.6475
   8  87.96783
   9  92.2384
  10  22.90432
  11  -35.49393
  12  54.53168
  13  119.2114
  14  24.71778
  15  7.903856
  16  187.2302
  17  176.8431
  18  166.3524
  19  48.21751
  20  -70.7933
  21  66.07671
  22  64.81518
  23  8.1787
  24  -6.609649
  25  14.49633
  26  23.1714
  27  -13.5426
  28  -56.76385
  29  -73.68387
  30  -91.3885
  31  -114.4678
  32  -98.2011
  33  -13.03669
  34  32.51619
  35  34.72833
  36  -53.647
  37  -56.5735
  38  121.4459
  39  143.5
  40  -1.334793
  41  51.40706
  42  33.55915
  43  76.45021
  44  37.14793
  45  28.24429
  46  5.247165
  47  12.65493
  48  13.10791
  49  72.21779
  50  12.25161
  51  39.35709
  52  7.498207
  53  -92.40593
  54  129.4769
  55  245.0157
  56  153.0306
  57  167.507
  58  27.37684
  59  51.35974
  60  19.2962
  61  -33.1539
  62  114.4031
  63  135.2359
  64  106.7109
  65  124.8153
  66  42.6921
  67  72.97884
  68  125.8589
  69  110.1955
  70  22.82965
  71  60.99985
  72  214.9337
  73  104.0234
  74  18.01753
  75  67.92697
  76  115.5048
  77  -38.1687
  78  29.28227
  79  -73.68355
  80  -96.45287
  81  -26.87841
  82  83.52424
  83  82.87688
  84  21.69947
  85  5.37546
  86  46.59485
  87  143.319
  88  58.6043
  89  -50.65581
  90  -79.11216
  91  37.2819
  92  53.19592
  93  0.9136953
  94  -28.39679
  95  -59.64106
  96  -47.44631
  97  52.17662
  98  231.2581
  99  275.1945
 100  40.19818
 101  15.61363
 102  144.0431
 103  95.04758
 104  76.69034
 105  68.23046
 106  72.24335
 107  -52.66656
 108  -135.425
 109  -61.07762
 110  -16.84329
 111  -0.2796799
 112  82.30081
 113  37.38873
 114  24.4946
 115  19.34047
 116  17.88372
 117  110.9292
 118  -13.22521
 119  -29.29957
 120  51.17994
 121  -9.109504
 122  -9.403611
 123  -106.173
 124  72.02061
 125  138.0425
 126  150.9273
 127  41.793
 128  35.01707
 129  -23.5044
 130  -102.1641
 131  -67.79835
 132  -64.37989
 133  15.20987
 134  129.0611
 135  16.90608
 136  -19.16159
 137  11.92012
 138  38.26801
 139  183.314
 140  124.4723
 141  -50.59016
 142  2.206445
 143  125.9358
 144  45.24539
 145  -111.9475
 146  -44.55524
 147  51.29582
 148  37.5974
 149  105.3634
 150  12.17803
 151  122.7207
 152  118.6304
 153  125.4389
 154  102.3971
 155  154.7782
 156  173.1183
 157  118.9675
 158  185.2812
 159  -24.08626
 160  -155.7486
 161  -77.86727
 162  -100.9666
 163  -50.14221
 164  151.3522
 165  179.1206
 166  165.5066
 167  53.67304
 168  41.29794
 169  3.810035
 170  71.49176
 171  175.3934
 172  110.9146
 173  107.7441
 174  -27.53213
 175  -197.0227
 176  -131.3516
 177  -8.886415
 178  80.69133
 179  112.4489
 180  97.55331
 181  -21.79047
 182  39.85897
 183  41.71243
 184  5.989207
 185  -25.55887
 186  -23.98359
 187  56.81633
 188  55.6754
 189  23.71826
 190  -10.7656
 191  -9.107627
 192  40.25861
 193  -55.35147
 194  -130.4557
 195  -78.90192
 196  -10.81437
 197  40.6624
 198  124.6117
 199  104.8874
 200  73.10306
 201  -59.48642
 202  38.12598
 203  47.19732
 204  142.1935
 205  23.28664
 206  -18.05902
 207  -41.18169
 208  102.3153
 209  190.563
 210  25.1666
 211  36.18159
 212  114.9466
 213  108.7411
 214  168.1044
 215  206.7979
 216  183.6502
 217  55.56244
 218  -8.776455
 219  2.629902
 220  -0.7486511
 221  -38.75981
 222  16.69213
 223  49.29642
 224  92.54406
 225  42.37622
 226  -52.72694
 227  63.49923
 228  40.81895
 229  -58.51943
 230  105.6058
 231  84.33308
 232  -77.65025
 233  28.41517
 234  49.74297
 235  -39.80177
 236  -117.4957
 237  37.36116
 238  22.28737
 239  -32.10386
 240  205.9641
 241  234.2822
 242  131.191
 243  44.32452
 244  111.0335
 245  67.61249
 246  -10.5282
 247  64.7747
 248  33.4322
 249  34.47532
 250  90.95496
 251  115.4071
 252  67.01125
 253  -18.53736
 254  -37.19726
 255  30.3151
 256  41.34168
 257  39.78416
 258  -30.08988
 259  -34.99849
 260  -2.08913
 261  97.36151
 262  137.1127
 263  138.1556
 264  24.51982
 265  85.8543
 266  -7.694443
 267  -14.25988
 268  55.42923
 269  146.0398
 270  154.7632
 271  135.2347
 272  80.16448
 273  7.546895
 274  -3.649697
 275  7.704889
 276  150.7512
 277  56.12872
 278  105.2007
 279  225.6205
 280  163.9002
 281  5.489823
 282  -4.900138
 283  114.7365
 284  132.4572
 285  28.50322
 286  88.44689
 287  223.6235
 288  154.7985
 289  110.7449
 290  -6.470679
 291  200.1108
 292  240.0244
 293  249.9395
 294  364.7595
 295  222.5473
 296  85.56217
 297  26.63137
 298  41.16696
 299  120.3296
 300  -18.85774
 301  53.03073
 302  57.75547
 303  23.37355
 304  -23.3479
 305  60.43336
 306  38.19743
 307  9.140033
 308  77.51934
 309  200.0755
 310  248.329
 311  51.12109
 312  95.93702
 313  74.45977
 314  27.28027
 315  88.33434
 316  31.12414
 317  58.13357
 318  -45.78489
 319  -5.643193
 320  -15.04072
 321  178.3061
 322  203.0123
 323  59.731
 324  -79.03423
 325  14.14419
 326  15.51616
 327  -129.2735
 328  -172.3763
 329  -49.55062
 330  -39.56766
 331  34.77934
 332  85.02325
 333  56.76773
 334  63.45224
 335  -36.61497
 336  -54.74247
 337  -10.04799
 338  -78.53401
 339  -41.49294
 340  -28.03468
 341  -46.96692
 342  88.21635
 343  24.27695
 344  -125.7979
 345  8.448759
 346  -18.26478
 347  -18.94233
 348  -116.5115
 349  -74.39859
 350  17.59605
 351  8.896102
 352  57.34544
 353  3.215181
 354  69.63096
 355  24.11778
 356  91.69281
 357  112.9181
 358  96.08456
 359  -31.70837
 360  -54.40906
 361  -98.43398
 362  43.85306
 363  99.30665
 364  24.61315
 365  49.16031
 366  218.1262
 367  138.3068
 368  -19.27454
 369  -100.4546
 370  71.5672
 371  92.7087
 372  92.94103
 373  225.9789
 374  224.5816
 375  88.5228
 376  -113.1041
 377  -107.1925
 378  -5.982445
 379  8.865154
 380  18.11495
 381  20.70025
 382  68.41203
 383  55.7748
 384  114.5546
 385  81.51092
 386  65.00323
 387  93.60938
 388  16.77592
 389  -14.89423
 390  86.71485
 391  35.43334
 392  -10.12409
 393  91.76392
 394  91.50636
 395  160.9813
 396  61.8108
 397  50.45394
 398  157.7313
 399  40.79601
 400  -160.0925
 401  -12.36844
 402  -32.88622
 403  24.7476
 404  91.77974
 405  -4.369064
 406  57.77197
 407  106.2286
 408  77.28443
 409  89.18545
 410  10.33227
 411  -8.749241
 412  169.7517
 413  144.8446
 414  166.2168
 415  104.1216
 416  -73.55775
 417  16.20518
 418  -81.74422
 419  125.2363
 420  247.2442
 421  74.13208
 422  85.30566
 423  3.623098
 424  -63.98187
 425  71.64599
 426  13.95551
 427  -76.70965
 428  19.99709
 429  117.8176
 430  113.8487
 431  112.9257
 432  58.95269
 433  222.2693
 434  69.52385
 435  92.8038
 436  70.80851
 437  85.27058
 438  119.667
 439  33.2977
 440  20.1138
 441  27.11262
 442  3.6071
 443  -43.71767
 444  -30.06639
 445  90.39246
 446  61.83046
 447  64.60323
 448  96.95226
 449  -64.74046
 450  -12.99069
 451  -22.64263
 452  4.015282
 453  137.5746
 454  231.8258
 455  105.411
 456  -22.51493
 457  -102.7333
 458  -29.63541
 459  -0.7858832
 460  54.41074
 461  104.9728
 462  61.75019
 463  -68.45565
 464  19.47243
 465  153.0154
 466  132.5839
 467  259.4005
 468  242.2723
 469  112.7394
 470  -46.5578
 471  -78.70535
 472  -38.61684
 473  -83.70064
 474  56.20245
 475  84.2884
 476  97.22513
 477  130.959
 478  47.11052
 479  -57.19748
 480  -30.15102
 481  57.08315
 482  140.4697
 483  164.1358
 484  -9.62582
 485  -74.62846
 486  9.00611
 487  141.9664
 488  101.6633
 489  -6.788846
 490  48.09877
 491  137.7272
 492  139.4116
 493  76.47579
 494  138.7337
 495  152.5411
 496  4.079662
 497  159.3889
 498  167.3416
 499  16.68154
 500  101.2766
 501  88.77728
 502  77.60625
 503  226.705
 504  155.9499
 505  218.2358
 506  176.9758
 507  40.05337
 508  295.7563
 509  537.1927
 510  796.6066
 511  820.5931
