# Input file       =  1192643699.13104_cleaned.dat
# Candidate        =  PSR_0332+5434
# Telescope        =  AR
# Epoch_topo       =  58047.746309387039
# Epoch_bary       =  N/A
# T_sample         =  0.002
# Data Folded      =  7143424
# Data Avg         =  0.0267488856804581
# Data StdDev      =  1.00003686943597 
# Profile Bins     =  512
# Profile Avg      =  373.20229642675  
# Profile StdDev   =  118.122939447455 
# Reduced chi-sqr  =  1.452
# Prob(Noise)      <  8.89e-11   (~6.4 sigma)
# P_topo (ms)      =  714.486780749281  +/- 0.000261
# P'_topo (s/s)    =  -0                +/- 1.41e-10
# P''_topo (s/s^2) =  0                 +/- 6.41e-14
# P_bary (ms)      =  N/A
# P'_bary (s/s)    =  N/A
# P''_bary (s/s^2) =  N/A
# P_orb (s)        =  N/A
# asin(i)/c (s)    =  N/A
# eccentricity     =  N/A
# w (rad)          =  N/A
# T_peri           =  N/A
######################################################
   0  1115.349
   1  1038.834
   2  798.7382
   3  708.3887
   4  502.4059
   5  342.3078
   6  228.9133
   7  253.5676
   8  271.7205
   9  306.8272
  10  397.8426
  11  457.2089
  12  439.2975
  13  434.2688
  14  468.2276
  15  335.8889
  16  357.441
  17  287.2362
  18  354.0367
  19  306.0667
  20  234.1065
  21  272.857
  22  239.4238
  23  399.6551
  24  411.1545
  25  411.2797
  26  382.2241
  27  343.2275
  28  328.6357
  29  442.2104
  30  344.8066
  31  406.2829
  32  363.0623
  33  393.4675
  34  367.0264
  35  416.0152
  36  428.184
  37  264.8125
  38  252.5075
  39  258.2014
  40  298.8261
  41  269.59
  42  192.4159
  43  267.6504
  44  196.0542
  45  363.1233
  46  395.1083
  47  273.9825
  48  283.287
  49  306.9571
  50  269.3308
  51  405.6355
  52  367.8814
  53  385.4268
  54  432.8557
  55  333.0712
  56  319.6776
  57  278.4877
  58  349.142
  59  379.8251
  60  356.3335
  61  484.0317
  62  327.7589
  63  236.8742
  64  241.3239
  65  177.073
  66  328.364
  67  424.5175
  68  378.8222
  69  332.6025
  70  349.1932
  71  396.5041
  72  365.0194
  73  350.57
  74  356.5463
  75  387.5541
  76  368.7454
  77  523.7082
  78  455.2062
  79  403.4404
  80  369.2022
  81  457.6248
  82  476.222
  83  422.1119
  84  454.7474
  85  367.5158
  86  290.1133
  87  273.2312
  88  384.3293
  89  488.0701
  90  393.635
  91  297.3631
  92  331.6831
  93  312.1007
  94  318.2074
  95  424.2495
  96  352.1528
  97  303.7263
  98  352.4156
  99  359.6731
 100  405.3888
 101  414.9809
 102  438.9471
 103  397.3827
 104  300.1269
 105  417.8202
 106  370.4396
 107  404.1011
 108  380.1314
 109  369.7251
 110  486.0347
 111  450.5328
 112  319.4344
 113  381.3508
 114  260.7596
 115  344.0496
 116  378.5094
 117  285.4824
 118  294.8424
 119  218.5062
 120  355.2991
 121  300.4803
 122  218.9754
 123  303.3742
 124  473.2206
 125  453.7022
 126  288.3867
 127  348.0336
 128  253.5105
 129  228.6265
 130  291.2349
 131  444.3322
 132  311.8282
 133  366.9858
 134  443.8172
 135  293.0558
 136  283.8246
 137  401.8875
 138  436.2044
 139  387.4612
 140  351.4341
 141  292.8396
 142  307.1504
 143  361.9071
 144  407.8144
 145  285.664
 146  355.979
 147  351.4339
 148  326.99
 149  306.2703
 150  232.4984
 151  296.6839
 152  389.0538
 153  271.0511
 154  217.8506
 155  224.7534
 156  377.9641
 157  316.9417
 158  365.3875
 159  424.8417
 160  438.9436
 161  460.5823
 162  459.0314
 163  385.1517
 164  322.9344
 165  393.0898
 166  309.7178
 167  292.815
 168  374.1571
 169  318.8688
 170  247.8209
 171  261.1334
 172  360.5656
 173  353.1896
 174  488.4655
 175  510.5845
 176  408.9412
 177  279.8805
 178  365.7424
 179  513.1815
 180  458.8611
 181  452.2415
 182  459.0257
 183  296.8161
 184  308.1365
 185  526.0967
 186  429.1749
 187  419.6373
 188  415.5955
 189  461.8493
 190  557.1297
 191  408.5763
 192  303.7524
 193  302.4097
 194  429.7005
 195  536.8232
 196  507.5233
 197  541.8184
 198  444.5589
 199  475.1645
 200  421.2685
 201  261.6325
 202  330.3605
 203  289.9179
 204  409.0728
 205  490.6902
 206  405.8252
 207  367.7406
 208  336.7661
 209  322.4169
 210  315.4199
 211  368.5695
 212  417.9734
 213  379.1918
 214  517.6848
 215  425.098
 216  300.8259
 217  330.4084
 218  273.3174
 219  210.8559
 220  386.0289
 221  454.4181
 222  433.7511
 223  291.7304
 224  364.1782
 225  353.5693
 226  298.8411
 227  330.7549
 228  271.7414
 229  162.2322
 230  198.677
 231  124.7003
 232  210.0592
 233  167.8931
 234  440.3133
 235  442.5706
 236  344.0498
 237  253.6292
 238  249.0303
 239  392.2412
 240  378.2713
 241  398.0516
 242  403.2971
 243  339.1978
 244  386.3171
 245  346.3307
 246  241.551
 247  174.6511
 248  219.4404
 249  357.9807
 250  324.2766
 251  318.9368
 252  331.7924
 253  337.9305
 254  356.0635
 255  390.0842
 256  518.0101
 257  362.4344
 258  321.1059
 259  368.5195
 260  272.1194
 261  473.668
 262  429.3278
 263  337.7145
 264  229.91
 265  347.8612
 266  441.9417
 267  347.701
 268  446.4224
 269  356.4873
 270  372.3564
 271  398.6682
 272  404.3818
 273  326.0062
 274  352.2665
 275  430.5727
 276  419.1564
 277  408.6825
 278  393.4412
 279  373.8591
 280  374.0308
 281  277.4799
 282  100.7425
 283  293.3281
 284  341.4107
 285  363.5914
 286  300.8586
 287  329.8089
 288  309.8765
 289  342.4462
 290  311.4717
 291  352.0739
 292  487.8607
 293  429.0596
 294  305.6875
 295  361.5871
 296  371.5376
 297  292.9839
 298  264.7939
 299  268.9018
 300  278.4753
 301  290.174
 302  311.2134
 303  377.938
 304  352.0064
 305  514.1991
 306  562.9323
 307  483.456
 308  345.6086
 309  311.9864
 310  321.4492
 311  306.8999
 312  299.7739
 313  372.2856
 314  373.2284
 315  263.585
 316  303.5618
 317  281.7144
 318  333.4425
 319  470.0974
 320  354.5072
 321  311.6671
 322  278.4151
 323  282.1828
 324  395.2393
 325  465.2616
 326  426.8449
 327  335.9366
 328  366.7746
 329  405.421
 330  419.8236
 331  408.4918
 332  439.8051
 333  403.6045
 334  382.9348
 335  302.3714
 336  459.5873
 337  558.1259
 338  361.9115
 339  379.6698
 340  459.4771
 341  558.3034
 342  531.1772
 343  359.5067
 344  185.0508
 345  337.4982
 346  494.0866
 347  502.069
 348  440.4221
 349  470.799
 350  388.8476
 351  311.0255
 352  361.0885
 353  341.0179
 354  370.0071
 355  364.9156
 356  440.2505
 357  462.6417
 358  358.4472
 359  359.7298
 360  372.1461
 361  275.5558
 362  235.8925
 363  333.1176
 364  401.3856
 365  330.3747
 366  322.5408
 367  371.5459
 368  270.2285
 369  378.9183
 370  471.4087
 371  495.6367
 372  317.0387
 373  411.2682
 374  394.8476
 375  374.933
 376  498.9099
 377  244.0247
 378  305.0164
 379  225.3398
 380  313.1653
 381  393.6325
 382  380.6349
 383  404.0549
 384  276.9369
 385  211.2343
 386  237.0831
 387  341.8538
 388  242.9733
 389  343.0756
 390  449.1403
 391  428.936
 392  492.8234
 393  351.0186
 394  423.1815
 395  372.9726
 396  342.2672
 397  381.0121
 398  319.601
 399  248.4498
 400  331.3402
 401  389.6934
 402  332.4607
 403  316.9264
 404  357.4191
 405  431.4052
 406  415.6111
 407  346.5446
 408  463.7766
 409  522.2726
 410  491.129
 411  465.8636
 412  332.8851
 413  325.3313
 414  443.4306
 415  384.9754
 416  318.8461
 417  395.4704
 418  222.1092
 419  352.965
 420  242.3306
 421  238.1738
 422  273.9558
 423  311.435
 424  313.2664
 425  289.8644
 426  353.3364
 427  495.3128
 428  325.4199
 429  354.7373
 430  325.7878
 431  277.6698
 432  328.7372
 433  419.4695
 434  324.7806
 435  267.3956
 436  306.2936
 437  401.9648
 438  439.9162
 439  332.6239
 440  257.0995
 441  288.8328
 442  388.3461
 443  304.321
 444  311.444
 445  463.268
 446  540.9948
 447  487.6466
 448  404.3871
 449  447.1921
 450  434.9611
 451  343.0672
 452  357.2709
 453  434.6271
 454  496.4916
 455  371.4529
 456  370.7399
 457  495.0314
 458  420.2077
 459  323.284
 460  316.209
 461  440.327
 462  328.9767
 463  382.2227
 464  515.2505
 465  534.053
 466  497.7166
 467  416.8238
 468  429.9444
 469  529.7823
 470  451.4976
 471  443.6266
 472  352.6021
 473  410.8594
 474  515.2064
 475  465.3411
 476  436.4907
 477  334.032
 478  347.9771
 479  474.0363
 480  403.838
 481  283.4958
 482  243.7321
 483  318.0959
 484  292.3661
 485  369.9956
 486  503.2107
 487  518.3615
 488  348.3905
 489  472.0884
 490  424.4849
 491  476.789
 492  384.2879
 493  396.696
 494  440.7662
 495  395.6111
 496  374.8338
 497  357.231
 498  506.981
 499  514.4681
 500  421.9287
 501  442.8098
 502  383.3252
 503  485.0266
 504  452.8079
 505  391.7593
 506  372.7807
 507  523.9451
 508  599.6459
 509  596.9171
 510  863.1974
 511  1106.65
