# Input file       =  1193764322.14598_cleaned.dat
# Candidate        =  PSR_0332+5434
# Telescope        =  AR
# Epoch_topo       =  58060.716483171062
# Epoch_bary       =  N/A
# T_sample         =  0.002
# Data Folded      =  7208960
# Data Avg         =  0.0236396526835961
# Data StdDev      =  1.00005156759422 
# Profile Bins     =  512
# Profile Avg      =  332.808539528139 
# Profile StdDev   =  118.665294761758 
# Reduced chi-sqr  =  1.359
# Prob(Noise)      <  1.1e-07   (~5.2 sigma)
# P_topo (ms)      =  714.498204297845  +/- 0.000175
# P'_topo (s/s)    =  -0                +/- 9.4e-11
# P''_topo (s/s^2) =  0                 +/- 4.23e-14
# P_bary (ms)      =  N/A
# P'_bary (s/s)    =  N/A
# P''_bary (s/s^2) =  N/A
# P_orb (s)        =  N/A
# asin(i)/c (s)    =  N/A
# eccentricity     =  N/A
# w (rad)          =  N/A
# T_peri           =  N/A
######################################################
   0  1020.901
   1  884.288
   2  704.5423
   3  468.6229
   4  412.4917
   5  401.4074
   6  378.5211
   7  312.8663
   8  398.9771
   9  396.647
  10  261.032
  11  363.2585
  12  453.3065
  13  420.6175
  14  401.3436
  15  377.7663
  16  316.6925
  17  291.8435
  18  363.7587
  19  253.7533
  20  304.731
  21  278.766
  22  374.0869
  23  283.6607
  24  250.0139
  25  269.58
  26  264.9322
  27  232.6409
  28  232.6894
  29  365.4147
  30  391.5724
  31  326.1081
  32  204.4215
  33  130.8897
  34  183.4801
  35  260.214
  36  389.9808
  37  383.4679
  38  311.6977
  39  303.1339
  40  306.3785
  41  325.9683
  42  292.2397
  43  399.1632
  44  374.602
  45  303.0173
  46  301.03
  47  312.7526
  48  364.069
  49  366.0442
  50  272.5828
  51  339.1155
  52  414.2547
  53  389.3686
  54  356.2964
  55  348.2761
  56  481.5442
  57  546.6896
  58  384.3229
  59  298.3913
  60  276.2768
  61  312.7943
  62  278.7826
  63  220.1189
  64  376.7853
  65  445.382
  66  390.7073
  67  400.5544
  68  456.9364
  69  401.6399
  70  360.5165
  71  426.6284
  72  409.5848
  73  384.3208
  74  241.7871
  75  409.3003
  76  438.2376
  77  364.219
  78  452.5556
  79  482.9687
  80  449.4106
  81  525.4433
  82  575.8313
  83  573.8674
  84  356.3188
  85  362.0966
  86  436.4482
  87  358.6706
  88  254.7154
  89  294.9483
  90  404.0189
  91  388.4166
  92  492.3751
  93  408.8445
  94  430.3109
  95  297.2509
  96  342.035
  97  373.735
  98  360.6146
  99  350.9156
 100  314.4018
 101  401.1297
 102  409.9259
 103  417.7703
 104  346.5552
 105  368.6511
 106  404.9604
 107  341.3713
 108  473.7879
 109  331.7111
 110  294.3362
 111  413.1414
 112  453.1658
 113  280.1136
 114  230.8052
 115  334.7854
 116  414.7943
 117  463.2562
 118  413.6496
 119  419.5203
 120  359.0124
 121  254.4739
 122  203.6425
 123  410.2958
 124  344.4553
 125  340.8018
 126  329.8197
 127  259.3228
 128  244.5624
 129  371.0627
 130  414.9065
 131  303.2845
 132  251.9517
 133  224.6777
 134  335.2458
 135  330.3909
 136  268.6843
 137  317.5287
 138  340.259
 139  345.5536
 140  329.002
 141  347.7971
 142  263.5626
 143  383.0869
 144  320.5084
 145  234.6185
 146  298.3915
 147  329.3372
 148  336.3698
 149  455.1792
 150  330.972
 151  234.568
 152  166.2079
 153  287.7986
 154  293.6819
 155  190.0462
 156  184.5075
 157  236.1887
 158  339.7278
 159  327.0498
 160  356.6613
 161  347.6772
 162  216.3398
 163  120.0938
 164  104.9023
 165  254.8568
 166  321.5371
 167  303.3569
 168  256.0269
 169  372.3011
 170  287.7447
 171  423.2889
 172  440.8154
 173  371.0299
 174  362.1921
 175  192.7944
 176  222.8991
 177  227.4813
 178  335.5118
 179  223.0051
 180  283.6548
 181  332.8727
 182  273.7142
 183  348.2741
 184  304.4268
 185  322.7282
 186  270.1505
 187  347.4183
 188  430.3912
 189  505.5694
 190  327.9481
 191  359.1635
 192  341.6646
 193  181.749
 194  224.8451
 195  262.2836
 196  317.362
 197  275.5129
 198  333.7639
 199  390.1922
 200  358.5537
 201  311.6525
 202  226.4812
 203  118.708
 204  252.2427
 205  223.1411
 206  301.7287
 207  284.9755
 208  358.8142
 209  281.7247
 210  314.7695
 211  301.3341
 212  216.1039
 213  241.5259
 214  400.6328
 215  371.9878
 216  331.0671
 217  334.7843
 218  392.8841
 219  375.2942
 220  309.9464
 221  381.2361
 222  368.8459
 223  409.2214
 224  357.1718
 225  370.2643
 226  372.3857
 227  341.7538
 228  284.8257
 229  253.0333
 230  249.1453
 231  386.4106
 232  363.2089
 233  93.15285
 234  191.2904
 235  319.2656
 236  291.9203
 237  210.6494
 238  316.6561
 239  337.4803
 240  254.2907
 241  199.5046
 242  235.1905
 243  312.848
 244  260.3057
 245  167.8801
 246  175.6451
 247  338.0245
 248  342.9432
 249  284.0518
 250  275.7808
 251  260.567
 252  240.0952
 253  245.6031
 254  340.5747
 255  425.621
 256  371.3951
 257  285.5708
 258  336.7679
 259  370.916
 260  403.6338
 261  351.9298
 262  217.881
 263  237.1082
 264  167.0012
 265  298.7988
 266  269.3788
 267  139.5976
 268  223.0331
 269  314.2817
 270  252.0116
 271  438.197
 272  261.4664
 273  328.1971
 274  313.3947
 275  345.878
 276  268.0651
 277  258.0739
 278  343.4944
 279  366.3723
 280  380.3004
 281  395.3373
 282  417.014
 283  369.5102
 284  481.0449
 285  274.0638
 286  303.7115
 287  426.4994
 288  531.5543
 289  387.7473
 290  229.6909
 291  112.2633
 292  280.7561
 293  339.3018
 294  225.8778
 295  289.1723
 296  394.9097
 297  333.8581
 298  210.1891
 299  161.9277
 300  287.0785
 301  216.1755
 302  254.5643
 303  346.8361
 304  204.9513
 305  319.0948
 306  342.7943
 307  348.0096
 308  321.3629
 309  228.7902
 310  221.0326
 311  145.6267
 312  146.425
 313  328.781
 314  342.0859
 315  301.7917
 316  356.6719
 317  318.488
 318  421.0295
 319  326.4472
 320  205.4693
 321  192.2001
 322  193.8001
 323  207.5866
 324  330.3527
 325  459.8834
 326  482.6746
 327  286.3537
 328  238.4238
 329  288.9941
 330  243.4504
 331  373.9941
 332  389.5374
 333  309.402
 334  249.3171
 335  191.9529
 336  328.9076
 337  467.7672
 338  294.9737
 339  241.2787
 340  334.8994
 341  315.381
 342  315.6304
 343  415.4103
 344  233.3476
 345  349.4896
 346  227.1174
 347  310.533
 348  382.2847
 349  393.5342
 350  410.9991
 351  375.1807
 352  390.3511
 353  249.1501
 354  223.4221
 355  418.2448
 356  377.9134
 357  346.3255
 358  290.9007
 359  239.9887
 360  297.6737
 361  341.2122
 362  443.3466
 363  409.0508
 364  536.4858
 365  276.7981
 366  148.5005
 367  211.4693
 368  325.1609
 369  399.6773
 370  372.9932
 371  291.6595
 372  237.4497
 373  218.5727
 374  211.6087
 375  255.2616
 376  350.8095
 377  370.5262
 378  302.0578
 379  262.4124
 380  433.1216
 381  442.782
 382  457.0411
 383  329.3198
 384  401.8571
 385  409.6007
 386  417.8926
 387  337.821
 388  385.925
 389  375.8155
 390  278.2859
 391  344.1971
 392  324.6084
 393  290.1769
 394  194.0586
 395  292.7447
 396  326.3012
 397  207.2015
 398  265.4187
 399  319.9201
 400  419.8595
 401  381.7365
 402  324.7982
 403  249.0316
 404  410.1332
 405  447.64
 406  477.9167
 407  397.5806
 408  423.7014
 409  290.8035
 410  273.9911
 411  370.5498
 412  443.4928
 413  431.8245
 414  189.3951
 415  253.8263
 416  370.5792
 417  417.6142
 418  426.7274
 419  399.1073
 420  326.9406
 421  259.0433
 422  419.014
 423  341.0816
 424  299.5301
 425  303.5322
 426  336.2846
 427  352.2897
 428  200.0904
 429  314.1352
 430  333.3976
 431  290.7148
 432  434.0192
 433  405.7084
 434  397.3789
 435  448.9775
 436  363.1106
 437  321.717
 438  362.8114
 439  195.9697
 440  144.9686
 441  215.7574
 442  454.6611
 443  393.3999
 444  283.1169
 445  329.7859
 446  325.1596
 447  236.1742
 448  271.0007
 449  280.589
 450  291.5301
 451  375.6578
 452  305.2072
 453  278.3346
 454  244.5413
 455  235.035
 456  181.1822
 457  233.7941
 458  234.2384
 459  247.1683
 460  374.1919
 461  296.8277
 462  269.2759
 463  318.0055
 464  270.3242
 465  227.6009
 466  201.7957
 467  240.5984
 468  437.4409
 469  347.1811
 470  343.1072
 471  309.7212
 472  335.89
 473  284.6442
 474  339.4892
 475  360.6948
 476  271.2644
 477  289.7166
 478  370.7179
 479  422.0672
 480  384.3143
 481  389.7061
 482  357.039
 483  309.1588
 484  355.5122
 485  404.2585
 486  355.0477
 487  362.041
 488  382.8354
 489  344.9873
 490  360.1742
 491  448.2138
 492  403.961
 493  367.0239
 494  490.3972
 495  549.2549
 496  364.3658
 497  360.5298
 498  248.8862
 499  290.3734
 500  294.6885
 501  160.447
 502  351.344
 503  345.5461
 504  463.5021
 505  454.7809
 506  352.3083
 507  475.9929
 508  579.4443
 509  680.0389
 510  860.1801
 511  942.9017
