# Input file       =  1193347623.151681_cleaned.dat
# Candidate        =  PSR_0332+5434
# Telescope        =  AR
# Epoch_topo       =  58055.893578144452
# Epoch_bary       =  N/A
# T_sample         =  0.002
# Data Folded      =  7340032
# Data Avg         =  0.0194611988707129
# Data StdDev      =  1.0000347468972  
# Profile Bins     =  512
# Profile Avg      =  278.86693229728  
# Profile StdDev   =  119.737196728273 
# Reduced chi-sqr  =  1.698
# Prob(Noise)      <  6.85e-21   (~9.3 sigma)
# P_topo (ms)      =  714.493804773927  +/- 0.000226
# P'_topo (s/s)    =  -0                +/- 1.19e-10
# P''_topo (s/s^2) =  0                 +/- 5.27e-14
# P_bary (ms)      =  N/A
# P'_bary (s/s)    =  N/A
# P''_bary (s/s^2) =  N/A
# P_orb (s)        =  N/A
# asin(i)/c (s)    =  N/A
# eccentricity     =  N/A
# w (rad)          =  N/A
# T_peri           =  N/A
######################################################
   0  1054.303
   1  1067.476
   2  953.6804
   3  720.2098
   4  516.0664
   5  298.4237
   6  377.6785
   7  344.7002
   8  271.4482
   9  400.5757
  10  427.9843
  11  508.261
  12  319.9899
  13  212.4619
  14  250.9006
  15  304.4158
  16  207.8166
  17  345.2635
  18  372.0712
  19  268.9745
  20  233.7668
  21  235.5454
  22  307.664
  23  213.6265
  24  206.6378
  25  197.0704
  26  245.9037
  27  324.0896
  28  376.2106
  29  362.3602
  30  191.8441
  31  199.4997
  32  185.886
  33  306.6529
  34  313.5595
  35  218.3815
  36  227.5882
  37  313.7841
  38  265.0893
  39  178.3036
  40  204.3328
  41  187.6498
  42  359.3322
  43  272.1405
  44  264.2589
  45  268.0007
  46  309.224
  47  369.1295
  48  346.9786
  49  230.5336
  50  195.0895
  51  198.9214
  52  244.3262
  53  258.8906
  54  315.0775
  55  313.0666
  56  275.5999
  57  168.692
  58  142.087
  59  220.6051
  60  354.5382
  61  390.5657
  62  313.1472
  63  158.9785
  64  175.5626
  65  318.2741
  66  251.3529
  67  185.8622
  68  202.7643
  69  249.2527
  70  209.3601
  71  200.9072
  72  317.8275
  73  300.8847
  74  239.0125
  75  354.93
  76  324.7543
  77  340.2565
  78  223.5335
  79  163.376
  80  90.0934
  81  335.532
  82  399.0354
  83  276.6236
  84  191.1534
  85  153.3676
  86  259.9739
  87  306.4579
  88  315.9399
  89  448.7719
  90  353.5061
  91  302.5339
  92  268.1661
  93  312.1388
  94  353.1718
  95  374.3792
  96  280.1343
  97  309.7416
  98  213.6127
  99  243.7437
 100  309.0868
 101  292.5123
 102  298.9445
 103  317.8929
 104  371.5127
 105  301.9589
 106  310.5205
 107  249.7754
 108  290.171
 109  266.9242
 110  235.9145
 111  337.4225
 112  505.7086
 113  341.1462
 114  161.0661
 115  236.4253
 116  432.2992
 117  309.3709
 118  107.3636
 119  175.1809
 120  240.7293
 121  259.0599
 122  302.7802
 123  420.078
 124  275.6936
 125  189.4167
 126  261.9343
 127  129.5405
 128  235.5619
 129  230.1329
 130  311.7905
 131  291.6379
 132  263.6294
 133  275.6295
 134  231.7219
 135  307.5661
 136  312.7249
 137  346.2896
 138  292.0519
 139  460.8566
 140  246.5726
 141  151.2827
 142  259.9559
 143  236.0202
 144  265.1424
 145  249.1722
 146  353.9611
 147  325.6602
 148  317.3427
 149  327.8395
 150  409.7094
 151  330.0282
 152  325.8375
 153  399.3556
 154  388.054
 155  331.3352
 156  304.9242
 157  320.9068
 158  321.1004
 159  275.8067
 160  181.2196
 161  295.626
 162  137.6319
 163  179.7674
 164  183.7247
 165  254.348
 166  188.5458
 167  198.5465
 168  273.7343
 169  270.3966
 170  314.5043
 171  210.8232
 172  149.401
 173  92.09325
 174  13.32488
 175  214.1314
 176  247.7525
 177  357.0561
 178  474.3867
 179  482.4186
 180  343.1964
 181  293.359
 182  323.5479
 183  254.0949
 184  246.7214
 185  213.2289
 186  363.223
 187  320.0834
 188  198.9682
 189  127.5556
 190  76.2796
 191  128.7393
 192  258.1997
 193  340.4001
 194  221.0062
 195  192.2566
 196  203.663
 197  252.6425
 198  153.7689
 199  322.8426
 200  335.9103
 201  264.1121
 202  311.4199
 203  331.7115
 204  85.95484
 205  220.4282
 206  247.8983
 207  246.9178
 208  251.2259
 209  221.0552
 210  144.1755
 211  275.7475
 212  286.7246
 213  243.7043
 214  197.6098
 215  213.407
 216  200.9232
 217  223.1557
 218  281.3977
 219  232.6655
 220  316.9438
 221  352.1656
 222  410.8684
 223  266.6946
 224  227.3013
 225  221.4606
 226  160.1208
 227  156.525
 228  155.5471
 229  349.0632
 230  517.1982
 231  467.1211
 232  392.3125
 233  301.2455
 234  252.7933
 235  277.6125
 236  287.7591
 237  435.709
 238  323.5545
 239  303.3866
 240  316.6236
 241  307.6863
 242  286.4608
 243  256.492
 244  333.4398
 245  287.895
 246  207.1676
 247  205.219
 248  226.6154
 249  220.5865
 250  289.2535
 251  328.5814
 252  266.081
 253  168.8568
 254  139.5726
 255  224.0146
 256  155.6981
 257  279.3722
 258  270.0878
 259  246.3024
 260  367.3969
 261  264.9454
 262  208.5104
 263  248.2117
 264  179.9903
 265  196.2787
 266  228.3598
 267  277.7528
 268  206.1946
 269  144.0775
 270  24.62316
 271  92.76624
 272  127.7534
 273  200.4404
 274  164.0397
 275  124.928
 276  276.0004
 277  264.7975
 278  227.4261
 279  325.374
 280  304.0417
 281  230.8176
 282  236.094
 283  140.5171
 284  206.88
 285  345.5052
 286  291.9543
 287  248.5747
 288  199.9122
 289  320.593
 290  296.6411
 291  180.213
 292  250.2814
 293  214.1622
 294  299.1163
 295  324.3927
 296  185.9203
 297  194.1586
 298  180.5467
 299  253.3642
 300  264.5075
 301  204.2671
 302  223.2411
 303  269.6276
 304  222.4068
 305  343.6051
 306  295.5375
 307  194.8994
 308  146.8076
 309  210.0961
 310  336.74
 311  368.7026
 312  364.9903
 313  148.8958
 314  302.1799
 315  312.7872
 316  330.3167
 317  268.5198
 318  247.9704
 319  206.426
 320  201.2655
 321  277.2215
 322  237.8972
 323  246.4895
 324  216.5244
 325  277.9879
 326  317.9147
 327  236.7396
 328  266.6261
 329  241.3901
 330  210.6486
 331  213.0502
 332  184.5293
 333  217.4784
 334  294.8264
 335  344.2426
 336  340.7801
 337  422.2188
 338  440.91
 339  371.3091
 340  343.448
 341  207.7063
 342  235.496
 343  336.1985
 344  395.8764
 345  426.3406
 346  401.1909
 347  244.9348
 348  229.4905
 349  240.4949
 350  252.3926
 351  226.5111
 352  372.1872
 353  379.9006
 354  280.2236
 355  160.9301
 356  192.4039
 357  217.1244
 358  241.084
 359  336.2768
 360  249.0882
 361  307.7565
 362  266.0049
 363  213.6594
 364  175.3964
 365  334.729
 366  332.6024
 367  281.3612
 368  249.6731
 369  320.9488
 370  299.5103
 371  315.8936
 372  319.6566
 373  228.1339
 374  235.0966
 375  266.931
 376  278.1992
 377  364.6802
 378  359.9162
 379  461.5344
 380  454.6327
 381  392.9178
 382  226.2725
 383  93.7276
 384  156.441
 385  195.5985
 386  255.8815
 387  232.241
 388  301.9755
 389  259.916
 390  270.8679
 391  300.225
 392  295.6029
 393  270.4138
 394  294.9433
 395  341.0752
 396  297.7894
 397  301.3874
 398  365.0724
 399  320.2987
 400  347.5032
 401  407.1089
 402  405.028
 403  283.3298
 404  277.6387
 405  289.1606
 406  235.0014
 407  259.559
 408  298.1691
 409  141.5094
 410  140.7484
 411  169.5006
 412  273.1445
 413  174.6285
 414  185.7872
 415  189.6512
 416  190.8038
 417  127.879
 418  204.478
 419  107.505
 420  57.46103
 421  105.9796
 422  231.9951
 423  246.2644
 424  193.373
 425  194.4433
 426  251.5614
 427  259.4703
 428  313.9042
 429  316.9001
 430  408.4807
 431  307.3796
 432  186.0086
 433  231.4052
 434  299.9384
 435  350.663
 436  490.6031
 437  477.5456
 438  274.2803
 439  276.3071
 440  345.6061
 441  316.0732
 442  230.8311
 443  328.8588
 444  279.4377
 445  189.2304
 446  256.6687
 447  434.2312
 448  393.9081
 449  314.855
 450  205.4505
 451  212.7728
 452  248.7636
 453  248.6202
 454  300.3267
 455  400.6466
 456  301.7809
 457  196.2418
 458  201.4439
 459  278.3757
 460  318.6736
 461  317.3143
 462  252.3696
 463  179.6062
 464  153.8893
 465  96.32095
 466  101.8531
 467  96.79538
 468  146.8555
 469  62.28812
 470  4.528227
 471  87.01824
 472  187.8562
 473  256.8398
 474  265.8418
 475  391.0745
 476  367.337
 477  216.7069
 478  198.9969
 479  328.086
 480  395.1057
 481  335.9393
 482  379.204
 483  286.8989
 484  393.0496
 485  285.1057
 486  263.4026
 487  391.1416
 488  410.0156
 489  228.0824
 490  268.8181
 491  224.2073
 492  240.7769
 493  295.3942
 494  307.3017
 495  298.2542
 496  183.1448
 497  271.7012
 498  301.8092
 499  423.2758
 500  354.6718
 501  327.0569
 502  326.6953
 503  419.4794
 504  385.1127
 505  334.5223
 506  370.9098
 507  337.3913
 508  439.7509
 509  688.826
 510  855.9606
 511  1051.907
