# Input file       =  1193362522.147271_cleaned.dat
# Candidate        =  PSR_0332+5434
# Telescope        =  AR
# Epoch_topo       =  58056.066020223043
# Epoch_bary       =  N/A
# T_sample         =  0.002
# Data Folded      =  7340032
# Data Avg         =  0.0165198167238993
# Data StdDev      =  1.00006395820774 
# Profile Bins     =  512
# Profile Avg      =  236.818834980125 
# Profile StdDev   =  119.74069428718  
# Reduced chi-sqr  =  1.367
# Prob(Noise)      <  6.14e-08   (~5.3 sigma)
# P_topo (ms)      =  714.494292570047  +/- 0.000166
# P'_topo (s/s)    =  -0                +/- 8.76e-11
# P''_topo (s/s^2) =  0                 +/- 3.87e-14
# P_bary (ms)      =  N/A
# P'_bary (s/s)    =  N/A
# P''_bary (s/s^2) =  N/A
# P_orb (s)        =  N/A
# asin(i)/c (s)    =  N/A
# eccentricity     =  N/A
# w (rad)          =  N/A
# T_peri           =  N/A
######################################################
   0  989.4282
   1  824.2603
   2  547.5067
   3  399.9671
   4  263.3793
   5  183.6277
   6  122.2433
   7  250.092
   8  351.996
   9  237.7198
  10  308.1
  11  357.7989
  12  297.4846
  13  290.4353
  14  234.8785
  15  277.7738
  16  223.2241
  17  319.992
  18  213.7243
  19  145.6534
  20  200.265
  21  63.04337
  22  55.97149
  23  134.55
  24  185.0343
  25  265.8579
  26  210.1423
  27  166.3813
  28  170.3889
  29  110.9669
  30  82.20413
  31  20.04055
  32  204.9653
  33  187.2235
  34  210.7573
  35  178.739
  36  203.5852
  37  189.5244
  38  170.2786
  39  107.5933
  40  132.222
  41  83.4449
  42  230.6124
  43  317.7584
  44  213.1534
  45  349.4193
  46  256.5562
  47  273.5639
  48  164.8239
  49  178.1592
  50  229.9054
  51  169.8817
  52  159.1948
  53  255.237
  54  255.1281
  55  135.2664
  56  234.1122
  57  187.4873
  58  105.1442
  59  347.029
  60  308.1483
  61  281.2415
  62  288.8415
  63  407.1665
  64  353.5335
  65  233.5705
  66  167.5028
  67  267.8854
  68  301.6013
  69  261.4055
  70  290.1299
  71  131.3768
  72  285.7051
  73  361.4243
  74  295.5712
  75  207.7399
  76  88.44779
  77  99.97983
  78  190.0716
  79  198.161
  80  220.6199
  81  232.8107
  82  206.7354
  83  161.5452
  84  152.3164
  85  289.2727
  86  379.3041
  87  137.707
  88  123.8842
  89  179.5521
  90  288.3822
  91  359.8611
  92  417.8773
  93  448.3535
  94  367.5468
  95  99.42624
  96  322.9538
  97  273.8834
  98  92.67089
  99  138.0422
 100  243.0948
 101  321.4314
 102  247.8315
 103  236.4538
 104  171.6058
 105  177.9211
 106  245.354
 107  270.6287
 108  193.912
 109  218.1226
 110  188.272
 111  133.5711
 112  293.4093
 113  205.6288
 114  263.5956
 115  338.8775
 116  215.6355
 117  231.168
 118  244.9916
 119  213.4184
 120  202.1768
 121  136.9065
 122  150.7482
 123  136.1261
 124  147.5179
 125  128.779
 126  65.15111
 127  245.3207
 128  379.4569
 129  397.8112
 130  289.2638
 131  375.9593
 132  287.0598
 133  258.1233
 134  291.3671
 135  168.2488
 136  147.7829
 137  223.7511
 138  252.719
 139  265.7861
 140  351.9341
 141  179.6644
 142  122.0242
 143  347.6596
 144  239.4416
 145  160.6398
 146  229.1533
 147  306.4955
 148  172.9942
 149  305.4193
 150  251.9186
 151  214.1522
 152  220.9288
 153  254.0479
 154  150.6132
 155  215.9742
 156  325.5625
 157  323.7939
 158  220.7845
 159  113.6526
 160  107.717
 161  237.4243
 162  228.8805
 163  100.7336
 164  95.52186
 165  111.9038
 166  4.458189
 167  129.8867
 168  270.6961
 169  212.8837
 170  312.2601
 171  187.7369
 172  121.6097
 173  220.4934
 174  90.50698
 175  123.5457
 176  88.89566
 177  100.3009
 178  195.0552
 179  257.0583
 180  259.133
 181  269.0334
 182  230.8839
 183  244.8123
 184  212.8071
 185  281.2529
 186  230.3589
 187  216.9543
 188  250.9017
 189  153.9318
 190  186.0231
 191  231.0424
 192  251.6188
 193  218.7004
 194  195.2492
 195  210.1813
 196  149.6215
 197  119.3337
 198  286.8527
 199  290.0389
 200  356.154
 201  322.338
 202  175.4107
 203  188.3154
 204  258.3205
 205  219.0609
 206  252.1165
 207  239.288
 208  315.3536
 209  227.5052
 210  317.5974
 211  219.8141
 212  194.7329
 213  204.6458
 214  115.6224
 215  175.1808
 216  225.2267
 217  316.5658
 218  257.4337
 219  305.298
 220  377.8777
 221  275.3293
 222  251.3799
 223  322.3355
 224  260.7041
 225  209.1026
 226  322.9055
 227  365.8139
 228  308.233
 229  336.4653
 230  262.0782
 231  289.4157
 232  355.3847
 233  247.8444
 234  109.8398
 235  144.3565
 236  186.4522
 237  206.6316
 238  161.7484
 239  100.9147
 240  128.8753
 241  51.06676
 242  248.6814
 243  376.6578
 244  273.4624
 245  215.7346
 246  202.8481
 247  206.0485
 248  293.4406
 249  304.4427
 250  320.3836
 251  297.8849
 252  175.2985
 253  147.9832
 254  220.5682
 255  162.5187
 256  223.7825
 257  264.1598
 258  213.4603
 259  183.4113
 260  280.9552
 261  395.8626
 262  377.8471
 263  294.9109
 264  237.1123
 265  207.8174
 266  298.7476
 267  220.4976
 268  319.9017
 269  393.0676
 270  259.8876
 271  277.0798
 272  239.0971
 273  159.6813
 274  121.9817
 275  123.2131
 276  176.3627
 277  223.7859
 278  300.2117
 279  339.7052
 280  316.9371
 281  251.1274
 282  265.2541
 283  247.9974
 284  174.4339
 285  279.9865
 286  115.0589
 287  103.4874
 288  100.5249
 289  140.2678
 290  197.396
 291  140.8976
 292  82.75655
 293  200.2601
 294  407.8087
 295  169.704
 296  32.7051
 297  198.7951
 298  275.168
 299  244.0914
 300  222.0418
 301  188.7105
 302  196.5794
 303  243.9324
 304  354.2849
 305  282.5149
 306  113.2296
 307  217.4207
 308  270.591
 309  311.4206
 310  181.267
 311  81.33497
 312  224.1744
 313  230.0721
 314  259.2462
 315  347.7932
 316  374.6752
 317  327.5576
 318  251.682
 319  221.5862
 320  247.944
 321  215.182
 322  243.0394
 323  301.1639
 324  263.0103
 325  260.8434
 326  302.7179
 327  275.4616
 328  199.2204
 329  277.2764
 330  384.6986
 331  347.0754
 332  377.1468
 333  268.0991
 334  232.225
 335  191.0335
 336  314.459
 337  412.744
 338  361.8344
 339  303.513
 340  324.7177
 341  209.191
 342  103.3623
 343  86.40733
 344  266.2972
 345  175.4222
 346  236.0987
 347  187.9333
 348  267.261
 349  428.2494
 350  223.5758
 351  177.4224
 352  79.56179
 353  144.5553
 354  211.1992
 355  378.013
 356  321.2091
 357  301.1119
 358  275.1664
 359  240.4584
 360  130.9103
 361  201.1338
 362  307.8119
 363  216.0751
 364  239.3622
 365  232.1318
 366  239.3726
 367  225.9059
 368  190.8833
 369  157.8482
 370  126.927
 371  105.6816
 372  145.4536
 373  282.1804
 374  402.9206
 375  230.1089
 376  358.82
 377  452.757
 378  263.5798
 379  238.2804
 380  242.1373
 381  130.1994
 382  185.3481
 383  317.4276
 384  189.467
 385  177.3811
 386  223.2003
 387  227.6909
 388  116.869
 389  248.9027
 390  283.2914
 391  316.3697
 392  227.9598
 393  84.51575
 394  148.7764
 395  289.8006
 396  205.9462
 397  305.0052
 398  172.5665
 399  196.39
 400  211.8345
 401  318.7119
 402  244.9963
 403  95.13318
 404  175.1088
 405  338.9026
 406  282.3267
 407  202.1874
 408  212.1385
 409  289.5716
 410  254.6595
 411  242.0013
 412  298.2935
 413  321.0866
 414  180.1192
 415  334.3218
 416  375.6477
 417  236.4387
 418  107.4693
 419  103.67
 420  240.9114
 421  172.7672
 422  210.1786
 423  228.819
 424  287.0252
 425  285.2656
 426  175.8511
 427  76.11224
 428  144.5592
 429  289.7144
 430  377.9394
 431  319.0206
 432  294.5815
 433  249.7991
 434  212.2496
 435  164.8507
 436  172.0385
 437  202.3373
 438  257.424
 439  219.2472
 440  194.5081
 441  174.6429
 442  252.2119
 443  311.0773
 444  245.6864
 445  138.6572
 446  123.6594
 447  249.9434
 448  225.2789
 449  211.8912
 450  250.4685
 451  256.1762
 452  219.2501
 453  215.6971
 454  256.3633
 455  189.0411
 456  222.0493
 457  200.4339
 458  295.4798
 459  302.779
 460  297.3679
 461  174.346
 462  198.2875
 463  311.3855
 464  208.3847
 465  252.6395
 466  295.2559
 467  193.9604
 468  200.3334
 469  214.8814
 470  242.8373
 471  193.3736
 472  195.5188
 473  334.0811
 474  189.022
 475  247.0611
 476  161.5607
 477  332.707
 478  322.6481
 479  111.039
 480  205.763
 481  207.8048
 482  161.5103
 483  206.7722
 484  148.7229
 485  161.2205
 486  144.7251
 487  120.8602
 488  36.62545
 489  95.85888
 490  96.50986
 491  126.7897
 492  148.802
 493  270.8763
 494  253.0798
 495  179.0814
 496  315.5362
 497  241.4141
 498  225.8181
 499  243.9425
 500  204.2643
 501  329.6602
 502  275.146
 503  200.071
 504  302.3619
 505  516.4685
 506  328.8518
 507  340.4927
 508  402.9832
 509  641.8923
 510  743.1793
 511  974.2895
