# Input file       =  1193419152.126804_cleaned.dat
# Candidate        =  PSR_0332+5434
# Telescope        =  AR
# Epoch_topo       =  58056.721459800974
# Epoch_bary       =  N/A
# T_sample         =  0.002
# Data Folded      =  7143424
# Data Avg         =  0.0116389981289518
# Data StdDev      =  1.0000573224088  
# Profile Bins     =  512
# Profile Avg      =  162.371463314448 
# Profile StdDev   =  118.125355323654 
# Reduced chi-sqr  =  1.439
# Prob(Noise)      <  2.59e-10   (~6.2 sigma)
# P_topo (ms)      =  714.49454023415   +/- 0.000204
# P'_topo (s/s)    =  -0                +/- 1.11e-10
# P''_topo (s/s^2) =  0                 +/- 5.02e-14
# P_bary (ms)      =  N/A
# P'_bary (s/s)    =  N/A
# P''_bary (s/s^2) =  N/A
# P_orb (s)        =  N/A
# asin(i)/c (s)    =  N/A
# eccentricity     =  N/A
# w (rad)          =  N/A
# T_peri           =  N/A
######################################################
   0  825.2756
   1  827.6213
   2  710.6129
   3  481.9885
   4  310.0065
   5  162.5454
   6  128.0507
   7  140.3933
   8  201.3851
   9  270.392
  10  247.3353
  11  401.8319
  12  282.8689
  13  123.5085
  14  264.4179
  15  254.5454
  16  192.4123
  17  223.2529
  18  228.0561
  19  140.0294
  20  106.0351
  21  24.06883
  22  94.16646
  23  156.6044
  24  169.8685
  25  122.1456
  26  85.44984
  27  15.9972
  28  158.752
  29  91.69127
  30  147.0825
  31  191.9637
  32  336.8091
  33  354.352
  34  244.3091
  35  268.9125
  36  234.9519
  37  242.3932
  38  253.6783
  39  193.7317
  40  102.4957
  41  85.92134
  42  68.48242
  43  17.05398
  44  91.49526
  45  82.56113
  46  129.6272
  47  98.91205
  48  179.4548
  49  213.8175
  50  248.5757
  51  189.829
  52  60.41673
  53  161.4972
  54  145.3283
  55  203.9996
  56  156.2058
  57  304.0101
  58  191.7308
  59  272.5788
  60  267.0929
  61  110.95
  62  267.8535
  63  138.196
  64  113.6844
  65  72.06478
  66  8.524141
  67  58.75293
  68  67.97289
  69  165.4861
  70  193.3115
  71  63.56417
  72  114.3938
  73  13.33018
  74  33.88882
  75  33.85064
  76  110.7978
  77  257.0759
  78  233.7207
  79  216.9533
  80  110.5449
  81  245.3017
  82  290.2878
  83  129.9537
  84  75.88177
  85  225.6123
  86  195.4736
  87  272.8081
  88  151.6833
  89  198.2473
  90  185.5243
  91  86.1954
  92  103.7622
  93  344.7711
  94  316.1372
  95  175.1595
  96  45.35316
  97  209.901
  98  143.0158
  99  186.123
 100  301.3576
 101  205.6484
 102  53.208
 103  213.278
 104  167.7713
 105  -9.882995
 106  52.53904
 107  102.5308
 108  135.9689
 109  113.4151
 110  162.5041
 111  221.124
 112  239.9091
 113  131.3226
 114  93.0693
 115  196.6909
 116  49.3587
 117  199.6639
 118  304.8816
 119  128.4504
 120  105.993
 121  149.2201
 122  183.0932
 123  113.0452
 124  140.2607
 125  151.8001
 126  205.7636
 127  111.2609
 128  156.9853
 129  94.98608
 130  84.1676
 131  10.42628
 132  62.93423
 133  140.5033
 134  51.49676
 135  191.9144
 136  202.643
 137  66.26854
 138  84.29658
 139  232.8237
 140  208.1705
 141  72.0143
 142  102.2746
 143  363.5659
 144  391.1437
 145  377.3893
 146  130.3899
 147  34.63246
 148  110.987
 149  193.6312
 150  112.1063
 151  169.4267
 152  158.1489
 153  144.8564
 154  151.3823
 155  115.2852
 156  44.66688
 157  36.59117
 158  110.8747
 159  108.2749
 160  77.26258
 161  95.19138
 162  241.6366
 163  208.659
 164  144.8727
 165  83.79495
 166  165.435
 167  178.6666
 168  259.5029
 169  298.1758
 170  211.5802
 171  196.3613
 172  151.3283
 173  210.2047
 174  205.985
 175  46.57294
 176  150.0677
 177  157.6492
 178  178.1855
 179  179.2793
 180  174.7977
 181  83.13118
 182  52.22116
 183  19.9077
 184  101.3691
 185  161.0273
 186  240.5192
 187  160.0296
 188  17.97095
 189  99.77925
 190  48.95803
 191  70.37473
 192  181.8359
 193  324.3457
 194  73.83975
 195  151.8181
 196  225.7249
 197  136.9773
 198  146.4093
 199  162.9113
 200  197.218
 201  137.2874
 202  109.2187
 203  77.37738
 204  144.5568
 205  148.1883
 206  276.7789
 207  263.1649
 208  184.5398
 209  23.00076
 210  59.29949
 211  176.723
 212  142.5434
 213  133.6478
 214  41.75485
 215  96.67327
 216  268.44
 217  184.9709
 218  193.8091
 219  112.1528
 220  115.2988
 221  137.2675
 222  157.1973
 223  225.2656
 224  172.7206
 225  221.6369
 226  68.81536
 227  149.4508
 228  147.7224
 229  205.9948
 230  292.9929
 231  163.6145
 232  170.7814
 233  86.46195
 234  129.4262
 235  146.031
 236  59.87908
 237  141.9845
 238  142.5188
 239  95.79179
 240  64.89619
 241  145.7672
 242  232.3601
 243  154.4657
 244  99.27261
 245  172.372
 246  172.9939
 247  128.8243
 248  171.3901
 249  155.278
 250  131.4627
 251  60.07901
 252  48.85088
 253  -53.27813
 254  -25.39216
 255  142.5603
 256  104.3134
 257  102.2968
 258  69.86686
 259  226.9674
 260  136.532
 261  116.289
 262  284.9261
 263  165.0683
 264  110.0126
 265  242.7395
 266  134.8709
 267  48.01922
 268  83.00536
 269  124.0439
 270  122.1324
 271  232.3913
 272  172.4308
 273  165.396
 274  86.86071
 275  225.2436
 276  230.4067
 277  231.5179
 278  312.0036
 279  229.8086
 280  52.65712
 281  99.18363
 282  110.2391
 283  114.3379
 284  232.9222
 285  211.4505
 286  123.9542
 287  37.63126
 288  18.02187
 289  133.0921
 290  131.125
 291  26.14748
 292  -34.12482
 293  89.83963
 294  129.1262
 295  149.5914
 296  160.8703
 297  118.9768
 298  -29.01777
 299  11.24867
 300  110.2074
 301  242.9712
 302  77.9473
 303  -7.127912
 304  208.9953
 305  229.5477
 306  266.3224
 307  75.60363
 308  80.33187
 309  97.66924
 310  19.47027
 311  112.8014
 312  143.8791
 313  151.849
 314  176.5911
 315  324.744
 316  389.5352
 317  215.1036
 318  84.35698
 319  142.5085
 320  219.0575
 321  37.51853
 322  19.45061
 323  151.7517
 324  75.98113
 325  145.539
 326  33.50364
 327  188.0384
 328  261.5644
 329  252.8899
 330  200.2837
 331  99.65198
 332  189.0146
 333  207.6251
 334  114.666
 335  104.1901
 336  65.6029
 337  79.46704
 338  150.2119
 339  186.9496
 340  89.21658
 341  64.8728
 342  136.7198
 343  249.383
 344  290.0486
 345  214.9079
 346  71.32223
 347  85.41609
 348  147.8693
 349  108.0313
 350  201.3663
 351  401.4586
 352  295.3165
 353  94.47756
 354  248.0572
 355  213.5399
 356  179.6873
 357  15.02258
 358  128.6336
 359  194.7849
 360  132.5773
 361  166.0025
 362  118.3332
 363  201.6513
 364  221.196
 365  139.0162
 366  132.1484
 367  125.2358
 368  165.9582
 369  209.9897
 370  174.8786
 371  129.4071
 372  99.37247
 373  103.3669
 374  66.03806
 375  344.6124
 376  297.7679
 377  134.8344
 378  181.497
 379  112.5104
 380  71.37353
 381  189.6183
 382  197.0874
 383  122.6847
 384  -5.848085
 385  101.5542
 386  186.7728
 387  69.06885
 388  43.71902
 389  167.7969
 390  104.1418
 391  189.7472
 392  251.0104
 393  167.3418
 394  167.068
 395  131.3154
 396  195.7177
 397  163.1079
 398  167.6549
 399  50.40335
 400  31.64283
 401  171.2207
 402  142.0271
 403  56.60129
 404  131.421
 405  159.8735
 406  130.5545
 407  189.8132
 408  126.9556
 409  232.7325
 410  290.8443
 411  114.9361
 412  68.32441
 413  60.09194
 414  142.4325
 415  133.1263
 416  193.2862
 417  156.8106
 418  118.9374
 419  177.3938
 420  210.738
 421  101.339
 422  129.945
 423  239.5475
 424  268.8593
 425  249.5564
 426  212.1217
 427  113.9009
 428  99.36964
 429  299.0866
 430  262.9193
 431  174.4707
 432  78.39167
 433  151.3461
 434  232.2026
 435  99.18296
 436  107.225
 437  196.7733
 438  284.3866
 439  134.5364
 440  140.0246
 441  107.4113
 442  15.25983
 443  90.27031
 444  152.2034
 445  52.67297
 446  145.316
 447  284.7442
 448  290.5083
 449  247.4269
 450  33.40503
 451  194.986
 452  107.5304
 453  108.1517
 454  202.3437
 455  78.56963
 456  4.855738
 457  -34.03646
 458  209.6544
 459  321.0575
 460  300.6857
 461  241.6056
 462  201.5453
 463  113.2402
 464  51.33813
 465  220.5406
 466  260.886
 467  143.1628
 468  198.5492
 469  206.6074
 470  187.7405
 471  195.1065
 472  208.5716
 473  277.569
 474  152.7737
 475  126.3854
 476  155.4378
 477  16.4919
 478  81.28419
 479  153.3882
 480  99.50507
 481  154.5885
 482  160.6248
 483  214.7344
 484  213.4522
 485  100.0427
 486  22.42105
 487  -59.39474
 488  116.4634
 489  195.1214
 490  228.5269
 491  122.5811
 492  118.0218
 493  250.6298
 494  191.4583
 495  146.096
 496  159.9168
 497  172.5376
 498  260.8869
 499  244.6004
 500  199.6496
 501  176.6218
 502  172.1369
 503  224.088
 504  373.4468
 505  349.3355
 506  311.2971
 507  285.7289
 508  375.9466
 509  409.8266
 510  646.4719
 511  824.4415
