# Input file       =  1193505289.155681_cleaned.dat
# Candidate        =  PSR_0332+5434
# Telescope        =  AR
# Epoch_topo       =  58057.718416153715
# Epoch_bary       =  N/A
# T_sample         =  0.002
# Data Folded      =  7143424
# Data Avg         =  0.0309741262170219
# Data StdDev      =  1.00013755404423 
# Profile Bins     =  512
# Profile Avg      =  432.113035989342 
# Profile StdDev   =  118.134832170861 
# Reduced chi-sqr  =  1.322
# Prob(Noise)      <  1.29e-06   (~4.7 sigma)
# P_topo (ms)      =  714.49544587616   +/- 0.000155
# P'_topo (s/s)    =  -0                +/- 8.4e-11
# P''_topo (s/s^2) =  0                 +/- 3.81e-14
# P_bary (ms)      =  N/A
# P'_bary (s/s)    =  N/A
# P''_bary (s/s^2) =  N/A
# P_orb (s)        =  N/A
# asin(i)/c (s)    =  N/A
# eccentricity     =  N/A
# w (rad)          =  N/A
# T_peri           =  N/A
######################################################
   0  1031.503
   1  1031.347
   2  915.4484
   3  679.2621
   4  444.634
   5  401.6063
   6  478.1925
   7  474.6005
   8  442.7432
   9  440.9452
  10  268.7656
  11  542.5715
  12  530.2047
  13  502.1007
  14  464.2242
  15  425.7579
  16  405.3712
  17  439.7845
  18  527.3735
  19  561.0171
  20  444.596
  21  474.456
  22  500.1737
  23  423.0828
  24  433.1191
  25  467.7804
  26  388.5499
  27  255.0478
  28  360.6293
  29  308.6824
  30  294.6613
  31  345.0989
  32  410.8422
  33  482.4642
  34  496.8489
  35  381.7539
  36  388.7868
  37  482.0305
  38  557.6454
  39  419.9669
  40  371.8805
  41  441.4202
  42  482.943
  43  494.0756
  44  481.3721
  45  498.5409
  46  496.5127
  47  613.8398
  48  671.7134
  49  582.5281
  50  439.4618
  51  365.8837
  52  507.6267
  53  601.476
  54  450.0495
  55  346.6942
  56  349.5091
  57  468.8751
  58  429.4038
  59  442.8753
  60  424.517
  61  433.6562
  62  608.9894
  63  611.902
  64  514.8625
  65  500.6499
  66  511.7419
  67  362.7992
  68  341.7199
  69  399.5913
  70  553.9184
  71  486.4934
  72  384.338
  73  499.2556
  74  521.4398
  75  508.4468
  76  550.0753
  77  332.7014
  78  202.5036
  79  296.0926
  80  439.0162
  81  558.5535
  82  447.9273
  83  386.4136
  84  377.5208
  85  427.9836
  86  390.8871
  87  323.3307
  88  354.5898
  89  419.4825
  90  525.3971
  91  484.8684
  92  396.0305
  93  316.0945
  94  433.9656
  95  456.9983
  96  390.8705
  97  505.4459
  98  550.6517
  99  476.1162
 100  208.9202
 101  292.297
 102  479.1789
 103  377.1859
 104  424.1276
 105  395.9648
 106  310.2266
 107  339.5988
 108  400.7654
 109  361.6404
 110  406.4675
 111  385.2986
 112  450.3475
 113  482.0714
 114  453.3607
 115  421.7039
 116  287.2961
 117  307.7718
 118  436.0686
 119  328.5741
 120  369.5566
 121  260.2298
 122  342.869
 123  357.1978
 124  310.4046
 125  322.2401
 126  466.3141
 127  553.9848
 128  409.3974
 129  402.6993
 130  389.8143
 131  358.5287
 132  207.0079
 133  385.2516
 134  453.1523
 135  391.8047
 136  463.2518
 137  512.9323
 138  389.8141
 139  310.5074
 140  375.2759
 141  387.7421
 142  354.5533
 143  376.066
 144  530.8134
 145  509.2403
 146  316.4216
 147  392.8633
 148  554.5272
 149  398.1024
 150  282.9064
 151  339.8223
 152  476.2335
 153  354.8405
 154  470.0897
 155  478.3482
 156  267.3005
 157  316.9125
 158  372.083
 159  464.8229
 160  513.3358
 161  446.301
 162  404.8644
 163  397.0343
 164  451.6108
 165  478.6697
 166  424.5161
 167  447.4337
 168  356.5374
 169  464.5662
 170  676.9442
 171  612.1257
 172  488.7238
 173  377.3749
 174  425.8318
 175  499.8974
 176  452.2078
 177  296.2926
 178  258.5583
 179  316.08
 180  509.9034
 181  520.6857
 182  365.2492
 183  470.7517
 184  428.9664
 185  305.2616
 186  331.1482
 187  427.0951
 188  523.8141
 189  486.8641
 190  332.8383
 191  293.2114
 192  239.6806
 193  421.5591
 194  522.3346
 195  505.3829
 196  477.4379
 197  557.4383
 198  492.4409
 199  468.2342
 200  406.8991
 201  423.9491
 202  437.2921
 203  473.1083
 204  476.3491
 205  506.3842
 206  422.3455
 207  320.6305
 208  325.0779
 209  386.8767
 210  354.0011
 211  278.977
 212  359.1688
 213  466.7349
 214  455.1977
 215  430.4982
 216  405.5818
 217  415.7428
 218  371.5387
 219  322.4502
 220  357.3706
 221  346.9483
 222  448.252
 223  518.8942
 224  594.1065
 225  502.0931
 226  553.7125
 227  475.2118
 228  441.9455
 229  409.7569
 230  420.4185
 231  372.1165
 232  387.0845
 233  527.3867
 234  592.8266
 235  549.199
 236  408.9657
 237  531.1135
 238  605.1715
 239  570.8651
 240  447.3253
 241  467.6768
 242  401.8982
 243  392.1205
 244  515.4163
 245  375.0459
 246  304.4196
 247  264.2037
 248  367.2773
 249  517.5738
 250  539.5417
 251  497.2368
 252  470.4967
 253  451.7832
 254  561.5026
 255  531.9843
 256  467.0842
 257  544.315
 258  520.1541
 259  393.8509
 260  424.3
 261  499.502
 262  491.0861
 263  454.4081
 264  413.5777
 265  520.4215
 266  521.435
 267  531.7597
 268  508.0614
 269  434.9307
 270  525.4879
 271  534.0002
 272  403.3105
 273  372.6905
 274  375.3462
 275  384.8835
 276  357.661
 277  394.2687
 278  508.2185
 279  429.2343
 280  450.9021
 281  420.9357
 282  441.4242
 283  352.086
 284  335.9957
 285  539.1174
 286  479.9378
 287  306.5549
 288  285.8979
 289  429.4492
 290  402.0316
 291  441.8466
 292  512.8967
 293  486.4057
 294  476.5189
 295  316.6017
 296  346.2077
 297  325.9613
 298  492.2652
 299  669.756
 300  508.8996
 301  513.2593
 302  533.0434
 303  453.3669
 304  280.5367
 305  381.0093
 306  479.8851
 307  494.8788
 308  513.1226
 309  535.4629
 310  396.3521
 311  310.8797
 312  317.6897
 313  311.4723
 314  418.8431
 315  377.3131
 316  430.0789
 317  460.1364
 318  383.984
 319  375.2615
 320  335.9215
 321  424.9948
 322  381.3421
 323  459.5674
 324  445.6691
 325  325.8596
 326  425.4242
 327  454.9811
 328  477.7196
 329  473.7721
 330  384.8921
 331  478.198
 332  392.2763
 333  333.7658
 334  362.4231
 335  428.4797
 336  368.6078
 337  234.5575
 338  360.733
 339  507.2484
 340  451.6916
 341  516.9046
 342  384.3752
 343  324.7733
 344  337.9288
 345  331.7208
 346  373.3442
 347  419.4112
 348  391.4216
 349  410.1486
 350  417.5617
 351  495.4385
 352  488.2091
 353  427.5432
 354  315.0621
 355  408.9228
 356  505.2921
 357  557.9824
 358  478.3481
 359  320.833
 360  353.5002
 361  339.0854
 362  324.433
 363  483.8932
 364  451.7438
 365  401.4944
 366  561.3095
 367  450.3294
 368  362.8557
 369  240.9691
 370  371.0309
 371  396.2278
 372  401.4749
 373  384.8961
 374  393.2072
 375  420.218
 376  514.5746
 377  380.9508
 378  285.3381
 379  332.082
 380  402.7621
 381  454.9597
 382  457.7577
 383  500.412
 384  377.5952
 385  504.4828
 386  466.6618
 387  378.0268
 388  390.2813
 389  429.9862
 390  515.0043
 391  445.1106
 392  511.8618
 393  409.4315
 394  379.306
 395  460.0492
 396  500.7465
 397  309.5814
 398  319.4338
 399  437.1379
 400  449.7604
 401  520.9573
 402  424.7172
 403  368.411
 404  403.1884
 405  354.8797
 406  368.3689
 407  308.3559
 408  481.3286
 409  477.2249
 410  499.0163
 411  432.8965
 412  507.1047
 413  518.6537
 414  391.6911
 415  379.7322
 416  534.5802
 417  491.2935
 418  395.8706
 419  410.4565
 420  367.3127
 421  320.1842
 422  442.5505
 423  356.4159
 424  236.7955
 425  362.1024
 426  450.4696
 427  399.7466
 428  336.748
 429  374.317
 430  291.4874
 431  329.9093
 432  386.6225
 433  382.8425
 434  473.3541
 435  495.889
 436  404.8701
 437  453.2257
 438  563.7523
 439  484.2753
 440  548.4524
 441  544.2843
 442  507.1145
 443  253.6296
 444  327.242
 445  378.8933
 446  346.5483
 447  342.9178
 448  464.63
 449  356.0332
 450  478.1207
 451  435.2968
 452  391.218
 453  527.8552
 454  397.3885
 455  384.3699
 456  335.8337
 457  359.4468
 458  539.5298
 459  606.1845
 460  523.5898
 461  547.7999
 462  379.7462
 463  510.9432
 464  412.1449
 465  313.6597
 466  392.107
 467  318.4193
 468  317.7614
 469  322.6083
 470  449.206
 471  443.7613
 472  435.5836
 473  414.7102
 474  439.8449
 475  422.839
 476  450.3709
 477  442.3976
 478  498.7655
 479  363.8636
 480  340.2583
 481  363.2239
 482  390.8709
 483  385.0915
 484  406.4124
 485  373.7821
 486  296.0659
 487  271.2161
 488  340.2438
 489  394.9426
 490  374.9951
 491  403.1329
 492  634.8564
 493  549.2061
 494  452.9687
 495  337.0358
 496  481.3997
 497  481.2467
 498  327.4713
 499  445.3407
 500  542.4426
 501  531.4282
 502  518.5973
 503  424.8299
 504  423.979
 505  457.4959
 506  400.2511
 507  459.9118
 508  494.3636
 509  553.5034
 510  872.1696
 511  1024.94
