# Input file       =  1193190199.154521_cleaned.dat
# Candidate        =  PSR_0332+5434
# Telescope        =  AR
# Epoch_topo       =  58054.071541140293
# Epoch_bary       =  N/A
# T_sample         =  0.002
# Data Folded      =  7340032
# Data Avg         =  0.0137995405612512
# Data StdDev      =  1.00000720082079 
# Profile Bins     =  512
# Profile Avg      =  197.856460012139 
# Profile StdDev   =  119.733898552903 
# Reduced chi-sqr  =  1.532
# Prob(Noise)      <  9.04e-14   (~7.4 sigma)
# P_topo (ms)      =  714.492515695999  +/- 0.000229
# P'_topo (s/s)    =  -0                +/- 1.21e-10
# P''_topo (s/s^2) =  0                 +/- 5.32e-14
# P_bary (ms)      =  N/A
# P'_bary (s/s)    =  N/A
# P''_bary (s/s^2) =  N/A
# P_orb (s)        =  N/A
# asin(i)/c (s)    =  N/A
# eccentricity     =  N/A
# w (rad)          =  N/A
# T_peri           =  N/A
######################################################
   0  1005.638
   1  877.4828
   2  574.2561
   3  352.7307
   4  284.1691
   5  150.0795
   6  200.155
   7  199.9086
   8  124.6277
   9  190.6511
  10  211.65
  11  152.3355
  12  121.7263
  13  192.0541
  14  229.7479
  15  335.6103
  16  331.3574
  17  394.652
  18  166.6913
  19  140.3344
  20  264.0087
  21  258.4871
  22  190.2491
  23  231.2507
  24  270.8332
  25  107.4299
  26  59.74411
  27  129.4705
  28  245.3493
  29  311.3025
  30  263.4714
  31  99.41759
  32  173.5274
  33  382.3138
  34  381.9664
  35  131.2358
  36  96.69786
  37  177.9842
  38  207.9018
  39  185.435
  40  224.9863
  41  323.8364
  42  319.0013
  43  192.379
  44  184.3759
  45  256.4462
  46  232.3454
  47  164.6015
  48  203.6057
  49  261.7322
  50  179.7977
  51  132.273
  52  136.8313
  53  216.1366
  54  142.3735
  55  223.0056
  56  262.4417
  57  265.5261
  58  223.7996
  59  220.6378
  60  298.4427
  61  265.0916
  62  197.6307
  63  198.1347
  64  144.0658
  65  249.3355
  66  164.2141
  67  283.2693
  68  370.3861
  69  195.1618
  70  143.7408
  71  184.1539
  72  145.7762
  73  221.9796
  74  309.1645
  75  337.209
  76  304.0792
  77  68.7579
  78  171.6133
  79  343.1942
  80  290.4608
  81  215.7473
  82  254.0966
  83  360.8799
  84  261.6555
  85  326.115
  86  247.1549
  87  234.2783
  88  87.13876
  89  120.321
  90  119.3367
  91  285.6855
  92  273.8495
  93  214.3404
  94  212.9711
  95  213.0802
  96  284.6419
  97  355.7943
  98  149.6679
  99  198.9923
 100  317.8285
 101  356.8007
 102  362.3154
 103  290.7699
 104  153.2643
 105  123.3059
 106  253.1042
 107  156.2122
 108  99.14
 109  156.4288
 110  284.5435
 111  243.2313
 112  150.0741
 113  186.8302
 114  146.8024
 115  79.44309
 116  109.1881
 117  154.0014
 118  166.6552
 119  278.418
 120  177.691
 121  329.223
 122  350.6257
 123  233.5432
 124  180.1043
 125  160.5294
 126  201.7138
 127  189.5539
 128  189.6676
 129  229.7283
 130  181.7067
 131  142.3602
 132  200.1528
 133  300.3303
 134  373.0358
 135  306.0688
 136  171.4361
 137  179.2016
 138  159.6532
 139  200.998
 140  84.63731
 141  49.655
 142  61.52467
 143  138.61
 144  99.20666
 145  73.99779
 146  229.2038
 147  84.24507
 148  202.8203
 149  194.5975
 150  173.4156
 151  266.1196
 152  276.9383
 153  299.7949
 154  307.7622
 155  225.099
 156  182.9798
 157  180.7622
 158  242.2562
 159  193.8266
 160  113.5576
 161  143.8703
 162  129.5627
 163  160.339
 164  230.2627
 165  183.5777
 166  49.76687
 167  167.1913
 168  397.2786
 169  294.2294
 170  186.353
 171  201.3599
 172  175.4198
 173  89.44804
 174  7.942266
 175  191.9047
 176  216.6735
 177  111.9168
 178  140.5625
 179  126.6733
 180  188.4904
 181  221.4783
 182  192.4179
 183  161.5002
 184  233.9969
 185  347.8892
 186  248.3359
 187  167.9212
 188  132.1504
 189  162.5669
 190  154.4249
 191  70.19505
 192  125.7412
 193  175.1939
 194  50.95156
 195  193.1623
 196  276.3129
 197  220.2266
 198  49.78656
 199  186.2507
 200  200.0423
 201  197.5927
 202  155.9202
 203  97.40522
 204  57.35588
 205  26.94369
 206  147.9097
 207  168.299
 208  44.54445
 209  91.86784
 210  70.19178
 211  99.54671
 212  149.7447
 213  119.0884
 214  235.6297
 215  165.2662
 216  156.2215
 217  179.436
 218  241.8432
 219  259.6485
 220  262.2025
 221  164.6525
 222  190.3743
 223  192.3696
 224  145.1576
 225  92.21003
 226  142.8079
 227  111.017
 228  303.2422
 229  252.8353
 230  276.5051
 231  287.5154
 232  353.9973
 233  261.6225
 234  149.8679
 235  256.5629
 236  327.5359
 237  201.6468
 238  245.8456
 239  245.5321
 240  98.5405
 241  117.9711
 242  271.6537
 243  112.8027
 244  44.64882
 245  132.2364
 246  141.3245
 247  267.8837
 248  207.919
 249  227.5607
 250  292.1957
 251  133.2577
 252  80.23322
 253  207.216
 254  321.1929
 255  303.4075
 256  254.8269
 257  228.3003
 258  275.6209
 259  271.3133
 260  250.5527
 261  210.2265
 262  121.5914
 263  219.393
 264  293.1562
 265  270.6526
 266  281.776
 267  298.9481
 268  317.6049
 269  175.2397
 270  182.8889
 271  153.1097
 272  42.07015
 273  156.256
 274  183.3758
 275  217.1492
 276  120.3813
 277  182.9836
 278  201.4036
 279  269.62
 280  287.3283
 281  282.2328
 282  305.6481
 283  191.674
 284  145.6654
 285  234.0914
 286  393.2621
 287  238.6754
 288  298.1602
 289  279.2813
 290  248.1405
 291  198.7553
 292  152.0945
 293  167.2153
 294  212.2956
 295  174.5442
 296  145.3639
 297  298.5341
 298  319.5627
 299  199.5226
 300  81.17024
 301  150.3728
 302  93.14695
 303  125.2809
 304  238.5858
 305  188.8181
 306  109.7319
 307  100.4478
 308  105.7289
 309  160.9408
 310  99.24043
 311  190.2794
 312  256.9703
 313  122.0471
 314  111.4596
 315  85.9561
 316  150.9724
 317  140.7039
 318  153.2026
 319  228.7373
 320  123.0305
 321  105.6017
 322  36.77425
 323  39.88646
 324  61.51815
 325  186.0112
 326  378.3912
 327  213.3699
 328  238.0851
 329  201.6376
 330  186.2126
 331  267.333
 332  85.162
 333  107.6624
 334  25.59319
 335  64.31371
 336  154.3257
 337  104.3476
 338  205.8075
 339  150.9817
 340  166.2067
 341  110.8156
 342  236.8681
 343  177.7296
 344  110.9195
 345  55.47423
 346  64.79882
 347  72.98865
 348  107.7125
 349  191.0954
 350  173.8625
 351  162.5134
 352  97.13004
 353  71.89101
 354  234.1993
 355  212.2858
 356  329.1718
 357  298.204
 358  66.80647
 359  54.14457
 360  225.3711
 361  170.8332
 362  87.59315
 363  119.9244
 364  122.7672
 365  156.7702
 366  114.9349
 367  168.0724
 368  210.2133
 369  270.315
 370  247.9839
 371  246.927
 372  178.1786
 373  150.1405
 374  229.863
 375  169.7923
 376  220.0202
 377  66.59377
 378  97.45079
 379  141.6575
 380  124.7587
 381  57.02522
 382  166.0118
 383  232.6089
 384  223.2778
 385  240.5912
 386  225.4969
 387  250.8082
 388  232.5954
 389  276.3605
 390  235.5053
 391  112.1501
 392  264.3745
 393  190.3239
 394  117.3469
 395  191.7548
 396  155.2122
 397  4.844204
 398  81.29416
 399  22.89394
 400  -85.14658
 401  -42.49523
 402  93.93313
 403  185.5507
 404  64.04476
 405  50.98125
 406  85.76995
 407  159.0582
 408  204.3982
 409  253.9261
 410  249.4523
 411  222.483
 412  148.899
 413  190.4632
 414  82.93581
 415  182.8219
 416  226.9884
 417  263.999
 418  210.6748
 419  111.7969
 420  180.5783
 421  151.415
 422  176.0322
 423  255.7405
 424  198.2502
 425  252.0841
 426  161.6425
 427  200.533
 428  260.792
 429  253.7169
 430  142.1281
 431  55.45771
 432  214.3511
 433  128.5004
 434  79.27396
 435  106.216
 436  211.2705
 437  225.2266
 438  223.8641
 439  256.7139
 440  207.8496
 441  204.5643
 442  135.0855
 443  3.959662
 444  147.4644
 445  56.21238
 446  38.65912
 447  208.496
 448  -18.69641
 449  97.72977
 450  192.1597
 451  155.5655
 452  190.1409
 453  226.1674
 454  269.3416
 455  84.83739
 456  144.1397
 457  212.2415
 458  160.9218
 459  69.40743
 460  72.0629
 461  166.1372
 462  54.08132
 463  35.2785
 464  111.5682
 465  99.36149
 466  109.5771
 467  88.85467
 468  148.6487
 469  205.9316
 470  128.7775
 471  170.4431
 472  268.4713
 473  85.48021
 474  262.3941
 475  390.8058
 476  264.5833
 477  263.6385
 478  217.8965
 479  288.5088
 480  264.7184
 481  291.1192
 482  205.8308
 483  270.176
 484  83.3509
 485  123.703
 486  202.4971
 487  330.6643
 488  328.1741
 489  256.5689
 490  379.7573
 491  325.9536
 492  281.9
 493  295.3582
 494  206.6587
 495  16.16962
 496  -43.01953
 497  211.3584
 498  334.5038
 499  234.7072
 500  144.0284
 501  65.45585
 502  146.9357
 503  414.2127
 504  427.871
 505  338.5466
 506  359.9555
 507  361.6923
 508  574.5743
 509  690.3345
 510  633.1808
 511  826.9843
