# Input file       =  1193104069.1423_cleaned.dat
# Candidate        =  PSR_0332+5434
# Telescope        =  AR
# Epoch_topo       =  58053.074665998844
# Epoch_bary       =  N/A
# T_sample         =  0.002
# Data Folded      =  7340032
# Data Avg         =  0.0148023929110995
# Data StdDev      =  1.00011183593727 
# Profile Bins     =  512
# Profile Avg      =  212.228665796694 
# Profile StdDev   =  119.746426833111 
# Reduced chi-sqr  =  1.262
# Prob(Noise)      <  4.9e-05   (~3.9 sigma)
# P_topo (ms)      =  714.491641208041  +/- 0.000154
# P'_topo (s/s)    =  -0                +/- 8.13e-11
# P''_topo (s/s^2) =  0                 +/- 3.59e-14
# P_bary (ms)      =  N/A
# P'_bary (s/s)    =  N/A
# P''_bary (s/s^2) =  N/A
# P_orb (s)        =  N/A
# asin(i)/c (s)    =  N/A
# eccentricity     =  N/A
# w (rad)          =  N/A
# T_peri           =  N/A
######################################################
   0  806.2918
   1  779.4273
   2  613.2184
   3  279.2889
   4  270.0692
   5  267.8941
   6  272.4237
   7  195.8293
   8  37.13966
   9  187.6001
  10  347.3187
  11  290.442
  12  362.5104
  13  224.1814
  14  196.1261
  15  256.26
  16  322.6331
  17  365.992
  18  219.7888
  19  268.7087
  20  214.4458
  21  239.0374
  22  75.10146
  23  145.4173
  24  207.0012
  25  233.3718
  26  198.8486
  27  88.81503
  28  47.65254
  29  238.329
  30  342.9399
  31  458.7208
  32  297.8197
  33  53.61666
  34  191.8672
  35  236.3253
  36  250.8583
  37  342.964
  38  183.0067
  39  238.3833
  40  273.2336
  41  145.7868
  42  212.6748
  43  236.9307
  44  141.2159
  45  75.01625
  46  145.3007
  47  240.5298
  48  180.2916
  49  144.4018
  50  303.4546
  51  234.1722
  52  258.9936
  53  186.1
  54  254.7957
  55  374.3572
  56  392.6465
  57  210.3653
  58  208.2188
  59  242.5008
  60  237.2152
  61  243.711
  62  314.6238
  63  248.1257
  64  106.5111
  65  98.26699
  66  169.7209
  67  211.3839
  68  155.5831
  69  330.5926
  70  196.5646
  71  117.0776
  72  260.3719
  73  144.1214
  74  138.9623
  75  161.2199
  76  97.45991
  77  148.2322
  78  180.3001
  79  229.9368
  80  237.3106
  81  363.7038
  82  256.1294
  83  221.5529
  84  80.5936
  85  206.9228
  86  118.4272
  87  -31.7947
  88  72.06432
  89  128.1549
  90  226.2639
  91  215.1996
  92  139.6261
  93  143.5816
  94  190.6716
  95  242.5457
  96  205.2494
  97  142.661
  98  181.3219
  99  263.3885
 100  263.8906
 101  131.2319
 102  2.061189
 103  13.92893
 104  252.4897
 105  268.1821
 106  271.9176
 107  202.1521
 108  144.9016
 109  265.3398
 110  275.9801
 111  261.9463
 112  166.1901
 113  333.5235
 114  228.003
 115  223.9289
 116  177.1542
 117  183.1464
 118  243.7328
 119  313.2213
 120  184.5109
 121  37.53636
 122  111.0631
 123  25.0826
 124  180.8708
 125  172.3479
 126  267.5652
 127  225.0807
 128  243.6758
 129  288.5921
 130  168.3168
 131  290.3307
 132  332.0046
 133  283.5907
 134  233.2705
 135  204.735
 136  143.7719
 137  73.99432
 138  113.7669
 139  150.6683
 140  210.7729
 141  207.6273
 142  159.1121
 143  173.7766
 144  166.1199
 145  -8.45784
 146  79.8341
 147  182.0242
 148  184.3111
 149  186.9325
 150  270.7234
 151  139.3219
 152  127.4427
 153  212.7935
 154  299.3103
 155  266.3525
 156  147.2117
 157  186.007
 158  117.9866
 159  56.34628
 160  168.4901
 161  102.9474
 162  126.0414
 163  301.5154
 164  220.114
 165  118.4494
 166  230.8687
 167  163.9452
 168  219.5095
 169  201.542
 170  308.8449
 171  214.9848
 172  77.28072
 173  167.208
 174  286.3251
 175  261.6647
 176  244.174
 177  190.1054
 178  90.18031
 179  207.2296
 180  313.7949
 181  211.5962
 182  241.7918
 183  129.4689
 184  160.9423
 185  210.2117
 186  203.3954
 187  238.1241
 188  217.3232
 189  178.7529
 190  17.29487
 191  88.48737
 192  178.8045
 193  207.4787
 194  161.4133
 195  50.85322
 196  118.6664
 197  187.5644
 198  224.804
 199  111.712
 200  106.8735
 201  88.77309
 202  218.0252
 203  171.5336
 204  208.4425
 205  181.3405
 206  126.7143
 207  32.30652
 208  11.38815
 209  75.02785
 210  29.32371
 211  86.01303
 212  129.0014
 213  284.1944
 214  301.3605
 215  159.47
 216  134.8119
 217  51.39495
 218  15.80671
 219  -51.36018
 220  70.42089
 221  146.6262
 222  160.5779
 223  172.1626
 224  85.14395
 225  160.1554
 226  315.6462
 227  337.6314
 228  288.7787
 229  254.1528
 230  221.0023
 231  286.7712
 232  453.0516
 233  339.8971
 234  189.2462
 235  123.412
 236  155.7572
 237  162.2769
 238  107.0746
 239  293.2543
 240  221.2114
 241  160.8598
 242  143.698
 243  302.0186
 244  357.8688
 245  219.1768
 246  240.7003
 247  196.6859
 248  309.4346
 249  304.5703
 250  292.6838
 251  239.8334
 252  171.0249
 253  223.8616
 254  328.2939
 255  193.9401
 256  150.7426
 257  192.6679
 258  209.139
 259  250.4097
 260  347.0265
 261  282.8768
 262  270.7169
 263  378.8151
 264  304.4028
 265  211.943
 266  204.3907
 267  135.9242
 268  106.6551
 269  94.86787
 270  282.6002
 271  292.6655
 272  147.9932
 273  2.514639
 274  70.36147
 275  172.2084
 276  170.4514
 277  308.6906
 278  290.587
 279  280.718
 280  127.4569
 281  59.58424
 282  117.6173
 283  199.0009
 284  105.0945
 285  115.2272
 286  140.1516
 287  251.4075
 288  212.9197
 289  185.55
 290  231.9536
 291  221.0253
 292  202.0221
 293  237.2987
 294  279.4391
 295  207.5456
 296  245.2631
 297  164.2778
 298  272.6809
 299  305.8799
 300  292.4638
 301  397.7855
 302  224.7582
 303  189.8832
 304  188.0553
 305  197.8525
 306  213.7355
 307  232.4802
 308  324.1344
 309  210.8535
 310  298.3878
 311  266.3198
 312  161.5713
 313  178.7472
 314  258.2939
 315  180.823
 316  53.58699
 317  194.9874
 318  283.596
 319  278.4411
 320  458.7617
 321  369.6326
 322  257.5884
 323  227.9247
 324  101.372
 325  232.4969
 326  297.926
 327  303.201
 328  204.5082
 329  160.8407
 330  133.315
 331  82.55745
 332  204.6013
 333  245.5271
 334  169.1278
 335  111.1418
 336  63.07564
 337  188.6797
 338  100.7926
 339  184.0275
 340  266.1389
 341  219.652
 342  186.315
 343  293.8657
 344  433.015
 345  283.1593
 346  158.3081
 347  238.8582
 348  253.3192
 349  180.3547
 350  96.02615
 351  210.5794
 352  197.352
 353  99.57433
 354  147.6289
 355  227.5447
 356  298.0096
 357  271.4786
 358  176.1908
 359  264.0093
 360  183.7776
 361  211.2289
 362  242.4555
 363  294.2874
 364  240.8026
 365  70.19453
 366  148.6999
 367  169.9986
 368  253.1967
 369  198.2943
 370  261.453
 371  293.8315
 372  155.9626
 373  63.13683
 374  179.2549
 375  193.0837
 376  270.85
 377  292.1832
 378  30.79093
 379  134.528
 380  207.1363
 381  206.3551
 382  145.5019
 383  231.7543
 384  173.0288
 385  195.1758
 386  254.9257
 387  268.2507
 388  119.0658
 389  221.582
 390  221.7897
 391  88.84541
 392  116.6611
 393  223.5891
 394  311.6429
 395  158.7739
 396  86.22336
 397  130.1573
 398  147.9603
 399  222.163
 400  153.6078
 401  169.8971
 402  288.3304
 403  321.4207
 404  258.6327
 405  294.9999
 406  222.9063
 407  248.5051
 408  273.2439
 409  170.9171
 410  180.2699
 411  105.5056
 412  133.1366
 413  121.085
 414  229.1513
 415  244.9978
 416  160.0857
 417  175.8664
 418  276.7972
 419  225.9847
 420  155.9685
 421  159.5547
 422  166.4081
 423  124.1936
 424  186.94
 425  308.4679
 426  211.6748
 427  137.2468
 428  195.3115
 429  280.9804
 430  280.6559
 431  232.1198
 432  217.993
 433  302.6417
 434  187.2628
 435  143.7708
 436  133.4795
 437  245.4051
 438  243.6846
 439  224.0715
 440  199.9428
 441  151.081
 442  212.6577
 443  156.5739
 444  220.2803
 445  90.957
 446  169.353
 447  251.2832
 448  231.3159
 449  275.9433
 450  286.5053
 451  220.7657
 452  221.8211
 453  339.8355
 454  259.9612
 455  108.1036
 456  225.7364
 457  255.9794
 458  286.0273
 459  231.2296
 460  287.5148
 461  248.2689
 462  214.0092
 463  191.5417
 464  255.6175
 465  243.5226
 466  258.1047
 467  359.679
 468  259.4888
 469  160.718
 470  230.4332
 471  287.6595
 472  202.1933
 473  269.8507
 474  302.2634
 475  140.2519
 476  168.5195
 477  262.7107
 478  257.0571
 479  186.8585
 480  274.9614
 481  258.0008
 482  210.6966
 483  263.254
 484  349.7804
 485  257.5211
 486  225.4316
 487  289.1495
 488  237.3397
 489  193.2469
 490  153.0363
 491  229.1814
 492  306.3854
 493  338.4044
 494  244.0353
 495  190.2544
 496  186.1856
 497  95.09953
 498  181.6876
 499  139.8882
 500  93.06928
 501  240.8749
 502  279.3144
 503  325.1566
 504  287.1735
 505  320.6274
 506  337.5258
 507  251.8766
 508  391.0564
 509  595.6395
 510  738.715
 511  752.4296
