# Input file       =  1193261429.141686_cleaned.dat
# Candidate        =  PSR_0332+5434
# Telescope        =  AR
# Epoch_topo       =  58054.895962288028
# Epoch_bary       =  N/A
# T_sample         =  0.002
# Data Folded      =  7340032
# Data Avg         =  0.0243692940781397
# Data StdDev      =  1.00003963730412 
# Profile Bins     =  512
# Profile Avg      =  349.354328598468 
# Profile StdDev   =  119.737782271542 
# Reduced chi-sqr  =  1.182
# Prob(Noise)      <  0.00281   (~2.8 sigma)
# P_topo (ms)      =  714.492912704583  +/- 0.000218
# P'_topo (s/s)    =  -0                +/- 1.15e-10
# P''_topo (s/s^2) =  0                 +/- 5.09e-14
# P_bary (ms)      =  N/A
# P'_bary (s/s)    =  N/A
# P''_bary (s/s^2) =  N/A
# P_orb (s)        =  N/A
# asin(i)/c (s)    =  N/A
# eccentricity     =  N/A
# w (rad)          =  N/A
# T_peri           =  N/A
######################################################
   0  953.6166
   1  907.3735
   2  884.4772
   3  683.5751
   4  444.0363
   5  467.879
   6  448.2396
   7  336.5439
   8  280.7528
   9  386.387
  10  255.8753
  11  407.0364
  12  403.0705
  13  354.5828
  14  314.8547
  15  374.9897
  16  398.9915
  17  345.6444
  18  336.0826
  19  304.6383
  20  257.0022
  21  331.6089
  22  307.0171
  23  306.2085
  24  346.0098
  25  343.8252
  26  371.7442
  27  400.7659
  28  349.8019
  29  328.3172
  30  370.6892
  31  325.7666
  32  337.4813
  33  353.7422
  34  386.6099
  35  360.1225
  36  435.1729
  37  310.2913
  38  287.8009
  39  462.0302
  40  479.6463
  41  408.017
  42  465.1516
  43  410.488
  44  268.6419
  45  329.3498
  46  314.1545
  47  322.862
  48  255.4138
  49  314.9003
  50  353.254
  51  290.6559
  52  284.746
  53  321.5284
  54  334.7073
  55  377.382
  56  395.6656
  57  342.399
  58  380.7053
  59  290.9081
  60  327.3311
  61  393.4921
  62  289.4212
  63  396.8165
  64  373.7799
  65  251.3162
  66  225.0654
  67  316.5255
  68  410.5425
  69  358.6656
  70  204.6999
  71  338.1578
  72  387.9677
  73  330.744
  74  260.7652
  75  343.7357
  76  340.7474
  77  301.5916
  78  305.1512
  79  415.5226
  80  285.3165
  81  246.1262
  82  365.8009
  83  385.4755
  84  365.8325
  85  295.8389
  86  332.478
  87  354.8856
  88  465.6614
  89  512.81
  90  363.6455
  91  417.6765
  92  422.0637
  93  400.3848
  94  380.3062
  95  349.6376
  96  453.3469
  97  348.1212
  98  269.7972
  99  211.5623
 100  188.7207
 101  248.1449
 102  308.935
 103  277.9489
 104  306.3272
 105  195.3729
 106  185.2943
 107  301.3381
 108  437.2061
 109  462.9861
 110  363.0838
 111  351.2276
 112  254.2791
 113  322.1835
 114  335.2457
 115  265.381
 116  310.2841
 117  396.0042
 118  231.132
 119  253.4586
 120  361.4224
 121  350.1216
 122  299.877
 123  366.9637
 124  329.0832
 125  431.4926
 126  488.9177
 127  351.5531
 128  270.7611
 129  406.2245
 130  422.3523
 131  420.3724
 132  468.5007
 133  541.0041
 134  429.1714
 135  488.735
 136  580.983
 137  407.1645
 138  412.8556
 139  417.4742
 140  261.7116
 141  231.4974
 142  399.16
 143  359.0607
 144  309.281
 145  354.223
 146  374.1588
 147  387.6471
 148  299.9279
 149  311.6938
 150  311.9941
 151  267.2417
 152  330.1556
 153  329.6866
 154  380.5725
 155  341.5339
 156  296.6784
 157  198.7062
 158  201.3541
 159  354.8898
 160  381.5154
 161  354.3285
 162  358.1722
 163  286.2203
 164  201.8486
 165  222.6817
 166  178.0886
 167  316.1472
 168  271.4989
 169  286.7663
 170  308.76
 171  258.9829
 172  298.9926
 173  342.2804
 174  463.6971
 175  473.5293
 176  407.5045
 177  426.6924
 178  337.7206
 179  354.8014
 180  395.8459
 181  320.6701
 182  255.5072
 183  350.6042
 184  394.6513
 185  422.6099
 186  376.6609
 187  372.9384
 188  380.8862
 189  395.6479
 190  297.6253
 191  187.1491
 192  157.7043
 193  257.7031
 194  244.8019
 195  198.9717
 196  251.4485
 197  330.1603
 198  305.7498
 199  248.5085
 200  347.8948
 201  455.4517
 202  596.8215
 203  493.2043
 204  416.0366
 205  324.7434
 206  376.2823
 207  307.9161
 208  275.1275
 209  281.019
 210  440.4016
 211  361.4981
 212  318.3621
 213  342.9494
 214  417.5548
 215  422.128
 216  329.9252
 217  256.8934
 218  413.1638
 219  220.7582
 220  228.3968
 221  353.4338
 222  324.0723
 223  252.0709
 224  246.8194
 225  361.4058
 226  359.5966
 227  360.326
 228  330.6827
 229  311.8143
 230  390.5818
 231  401.5272
 232  408.5501
 233  334.2186
 234  310.6523
 235  318.9555
 236  372.4511
 237  320.8278
 238  226.0218
 239  241.9435
 240  229.132
 241  286.4495
 242  346.6579
 243  232.9575
 244  281.3353
 245  302.0235
 246  396.8618
 247  364.4199
 248  371.2493
 249  327.3038
 250  349.9157
 251  387.7762
 252  320.5668
 253  370.1987
 254  328.7935
 255  310.9906
 256  385.3267
 257  269.5529
 258  328.61
 259  357.9718
 260  308.9996
 261  407.0946
 262  316.5804
 263  391.846
 264  367.2008
 265  347.6661
 266  481.3806
 267  388.6021
 268  412.606
 269  365.6255
 270  364.4695
 271  395.2939
 272  374.2902
 273  434.5396
 274  521.9431
 275  400.7521
 276  283.9256
 277  236.1449
 278  301.7085
 279  442.7469
 280  461.3929
 281  340.3094
 282  400.4178
 283  405.4859
 284  380.1692
 285  314.1517
 286  415.2794
 287  339.3168
 288  336.7248
 289  384.5702
 290  425.7592
 291  313.084
 292  300.776
 293  252.5418
 294  381.5092
 295  342.1322
 296  431.2103
 297  431.0161
 298  379.6894
 299  268.9762
 300  287.3264
 301  390.6888
 302  343.5864
 303  253.4568
 304  263.0172
 305  336.1511
 306  297.562
 307  233.0743
 308  326.2517
 309  281.3838
 310  333.7837
 311  139.1475
 312  277.912
 313  362.3829
 314  348.7969
 315  174.0427
 316  156.293
 317  341.0573
 318  343.0326
 319  265.1888
 320  234.6653
 321  174.0153
 322  216.2343
 323  177.1772
 324  201.5826
 325  202.9163
 326  181.7546
 327  262.2976
 328  265.9778
 329  478.0377
 330  462.5392
 331  318.819
 332  227.2067
 333  367.0194
 334  433.0428
 335  360.8757
 336  376.631
 337  437.8859
 338  356.2285
 339  311.7065
 340  223.0688
 341  206.2109
 342  375.0924
 343  430.7861
 344  406.8351
 345  330.679
 346  282.2385
 347  348.7728
 348  380.9836
 349  280.985
 350  227.8211
 351  266.1875
 352  295.9388
 353  369.0779
 354  334.6846
 355  320.083
 356  380.8519
 357  335.5291
 358  407.6012
 359  308.0865
 360  238.2097
 361  329.7644
 362  480.1587
 363  460.5455
 364  336.7441
 365  351.8206
 366  401.8341
 367  341.503
 368  228.1872
 369  231.9101
 370  243.9022
 371  272.8588
 372  251.6942
 373  177.2236
 374  304.6396
 375  379.1347
 376  371.7469
 377  269.3354
 378  259.1741
 379  312.6049
 380  364.9323
 381  242.8651
 382  256.5201
 383  222.2592
 384  303.3748
 385  360.8021
 386  443.36
 387  446.146
 388  229.8653
 389  269.2813
 390  358.266
 391  466.8618
 392  345.6774
 393  251.2672
 394  378.6888
 395  414.4259
 396  407.7729
 397  382.4539
 398  379.3141
 399  376.2305
 400  336.676
 401  349.3269
 402  401.2001
 403  379.0917
 404  322.6459
 405  351.0665
 406  402.824
 407  297.6462
 408  390.1827
 409  370.1164
 410  295.4299
 411  410.1183
 412  421.9466
 413  488.7043
 414  418.8656
 415  276.4691
 416  264.5068
 417  244.1241
 418  216.9437
 419  467.5515
 420  416.9621
 421  410.4297
 422  328.4739
 423  348.081
 424  255.6071
 425  289.9411
 426  341.3053
 427  437.7817
 428  466.4918
 429  486.0864
 430  352.3473
 431  198.4074
 432  220.5697
 433  237.5129
 434  302.3525
 435  390.2794
 436  405.8516
 437  316.6821
 438  174.0075
 439  279.4619
 440  440.2353
 441  534.5004
 442  465.346
 443  514.8916
 444  496.5427
 445  477.2083
 446  337.6289
 447  321.369
 448  395.8541
 449  435.5453
 450  366.0599
 451  337.9308
 452  337.8087
 453  318.2379
 454  386.9164
 455  312.8561
 456  381.3886
 457  369.3484
 458  361.9085
 459  291.0541
 460  269.8313
 461  280.1759
 462  365.004
 463  328.4823
 464  259.3384
 465  319.8499
 466  287.307
 467  316.7679
 468  317.4565
 469  341.0122
 470  317.6602
 471  210.2055
 472  365.6466
 473  464.1214
 474  430.0887
 475  491.8714
 476  445.3419
 477  348.7926
 478  337.4557
 479  383.4956
 480  373.6728
 481  263.6821
 482  358.588
 483  399.8747
 484  300.054
 485  272.4945
 486  399.6859
 487  330.222
 488  402.1388
 489  431.3033
 490  252.1169
 491  282.7063
 492  277.3449
 493  319.6525
 494  427.8759
 495  357.5946
 496  403.0245
 497  587.4814
 498  552.8065
 499  463.8975
 500  298.2541
 501  495.5112
 502  417.8093
 503  428.9614
 504  333.4386
 505  432.5874
 506  448.2007
 507  542.5054
 508  422.7698
 509  569.5521
 510  726.3726
 511  849.6407
