# Input file       =  1193951359.083581_cleaned.dat
# Candidate        =  PSR_0332+5434
# Telescope        =  AR
# Epoch_topo       =  58062.881262541443
# Epoch_bary       =  N/A
# T_sample         =  0.002
# Data Folded      =  7340032
# Data Avg         =  0.0185254176755735
# Data StdDev      =  1.00002339491434 
# Profile Bins     =  512
# Profile Avg      =  265.727026424721 
# Profile StdDev   =  119.735837520896 
# Reduced chi-sqr  =  1.235
# Prob(Noise)      <  0.000218   (~3.5 sigma)
# P_topo (ms)      =  714.500264831282  +/- 0.000133
# P'_topo (s/s)    =  -0                +/- 6.99e-11
# P''_topo (s/s^2) =  0                 +/- 3.09e-14
# P_bary (ms)      =  N/A
# P'_bary (s/s)    =  N/A
# P''_bary (s/s^2) =  N/A
# P_orb (s)        =  N/A
# asin(i)/c (s)    =  N/A
# eccentricity     =  N/A
# w (rad)          =  N/A
# T_peri           =  N/A
######################################################
   0  906.3904
   1  728.7797
   2  709.5831
   3  543.6235
   4  367.4173
   5  267.6262
   6  137.5868
   7  235.5011
   8  197.1778
   9  298.1746
  10  413.8089
  11  406.0557
  12  340.2309
  13  359.0452
  14  325.696
  15  286.0178
  16  370.1852
  17  346.9105
  18  246.6386
  19  333.9978
  20  308.6842
  21  284.9531
  22  273.4605
  23  170.9539
  24  180.7132
  25  187.8358
  26  366.3469
  27  283.5872
  28  197.087
  29  321.9797
  30  334.8645
  31  271.1207
  32  260.521
  33  216.8695
  34  245.7092
  35  335.0242
  36  215.9017
  37  173.349
  38  269.3591
  39  312.883
  40  315.8654
  41  318.8157
  42  273.6086
  43  195.1887
  44  204.0933
  45  280.0927
  46  362.2978
  47  385.9518
  48  192.41
  49  244.7069
  50  142.3742
  51  224.1355
  52  255.2155
  53  284.364
  54  326.8721
  55  185.7737
  56  182.9481
  57  186.6852
  58  242.2811
  59  284.0454
  60  251.008
  61  204.3141
  62  214.8299
  63  344.7797
  64  359.6138
  65  305.1541
  66  258.5556
  67  321.7123
  68  360.1875
  69  220.4562
  70  231.5883
  71  435.3659
  72  435.2104
  73  248.369
  74  378.0164
  75  375.4809
  76  277.9066
  77  237.1818
  78  342.53
  79  339.4424
  80  268.5432
  81  246.8148
  82  253.9838
  83  215.7309
  84  140.9088
  85  171.8751
  86  356.1147
  87  268.8725
  88  306.0579
  89  274.6704
  90  314.0175
  91  286.064
  92  192.0771
  93  226.5953
  94  234.8131
  95  146.9961
  96  152.0219
  97  141.348
  98  151.6082
  99  125.1198
 100  148.1622
 101  213.6677
 102  251.368
 103  196.7622
 104  207.5792
 105  279.4267
 106  160.847
 107  201.188
 108  288.9443
 109  297.4482
 110  242.7689
 111  26.12349
 112  185.4312
 113  194.1836
 114  227.1329
 115  231.8439
 116  167.5555
 117  303.2568
 118  219.6938
 119  308.4771
 120  188.0899
 121  175.17
 122  384.01
 123  425.4655
 124  266.2732
 125  256.2302
 126  303.2543
 127  341.2036
 128  273.7408
 129  302.7793
 130  378.4797
 131  303.9863
 132  323.2035
 133  158.6499
 134  123.3978
 135  155.7248
 136  132.5233
 137  190.5586
 138  296.9193
 139  345.8367
 140  241.7152
 141  134.4365
 142  254.7946
 143  146.5231
 144  127.0423
 145  215.4637
 146  359.487
 147  399.1718
 148  353.8229
 149  369.4747
 150  272.2562
 151  196.4669
 152  188.7983
 153  262.7266
 154  174.3288
 155  259.0585
 156  128.5537
 157  297.51
 158  183.2372
 159  210.0976
 160  294.7307
 161  283.7909
 162  318.3878
 163  286.474
 164  195.0727
 165  256.736
 166  203.6128
 167  237.4509
 168  336.0488
 169  347.8695
 170  211.0233
 171  146.1857
 172  93.30601
 173  182.1654
 174  273.5171
 175  275.4713
 176  174.2452
 177  205.152
 178  200.9875
 179  280.7797
 180  168.6342
 181  260.3696
 182  473.9988
 183  495.674
 184  333.7751
 185  302.863
 186  310.721
 187  226.2359
 188  139.0702
 189  245.1514
 190  398.0792
 191  371.2771
 192  271.6781
 193  424.2001
 194  350.4052
 195  339.9964
 196  395.9565
 197  502.9309
 198  313.9785
 199  282.523
 200  329.3998
 201  180.804
 202  136.2108
 203  232.2203
 204  243.0742
 205  261.9406
 206  364.5458
 207  413.502
 208  349.469
 209  376.1106
 210  335.9499
 211  300.7271
 212  246.7761
 213  257.1852
 214  181.8293
 215  301.5869
 216  277.4919
 217  347.9879
 218  432.8979
 219  444.3923
 220  365.1933
 221  403.6314
 222  365.2248
 223  269.304
 224  270.8475
 225  318.3734
 226  283.4523
 227  282.2375
 228  366.3701
 229  236.9974
 230  34.21342
 231  91.60915
 232  103.7065
 233  234.8115
 234  332.8943
 235  203.5325
 236  243.5713
 237  267.4302
 238  205.6874
 239  234.9651
 240  184.9485
 241  243.6742
 242  360.3603
 243  343.4259
 244  280.1662
 245  246.6182
 246  314.4058
 247  287.1444
 248  302.1899
 249  210.9992
 250  244.2143
 251  208.6182
 252  319.4839
 253  290.0505
 254  281.2203
 255  408.7761
 256  488.0891
 257  302.2403
 258  305.7289
 259  137.8148
 260  59.72427
 261  76.20361
 262  181.6763
 263  244.3745
 264  187.7449
 265  325.562
 266  295.5123
 267  236.7113
 268  186.3582
 269  209.64
 270  215.1317
 271  186.8256
 272  408.5013
 273  370.9624
 274  321.9656
 275  253.8916
 276  187.8904
 277  239.2564
 278  294.96
 279  326.3053
 280  343.6189
 281  294.8657
 282  221.8691
 283  178.8948
 284  69.98112
 285  178.6352
 286  302.3605
 287  314.5306
 288  208.4761
 289  257.3093
 290  273.7387
 291  263.2524
 292  308.8709
 293  356.3642
 294  342.3626
 295  186.8813
 296  219.6384
 297  298.0348
 298  193.0205
 299  195.8812
 300  329.9136
 301  489.5206
 302  472.5064
 303  369.6768
 304  497.9702
 305  337.6638
 306  161.4966
 307  195.257
 308  138.9852
 309  133.3729
 310  209.3823
 311  176.4712
 312  292.6771
 313  167.5614
 314  214.069
 315  273.7935
 316  329.1556
 317  230.1527
 318  198.2871
 319  234.7431
 320  184.9468
 321  184.77
 322  341.1296
 323  355.4916
 324  309.7101
 325  253.0359
 326  302.6297
 327  280.8883
 328  290.4108
 329  298.3986
 330  206.8994
 331  227.1064
 332  263.8539
 333  250.0191
 334  126.9421
 335  149.2011
 336  216.44
 337  239.2106
 338  237.1936
 339  193.7149
 340  88.57947
 341  64.5184
 342  152.6801
 343  331.0726
 344  249.4943
 345  201.4993
 346  219.4936
 347  334.6365
 348  340.8732
 349  195.4481
 350  190.7673
 351  333.1256
 352  219.3397
 353  279.0899
 354  301.1168
 355  331.3812
 356  115.7244
 357  139.3931
 358  270.1912
 359  243.3933
 360  145.1326
 361  369.6393
 362  312.9506
 363  197.1122
 364  269.9247
 365  300.9038
 366  381.2657
 367  445.4179
 368  336.6817
 369  260.7849
 370  199.9026
 371  215.6787
 372  164.6452
 373  255.2733
 374  355.3114
 375  378.9246
 376  333.7054
 377  312.7923
 378  323.0181
 379  240.1246
 380  156.3314
 381  245.7435
 382  273.2882
 383  263.2166
 384  181.2277
 385  182.4773
 386  389.7441
 387  322.3446
 388  244.2561
 389  171.986
 390  151.0717
 391  150.5544
 392  231.22
 393  232.3352
 394  94.87118
 395  124.4833
 396  175.2624
 397  176.8795
 398  144.529
 399  212.8856
 400  181.7457
 401  222.3089
 402  234.1947
 403  281.4925
 404  238.5201
 405  271.1998
 406  336.9
 407  264.5861
 408  250.1253
 409  229.558
 410  273.2189
 411  299.4204
 412  211.4038
 413  319.4338
 414  445.8813
 415  345.3091
 416  216.9434
 417  126.1489
 418  272.4229
 419  320.6006
 420  264.4903
 421  265.8448
 422  254.8918
 423  349.3045
 424  295.3556
 425  286.5772
 426  284.8992
 427  237.1992
 428  345.556
 429  347.771
 430  179.9495
 431  142.4266
 432  230.1632
 433  338.1377
 434  310.5096
 435  306.8271
 436  219.2601
 437  277.814
 438  296.4249
 439  190.0915
 440  254.9303
 441  290.7732
 442  233.1072
 443  245.25
 444  262.9702
 445  189.2447
 446  124.6399
 447  175.3995
 448  301.2622
 449  244.638
 450  246.7403
 451  140.4799
 452  210.2821
 453  241.938
 454  326.1207
 455  364.2307
 456  144.4601
 457  196.7064
 458  222.246
 459  144.7364
 460  103.968
 461  293.8337
 462  282.2833
 463  245.4027
 464  226.7713
 465  208.0451
 466  167.8326
 467  217.2406
 468  238.8899
 469  261.2206
 470  281.4911
 471  282.6288
 472  218.5877
 473  209.3349
 474  141.5303
 475  102.8661
 476  299.8029
 477  253.0857
 478  315.0389
 479  241.7357
 480  265.0878
 481  220.6578
 482  240.9221
 483  327.2567
 484  378.3715
 485  314.4237
 486  326.3104
 487  220.0135
 488  269.4403
 489  210.6768
 490  205.551
 491  179.1189
 492  285.931
 493  394.1045
 494  266.1677
 495  222.2454
 496  210.251
 497  166.2256
 498  238.6353
 499  289.6602
 500  284.0391
 501  299.3619
 502  465.1945
 503  435.9739
 504  274.5453
 505  207.3865
 506  201.6458
 507  231.8912
 508  348.2827
 509  453.7902
 510  663.4324
 511  844.3561
