# Input file       =  1193332959.148284_cleaned.dat
# Candidate        =  PSR_0332+5434
# Telescope        =  AR
# Epoch_topo       =  58055.723855882919
# Epoch_bary       =  N/A
# T_sample         =  0.002
# Data Folded      =  7208960
# Data Avg         =  0.0160034164129743
# Data StdDev      =  1.00004635051073 
# Profile Bins     =  512
# Profile Avg      =  225.410762377229 
# Profile StdDev   =  118.664675706931 
# Reduced chi-sqr  =  1.364
# Prob(Noise)      <  7.4e-08   (~5.3 sigma)
# P_topo (ms)      =  714.493642398619  +/- 0.00031
# P'_topo (s/s)    =  -0                +/- 1.66e-10
# P''_topo (s/s^2) =  0                 +/- 7.48e-14
# P_bary (ms)      =  N/A
# P'_bary (s/s)    =  N/A
# P''_bary (s/s^2) =  N/A
# P_orb (s)        =  N/A
# asin(i)/c (s)    =  N/A
# eccentricity     =  N/A
# w (rad)          =  N/A
# T_peri           =  N/A
######################################################
   0  892.6749
   1  859.03
   2  679.8661
   3  533.0729
   4  374.9415
   5  284.5307
   6  284.1814
   7  195.0772
   8  314.4175
   9  197.4829
  10  225.9889
  11  295.5058
  12  184.1143
  13  195.6127
  14  221.0893
  15  261.2734
  16  238.945
  17  247.7172
  18  339.0961
  19  372.1686
  20  374.0312
  21  161.9778
  22  146.5207
  23  187.1464
  24  214.6638
  25  188.7809
  26  240.6174
  27  210.4443
  28  159.6984
  29  215.403
  30  336.8766
  31  245.5014
  32  187.1681
  33  223.5681
  34  269.1021
  35  201.8671
  36  129.255
  37  173.9691
  38  284.8105
  39  201.449
  40  165.3182
  41  268.0375
  42  227.9593
  43  117.4088
  44  92.90838
  45  201.0818
  46  167.2273
  47  256.2195
  48  223.904
  49  309.0003
  50  210.304
  51  182.0845
  52  234.7137
  53  195.706
  54  298.5966
  55  312.793
  56  240.021
  57  171.1001
  58  187.279
  59  203.669
  60  225.1012
  61  326.7037
  62  226.196
  63  239.3864
  64  302.1815
  65  245.9497
  66  261.7122
  67  336.6093
  68  289.6388
  69  202.9017
  70  236.8946
  71  345.194
  72  340.1446
  73  337.1517
  74  314.6973
  75  321.8344
  76  292.0865
  77  188.5177
  78  340.0894
  79  357.5481
  80  242.5096
  81  163.8439
  82  338.0154
  83  350.2461
  84  272.3956
  85  332.8605
  86  394.7705
  87  140.7221
  88  216.4351
  89  239.4392
  90  163.938
  91  200.0294
  92  191.6133
  93  316.3742
  94  300.1206
  95  273.2098
  96  288.2712
  97  154.9498
  98  156.8571
  99  172.1594
 100  129.9062
 101  152.4646
 102  304.5283
 103  279.1091
 104  265.5287
 105  324.6724
 106  255.3684
 107  249.414
 108  122.5772
 109  208.5334
 110  332.3046
 111  247.4184
 112  377.624
 113  408.0208
 114  384.6038
 115  212.5608
 116  164.7222
 117  279.5949
 118  300.6918
 119  204.3021
 120  113.3389
 121  387.9611
 122  246.1318
 123  358.284
 124  262.4437
 125  214.4277
 126  284.2691
 127  273.3172
 128  427.8536
 129  365.2614
 130  239.9926
 131  267.882
 132  254.1746
 133  378.7123
 134  343.7707
 135  205.139
 136  269.7364
 137  225.8893
 138  378.8217
 139  342.946
 140  351.7527
 141  351.3954
 142  229.9054
 143  212.1734
 144  121.329
 145  156.3084
 146  290.7859
 147  373.3107
 148  367.0889
 149  303.4422
 150  294.904
 151  316.3989
 152  203.3024
 153  219.4208
 154  241.0039
 155  171.7175
 156  143.9131
 157  232.878
 158  318.9571
 159  185.5923
 160  120.1295
 161  35.61283
 162  120.0613
 163  275.2221
 164  245.8992
 165  284.6252
 166  244.7112
 167  222.5017
 168  146.4051
 169  177.729
 170  185.9595
 171  322.4972
 172  268.2148
 173  186.7027
 174  170.5423
 175  23.65747
 176  139.7131
 177  128.4383
 178  264.9529
 179  317.8033
 180  211.0938
 181  222.9027
 182  122.3861
 183  163.0986
 184  212.0962
 185  137.9742
 186  157.3143
 187  203.8668
 188  186.2867
 189  155.5387
 190  212.1857
 191  206.5621
 192  144.9182
 193  209.0478
 194  236.7413
 195  223.9995
 196  216.5999
 197  180.5484
 198  190.6204
 199  221.5733
 200  282.5758
 201  335.1698
 202  227.9944
 203  300.0444
 204  202.4069
 205  235.0605
 206  172.367
 207  88.80118
 208  55.92632
 209  112.2903
 210  233.8111
 211  238.0308
 212  247.8598
 213  276.5909
 214  340.4645
 215  221.1359
 216  156.0924
 217  97.94942
 218  152.7473
 219  189.2431
 220  129.2502
 221  167.4339
 222  78.87067
 223  85.77875
 224  161.1754
 225  162.7226
 226  129.4006
 227  176.8342
 228  240.0407
 229  178.7364
 230  222.701
 231  220.7515
 232  226.9207
 233  259.6926
 234  126.6608
 235  133.4059
 236  183.3711
 237  246.2764
 238  140.7479
 239  105.6994
 240  151.9487
 241  267.47
 242  200.7515
 243  231.4003
 244  223.3816
 245  73.58824
 246  105.679
 247  176.4657
 248  229.0015
 249  318.4652
 250  347.5399
 251  212.29
 252  215.0276
 253  124.6976
 254  163.7126
 255  336.4017
 256  81.42191
 257  -1.58665
 258  102.9941
 259  222.064
 260  189.283
 261  110.1448
 262  187.5364
 263  56.74023
 264  57.23053
 265  128.8189
 266  158.9772
 267  82.69508
 268  166.6369
 269  281.9581
 270  254.6591
 271  301.9193
 272  328.233
 273  208.2468
 274  206.344
 275  310.4262
 276  299.9732
 277  231.8726
 278  197.334
 279  252.6333
 280  161.752
 281  211.5927
 282  246.018
 283  251.5214
 284  166.1592
 285  139.2092
 286  176.6117
 287  252.2789
 288  189.4862
 289  143.5049
 290  256.1423
 291  177.548
 292  152.3872
 293  168.028
 294  267.0802
 295  213.1777
 296  267.1207
 297  298.0803
 298  272.5754
 299  339.1223
 300  294.2874
 301  366.1032
 302  369.2806
 303  375.9193
 304  247.479
 305  175.3734
 306  40.44427
 307  227.1833
 308  289.4786
 309  204.769
 310  220.8702
 311  234.0726
 312  282.1776
 313  329.6327
 314  148.9866
 315  200.4742
 316  218.6018
 317  175.138
 318  100.1694
 319  181.4792
 320  68.59779
 321  107.9458
 322  126.0207
 323  124.429
 324  117.0071
 325  215.1524
 326  164.5911
 327  174.8241
 328  121.251
 329  221.3021
 330  246.8298
 331  255.16
 332  282.8312
 333  234.9423
 334  331.6208
 335  261.6871
 336  156.8096
 337  148.2117
 338  221.5891
 339  274.6866
 340  240.045
 341  268.3506
 342  356.211
 343  353.8468
 344  230.6577
 345  91.53297
 346  148.1692
 347  196.1835
 348  197.6196
 349  121.552
 350  236.4315
 351  104.1678
 352  118.2157
 353  388.8608
 354  390.5833
 355  304.9972
 356  281.19
 357  240.1314
 358  303.4062
 359  222.6408
 360  140.4794
 361  101.8272
 362  228.607
 363  245.3644
 364  271.4141
 365  178.7941
 366  145.0027
 367  176.9509
 368  304.2092
 369  285.672
 370  245.666
 371  168.3209
 372  189.2257
 373  189.972
 374  291.8017
 375  234.4493
 376  178.5433
 377  153.1551
 378  198.3694
 379  222.3188
 380  229.7852
 381  217.5144
 382  195.5346
 383  215.2525
 384  331.6465
 385  226.0334
 386  207.5665
 387  70.58009
 388  98.31949
 389  244.2034
 390  176.9869
 391  82.7636
 392  145.6674
 393  90.12669
 394  175.4012
 395  186.231
 396  313.0023
 397  212.4864
 398  152.6743
 399  98.40623
 400  149.1935
 401  105.9437
 402  161.1697
 403  257.1263
 404  182.295
 405  131.8465
 406  77.06653
 407  85.49352
 408  131.1249
 409  160.873
 410  263.1261
 411  283.1647
 412  218.9067
 413  105.1412
 414  231.5209
 415  278.3484
 416  195.8887
 417  227.5097
 418  143.2188
 419  179.5333
 420  208.4665
 421  324.6506
 422  277.9038
 423  323.8484
 424  257.2758
 425  259.2849
 426  167.6989
 427  154.6633
 428  107.2254
 429  95.41607
 430  69.96654
 431  110.0705
 432  70.53625
 433  225.3539
 434  84.12728
 435  128.4008
 436  292.5115
 437  332.2346
 438  217.2969
 439  240.4271
 440  183.3403
 441  164.1176
 442  106.8673
 443  158.673
 444  124.8346
 445  211.6669
 446  255.4272
 447  113.6954
 448  119.9621
 449  150.0565
 450  252.1388
 451  304.1644
 452  205.4959
 453  81.15921
 454  57.76256
 455  79.64534
 456  166.2519
 457  309.8595
 458  375.0349
 459  341.8389
 460  357.3978
 461  150.4619
 462  149.4272
 463  29.4071
 464  110.6212
 465  287.5209
 466  241.2591
 467  291.3211
 468  220.2832
 469  263.4399
 470  98.15746
 471  150.9267
 472  352.0283
 473  300.6423
 474  281.5224
 475  209.4056
 476  142.7606
 477  157.0344
 478  295.0988
 479  320.5167
 480  44.82836
 481  110.0743
 482  244.2277
 483  227.7836
 484  169.3081
 485  190.3263
 486  158.2309
 487  94.11501
 488  211.9209
 489  161.6918
 490  163.8954
 491  124.7159
 492  199.9847
 493  212.2386
 494  232.104
 495  135.2566
 496  90.31129
 497  198.078
 498  274.5885
 499  261.0235
 500  298.2761
 501  330.5391
 502  413.8965
 503  238.8965
 504  202.1402
 505  294.6177
 506  441.731
 507  401.8307
 508  369.162
 509  642.13
 510  674.2828
 511  790.8138
