# Input file       =  1193936473.117343_cleaned.dat
# Candidate        =  PSR_0332+5434
# Telescope        =  AR
# Epoch_topo       =  58062.708971265543
# Epoch_bary       =  N/A
# T_sample         =  0.002
# Data Folded      =  7340032
# Data Avg         =  0.0292390592556389
# Data StdDev      =  1.00013230008159 
# Profile Bins     =  512
# Profile Avg      =  418.989597293639 
# Profile StdDev   =  119.748877067248 
# Reduced chi-sqr  =  1.405
# Prob(Noise)      <  3.57e-09   (~5.8 sigma)
# P_topo (ms)      =  714.500078744718  +/- 0.000246
# P'_topo (s/s)    =  -0                +/- 1.3e-10
# P''_topo (s/s^2) =  0                 +/- 5.73e-14
# P_bary (ms)      =  N/A
# P'_bary (s/s)    =  N/A
# P''_bary (s/s^2) =  N/A
# P_orb (s)        =  N/A
# asin(i)/c (s)    =  N/A
# eccentricity     =  N/A
# w (rad)          =  N/A
# T_peri           =  N/A
######################################################
   0  1138.489
   1  1087.343
   2  878.9026
   3  711.4427
   4  546.6198
   5  468.0782
   6  318.3114
   7  288.2354
   8  355.7509
   9  307.3963
  10  235.6715
  11  387.1308
  12  416.0848
  13  319.3192
  14  360.3405
  15  337.9606
  16  454.7279
  17  516.1851
  18  507.5341
  19  287.6634
  20  304.5386
  21  386.2782
  22  319.1355
  23  263.6186
  24  348.1624
  25  285.6016
  26  315.2148
  27  433.6802
  28  423.2888
  29  385.5435
  30  268.7174
  31  301.4799
  32  384.1597
  33  386.7873
  34  500.27
  35  598.2962
  36  500.769
  37  377.053
  38  374.0265
  39  415.2398
  40  434.7439
  41  423.7086
  42  560.4031
  43  553.8176
  44  490.2402
  45  470.2987
  46  377.5527
  47  460.1979
  48  523.09
  49  473.4819
  50  502.5565
  51  443.6983
  52  364.4247
  53  406.798
  54  447.9573
  55  421.327
  56  425.7153
  57  322.0324
  58  356.1837
  59  229.6351
  60  351.1392
  61  463.0489
  62  547.5095
  63  528.5712
  64  461.9818
  65  544.8776
  66  529.1418
  67  395.2644
  68  447.0958
  69  568.301
  70  541.1251
  71  572.5645
  72  627.0372
  73  574.9026
  74  412.0351
  75  370.7262
  76  584.1648
  77  515.0349
  78  524.2899
  79  541.5213
  80  539.8585
  81  460.7713
  82  415.1223
  83  539.1509
  84  367.2196
  85  343.035
  86  469.5689
  87  371.0978
  88  316.7259
  89  400.6562
  90  419.5449
  91  389.9949
  92  374.4221
  93  412.6972
  94  499.5599
  95  386.2381
  96  448.597
  97  356.3113
  98  354.2121
  99  437.4895
 100  518.8448
 101  522.1698
 102  497.5395
 103  397.6087
 104  493.1387
 105  449.2202
 106  399.2948
 107  396.8579
 108  445.2493
 109  414.1031
 110  428.6202
 111  349.0236
 112  365.749
 113  385.2833
 114  288.0265
 115  278.6847
 116  316.9836
 117  449.0159
 118  480.7719
 119  399.3627
 120  399.7062
 121  320.9588
 122  352.7297
 123  421.2045
 124  364.2344
 125  485.0514
 126  456.6592
 127  385.8698
 128  405.3092
 129  423.8753
 130  468.1734
 131  460.3387
 132  353.7118
 133  444.0205
 134  474.351
 135  465.6058
 136  360.7009
 137  506.7027
 138  550.6616
 139  427.9423
 140  351.809
 141  460.5128
 142  393.0279
 143  381.8076
 144  333.1325
 145  359.7672
 146  527.4454
 147  566.7642
 148  494.6622
 149  375.2373
 150  276.1283
 151  316.2712
 152  352.3279
 153  329.478
 154  427.4915
 155  406.7746
 156  391.8185
 157  320.4098
 158  505.5635
 159  488.777
 160  373.5741
 161  536.858
 162  635.0684
 163  627.3412
 164  595.3168
 165  628.4269
 166  413.0005
 167  392.625
 168  486.0078
 169  592.9032
 170  557.6213
 171  416.4916
 172  476.2566
 173  569.8429
 174  480.4775
 175  447.8033
 176  440.8946
 177  299.9879
 178  297.0173
 179  424.1301
 180  573.9577
 181  385.294
 182  351.48
 183  261.3372
 184  314.1791
 185  353.1458
 186  414.2379
 187  469.0719
 188  362.7083
 189  355.3907
 190  473.9793
 191  286.9537
 192  312.049
 193  448.45
 194  380.9159
 195  284.4658
 196  347.7758
 197  452.8626
 198  428.0674
 199  469.5119
 200  478.3029
 201  451.0397
 202  323.7153
 203  364.9311
 204  352.8021
 205  473.4474
 206  544.3995
 207  492.5547
 208  465.1118
 209  527.8834
 210  541.3431
 211  463.7254
 212  625.6013
 213  730.0034
 214  509.9337
 215  515.0798
 216  603.9662
 217  590.246
 218  418.9914
 219  376.6068
 220  452.6531
 221  380.1467
 222  315.8899
 223  265.7119
 224  284.8395
 225  333.3037
 226  260.8556
 227  280.6671
 228  319.2677
 229  499.1185
 230  386.9131
 231  378.6264
 232  398.9133
 233  386.4644
 234  390.4871
 235  423.6359
 236  357.6204
 237  306.1085
 238  322.5311
 239  292.5715
 240  388.1341
 241  438.0257
 242  376.6137
 243  310.5774
 244  463.8748
 245  398.6932
 246  413.6022
 247  331.8026
 248  293.994
 249  273.6295
 250  308.3861
 251  260.1491
 252  299.1257
 253  443.4622
 254  544.0427
 255  552.8788
 256  520.3649
 257  510.927
 258  314.3056
 259  375.5427
 260  481.3949
 261  518.1735
 262  470.1838
 263  442.2393
 264  503.4351
 265  502.5932
 266  436.9947
 267  503.6663
 268  480.8365
 269  467.9361
 270  461.7136
 271  460.7217
 272  497.4639
 273  366.4296
 274  406.2986
 275  326.0498
 276  332.5521
 277  366.2668
 278  231.4708
 279  204.5748
 280  250.814
 281  299.2058
 282  381.9392
 283  327.561
 284  410.3519
 285  312.4426
 286  371.6961
 287  482.3228
 288  557.8706
 289  564.1338
 290  543.0609
 291  530.8333
 292  396.0203
 293  469.4347
 294  430.7162
 295  426.6137
 296  323.2363
 297  384.256
 298  496.2801
 299  449.109
 300  393.4117
 301  451.3433
 302  361.6801
 303  350.5699
 304  288.3852
 305  274.2801
 306  208.6883
 307  256.7507
 308  333.2894
 309  347.1919
 310  428.4418
 311  460.6993
 312  373.0822
 313  227.8864
 314  315.8523
 315  367.7534
 316  455.0647
 317  419.4352
 318  451.6873
 319  550.6156
 320  361.8517
 321  371.8102
 322  322.5022
 323  501.2413
 324  465.4113
 325  386.0988
 326  427.5423
 327  424.5163
 328  349.061
 329  374.4914
 330  241.5294
 331  435.8945
 332  514.7644
 333  325.5157
 334  357.64
 335  357.7372
 336  317.6164
 337  284.9571
 338  340.7479
 339  327.8782
 340  342.0085
 341  459.8126
 342  416.2188
 343  418.4255
 344  417.5904
 345  334.346
 346  351.4737
 347  408.8416
 348  408.5667
 349  313.6671
 350  444.7312
 351  582.4415
 352  536.4502
 353  329.027
 354  311.7011
 355  462.9831
 356  479.8943
 357  321.0801
 358  364.8169
 359  513.6704
 360  433.3344
 361  273.1027
 362  397.2841
 363  519.1486
 364  531.011
 365  529.853
 366  481.1164
 367  360.8118
 368  434.1746
 369  376.9854
 370  343.9329
 371  453.9945
 372  444.3739
 373  394.2552
 374  344.8753
 375  369.8469
 376  350.3195
 377  422.9508
 378  334.2428
 379  394.0345
 380  413.3014
 381  442.7441
 382  406.3541
 383  270.9158
 384  286.8318
 385  280.0965
 386  333.3089
 387  288.5282
 388  323.3133
 389  351.7036
 390  344.0113
 391  430.1664
 392  430.6682
 393  478.6508
 394  299.687
 395  309.7241
 396  319.7276
 397  321.532
 398  381.199
 399  399.1553
 400  257.9196
 401  318.9066
 402  479.7561
 403  385.1512
 404  474.3408
 405  499.9855
 406  482.6437
 407  462.4997
 408  421.4167
 409  420.0242
 410  420.3483
 411  432.027
 412  503.63
 413  420.1498
 414  453.7153
 415  387.9187
 416  445.2892
 417  439.6157
 418  326.5706
 419  320.5535
 420  264.3983
 421  330.4505
 422  335.0025
 423  350.8187
 424  496.0098
 425  640.9333
 426  421.9242
 427  329.9853
 428  243.8448
 429  357.0533
 430  464.115
 431  318.7403
 432  471.6779
 433  473.4063
 434  560.4935
 435  459.4341
 436  335.1253
 437  440.115
 438  488.8415
 439  375.3121
 440  452.5516
 441  503.1939
 442  339.6805
 443  389.501
 444  331.3139
 445  352.3605
 446  407.1595
 447  476.9382
 448  482.6393
 449  462.9126
 450  467.9405
 451  306.2786
 452  367.9891
 453  490.2857
 454  496.5783
 455  472.274
 456  525.5989
 457  565.1599
 458  396.4235
 459  446.2943
 460  437.1102
 461  389.7431
 462  372.8134
 463  382.8027
 464  403.8308
 465  471.619
 466  368.5191
 467  359.0453
 468  514.7545
 469  454.1497
 470  370.3789
 471  379.177
 472  345.2933
 473  383.3393
 474  396.2851
 475  479.5124
 476  391.8134
 477  325.7934
 478  348.1831
 479  401.0835
 480  374.9869
 481  256.8107
 482  244.2372
 483  270.0791
 484  390.6073
 485  409.7564
 486  432.9544
 487  371.8365
 488  445.7852
 489  451.1914
 490  473.2682
 491  592.3853
 492  509.541
 493  560.737
 494  466.0707
 495  319.4804
 496  356.7854
 497  339.5726
 498  384.3732
 499  455.053
 500  417.7715
 501  534.043
 502  463.1573
 503  412.0069
 504  464.4071
 505  434.418
 506  434.7018
 507  480.5732
 508  486.6855
 509  643.6672
 510  796.557
 511  868.1826
