# Input file       =  1193089133.132607_cleaned.dat
# Candidate        =  PSR_0332+5434
# Telescope        =  AR
# Epoch_topo       =  58052.901795516285
# Epoch_bary       =  N/A
# T_sample         =  0.002
# Data Folded      =  7340032
# Data Avg         =  0.0167102675031899
# Data StdDev      =  0.999996361366597
# Profile Bins     =  512
# Profile Avg      =  239.702634547611 
# Profile StdDev   =  119.732600712141 
# Reduced chi-sqr  =  1.424
# Prob(Noise)      <  8.27e-10   (~6.0 sigma)
# P_topo (ms)      =  714.491156360835  +/- 0.000271
# P'_topo (s/s)    =  -0                +/- 1.43e-10
# P''_topo (s/s^2) =  0                 +/- 6.31e-14
# P_bary (ms)      =  N/A
# P'_bary (s/s)    =  N/A
# P''_bary (s/s^2) =  N/A
# P_orb (s)        =  N/A
# asin(i)/c (s)    =  N/A
# eccentricity     =  N/A
# w (rad)          =  N/A
# T_peri           =  N/A
######################################################
   0  1014.171
   1  969.495
   2  702.0843
   3  460.3692
   4  377.0935
   5  348.7987
   6  297.0941
   7  316.5181
   8  311.4866
   9  249.033
  10  280.5486
  11  253.8484
  12  265.3908
  13  241.5959
  14  187.5849
  15  144.2632
  16  109.4532
  17  187.3272
  18  189.7505
  19  246.784
  20  119.5381
  21  178.7805
  22  404.6954
  23  353.5008
  24  267.2193
  25  307.9461
  26  131.6708
  27  161.5361
  28  172.8125
  29  175.3673
  30  191.0415
  31  181.7043
  32  192.3038
  33  278.1313
  34  255.68
  35  277.8804
  36  163.3464
  37  224.2543
  38  328.2561
  39  256.3394
  40  282.4549
  41  233.532
  42  132.0963
  43  157.7446
  44  132.8806
  45  130.4011
  46  83.84111
  47  256.4919
  48  301.9728
  49  359.9985
  50  298.4095
  51  270.0949
  52  363.1427
  53  373.0805
  54  394.6922
  55  233.211
  56  260.536
  57  330.4203
  58  290.7184
  59  205.758
  60  336.5965
  61  236.187
  62  241.4202
  63  218.1466
  64  166.2183
  65  225.3783
  66  289.135
  67  203.8504
  68  131.8507
  69  217.2139
  70  175.3056
  71  222.1761
  72  233.8348
  73  310.252
  74  335.7708
  75  229.2625
  76  202.878
  77  113.1719
  78  199.6083
  79  280.728
  80  191.422
  81  265.1134
  82  223.6064
  83  238.0527
  84  309.4851
  85  236.6798
  86  122.8868
  87  180.9686
  88  476.5383
  89  275.4984
  90  161.6918
  91  188.7132
  92  315.1037
  93  291.4895
  94  321.4769
  95  336.0259
  96  58.12129
  97  144.534
  98  210.4465
  99  215.6116
 100  186.9723
 101  77.52425
 102  104.231
 103  129.2313
 104  237.1448
 105  220.4145
 106  188.2967
 107  207.4335
 108  230.0958
 109  168.083
 110  170.3969
 111  172.5386
 112  133.6281
 113  125.0408
 114  104.8358
 115  386.3204
 116  428.6695
 117  242.2237
 118  285.9053
 119  282.988
 120  345.6752
 121  280.4446
 122  275.9582
 123  372.1749
 124  283.2779
 125  249.1447
 126  261.906
 127  352.5832
 128  188.74
 129  168.7879
 130  142.7655
 131  187.9497
 132  166.6832
 133  50.14029
 134  152.0978
 135  226.5335
 136  237.3009
 137  282.0747
 138  324.8044
 139  340.6903
 140  260.0893
 141  344.314
 142  246.0067
 143  75.71211
 144  -0.5282115
 145  139.018
 146  89.53803
 147  157.8248
 148  297.6954
 149  310.8619
 150  297.5431
 151  283.5179
 152  316.1082
 153  221.4143
 154  208.9392
 155  257.1931
 156  263.1494
 157  283.3492
 158  247.2525
 159  138.6543
 160  25.62613
 161  35.31919
 162  225.1209
 163  300.9703
 164  239.2679
 165  219.6015
 166  156.675
 167  214.5589
 168  316.474
 169  155.4512
 170  182.5354
 171  157.33
 172  256.1751
 173  212.1618
 174  246.937
 175  258.1626
 176  233.8752
 177  312.7137
 178  336.6253
 179  327.6234
 180  309.5909
 181  291.1761
 182  344.3762
 183  294.5881
 184  334.151
 185  323.3914
 186  272.1169
 187  248.9857
 188  335.1539
 189  367.1116
 190  256.5135
 191  256.2407
 192  234.7282
 193  93.97929
 194  221.818
 195  311.0654
 196  316.4496
 197  221.9418
 198  278.1741
 199  346.7075
 200  238.4311
 201  198.7649
 202  218.955
 203  356.149
 204  337.509
 205  298.7659
 206  175.3181
 207  265.5361
 208  306.4174
 209  179.2212
 210  167.0763
 211  273.0595
 212  239.1536
 213  241.238
 214  203.0814
 215  278.9612
 216  392.5771
 217  394.3424
 218  433.44
 219  361.664
 220  104.8666
 221  244.5674
 222  284.2154
 223  196.8729
 224  240.7457
 225  260.319
 226  310.0008
 227  206.5755
 228  209.4472
 229  196.8479
 230  301.1234
 231  294.224
 232  272.1665
 233  246.2006
 234  292.8427
 235  241.874
 236  233.6961
 237  186.2371
 238  287.3166
 239  237.5777
 240  252.5128
 241  141.9425
 242  20.05639
 243  38.47874
 244  264.0887
 245  353.8979
 246  335.9483
 247  279.668
 248  232.4411
 249  121.7602
 250  201.924
 251  273.8606
 252  206.2171
 253  201.7432
 254  388.2598
 255  384.6387
 256  337.7894
 257  283.4347
 258  273.4479
 259  360.8894
 260  378.2244
 261  311.2156
 262  270.6859
 263  255.0061
 264  383.0143
 265  336.5893
 266  291.1296
 267  309.1482
 268  323.0706
 269  263.8353
 270  226.2339
 271  275.5575
 272  101.4496
 273  123.8318
 274  254.007
 275  277.8347
 276  185.0864
 277  262.3173
 278  249.7195
 279  303.5846
 280  245.6584
 281  267.716
 282  268.3861
 283  215.7191
 284  346.4223
 285  323.692
 286  178.4049
 287  62.85689
 288  240.168
 289  366.9205
 290  218.0924
 291  131.8379
 292  196.5916
 293  292.1433
 294  233.1236
 295  219.2876
 296  282.4046
 297  209.2601
 298  215.9231
 299  357.4196
 300  252.1167
 301  243.4089
 302  217.0115
 303  261.1775
 304  170.2726
 305  90.11126
 306  243.6548
 307  318.1618
 308  254.066
 309  260.7623
 310  304.0085
 311  256.8922
 312  221.5466
 313  202.7424
 314  135.7599
 315  262.4141
 316  197.9395
 317  151.3517
 318  221.1957
 319  242.1552
 320  222.7486
 321  281.3496
 322  283.7505
 323  168.072
 324  192.5345
 325  276.4012
 326  157.5014
 327  169.5346
 328  265.7686
 329  42.70083
 330  174.7055
 331  190.6264
 332  152.7511
 333  110.8371
 334  163.7762
 335  210.955
 336  173.0167
 337  240.9563
 338  211.0463
 339  205.8058
 340  200.9054
 341  345.9449
 342  355.9958
 343  355.0433
 344  286.1869
 345  293.8359
 346  356.8284
 347  322.5721
 348  220.078
 349  253.1016
 350  228.218
 351  236.1035
 352  207.8525
 353  310.5087
 354  255.2354
 355  239.9232
 356  243.301
 357  254.8924
 358  189.455
 359  236.278
 360  309.613
 361  351.3519
 362  271.7
 363  274.9137
 364  218.6924
 365  152.442
 366  35.60427
 367  130.6595
 368  272.8589
 369  389.0664
 370  233.7363
 371  191.5858
 372  282.4942
 373  260.9427
 374  255.202
 375  293.1333
 376  323.8514
 377  325.5352
 378  188.0435
 379  250.196
 380  199.0538
 381  178.2324
 382  9.87338
 383  -1.738449
 384  171.1068
 385  223.86
 386  185.9853
 387  80.93745
 388  83.09355
 389  33.8274
 390  145.8688
 391  285.2237
 392  259.1786
 393  203.2724
 394  192.6055
 395  173.3762
 396  236.2325
 397  202.6435
 398  205.6409
 399  265.1271
 400  166.9391
 401  116.7541
 402  194.6787
 403  61.06853
 404  269.6556
 405  171.2533
 406  262.0725
 407  372.16
 408  209.2324
 409  217.4449
 410  124.8091
 411  65.18422
 412  143.3217
 413  152.2269
 414  178.6879
 415  265.8698
 416  229.0432
 417  174.1593
 418  142.2743
 419  141.735
 420  260.7319
 421  174.4263
 422  140.2464
 423  190.7484
 424  291.5537
 425  190.6888
 426  200.7697
 427  215.9638
 428  263.8964
 429  140.658
 430  154.2053
 431  224.6205
 432  193.5053
 433  152.9111
 434  207.1918
 435  343.0975
 436  302.9641
 437  273.5076
 438  252.097
 439  155.4174
 440  97.48044
 441  105.2315
 442  232.2767
 443  197.9471
 444  112.243
 445  61.06755
 446  205.8658
 447  216.2336
 448  194.3605
 449  263.3019
 450  277.5678
 451  305.2822
 452  227.376
 453  285.2081
 454  220.9428
 455  167.7153
 456  158.342
 457  269.2493
 458  253.9112
 459  282.5208
 460  216.5637
 461  254.1639
 462  281.3105
 463  268.3704
 464  267.0896
 465  285.5084
 466  326.5111
 467  238.4321
 468  194.9359
 469  227.3175
 470  235.9761
 471  156.8858
 472  86.32213
 473  252.4538
 474  174.6852
 475  115.334
 476  55.32423
 477  243.7106
 478  163.8624
 479  78.99947
 480  43.9638
 481  128.9513
 482  206.6062
 483  277.9568
 484  79.65444
 485  79.82735
 486  31.58031
 487  188.2503
 488  268.4731
 489  172.4883
 490  142.1212
 491  272.1331
 492  391.3339
 493  317.3382
 494  278.8469
 495  399.5602
 496  303.4899
 497  130.2309
 498  264.2152
 499  407.9536
 500  197.4972
 501  174.2193
 502  181.4815
 503  216.7823
 504  390.4454
 505  431.5079
 506  379.2613
 507  262.6084
 508  393.0587
 509  472.0281
 510  618.604
 511  947.3627
