# Input file       =  1193692179.151799_cleaned.dat
# Candidate        =  PSR_0332+5434
# Telescope        =  AR
# Epoch_topo       =  58059.881494812485
# Epoch_bary       =  N/A
# T_sample         =  0.002
# Data Folded      =  7340032
# Data Avg         =  0.0243271235814747
# Data StdDev      =  1.00003095091144 
# Profile Bins     =  512
# Profile Avg      =  348.577232983118 
# Profile StdDev   =  119.736742223372 
# Reduced chi-sqr  =  1.226
# Prob(Noise)      <  0.000353   (~3.4 sigma)
# P_topo (ms)      =  714.497443221692  +/- 0.000245
# P'_topo (s/s)    =  -0                +/- 1.29e-10
# P''_topo (s/s^2) =  0                 +/- 5.7e-14
# P_bary (ms)      =  N/A
# P'_bary (s/s)    =  N/A
# P''_bary (s/s^2) =  N/A
# P_orb (s)        =  N/A
# asin(i)/c (s)    =  N/A
# eccentricity     =  N/A
# w (rad)          =  N/A
# T_peri           =  N/A
######################################################
   0  1002.338
   1  1005.391
   2  871.7625
   3  718.0135
   4  488.2072
   5  378.2979
   6  388.6106
   7  279.3068
   8  349.9547
   9  401.0056
  10  302.0143
  11  337.2006
  12  331.4854
  13  270.4169
  14  296.1938
  15  371.4529
  16  339.0675
  17  282.0536
  18  295.9618
  19  285.5227
  20  250.1076
  21  270.0963
  22  260.303
  23  408.2881
  24  385.4566
  25  293.1874
  26  413.126
  27  400.987
  28  299.3289
  29  239.7224
  30  231.4001
  31  270.7185
  32  222.5049
  33  322.694
  34  478.8633
  35  441.6499
  36  364.0165
  37  402.9778
  38  524.9205
  39  491.5947
  40  325.9914
  41  403.8357
  42  430.3027
  43  478.1375
  44  476.0026
  45  397.0177
  46  341.9517
  47  333.3233
  48  404.2908
  49  430.8247
  50  216.2527
  51  282.5895
  52  308.2993
  53  392.0835
  54  346.5353
  55  347.2157
  56  383.0673
  57  381.3856
  58  416.9003
  59  308.3616
  60  248.821
  61  321.6305
  62  432.1959
  63  321.5374
  64  297.8208
  65  396.9644
  66  460.1834
  67  436.6349
  68  464.596
  69  308.0938
  70  282.2196
  71  465.4135
  72  456.3729
  73  344.9731
  74  398.4124
  75  371.4395
  76  397.4286
  77  492.9168
  78  404.4615
  79  366.9294
  80  356.7805
  81  378.2105
  82  401.6733
  83  403.517
  84  339.5415
  85  359.586
  86  373.3929
  87  314.9654
  88  336.1359
  89  389.4575
  90  349.9271
  91  288.0472
  92  282.8158
  93  362.5615
  94  399.2684
  95  352.0566
  96  242.7399
  97  330.9348
  98  428.4353
  99  321.1885
 100  361.1676
 101  469.9716
 102  387.4836
 103  324.6773
 104  308.5367
 105  333.6708
 106  251.5402
 107  363.4659
 108  427.082
 109  355.4384
 110  356.0475
 111  379.1389
 112  404.194
 113  397.7757
 114  390.8461
 115  428.9524
 116  523.4499
 117  528.1113
 118  521.0986
 119  303.4698
 120  221.4935
 121  304.0375
 122  368.0409
 123  446.5999
 124  358.6664
 125  423.4779
 126  423.5159
 127  379.1447
 128  220.4572
 129  149.2333
 130  248.2311
 131  250.779
 132  340.082
 133  365.1497
 134  283.7706
 135  238.8125
 136  205.6617
 137  322.8198
 138  252.1579
 139  304.9134
 140  232.5926
 141  327.6992
 142  298.575
 143  214.2361
 144  302.7044
 145  355.7599
 146  318.7571
 147  327.5384
 148  406.5521
 149  408.3273
 150  311.0592
 151  319.0527
 152  423.6814
 153  455.0977
 154  363.721
 155  244.1049
 156  207.1804
 157  326.0252
 158  272.1848
 159  202.6863
 160  316.1963
 161  358.1935
 162  395.0822
 163  413.6501
 164  403.1525
 165  421.373
 166  511.8219
 167  537.5793
 168  473.0319
 169  468.6521
 170  392.2305
 171  303.5129
 172  389.7457
 173  399.4787
 174  343.4108
 175  300.0928
 176  371.7985
 177  413.45
 178  350.3606
 179  355.1158
 180  331.0514
 181  369.4895
 182  318.0604
 183  365.8811
 184  454.2016
 185  370.7299
 186  287.6099
 187  219.5888
 188  247.5845
 189  316.493
 190  312.3369
 191  359.6664
 192  328.1891
 193  357.1102
 194  358.7946
 195  331.9183
 196  309.0798
 197  316.6793
 198  380.6457
 199  307.7892
 200  246.7837
 201  337.8103
 202  398.5032
 203  491.5768
 204  317.731
 205  301.1472
 206  209.9954
 207  232.6473
 208  292.8434
 209  253.2878
 210  464.4778
 211  338.5195
 212  279.1261
 213  319.4227
 214  347.8963
 215  373.7132
 216  255.8173
 217  177.1743
 218  240.8894
 219  291.54
 220  466.6422
 221  490.5635
 222  323.8524
 223  343.4886
 224  310.9356
 225  364.5026
 226  438.0733
 227  348.8198
 228  166.1384
 229  90.07408
 230  284.2353
 231  381.9908
 232  303.4103
 233  371.1498
 234  324.8702
 235  332.03
 236  429.5555
 237  376.3612
 238  321.3865
 239  244.0391
 240  292.0376
 241  360.1681
 242  395.6569
 243  326.9443
 244  416.1673
 245  436.3896
 246  240.7441
 247  323.8241
 248  304.9298
 249  345.4268
 250  371.6166
 251  430.6182
 252  326.14
 253  193.1947
 254  254.2467
 255  278.3958
 256  161.9377
 257  223.3163
 258  243.1709
 259  159.9721
 260  217.8118
 261  242.843
 262  385.8102
 263  375.0946
 264  301.6125
 265  334.9702
 266  477.0222
 267  341.7445
 268  287.3139
 269  279.9224
 270  276.607
 271  157.7452
 272  169.0492
 273  374.5082
 274  333.1463
 275  249.3809
 276  222.7706
 277  218.6481
 278  270.3326
 279  260.6302
 280  286.0114
 281  317.9259
 282  408.4053
 283  424.6605
 284  384.4063
 285  372.0058
 286  321.266
 287  336.2085
 288  248.2565
 289  211.5814
 290  327.9198
 291  374.3085
 292  349.7351
 293  306.0253
 294  262.3817
 295  240.7285
 296  194.5956
 297  198.4459
 298  256.8652
 299  230.635
 300  425.9326
 301  405.1694
 302  244.1264
 303  283.5614
 304  308.0556
 305  351.0923
 306  455.7214
 307  387.7045
 308  349.6746
 309  378.352
 310  417.3989
 311  348.9636
 312  309.004
 313  188.4131
 314  369.4357
 315  439.9149
 316  492.7127
 317  374.9332
 318  310.0337
 319  334.2894
 320  352.051
 321  494.9034
 322  535.0637
 323  515.5126
 324  452.925
 325  432.2433
 326  304.4458
 327  288.4455
 328  306.2352
 329  392.0185
 330  419.2144
 331  417.378
 332  497.3997
 333  505.8741
 334  281.6914
 335  295.5431
 336  255.3088
 337  277.5388
 338  280.567
 339  295.8723
 340  257.8976
 341  327.2574
 342  364.4377
 343  375.0782
 344  321.1661
 345  270.2479
 346  210.5962
 347  243.7025
 348  277.372
 349  384.8998
 350  411.8757
 351  410.206
 352  323.8624
 353  334.1687
 354  436.8492
 355  344.276
 356  386.352
 357  474.3617
 358  421.021
 359  358.9236
 360  329.9073
 361  259.9741
 362  264.7944
 363  347.1953
 364  291.2145
 365  274.8309
 366  341.1484
 367  402.4285
 368  345.4743
 369  276.1551
 370  272.0364
 371  328.2487
 372  318.844
 373  341.2821
 374  391.6478
 375  383.5158
 376  336.1766
 377  362.5579
 378  332.3148
 379  257.8471
 380  351.1461
 381  218.732
 382  217.8261
 383  248.5874
 384  387.9605
 385  395.6922
 386  295.6946
 387  270.2516
 388  336.1042
 389  250.6336
 390  103.4045
 391  166.5923
 392  236.8516
 393  244.8071
 394  397.2095
 395  423.6506
 396  387.2896
 397  400.4848
 398  476.8923
 399  457.0495
 400  305.255
 401  331.0813
 402  389.2222
 403  401.7563
 404  322.0798
 405  358.7144
 406  244.7025
 407  314.8678
 408  304.1294
 409  313.9855
 410  282.121
 411  268.9608
 412  328.5523
 413  360.7209
 414  318.079
 415  360.2909
 416  379.9886
 417  362.8476
 418  447.1508
 419  342.9874
 420  341.5384
 421  302.6339
 422  155.0618
 423  188.3793
 424  316.6106
 425  382.5727
 426  262.968
 427  255.3736
 428  383.3864
 429  435.8368
 430  408.1374
 431  356.8197
 432  300.7511
 433  410.4161
 434  416.4146
 435  368.0594
 436  385.824
 437  490.2333
 438  427.6899
 439  273.6322
 440  321.9037
 441  319.4645
 442  453.5204
 443  405.1785
 444  323.0942
 445  368.8851
 446  331.1637
 447  352.6158
 448  301.3862
 449  274.4671
 450  311.3763
 451  248.7408
 452  408.9658
 453  396.297
 454  486.5591
 455  559.4814
 456  491.5607
 457  403.7669
 458  346.8743
 459  308.4347
 460  362.8036
 461  398.2678
 462  374.2058
 463  389.0107
 464  375.2003
 465  470.0839
 466  527.9084
 467  434.1707
 468  344.4703
 469  376.555
 470  450.8413
 471  344.8725
 472  380.2818
 473  409.0711
 474  321.8494
 475  307.218
 476  369.9742
 477  353.5666
 478  291.6996
 479  294.9504
 480  359.7156
 481  406.6442
 482  330.078
 483  301.6892
 484  291.666
 485  328.4378
 486  415.3442
 487  325.6464
 488  206.8449
 489  185.6053
 490  240.9878
 491  454.1424
 492  452.3805
 493  364.4914
 494  285.2358
 495  298.3761
 496  276.6721
 497  279.967
 498  301.3051
 499  313.2772
 500  327.5492
 501  294.4946
 502  306.9039
 503  362.8194
 504  377.6851
 505  428.2281
 506  348.9306
 507  388.8774
 508  443.5084
 509  600.8359
 510  733.4962
 511  765.7804
