# Input file       =  1193175289.14436_cleaned.dat
# Candidate        =  PSR_0332+5434
# Telescope        =  AR
# Epoch_topo       =  58053.898971578245
# Epoch_bary       =  N/A
# T_sample         =  0.002
# Data Folded      =  7340032
# Data Avg         =  0.015931525201736
# Data StdDev      =  0.999750757529713
# Profile Bins     =  512
# Profile Avg      =  228.387778223213 
# Profile StdDev   =  119.703193819005 
# Reduced chi-sqr  =  1.277
# Prob(Noise)      <  2.14e-05   (~4.1 sigma)
# P_topo (ms)      =  714.492030552211  +/- 0.00018
# P'_topo (s/s)    =  -0                +/- 9.49e-11
# P''_topo (s/s^2) =  0                 +/- 4.19e-14
# P_bary (ms)      =  N/A
# P'_bary (s/s)    =  N/A
# P''_bary (s/s^2) =  N/A
# P_orb (s)        =  N/A
# asin(i)/c (s)    =  N/A
# eccentricity     =  N/A
# w (rad)          =  N/A
# T_peri           =  N/A
######################################################
   0  785.4808
   1  853.8814
   2  687.9859
   3  551.2366
   4  385.4967
   5  288.6679
   6  301.218
   7  260.0385
   8  254.0184
   9  197.5867
  10  174.4612
  11  216.1801
  12  130.2588
  13  157.1204
  14  266.7122
  15  278.054
  16  254.2405
  17  290.3513
  18  267.4753
  19  215.0741
  20  144.684
  21  196.7257
  22  244.9144
  23  60.45755
  24  146.2305
  25  259.0742
  26  183.89
  27  172.6197
  28  59.84442
  29  3.061035
  30  117.3422
  31  228.1704
  32  225.2063
  33  236.1314
  34  301.421
  35  389.3089
  36  240.3299
  37  216.4518
  38  357.796
  39  163.6134
  40  188.9125
  41  168.4628
  42  308.1034
  43  402.8428
  44  148.1906
  45  129.0487
  46  130.5371
  47  214.7638
  48  233.6448
  49  92.03767
  50  317.0556
  51  236.6175
  52  186.9439
  53  211.1324
  54  265.1061
  55  197.7
  56  185.2369
  57  268.5414
  58  308.7258
  59  267.1677
  60  352.4794
  61  328.1346
  62  285.954
  63  410.378
  64  312.9067
  65  186.847
  66  256.5459
  67  314.1697
  68  227.1408
  69  198.7358
  70  213.6546
  71  258.4267
  72  274.7003
  73  263.8264
  74  208.308
  75  124.0093
  76  207.3982
  77  193.1915
  78  147.3677
  79  127.1457
  80  99.59941
  81  148.1724
  82  111.0303
  83  145.2002
  84  93.65357
  85  167.8691
  86  293.3359
  87  350.1493
  88  223.3506
  89  191.192
  90  300.2988
  91  282.0845
  92  282.6541
  93  264.1937
  94  191.9187
  95  226.0835
  96  234.9608
  97  229.0186
  98  381.9207
  99  424.585
 100  198.5907
 101  109.2697
 102  167.2731
 103  299.8971
 104  209.0632
 105  107.3996
 106  69.32062
 107  215.155
 108  270.0157
 109  169.8714
 110  45.39792
 111  80.75036
 112  80.84198
 113  125.5776
 114  309.4557
 115  247.6194
 116  245.7621
 117  116.5537
 118  153.8523
 119  324.4334
 120  367.1551
 121  410.5485
 122  278.4198
 123  243.4029
 124  208.1521
 125  149.3409
 126  217.1134
 127  212.692
 128  253.666
 129  317.4792
 130  252.8412
 131  268.9936
 132  241.7517
 133  179.2203
 134  189.3111
 135  186.9231
 136  184.9517
 137  299.4401
 138  358.3086
 139  258.9726
 140  272.1352
 141  240.9424
 142  218.734
 143  162.288
 144  161.3577
 145  139.055
 146  321.4439
 147  237.8837
 148  139.2242
 149  176.6437
 150  190.3403
 151  236.7354
 152  216.4736
 153  230.9337
 154  196.9493
 155  289.1246
 156  198.2603
 157  136.5728
 158  240.1769
 159  305.7547
 160  202.9664
 161  174.7343
 162  243.2479
 163  141.0148
 164  227.2884
 165  314.8944
 166  225.6646
 167  259.4326
 168  313.8808
 169  211.3839
 170  223.5754
 171  306.7668
 172  360.331
 173  390.4435
 174  135.222
 175  244.6421
 176  450.6279
 177  471.3335
 178  356.8296
 179  203.9739
 180  261.7315
 181  244.2403
 182  166.5577
 183  198.3724
 184  216.5568
 185  264.5729
 186  269.7386
 187  310.1645
 188  288.0391
 189  189.8349
 190  160.231
 191  218.7178
 192  300.4228
 193  240.8089
 194  215.5402
 195  252.5372
 196  244.789
 197  270.1124
 198  175.356
 199  328.9039
 200  343.991
 201  259.7487
 202  310.0619
 203  293.7509
 204  163.128
 205  188.1619
 206  259.3027
 207  170.3251
 208  199.9539
 209  259.2935
 210  348.9037
 211  262.8894
 212  240.6228
 213  231.4078
 214  338.747
 215  386.8174
 216  287.0793
 217  219.665
 218  157.816
 219  168.0906
 220  247.4015
 221  196.3965
 222  249.864
 223  117.0028
 224  185.0917
 225  128.0825
 226  288.0714
 227  201.1198
 228  7.572236
 229  53.73753
 230  194.719
 231  289.5415
 232  339.8866
 233  183.8294
 234  48.05336
 235  203.4184
 236  175.2243
 237  186.2684
 238  172.4481
 239  202.1931
 240  206.8627
 241  118.3591
 242  147.1082
 243  144.7858
 244  303.42
 245  282.6469
 246  257.5942
 247  156.7253
 248  72.66026
 249  119.725
 250  68.15804
 251  109.2483
 252  318.7569
 253  327.9825
 254  260.4368
 255  241.4821
 256  224.4638
 257  267.4667
 258  227.2984
 259  186.0017
 260  339.3497
 261  231.4073
 262  198.4508
 263  233.8483
 264  233.8864
 265  248.4488
 266  319.6557
 267  165.6609
 268  85.87453
 269  240.0349
 270  387.2938
 271  168.0294
 272  85.32756
 273  209.2619
 274  241.8575
 275  255.4665
 276  259.5527
 277  213.2926
 278  141.2688
 279  124.7401
 280  229.3803
 281  209.6683
 282  108.9465
 283  166.7773
 284  184.5078
 285  100.5178
 286  81.63493
 287  173.1886
 288  284.3574
 289  271.4785
 290  186.426
 291  174.7132
 292  195.9718
 293  212.6584
 294  243.1129
 295  243.6875
 296  160.7414
 297  55.25141
 298  170.6716
 299  140.2645
 300  36.19254
 301  206.0493
 302  146.9398
 303  121.7858
 304  254.0132
 305  342.6504
 306  201.2684
 307  164.4289
 308  120.1802
 309  116.1994
 310  192.3702
 311  140.7433
 312  181.3333
 313  151.0332
 314  235.9353
 315  175.3718
 316  156.4376
 317  213.9759
 318  205.4936
 319  138.3924
 320  173.8466
 321  226.4586
 322  219.3715
 323  219.7041
 324  370.2249
 325  501.5855
 326  434.8654
 327  215.846
 328  218.0903
 329  247.5715
 330  296.569
 331  377.636
 332  254.1888
 333  323.3925
 334  248.7257
 335  266.2719
 336  294.407
 337  221.9759
 338  201.8734
 339  272.1379
 340  174.6988
 341  219.8723
 342  145.3677
 343  234.0525
 344  304.9374
 345  292.0322
 346  313.9162
 347  259.9362
 348  153.0012
 349  178.0191
 350  184.6493
 351  211.5411
 352  293.6231
 353  181.9699
 354  212.9963
 355  279.3223
 356  317.4829
 357  243.7916
 358  197.7589
 359  226.077
 360  109.727
 361  183.8843
 362  136.6198
 363  198.9611
 364  173.7941
 365  179.5664
 366  175.8963
 367  131.591
 368  150.6844
 369  227.7092
 370  117.2795
 371  96.82784
 372  171.3238
 373  259.3791
 374  226.4865
 375  190.4462
 376  108.0205
 377  141.0453
 378  59.33169
 379  32.81761
 380  156.488
 381  257.2318
 382  298.4118
 383  228.8108
 384  125.927
 385  214.8014
 386  141.8026
 387  134.6187
 388  277.1369
 389  271.876
 390  375.2128
 391  307.2249
 392  235.6336
 393  302.0153
 394  346.5128
 395  264.0809
 396  188.46
 397  167.5072
 398  168.2425
 399  69.26788
 400  146.7349
 401  247.2005
 402  231.9529
 403  249.9232
 404  297.2662
 405  234.5081
 406  350.6341
 407  234.0037
 408  135.0276
 409  284.8612
 410  167.8502
 411  93.80104
 412  29.30517
 413  176.607
 414  235.4354
 415  127.6262
 416  171.7229
 417  270.0778
 418  251.5106
 419  311.9966
 420  348.4004
 421  446.3897
 422  317.0102
 423  241.2806
 424  202.8257
 425  246.619
 426  220.1406
 427  223.8218
 428  152.0753
 429  193.3129
 430  318.9421
 431  255.7472
 432  329.2013
 433  190.9249
 434  252.3683
 435  79.75827
 436  241.8935
 437  223.371
 438  194.6261
 439  152.929
 440  190.9663
 441  285.064
 442  288.0661
 443  171.8027
 444  107.9478
 445  254.5356
 446  258.0083
 447  278.4432
 448  245.0111
 449  258.5837
 450  257.5595
 451  330.6558
 452  149.8872
 453  155.4359
 454  153.8375
 455  137.7062
 456  164.6017
 457  133.7508
 458  178.4889
 459  208.5974
 460  195.2535
 461  116.6022
 462  137.4509
 463  190.7617
 464  181.4685
 465  179.3616
 466  207.5283
 467  304.338
 468  311.0969
 469  262.8704
 470  216.6906
 471  269.9028
 472  283.6647
 473  223.9691
 474  84.37846
 475  24.55063
 476  61.13407
 477  138.7021
 478  187.8867
 479  254.2406
 480  314.1698
 481  262.3169
 482  206.4438
 483  259.2886
 484  193.547
 485  281.5758
 486  326.3083
 487  278.395
 488  199.9181
 489  202.7448
 490  225.5146
 491  270.4034
 492  214.0406
 493  209.2068
 494  245.7018
 495  211.9368
 496  203.7799
 497  256.4792
 498  299.8647
 499  260.8284
 500  174.3223
 501  330.4396
 502  299.8153
 503  267.4943
 504  235.239
 505  343.216
 506  262.4461
 507  400.641
 508  446.3851
 509  448.7472
 510  785.0007
 511  839.614
