# Input file       =  1193966255.105368_cleaned.dat
# Candidate        =  PSR_0332+5434
# Telescope        =  AR
# Epoch_topo       =  58063.053670201014
# Epoch_bary       =  N/A
# T_sample         =  0.002
# Data Folded      =  7340032
# Data Avg         =  0.0161397980274823
# Data StdDev      =  0.999999652026107
# Profile Bins     =  512
# Profile Avg      =  231.332731620712 
# Profile StdDev   =  119.732994712795 
# Reduced chi-sqr  =  1.191
# Prob(Noise)      <  0.00184   (~2.9 sigma)
# P_topo (ms)      =  714.500768066136  +/- 0.000166
# P'_topo (s/s)    =  -0                +/- 8.77e-11
# P''_topo (s/s^2) =  0                 +/- 3.87e-14
# P_bary (ms)      =  N/A
# P'_bary (s/s)    =  N/A
# P''_bary (s/s^2) =  N/A
# P_orb (s)        =  N/A
# asin(i)/c (s)    =  N/A
# eccentricity     =  N/A
# w (rad)          =  N/A
# T_peri           =  N/A
######################################################
   0  794.519
   1  756.4147
   2  635.6941
   3  484.1538
   4  401.3035
   5  231.2984
   6  138.7613
   7  193.2393
   8  258.2636
   9  266.3628
  10  114.102
  11  126.8264
  12  158.6519
  13  268.2992
  14  341.4041
  15  314.7538
  16  221.7799
  17  218.0274
  18  160.1591
  19  225.9639
  20  241.2335
  21  282.1955
  22  238.7455
  23  271.7043
  24  219.6593
  25  219.4139
  26  131.0561
  27  98.90512
  28  225.2334
  29  124.8405
  30  221.3788
  31  257.2369
  32  238.4012
  33  160.7408
  34  85.23488
  35  97.15261
  36  202.9838
  37  358.3495
  38  324.7423
  39  329.9129
  40  259.7067
  41  228.8178
  42  249.5923
  43  177.1793
  44  176.4761
  45  254.5069
  46  256.6122
  47  268.773
  48  144.4766
  49  243.465
  50  252.412
  51  262.5076
  52  313.1691
  53  222.4653
  54  149.815
  55  155.5871
  56  259.67
  57  287.8027
  58  202.0735
  59  162.8571
  60  271.3897
  61  232.9251
  62  175.025
  63  165.1625
  64  240.8031
  65  209.3417
  66  116.7457
  67  223.0662
  68  129.9754
  69  116.5846
  70  200.0311
  71  235.4904
  72  228.0562
  73  131.9477
  74  134.9283
  75  280.769
  76  283.7791
  77  281.7292
  78  321.7387
  79  104.935
  80  97.313
  81  293.2939
  82  175.1301
  83  171.5528
  84  195.6568
  85  342.9116
  86  266.9443
  87  182.1138
  88  193.3755
  89  238.0387
  90  235.5578
  91  150.8888
  92  48.85279
  93  147.0584
  94  125.7922
  95  132.8964
  96  140.9484
  97  264.5578
  98  303.069
  99  166.3634
 100  233.185
 101  147.2687
 102  214.0616
 103  255.1423
 104  281.0714
 105  189.9681
 106  281.1197
 107  266.5871
 108  126.3347
 109  201.1373
 110  266.1024
 111  306.7319
 112  197.2226
 113  190.6286
 114  221.3337
 115  207.084
 116  229.9951
 117  391.3527
 118  331.2558
 119  215.7068
 120  214.1839
 121  173.3569
 122  225.1755
 123  241.6444
 124  223.3804
 125  286.1895
 126  313.5638
 127  330.3474
 128  308.0927
 129  291.0091
 130  158.2158
 131  224.6729
 132  126.4247
 133  147.2382
 134  233.0293
 135  218.1684
 136  238.4226
 137  235.7889
 138  205.0661
 139  153.3307
 140  232.7386
 141  212.7327
 142  250.1299
 143  276.8787
 144  139.3464
 145  142.9463
 146  167.7718
 147  297.5767
 148  211.0822
 149  117.457
 150  195.7553
 151  186.9429
 152  238.3454
 153  260.2363
 154  412.1352
 155  248.5229
 156  292.2678
 157  245.641
 158  241.1871
 159  168.3881
 160  113.4185
 161  222.4926
 162  117.3837
 163  115.5995
 164  139.7269
 165  157.709
 166  140.1454
 167  182.843
 168  149.7918
 169  234.8807
 170  189.2789
 171  97.39478
 172  116.4162
 173  73.99844
 174  135.0196
 175  147.0825
 176  203.7818
 177  222.3185
 178  149.9746
 179  192.7077
 180  220.7294
 181  277.5274
 182  233.1062
 183  194.4751
 184  137.9383
 185  166.2107
 186  291.2181
 187  246.258
 188  233.3991
 189  258.0982
 190  221.7914
 191  166.3065
 192  187.7224
 193  138.6368
 194  195.2259
 195  194.078
 196  260.1043
 197  282.4211
 198  218.1341
 199  191.1931
 200  32.97287
 201  146.1285
 202  248.7381
 203  328.3415
 204  271.2816
 205  184.0251
 206  205.2931
 207  309.9764
 208  251.7825
 209  323.6665
 210  332.2868
 211  264.8427
 212  119.131
 213  155.8475
 214  234.6529
 215  251.8215
 216  297.407
 217  301.5269
 218  312.5594
 219  257.556
 220  231.0941
 221  107.6023
 222  209.9587
 223  268.4418
 224  182.3098
 225  99.13211
 226  262.5357
 227  430.2777
 228  155.5274
 229  136.4359
 230  375.7809
 231  373.8572
 232  187.3113
 233  334.0769
 234  416.5996
 235  255.8414
 236  118.3971
 237  176.429
 238  178.5896
 239  92.45435
 240  254.1687
 241  248.389
 242  274.3716
 243  280.5123
 244  268.9593
 245  359.9754
 246  289.3777
 247  212.2618
 248  200.4237
 249  179.8382
 250  212.4709
 251  290.2828
 252  443.7123
 253  189.394
 254  205.2016
 255  155.2799
 256  123.7905
 257  248.0204
 258  206.6875
 259  57.85709
 260  308.0956
 261  346.4455
 262  339.1624
 263  238.8545
 264  393.0072
 265  263.8618
 266  96.3177
 267  87.75512
 268  131.4329
 269  87.15114
 270  35.98517
 271  133.8994
 272  314.9906
 273  309.0584
 274  245.4869
 275  196.5011
 276  107.5796
 277  226.86
 278  258.0235
 279  305.6677
 280  262.6559
 281  314.2714
 282  306.4357
 283  242.7256
 284  320.9073
 285  325.9678
 286  368.7341
 287  316.0669
 288  179.1735
 289  264.6254
 290  279.2109
 291  182.4847
 292  216.3696
 293  154.6806
 294  148.8205
 295  221.3889
 296  159.725
 297  213.09
 298  152.9736
 299  215.0805
 300  180.0165
 301  244.5558
 302  301.4039
 303  229.4739
 304  185.6781
 305  274.6254
 306  266.1049
 307  151.0347
 308  128.3223
 309  176.0703
 310  133.8532
 311  207.43
 312  253.1048
 313  193.5677
 314  165.912
 315  187.2897
 316  102.8917
 317  189.2563
 318  299.4066
 319  188.4284
 320  248.8288
 321  279.441
 322  296.2566
 323  170.4917
 324  199.4197
 325  270.118
 326  84.49355
 327  107.2698
 328  176.287
 329  243.7637
 330  178.4313
 331  120.5085
 332  197.885
 333  187.0369
 334  222.5112
 335  266.1905
 336  400.8574
 337  320.891
 338  99.31843
 339  226.297
 340  300.3217
 341  264.9999
 342  365.6788
 343  367.0368
 344  349.4736
 345  191.0552
 346  234.3308
 347  258.2552
 348  227.0006
 349  107.5817
 350  126.4066
 351  173.4517
 352  216.8568
 353  183.7812
 354  210.427
 355  153.1743
 356  70.8541
 357  32.08101
 358  60.25761
 359  121.2672
 360  271.1228
 361  324.9738
 362  301.8805
 363  242.1549
 364  168.6387
 365  263.1566
 366  347.5395
 367  284.4918
 368  112.3638
 369  96.44501
 370  137.8434
 371  208.7985
 372  192.3321
 373  145.3878
 374  265.8471
 375  252.896
 376  208.7787
 377  270.6594
 378  339.9863
 379  272.6015
 380  290.0934
 381  267.5593
 382  185.9921
 383  213.3539
 384  162.5719
 385  267.6643
 386  186.5475
 387  344.011
 388  335.6384
 389  287.0393
 390  264.2478
 391  191.5006
 392  139.9877
 393  41.95743
 394  157.2276
 395  324.4284
 396  222.0594
 397  231.8707
 398  292.3123
 399  265.6745
 400  198.4342
 401  185.131
 402  207.006
 403  329.3043
 404  280.2328
 405  406.0771
 406  373.9726
 407  177.2259
 408  216.6073
 409  317.5137
 410  344.9005
 411  426.019
 412  358.6156
 413  164.7383
 414  199.0374
 415  300.1345
 416  413.6877
 417  368.5886
 418  227.9126
 419  287.4025
 420  303.4847
 421  184.1312
 422  199.8917
 423  241.2507
 424  139.3692
 425  166.6223
 426  151.3308
 427  109.7023
 428  171.4514
 429  172.397
 430  198.068
 431  214.5488
 432  377.5659
 433  287.019
 434  191.8796
 435  186.8847
 436  175.0955
 437  243.9468
 438  238.0461
 439  171.6407
 440  380.1519
 441  292.3651
 442  162.0527
 443  216.1524
 444  239.2929
 445  260.774
 446  229.7951
 447  153.0285
 448  -16.95187
 449  38.54895
 450  238.356
 451  393.456
 452  278.6126
 453  247.888
 454  216.3593
 455  234.7961
 456  69.63126
 457  53.60096
 458  41.72578
 459  135.3189
 460  241.8677
 461  278.7307
 462  273.2525
 463  319.3749
 464  258.4309
 465  260.5128
 466  101.8922
 467  254.5932
 468  373.0224
 469  465.2411
 470  396.7135
 471  374.9827
 472  312.7304
 473  211.5138
 474  101.9497
 475  200.0742
 476  343.8657
 477  318.9434
 478  335.1706
 479  220.8026
 480  110.1857
 481  148.1092
 482  221.3301
 483  382.9384
 484  277.8686
 485  222.5162
 486  283.4253
 487  179.5961
 488  115.541
 489  167.4322
 490  354.7333
 491  380.1895
 492  329.6862
 493  254.567
 494  321.8244
 495  345.7445
 496  289.9442
 497  250.3638
 498  333.6171
 499  326.5396
 500  226.0058
 501  173.9463
 502  359.5544
 503  364.2533
 504  313.8118
 505  185.2788
 506  99.74261
 507  245.93
 508  382.9244
 509  573.259
 510  535.7183
 511  747.6382
