# Input file       =  1193089133.132607_cleaned.dat
# Candidate        =  PSR_0332+5434
# Telescope        =  AR
# Epoch_topo       =  58052.901795516285
# Epoch_bary       =  N/A
# T_sample         =  0.002
# Data Folded      =  7340032
# Data Avg         =  0.0167102675031899
# Data StdDev      =  0.999996361366597
# Profile Bins     =  512
# Profile Avg      =  239.702634513228 
# Profile StdDev   =  119.732600712141 
# Reduced chi-sqr  =  1.427
# Prob(Noise)      <  6.62e-10   (~6.1 sigma)
# P_topo (ms)      =  714.491156407951  +/- 0.000266
# P'_topo (s/s)    =  -0                +/- 1.41e-10
# P''_topo (s/s^2) =  0                 +/- 6.2e-14
# P_bary (ms)      =  N/A
# P'_bary (s/s)    =  N/A
# P''_bary (s/s^2) =  N/A
# P_orb (s)        =  N/A
# asin(i)/c (s)    =  N/A
# eccentricity     =  N/A
# w (rad)          =  N/A
# T_peri           =  N/A
######################################################
   0  998.1733
   1  1005.046
   2  874.1451
   3  569.6747
   4  411.3264
   5  367.5114
   6  326.0084
   7  305.2777
   8  313.7448
   9  287.2666
  10  241.7869
  11  293.9543
  12  235.9197
  13  284.1831
  14  196.2319
  15  193.8027
  16  101.5908
  17  144.3973
  18  192.8072
  19  226.8197
  20  186.6177
  21  100.2636
  22  284.2146
  23  436.8621
  24  282.0114
  25  318.1685
  26  238.2559
  27  111.451
  28  176.8157
  29  155.3403
  30  180.0326
  31  207.7364
  32  164.4636
  33  239.1175
  34  278.9699
  35  260.6491
  36  246.5068
  37  145.537
  38  289.2977
  39  303.8115
  40  250.5066
  41  293.0856
  42  175.1838
  43  134.1897
  44  155.5028
  45  123.659
  46  130.3921
  47  115.0654
  48  322.037
  49  299.9804
  50  368.7488
  51  252.3506
  52  302.2823
  53  389.7149
  54  383.4596
  55  345.2348
  56  210.2601
  57  292.3406
  58  352.3059
  59  207.8746
  60  277.3292
  61  301.1242
  62  215.9642
  63  244.1705
  64  188.1815
  65  197.1287
  66  254.5405
  67  276.6484
  68  131.7219
  69  189.1017
  70  202.8146
  71  169.8824
  72  247.4129
  73  239.0829
  74  372.5964
  75  264.5306
  76  230.3424
  77  160.0507
  78  129.6359
  79  259.2952
  80  234.0896
  81  216.6683
  82  260.1387
  83  203.547
  84  295.367
  85  279.9524
  86  197.6773
  87  89.247
  88  348.5314
  89  443.0956
  90  169.5167
  91  153.1297
  92  236.4793
  93  348.2986
  94  271.1793
  95  379.4126
  96  203.5727
  97  48.94429
  98  201.7644
  99  203.9614
 100  219.6445
 101  137.9052
 102  63.17113
 103  122.7018
 104  168.0962
 105  253.024
 106  173.799
 107  214.0071
 108  217.6677
 109  233.0527
 110  141.6335
 111  179.1715
 112  165.9565
 113  121.8575
 114  113.7845
 115  169.7532
 116  494.9294
 117  300.6423
 118  268.9577
 119  274.323
 120  317.1406
 121  325.4199
 122  270.2455
 123  314.236
 124  366.0309
 125  231.9849
 126  263.4222
 127  303.253
 128  316.2272
 129  135.5267
 130  186.1101
 131  136.9513
 132  211.9726
 133  90.14248
 134  76.73679
 135  201.9289
 136  235.3398
 137  242.9125
 138  311.7602
 139  342.6817
 140  301.5772
 141  301.8607
 142  316.4603
 143  188.5188
 144  -15.46355
 145  72.43483
 146  129.0918
 147  91.47167
 148  227.8878
 149  332.6574
 150  283.2695
 151  295.4869
 152  297.2102
 153  297.6902
 154  188.2983
 155  223.8141
 156  259.5298
 157  266.3993
 158  292.4924
 159  191.0151
 160  100.6323
 161  -4.228883
 162  133.4455
 163  270.8714
 164  288.8045
 165  198.8528
 166  221.7847
 167  128.4202
 168  319.8789
 169  215.1287
 170  184.8163
 171  144.1076
 172  225.9006
 173  238.3035
 174  207.9329
 175  282.6332
 176  224.9472
 177  276.0547
 178  330.6057
 179  320.8642
 180  329.627
 181  282.2237
 182  318.9977
 183  335.3916
 184  292.1959
 185  342.5319
 186  301.7314
 187  272.1731
 188  263.7665
 189  367.8309
 190  317.3083
 191  229.3469
 192  292.3775
 193  149.7972
 194  130.5551
 195  282.8368
 196  315.9465
 197  279.1716
 198  206.9478
 199  346.6162
 200  302.6492
 201  211.5798
 202  184.0123
 203  284.8181
 204  366.8187
 205  334.0256
 206  232.856
 207  184.0844
 208  311.0512
 209  255.3177
 210  144.2863
 211  233.0012
 212  258.149
 213  254.2018
 214  206.313
 215  235.2727
 216  324.7089
 217  416.9561
 218  376.9202
 219  454.6586
 220  229.3974
 221  137.6664
 222  304.4145
 223  224.1621
 224  203.4377
 225  256.4194
 226  275.576
 227  281.3231
 228  191.9528
 229  210.1788
 230  240.5362
 231  308.997
 232  278.2986
 233  257.2796
 234  265.1083
 235  281.3549
 236  222.248
 237  210.8573
 238  230.3809
 239  283.3578
 240  250.6636
 241  207.9675
 242  98.45921
 243  -25.27424
 244  157.896
 245  308.1251
 246  372.2001
 247  280.9276
 248  275.8235
 249  174.3163
 250  141.1373
 251  248.8248
 252  245.4283
 253  182.7971
 254  277.5038
 255  419.4493
 256  344.0727
 257  342.8374
 258  246.3983
 259  324.2262
 260  364.0329
 261  356.6081
 262  288.072
 263  257.0541
 264  321.6892
 265  375.1736
 266  306.61
 267  286.638
 268  326.5905
 269  312.1526
 270  208.3102
 271  275.6117
 272  204.0467
 273  83.1889
 274  184.7781
 275  272.3043
 276  255.1235
 277  184.4326
 278  295.1778
 279  241.1004
 280  313.3692
 281  219.6088
 282  308.7096
 283  208.7098
 284  273.5391
 285  347.1588
 286  278.295
 287  104.6111
 288  118.9254
 289  319.8442
 290  330.8902
 291  144.7274
 292  152.3382
 293  252.4468
 294  283.2625
 295  218.2856
 296  253.4533
 297  257.9753
 298  180.6419
 299  294.5123
 300  324.1735
 301  217.9731
 302  255.5583
 303  209.9934
 304  277.0638
 305  80.47198
 306  163.3121
 307  300.5221
 308  297.4486
 309  246.0398
 310  273.0145
 311  312.5763
 312  218.1806
 313  231.8661
 314  143.4615
 315  183.6858
 316  258.5714
 317  153.4616
 318  180.7367
 319  232.9799
 320  242.8544
 321  242.0008
 322  305.2773
 323  241.0574
 324  137.9429
 325  263.2478
 326  216.2449
 327  139.2908
 328  234.3895
 329  176.9852
 330  54.46832
 331  217.926
 332  167.1435
 333  138.811
 334  110.9623
 335  217.4275
 336  169.9979
 337  219.7418
 338  234.1088
 339  201.5042
 340  197.6051
 341  243.3603
 342  379.8363
 343  340.3095
 344  330.7303
 345  284.9341
 346  309.9872
 347  379.0175
 348  241.3664
 349  251.2929
 350  238.479
 351  244.1326
 352  216.3847
 353  234.3074
 354  318.8198
 355  217.9082
 356  249.0342
 357  251.1165
 358  232.8514
 359  190.4286
 360  284.7734
 361  333.3081
 362  316.2647
 363  268.9778
 364  243.7176
 365  213.4611
 366  80.73047
 367  63.47164
 368  195.9326
 369  335.0065
 370  358.299
 371  152.9117
 372  265.3342
 373  267.1563
 374  266.077
 375  269.7028
 376  298.7751
 377  339.0428
 378  244.4165
 379  211.5226
 380  242.1429
 381  204.763
 382  122.0372
 383  -39.9302
 384  64.67697
 385  222.0625
 386  213.3092
 387  144.2224
 388  66.47492
 389  58.08027
 390  57.12497
 391  222.1371
 392  292.5609
 393  227.5939
 394  197.7796
 395  163.5028
 396  201.355
 397  241.6487
 398  200.6618
 399  239.0136
 400  242.6994
 401  96.34797
 402  191.7824
 403  111.6422
 404  148.7701
 405  266.674
 406  152.0987
 407  365.5706
 408  291.8064
 409  193.8526
 410  212.8389
 411  58.96783
 412  113.4184
 413  136.3734
 414  168.4087
 415  202.1625
 416  265.3699
 417  208.748
 418  151.867
 419  152.5676
 420  180.8122
 421  265.1675
 422  120.0096
 423  156.2051
 424  243.6112
 425  259.8192
 426  178.3727
 427  208.6619
 428  239.474
 429  214.5154
 430  120.2893
 431  209.8951
 432  225.8893
 433  165.3937
 434  149.4823
 435  278.3687
 436  350.0125
 437  280.2757
 438  282.2181
 439  197.0389
 440  127.4068
 441  83.8552
 442  161.7999
 443  233.5162
 444  168.6444
 445  71.46384
 446  114.7755
 447  224.8959
 448  191.377
 449  238.9211
 450  253.025
 451  305.5747
 452  252.1841
 453  273.386
 454  252.4156
 455  213.1463
 456  139.07
 457  208.1608
 458  265.7949
 459  267.5286
 460  275.724
 461  210.0706
 462  281.3896
 463  262.825
 464  274.3345
 465  267.7845
 466  308.7185
 467  283.5615
 468  212.0229
 469  197.5481
 470  258.0179
 471  212.5804
 472  97.89486
 473  155.7145
 474  233.4508
 475  165.5305
 476  51.85531
 477  143.3691
 478  227.072
 479  129.0523
 480  50.44864
 481  80.35188
 482  157.313
 483  267.7269
 484  187.6303
 485  56.9306
 486  61.66103
 487  71.55801
 488  266.7921
 489  230.4458
 490  137.6812
 491  183.1891
 492  345.2883
 493  374.0509
 494  293.298
 495  314.4661
 496  405.1494
 497  192.7948
 498  155.7529
 499  360.4637
 500  344.6118
 501  155.9803
 502  191.181
 503  170.5665
 504  308.32
 505  410.2162
 506  437.3876
 507  291.2611
 508  306.2001
 509  442.5883
 510  508.665
 511  782.9303
