# Input file       =  1193936473.117343_cleaned.dat
# Candidate        =  PSR_0332+5434
# Telescope        =  AR
# Epoch_topo       =  58062.708971265543
# Epoch_bary       =  N/A
# T_sample         =  0.002
# Data Folded      =  7340032
# Data Avg         =  0.0292390592556389
# Data StdDev      =  1.00013230008159 
# Profile Bins     =  512
# Profile Avg      =  418.989597400229 
# Profile StdDev   =  119.748877067248 
# Reduced chi-sqr  =  1.394
# Prob(Noise)      <  8.56e-09   (~5.6 sigma)
# P_topo (ms)      =  714.500078555296  +/- 0.000272
# P'_topo (s/s)    =  -0                +/- 1.43e-10
# P''_topo (s/s^2) =  0                 +/- 6.33e-14
# P_bary (ms)      =  N/A
# P'_bary (s/s)    =  N/A
# P''_bary (s/s^2) =  N/A
# P_orb (s)        =  N/A
# asin(i)/c (s)    =  N/A
# eccentricity     =  N/A
# w (rad)          =  N/A
# T_peri           =  N/A
######################################################
   0  1179.404
   1  935.829
   2  797.1583
   3  603.7326
   4  516.6362
   5  387.4638
   6  288.6007
   7  302.7436
   8  362.378
   9  211.7346
  10  346.3351
  11  412.1425
  12  371.4273
  13  312.6222
  14  369.7333
  15  377.9507
  16  520.2563
  17  514.6165
  18  406.3837
  19  247.5603
  20  377.5842
  21  347.5985
  22  267.6618
  23  305.2821
  24  352.3813
  25  254.7346
  26  403.2824
  27  435.4552
  28  410.6187
  29  311.8035
  30  263.2112
  31  365.1346
  32  387.7123
  33  445.1729
  34  574.1367
  35  560.3001
  36  397.3314
  37  371.3762
  38  390.3204
  39  445.6999
  40  412.2768
  41  503.5029
  42  583.2798
  43  506.6418
  44  475.7362
  45  437.3005
  46  383.1959
  47  524.2478
  48  469.0858
  49  497.3602
  50  495.0475
  51  391.3983
  52  367.7981
  53  443.9541
  54  433.9979
  55  433.8045
  56  360.8754
  57  337.5593
  58  290.0657
  59  268.5683
  60  431.2408
  61  512.1794
  62  543.2689
  63  484.7143
  64  494.5075
  65  575.4542
  66  460.3778
  67  377.7423
  68  532.9102
  69  545.1946
  70  545.3309
  71  627.1663
  72  607.1666
  73  506.4482
  74  327.3965
  75  511.671
  76  568.1392
  77  502.1451
  78  540.7153
  79  533.5818
  80  524.374
  81  396.3735
  82  496.391
  83  462.976
  84  321.9236
  85  417.2039
  86  436.1929
  87  318.9748
  88  353.2725
  89  442.438
  90  383.56
  91  391.3533
  92  351.5117
  93  509.1285
  94  412.9195
  95  448.3868
  96  392.0319
  97  354.3918
  98  375.0349
  99  495.6647
 100  519.1024
 101  532.3341
 102  422.8156
 103  434.607
 104  495.6657
 105  409.5406
 106  398.9831
 107  416.7294
 108  444.9965
 109  414.2147
 110  391.5988
 111  332.1861
 112  406.7824
 113  334.891
 114  275.7387
 115  285.5129
 116  391.7154
 117  491.6297
 118  426.2034
 119  393.4149
 120  371.2746
 121  307.4383
 122  414.1193
 123  370.8825
 124  428.3497
 125  495.2508
 126  401.5713
 127  391.9088
 128  416.4232
 129  429.7164
 130  499.0788
 131  398.9171
 132  388.3978
 133  475.3932
 134  460.0097
 135  415.8167
 136  394.968
 137  575.4919
 138  482.3003
 139  379.2057
 140  419.4385
 141  410.4795
 142  405.5806
 143  336.5583
 144  348.3217
 145  440.0761
 146  568.751
 147  530.9005
 148  435.3781
 149  305.3878
 150  288.7069
 151  348.6085
 152  335.9293
 153  395.2193
 154  407.5274
 155  421.3527
 156  315.9715
 157  420.697
 158  542.4816
 159  390.4058
 160  450.8553
 161  606.8838
 162  635.8733
 163  609.6272
 164  613.5568
 165  549.942
 166  342.5146
 167  452.981
 168  545.3795
 169  589.9222
 170  481.8352
 171  406.8026
 172  563.347
 173  512.5912
 174  458.3534
 175  453.7073
 176  378.0923
 177  271.3534
 178  356.8038
 179  520.5677
 180  477.9991
 181  358.4472
 182  307.9776
 183  291.6317
 184  325.597
 185  385.1597
 186  452.7423
 187  424.647
 188  322.3591
 189  440.5629
 190  385.268
 191  268.8201
 192  393.3112
 193  441.2606
 194  309.6551
 195  302.2883
 196  432.9532
 197  430.0077
 198  451.5495
 199  471.8456
 200  473.1711
 201  377.4171
 202  350.1508
 203  353.1424
 204  399.9834
 205  523.1383
 206  546.3452
 207  445.8973
 208  513.5962
 209  534.2083
 210  493.9907
 211  523.6624
 212  732.5795
 213  622.8997
 214  470.7152
 215  572.311
 216  610.8397
 217  504.5148
 218  362.8478
 219  430.674
 220  419.5825
 221  339.4428
 222  294.4855
 223  252.0533
 224  332.9467
 225  276.0352
 226  274.3553
 227  281.356
 228  439.1342
 229  480.5722
 230  341.6306
 231  397.2782
 232  384.1826
 233  401.7963
 234  409.7636
 235  407.8824
 236  291.1955
 237  324.0198
 238  305.7957
 239  333.4654
 240  435.5402
 241  410.1913
 242  309.1485
 243  397.8372
 244  435.9404
 245  415.02
 246  391.1984
 247  294.7963
 248  270.8066
 249  293.8903
 250  300.4948
 251  250.681
 252  389.2513
 253  487.5933
 254  576.3817
 255  514.6354
 256  544.7061
 257  408.4771
 258  300.8159
 259  441.8971
 260  511.2226
 261  506.5624
 262  448.062
 263  461.1342
 264  527.8398
 265  430.7349
 266  485.8947
 267  489.4124
 268  497.598
 269  451.4149
 270  464.3872
 271  480.2226
 272  434.1865
 273  364.4452
 274  386.9966
 275  292.1932
 276  393.1371
 277  293.6362
 278  195.8632
 279  227.7361
 280  265.6299
 281  383.4851
 282  319.2637
 283  386.7979
 284  348.9924
 285  347.477
 286  425.8864
 287  534.5291
 288  564.081
 289  554.3521
 290  543.7363
 291  442.6474
 292  425.1021
 293  457.9466
 294  436.0399
 295  376.1663
 296  329.9345
 297  470.5073
 298  480.0037
 299  400.4345
 300  420.4556
 301  405.3246
 302  341.2092
 303  328.2343
 304  285.9953
 305  236.4497
 306  213.834
 307  316.7885
 308  337.3773
 309  390.4577
 310  441.6476
 311  444.9252
 312  253.1151
 313  285.8728
 314  325.3322
 315  445.7225
 316  432.0996
 317  404.967
 318  545.8608
 319  446.427
 320  373.2881
 321  327.8243
 322  416.8364
 323  513.6244
 324  403.0271
 325  386.7669
 326  451.9165
 327  370.0619
 328  392.9539
 329  282.7993
 330  313.5619
 331  538.6155
 332  390.1444
 333  325.2078
 334  358.4108
 335  343.42
 336  282.0949
 337  331.1293
 338  338.9653
 339  325.3351
 340  410.8989
 341  439.2871
 342  408.5728
 343  426.7166
 344  370.2527
 345  343.4555
 346  394.6803
 347  402.0992
 348  373.063
 349  322.9772
 350  570.0467
 351  551.5328
 352  440.4143
 353  276.9682
 354  403.2299
 355  495.0208
 356  398.3318
 357  302.1615
 358  467.4467
 359  493.6249
 360  326.5497
 361  315.7389
 362  491.9944
 363  537.8189
 364  506.5846
 365  537.7904
 366  386.6009
 367  394.3673
 368  440.3912
 369  301.2985
 370  433.8769
 371  447.3428
 372  450.2417
 373  337.6469
 374  368.4744
 375  338.5193
 376  406.9296
 377  389.4575
 378  340.4393
 379  422.229
 380  398.6432
 381  462.3306
 382  304.24
 383  292.5978
 384  259.9597
 385  324.9949
 386  302.2375
 387  294.715
 388  367.3849
 389  340.4389
 390  412.2129
 391  404.8646
 392  476.5342
 393  371.7084
 394  298.4309
 395  309.9037
 396  324.5725
 397  345.2428
 398  426.042
 399  312.6905
 400  253.3661
 401  444.8128
 402  435.4697
 403  408.9286
 404  504.541
 405  488.0671
 406  477.5826
 407  444.5413
 408  396.2161
 409  433.3301
 410  391.5903
 411  500.7759
 412  447.7039
 413  460.5706
 414  393.9205
 415  404.3958
 416  459.0963
 417  375.9469
 418  338.4382
 419  277.6858
 420  301.5717
 421  334.4811
 422  334.4475
 423  405.5434
 424  613.3475
 425  544.9681
 426  337.6175
 427  288.1666
 428  264.3767
 429  476.069
 430  355.8702
 431  390.2142
 432  486.8714
 433  514.1868
 434  535.813
 435  375.1387
 436  380.2408
 437  507.7509
 438  410.916
 439  388.2824
 440  517.0117
 441  408.8805
 442  333.9614
 443  389.7041
 444  316.1138
 445  390.8102
 446  446.6296
 447  472.206
 448  487.0471
 449  465.2867
 450  399.9228
 451  283.1323
 452  478.7973
 453  492.0255
 454  484.8353
 455  473.2917
 456  581.8472
 457  463.7937
 458  404.2412
 459  459.3513
 460  407.5776
 461  372.1246
 462  390.402
 463  373.521
 464  470.0263
 465  412.5585
 466  339.1187
 467  432.9538
 468  535.1945
 469  368.3639
 470  385.7408
 471  354.1052
 472  364.743
 473  386.2015
 474  439.0099
 475  457.5747
 476  336.3966
 477  339.2315
 478  354.9406
 479  434.8343
 480  307.0364
 481  231.04
 482  255.4805
 483  332.3062
 484  415.4666
 485  413.8537
 486  409.2174
 487  385.8018
 488  492.2612
 489  426.192
 490  567.7618
 491  532.8771
 492  539.5297
 493  521.4069
 494  379.0282
 495  319.987
 496  376.6772
 497  335.2347
 498  450.3607
 499  422.5961
 500  465.4205
 501  516.4574
 502  398.7137
 503  466.8805
 504  457.226
 505  433.0304
 506  448.6657
 507  485.8697
 508  540.5404
 509  757.45
 510  828.6909
 511  1009.621
