# Input file       =  1193620941.150686_cleaned.dat
# Candidate        =  PSR_0332+5434
# Telescope        =  AR
# Epoch_topo       =  58059.056980910718
# Epoch_bary       =  N/A
# T_sample         =  0.002
# Data Folded      =  7340032
# Data Avg         =  0.017527448373129
# Data StdDev      =  1.00001482236102 
# Profile Bins     =  512
# Profile Avg      =  251.271239170175 
# Profile StdDev   =  119.734811103057 
# Reduced chi-sqr  =  1.178
# Prob(Noise)      <  0.00333   (~2.7 sigma)
# P_topo (ms)      =  714.497013858382  +/- 0.000174
# P'_topo (s/s)    =  -0                +/- 9.2e-11
# P''_topo (s/s^2) =  0                 +/- 4.06e-14
# P_bary (ms)      =  N/A
# P'_bary (s/s)    =  N/A
# P''_bary (s/s^2) =  N/A
# P_orb (s)        =  N/A
# asin(i)/c (s)    =  N/A
# eccentricity     =  N/A
# w (rad)          =  N/A
# T_peri           =  N/A
######################################################
   0  854.6621
   1  670.1802
   2  492.0593
   3  324.4821
   4  96.19904
   5  126.2235
   6  140.1443
   7  255.8016
   8  208.7619
   9  204.7141
  10  239.9593
  11  240.4968
  12  288.9283
  13  373.4607
  14  239.6619
  15  273.2292
  16  276.2679
  17  104.4258
  18  169.879
  19  384.6458
  20  345.1631
  21  234.8867
  22  209.558
  23  158.7102
  24  66.07304
  25  117.6609
  26  265.35
  27  194.0253
  28  191.8105
  29  293.9843
  30  254.749
  31  287.3515
  32  263.3889
  33  265.5338
  34  247.358
  35  125.9668
  36  233.7975
  37  310.4995
  38  371.7654
  39  394.2243
  40  286.4285
  41  233.1451
  42  243.1896
  43  244.1538
  44  268.8373
  45  200.0811
  46  322.4746
  47  358.556
  48  274.3939
  49  190.3255
  50  245.232
  51  301.3652
  52  277.8982
  53  265.3664
  54  287.694
  55  309.3691
  56  385.4636
  57  288.8952
  58  155.4818
  59  236.6478
  60  320.0453
  61  246.3405
  62  374.1048
  63  269.6553
  64  240.9863
  65  311.8593
  66  166.5443
  67  252.3216
  68  320.6739
  69  273.7711
  70  440.7545
  71  308.5774
  72  197.4383
  73  96.65641
  74  140.8484
  75  157.2171
  76  236.7828
  77  342.8556
  78  260.7344
  79  267.4912
  80  190.3704
  81  208.1901
  82  204.1897
  83  166.5139
  84  162.523
  85  135.1376
  86  283.201
  87  304.1314
  88  446.6438
  89  393.2617
  90  311.0263
  91  150.0472
  92  219.177
  93  288.9869
  94  332.8922
  95  306.505
  96  308.5206
  97  249.0537
  98  216.5266
  99  248.2156
 100  310.8139
 101  476.461
 102  424.3881
 103  282.4067
 104  297.0968
 105  346.8849
 106  315.2244
 107  187.7662
 108  191.9078
 109  273.8279
 110  341.8747
 111  211.562
 112  268.0787
 113  310.6005
 114  129.6826
 115  217.3981
 116  263.7274
 117  181.5984
 118  162.7812
 119  170.7757
 120  193.0701
 121  225.285
 122  289.8476
 123  168.4928
 124  200.4035
 125  224.4333
 126  343.8432
 127  176.3988
 128  160.8614
 129  252.3169
 130  387.2974
 131  367.1222
 132  238.0922
 133  292.5418
 134  346.3994
 135  316.5475
 136  206.5957
 137  230.4149
 138  301.2654
 139  215.6633
 140  180.2271
 141  219.7272
 142  283.2804
 143  294.8916
 144  266.9103
 145  224.0723
 146  187.9536
 147  156.1861
 148  137.5147
 149  243.2847
 150  298.5199
 151  242.2642
 152  237.5973
 153  152.7399
 154  146.883
 155  122.4404
 156  284.9276
 157  287.0362
 158  157.936
 159  97.118
 160  70.17636
 161  37.54184
 162  211.16
 163  256.6202
 164  342.8832
 165  294.3746
 166  442.7066
 167  413.4243
 168  359.02
 169  271.4411
 170  256.1533
 171  282.3052
 172  297.6495
 173  170.8339
 174  301.4257
 175  216.476
 176  130.5512
 177  229.4526
 178  211.9152
 179  313.5722
 180  223.7877
 181  277.3988
 182  253.695
 183  294.7355
 184  298.1331
 185  174.164
 186  190.4847
 187  328.9981
 188  198.7968
 189  265.7971
 190  292.6421
 191  229.5158
 192  244.921
 193  193.3057
 194  272.8614
 195  202.8968
 196  187.1566
 197  394.798
 198  363.7054
 199  228.4776
 200  246.7891
 201  283.3554
 202  198.8584
 203  199.6483
 204  148.7142
 205  104.1841
 206  228.2737
 207  220.9193
 208  228.2731
 209  217.6427
 210  229.4061
 211  236.0028
 212  186.6794
 213  279.3691
 214  225.6332
 215  347.5821
 216  412.5463
 217  412.4863
 218  279.1215
 219  268.0293
 220  349.4198
 221  269.8645
 222  266.5522
 223  290.1671
 224  341.2029
 225  238.0516
 226  109.6326
 227  244.8849
 228  162.5323
 229  164.7764
 230  269.5052
 231  360.4
 232  286.0303
 233  214.2265
 234  331.754
 235  271.6292
 236  164.6708
 237  184.8703
 238  261.9063
 239  265.0893
 240  387.4667
 241  418.8742
 242  326.3358
 243  413.2331
 244  391.6602
 245  171.2395
 246  171.6635
 247  303.7258
 248  291.6296
 249  357.2307
 250  198.2244
 251  174.5248
 252  203.2284
 253  221.4232
 254  277.2554
 255  318.7391
 256  302.7848
 257  375.6905
 258  317.8206
 259  221.6304
 260  286.9134
 261  304.5511
 262  183.1707
 263  250.6232
 264  239.1804
 265  256.2974
 266  244.0898
 267  260.2127
 268  180.9878
 269  172.0672
 270  265.1848
 271  255.3629
 272  103.8492
 273  16.7143
 274  62.20911
 275  88.1799
 276  182.9804
 277  193.5979
 278  188.4595
 279  249.9658
 280  222.8885
 281  285.092
 282  251.0454
 283  200.0083
 284  244.6972
 285  309.3766
 286  201.6495
 287  105.7986
 288  189.9469
 289  199.0221
 290  222.2836
 291  317.956
 292  270.9314
 293  200.8372
 294  143.0079
 295  119.9505
 296  150.8985
 297  65.88053
 298  135.7073
 299  94.70997
 300  85.70944
 301  116.7347
 302  110.4894
 303  207.879
 304  238.5748
 305  310.9792
 306  204.3431
 307  159.5328
 308  230.7966
 309  231.7522
 310  140.6473
 311  121.1128
 312  107.8139
 313  173.1805
 314  313.4629
 315  178.3926
 316  106.0065
 317  238.392
 318  214.6946
 319  141.2507
 320  267.7196
 321  360.5105
 322  343.2324
 323  398.7777
 324  400.8091
 325  304.6504
 326  329.1133
 327  289.1374
 328  188.9635
 329  183.1359
 330  234.6349
 331  241.3417
 332  297.1211
 333  404.1056
 334  238.4506
 335  257.251
 336  195.9385
 337  147.8686
 338  164.271
 339  196.3962
 340  158.306
 341  63.07859
 342  121.9788
 343  212.7011
 344  319.3424
 345  129.811
 346  218.6494
 347  309.8779
 348  181.4483
 349  85.12644
 350  161.5481
 351  257.8056
 352  171.3973
 353  267.1187
 354  396.2672
 355  328.6859
 356  220.0198
 357  250.822
 358  175.5343
 359  162.2889
 360  274.5706
 361  254.9794
 362  215.5526
 363  245.2879
 364  262.4509
 365  239.7124
 366  332.9724
 367  276.0551
 368  229.8371
 369  245.0569
 370  292.0233
 371  353.3362
 372  344.5334
 373  337.6113
 374  261.5441
 375  259.3055
 376  262.2286
 377  237.6372
 378  329.122
 379  284.2041
 380  243.4155
 381  213.0239
 382  200.9
 383  224.9445
 384  253.0069
 385  271.4926
 386  208.2304
 387  264.7141
 388  245.9563
 389  181.7098
 390  203.1978
 391  207.7547
 392  129.8782
 393  150.4811
 394  286.6703
 395  270.9612
 396  132.1182
 397  212.0946
 398  320.2732
 399  248.9587
 400  277.0291
 401  256.0979
 402  131.7126
 403  198.9876
 404  400.374
 405  233.8392
 406  209.4506
 407  248.5628
 408  179.6632
 409  100.0712
 410  350.327
 411  357.9821
 412  195.601
 413  367.6178
 414  320.8803
 415  236.2238
 416  202.8138
 417  329.0687
 418  202.8375
 419  90.10494
 420  173.7909
 421  251.2359
 422  194.7063
 423  193.8851
 424  206.8044
 425  283.8825
 426  329.7559
 427  275.9475
 428  275.3374
 429  292.9578
 430  280.9884
 431  371.9402
 432  386.1193
 433  264.6296
 434  215.5597
 435  333.782
 436  330.9904
 437  317.1239
 438  232.3324
 439  218.3168
 440  290.0074
 441  279.3196
 442  298.5936
 443  168.7273
 444  149.9923
 445  238.3298
 446  162.4468
 447  121.9369
 448  231.9573
 449  257.7398
 450  273.2732
 451  314.5755
 452  263.4664
 453  262.0466
 454  256.6483
 455  244.347
 456  238.5947
 457  163.4958
 458  128.6418
 459  180.4172
 460  240.3928
 461  268.8233
 462  304.9938
 463  177.3258
 464  145.9944
 465  333.4998
 466  389.154
 467  447.6558
 468  415.3475
 469  327.9338
 470  207.0694
 471  308.1835
 472  288.2279
 473  193.8389
 474  162.1312
 475  243.5605
 476  135.4605
 477  183.9138
 478  204.574
 479  219.157
 480  210.4948
 481  156.273
 482  197.6402
 483  347.0107
 484  328.736
 485  255.9749
 486  176.3008
 487  124.4284
 488  174.3156
 489  211.1023
 490  325.5023
 491  278.4084
 492  74.55006
 493  169.7598
 494  259.2025
 495  351.6965
 496  229.8532
 497  207.5579
 498  335.1182
 499  315.9813
 500  319.735
 501  467.7163
 502  549.6678
 503  433.4032
 504  240.9286
 505  211.6885
 506  221.4813
 507  321.0146
 508  455.0182
 509  643.6987
 510  735.0977
 511  773.2359
