# Input file       =  1193534798.132602_cleaned.dat
# Candidate        =  PSR_0332+5434
# Telescope        =  AR
# Epoch_topo       =  58058.059955238452
# Epoch_bary       =  N/A
# T_sample         =  0.002
# Data Folded      =  7340032
# Data Avg         =  0.0181258883325364
# Data StdDev      =  1.00003084514881 
# Profile Bins     =  512
# Profile Avg      =  259.851766103503 
# Profile StdDev   =  119.736729560091 
# Reduced chi-sqr  =  1.502
# Prob(Noise)      <  1.38e-12   (~7.0 sigma)
# P_topo (ms)      =  714.496099294598  +/- 0.000301
# P'_topo (s/s)    =  -0                +/- 1.59e-10
# P''_topo (s/s^2) =  0                 +/- 7.01e-14
# P_bary (ms)      =  N/A
# P'_bary (s/s)    =  N/A
# P''_bary (s/s^2) =  N/A
# P_orb (s)        =  N/A
# asin(i)/c (s)    =  N/A
# eccentricity     =  N/A
# w (rad)          =  N/A
# T_peri           =  N/A
######################################################
   0  1032.843
   1  1002.337
   2  783.233
   3  557.2787
   4  396.6743
   5  281.2283
   6  239.6202
   7  383.2872
   8  374.2951
   9  293.0271
  10  394.5599
  11  349.7738
  12  290.7159
  13  272.2961
  14  323.9814
  15  329.9284
  16  321.7137
  17  412.1082
  18  310.4458
  19  309.2007
  20  246.3514
  21  250.5979
  22  189.3307
  23  275.9676
  24  272.3228
  25  253.9041
  26  269.8864
  27  142.511
  28  124.0731
  29  65.52042
  30  219.4422
  31  277.8485
  32  249.0726
  33  314.2505
  34  453.2191
  35  340.0709
  36  201.8086
  37  232.8074
  38  320.7222
  39  345.6763
  40  348.1339
  41  246.1173
  42  292.2162
  43  290.4294
  44  292.1247
  45  320.6242
  46  318.2086
  47  165.4772
  48  192.2536
  49  414.2826
  50  374.7646
  51  429.8257
  52  458.0102
  53  324.868
  54  260.634
  55  232.8932
  56  243.7807
  57  271.9163
  58  174.4389
  59  202.7102
  60  152.7693
  61  228.7298
  62  213.9739
  63  174.5618
  64  162.6442
  65  299.024
  66  308.9977
  67  258.1554
  68  318.829
  69  208.6847
  70  280.5625
  71  223.5555
  72  140.0947
  73  224.6037
  74  107.5711
  75  82.45628
  76  233.3116
  77  373.4987
  78  314.5803
  79  225.0771
  80  238.7614
  81  89.34124
  82  158.5511
  83  318.8624
  84  206.9802
  85  189.551
  86  174.8073
  87  201.4337
  88  273.8872
  89  206.2605
  90  104.4452
  91  151.5536
  92  199.3324
  93  337.4469
  94  372.196
  95  102.1857
  96  143.9969
  97  225.8517
  98  223.3998
  99  294.9217
 100  241.4591
 101  229.1389
 102  389.2801
 103  430.6538
 104  302.2852
 105  114.0918
 106  195.0504
 107  267.3991
 108  208.2908
 109  240.5912
 110  233.7883
 111  143.6984
 112  300.8319
 113  375.4649
 114  317.4209
 115  237.9352
 116  389.8578
 117  513.1622
 118  372.1573
 119  380.1255
 120  301.3294
 121  343.9471
 122  297.7263
 123  276.7959
 124  218.1855
 125  280.6271
 126  341.0761
 127  183.9941
 128  113.7471
 129  182.7202
 130  229.277
 131  224.8661
 132  147.2731
 133  119.8559
 134  240.3668
 135  274.9991
 136  188.349
 137  148.6804
 138  143.9489
 139  155.3731
 140  289.9652
 141  331.3915
 142  354.6094
 143  252.512
 144  179.1998
 145  182.7493
 146  182.8721
 147  189.6153
 148  203.1859
 149  194.37
 150  229.3234
 151  37.3989
 152  120.323
 153  139.3988
 154  260.4897
 155  263.951
 156  264.259
 157  135.8548
 158  138.2354
 159  233.5208
 160  292.6477
 161  184.4657
 162  140.3104
 163  280.4468
 164  298.4333
 165  230.0514
 166  209.5025
 167  153.4149
 168  161.0523
 169  181.8692
 170  290.4336
 171  257.0536
 172  278.9216
 173  365.7889
 174  328.9975
 175  272.4056
 176  200.4099
 177  291.2403
 178  200.8459
 179  312.7726
 180  343.3979
 181  366.1049
 182  394.9532
 183  259.5818
 184  141.8685
 185  127.8201
 186  144.1204
 187  209.0218
 188  185.942
 189  180.7343
 190  138.5597
 191  301.8618
 192  375.0923
 193  255.6512
 194  331.6248
 195  282.4395
 196  234.1139
 197  292.5486
 198  363.357
 199  239.2184
 200  304.017
 201  348.893
 202  283.2183
 203  191.7862
 204  185.1563
 205  203.3074
 206  250.4634
 207  240.9077
 208  239.9025
 209  338.295
 210  213.9511
 211  192.2784
 212  252.5793
 213  296.408
 214  320.751
 215  244.626
 216  178.1989
 217  177.1382
 218  283.8189
 219  182.1747
 220  310.0659
 221  454.4547
 222  278.4058
 223  207.9527
 224  326.0449
 225  246.5367
 226  271.9828
 227  336.4312
 228  328.5929
 229  288.8193
 230  136.2809
 231  212.2796
 232  209.6512
 233  173.9811
 234  184.0029
 235  166.9483
 236  334.7451
 237  458.3705
 238  423.0446
 239  326.4861
 240  388.0166
 241  386.8789
 242  299.5895
 243  250.2931
 244  134.5248
 245  214.18
 246  270.4194
 247  191.5063
 248  204.9403
 249  217.3966
 250  325.6816
 251  339.4905
 252  379.9355
 253  293.0764
 254  273.079
 255  279.8916
 256  287.3916
 257  177.3248
 258  205.8861
 259  145.2904
 260  231.1844
 261  316.084
 262  255.0816
 263  125.8324
 264  137.5182
 265  60.17732
 266  71.32332
 267  100.3902
 268  242.9259
 269  232.7736
 270  143.723
 271  219.5648
 272  225.1025
 273  128.0687
 274  56.17418
 275  -8.800679
 276  161.2561
 277  166.2248
 278  107.0546
 279  148.5711
 280  291.6713
 281  328.9914
 282  185.0989
 283  150.1642
 284  236.9536
 285  230.2872
 286  192.4837
 287  300.8681
 288  342.9145
 289  307.241
 290  231.9524
 291  139.4256
 292  305.7163
 293  260.9956
 294  179.4633
 295  296.1878
 296  225.2554
 297  232.0815
 298  204.2272
 299  191.6028
 300  183.6791
 301  225.0415
 302  205.1617
 303  189.1148
 304  177.8235
 305  138.9213
 306  173.5018
 307  244.8823
 308  252.0473
 309  196.3109
 310  138.0903
 311  235.9589
 312  172.4754
 313  132.6898
 314  142.1915
 315  258.2967
 316  360.0113
 317  288.5124
 318  215.3877
 319  199.165
 320  113.9917
 321  34.29666
 322  220.7602
 323  335.0476
 324  270.1004
 325  252.6959
 326  178.0438
 327  142.5915
 328  318.6526
 329  335.2408
 330  240.685
 331  224.2888
 332  286.3351
 333  324.4979
 334  308.7311
 335  290.6002
 336  453.1884
 337  480.9
 338  406.3143
 339  224.4027
 340  196.0511
 341  214.6766
 342  248.3347
 343  314.2165
 344  236.1442
 345  308.0816
 346  266.4218
 347  204.2502
 348  282.6483
 349  283.0391
 350  258.4596
 351  271.2617
 352  397.7988
 353  375.4471
 354  187.2707
 355  192.3331
 356  262.9283
 357  274.3254
 358  269.677
 359  293.0078
 360  242.7111
 361  219.919
 362  252.3353
 363  176.0372
 364  179.8426
 365  222.2107
 366  300.1154
 367  355.7137
 368  404.4937
 369  309.7447
 370  257.137
 371  274.554
 372  291.7691
 373  258.1484
 374  231.1748
 375  262.5846
 376  280.3452
 377  241.9094
 378  203.5191
 379  287.5547
 380  277.2397
 381  204.4063
 382  228.1751
 383  166.9814
 384  234.5455
 385  276.7943
 386  247.1812
 387  284.6568
 388  421.0229
 389  446.7498
 390  306.4289
 391  197.107
 392  256.6733
 393  379.9595
 394  324.097
 395  210.7704
 396  116.7502
 397  301.386
 398  284.8858
 399  128.7152
 400  149.4599
 401  302.6866
 402  382.345
 403  394.8993
 404  307.3163
 405  347.8677
 406  275.1691
 407  195.3649
 408  237.6925
 409  331.4118
 410  391.9909
 411  427.0823
 412  235.4661
 413  249.3072
 414  240.8716
 415  263.2211
 416  316.2514
 417  322.3672
 418  286.5599
 419  329.9476
 420  246.0737
 421  186.038
 422  183.7362
 423  185.8118
 424  182.2557
 425  317.7155
 426  379.1567
 427  325.0304
 428  262.2648
 429  172.1021
 430  316.0386
 431  311.1158
 432  351.198
 433  295.2302
 434  246.256
 435  335.0842
 436  381.4295
 437  213.6318
 438  247.29
 439  280.8029
 440  278.724
 441  205.2883
 442  141.1993
 443  182.8352
 444  204.0839
 445  156.0684
 446  186.6896
 447  128.667
 448  224.7924
 449  277.0175
 450  231.9349
 451  282.8176
 452  208.1798
 453  215.0247
 454  105.2639
 455  144.9827
 456  222.6541
 457  344.1534
 458  370.8151
 459  244.0599
 460  195.8255
 461  192.2672
 462  187.2423
 463  194.4994
 464  276.8092
 465  220.3642
 466  229.0099
 467  320.2083
 468  156.1676
 469  192.6569
 470  298.236
 471  314.8647
 472  392.3912
 473  309.4856
 474  215.8401
 475  135.0048
 476  204.6001
 477  260.8139
 478  307.8492
 479  319.0368
 480  287.2166
 481  184.6827
 482  199.4491
 483  290.9968
 484  250.4337
 485  209.9467
 486  225.4866
 487  219.7237
 488  190.3476
 489  301.5167
 490  124.2194
 491  130.2995
 492  304.8949
 493  307.1732
 494  349.7848
 495  218.6624
 496  288.7681
 497  265.7334
 498  188.3991
 499  217.5546
 500  254.3965
 501  366.7416
 502  272.3456
 503  175.1746
 504  310.9333
 505  324.2995
 506  393.0186
 507  489.984
 508  554.043
 509  615.5684
 510  807.7592
 511  884.4758
