# Input file       =  1193591436.151234_cleaned.dat
# Candidate        =  PSR_0332+5434
# Telescope        =  AR
# Epoch_topo       =  58058.715487861504
# Epoch_bary       =  N/A
# T_sample         =  0.002
# Data Folded      =  7143424
# Data Avg         =  0.0291179213680193
# Data StdDev      =  1.00002913764062 
# Profile Bins     =  512
# Profile Avg      =  406.28562633693  
# Profile StdDev   =  118.122026178732 
# Reduced chi-sqr  =  1.378
# Prob(Noise)      <  2.82e-08   (~5.4 sigma)
# P_topo (ms)      =  714.496358730477  +/- 0.000155
# P'_topo (s/s)    =  -0                +/- 8.4e-11
# P''_topo (s/s^2) =  0                 +/- 3.81e-14
# P_bary (ms)      =  N/A
# P'_bary (s/s)    =  N/A
# P''_bary (s/s^2) =  N/A
# P_orb (s)        =  N/A
# asin(i)/c (s)    =  N/A
# eccentricity     =  N/A
# w (rad)          =  N/A
# T_peri           =  N/A
######################################################
   0  1098.176
   1  996.6332
   2  854.5776
   3  724.6351
   4  577.7701
   5  496.1558
   6  441.8665
   7  396.6405
   8  411.7398
   9  369.2233
  10  366.6528
  11  331.5003
  12  387.9836
  13  388.8245
  14  483.1821
  15  426.596
  16  418.364
  17  405.4751
  18  420.971
  19  508.6473
  20  509.629
  21  341.909
  22  299.7696
  23  370.4171
  24  481.9016
  25  426.4413
  26  427.3776
  27  391.1863
  28  434.3317
  29  432.7873
  30  311.9261
  31  271.1879
  32  395.8337
  33  319.3372
  34  421.8043
  35  488.5667
  36  445.8631
  37  421.378
  38  419.3157
  39  402.2635
  40  456.3008
  41  520.9807
  42  466.0402
  43  401.926
  44  423.4431
  45  386.3981
  46  584.6068
  47  526.0822
  48  514.5941
  49  584.8912
  50  457.3734
  51  402.245
  52  320.5347
  53  443.7812
  54  392.6372
  55  339.691
  56  377.7387
  57  361.4823
  58  369.6528
  59  382.1093
  60  330.0869
  61  601.7701
  62  443.6288
  63  255.8263
  64  378.3933
  65  403.9962
  66  302.3716
  67  370.745
  68  455.2579
  69  422.44
  70  484.1363
  71  440.5288
  72  424.7846
  73  335.3761
  74  339.0012
  75  389.5823
  76  416.7123
  77  497.5679
  78  296.1463
  79  334.6659
  80  407.1927
  81  403.2762
  82  405.0626
  83  464.9264
  84  468.1182
  85  348.4052
  86  435.0162
  87  443.0822
  88  352.3301
  89  276.4174
  90  385.1955
  91  558.2783
  92  365.2542
  93  280.2507
  94  440.467
  95  469.5233
  96  366.0746
  97  490.9305
  98  615.7502
  99  452.4285
 100  298.2834
 101  364.6022
 102  381.5021
 103  338.3271
 104  423.3306
 105  445.956
 106  310.3827
 107  312.8457
 108  184.787
 109  215.1676
 110  280.7605
 111  379.1461
 112  374.2997
 113  316.5632
 114  362.6838
 115  416.5467
 116  396.1814
 117  459.0841
 118  442.1223
 119  441.6349
 120  445.4454
 121  489.0507
 122  412.7511
 123  431.3052
 124  420.4458
 125  380.0238
 126  369.5695
 127  501.665
 128  438.7686
 129  421.0014
 130  452.3535
 131  341.796
 132  392.0683
 133  377.959
 134  477.7993
 135  366.4605
 136  403.0295
 137  359.5555
 138  250.1261
 139  381.4534
 140  468.2007
 141  415.3586
 142  481.0024
 143  398.1181
 144  390.8532
 145  389.1399
 146  430.8734
 147  505.5302
 148  605.5765
 149  531.7312
 150  367.3995
 151  375.7753
 152  442.288
 153  306.4518
 154  306.632
 155  441.6432
 156  487.053
 157  321.4901
 158  377.0354
 159  540.2303
 160  508.2821
 161  452.7633
 162  403.1864
 163  438.1265
 164  419.6194
 165  479.2543
 166  518.7792
 167  373.8411
 168  434.8811
 169  483.7087
 170  396.9863
 171  402.7332
 172  335.3335
 173  342.3382
 174  365.726
 175  344.6081
 176  488.6818
 177  388.3637
 178  365.7709
 179  510.4079
 180  406.1099
 181  301.0107
 182  363.2558
 183  432.7245
 184  384.7031
 185  307.9683
 186  330.5015
 187  380.984
 188  411.7253
 189  385.2598
 190  416.8948
 191  456.0029
 192  303.907
 193  212.1634
 194  262.9479
 195  333.0193
 196  320.0708
 197  323.3572
 198  299.822
 199  376.5486
 200  308.7679
 201  456.0719
 202  412.2758
 203  337.4699
 204  519.4856
 205  594.7435
 206  512.8446
 207  485.9013
 208  508.078
 209  485.713
 210  445.8858
 211  459.2445
 212  476.0239
 213  472.8984
 214  459.5199
 215  389.6074
 216  346.6018
 217  408.33
 218  402.5491
 219  362.492
 220  416.2171
 221  359.7366
 222  345.4194
 223  523.5839
 224  469.4792
 225  451.3983
 226  389.0954
 227  402.2553
 228  376.583
 229  248.0009
 230  404.9896
 231  352.3211
 232  221.516
 233  341.8918
 234  328.886
 235  354.0928
 236  401.2924
 237  339.9715
 238  329.3709
 239  384.5333
 240  248.3533
 241  249.1287
 242  357.6842
 243  395.0705
 244  351.1769
 245  362.8066
 246  277.273
 247  360.5558
 248  416.7381
 249  469.9386
 250  446.8971
 251  533.4169
 252  430.5194
 253  437.7618
 254  354.6454
 255  416.1172
 256  385.6852
 257  260.1735
 258  307.2162
 259  410.7441
 260  359.5785
 261  264.4233
 262  407.6407
 263  389.89
 264  359.1532
 265  376.8718
 266  212.8889
 267  206.422
 268  332.7109
 269  250.9138
 270  289.7238
 271  273.3163
 272  338.3569
 273  413.0868
 274  400.6301
 275  382.7427
 276  339.3908
 277  407.531
 278  362.1525
 279  477.6674
 280  465.5746
 281  323.7848
 282  370.0391
 283  432.2589
 284  486.5697
 285  358.2145
 286  340.6846
 287  347.7954
 288  346.7764
 289  440.5157
 290  468.4051
 291  410.5203
 292  506.775
 293  427.1409
 294  347.0551
 295  431.1739
 296  446.428
 297  526.4581
 298  504.453
 299  279.2625
 300  272.2157
 301  349.3952
 302  286.7995
 303  306.3214
 304  340.4257
 305  378.6534
 306  315.2686
 307  397.4259
 308  410.4502
 309  340.2626
 310  303.7312
 311  214.3066
 312  443.0939
 313  381.7231
 314  302.1331
 315  491.2048
 316  473.5523
 317  369.873
 318  411.4699
 319  375.6797
 320  403.9037
 321  277.0931
 322  419.4336
 323  541.2159
 324  443.7245
 325  402.9389
 326  464.5754
 327  483.3525
 328  449.4805
 329  564.5104
 330  498.9045
 331  305.3575
 332  234.3633
 333  423.4588
 334  424.6782
 335  437.1299
 336  422.3008
 337  527.7566
 338  507.4336
 339  372.7395
 340  390.0074
 341  446.1162
 342  454.343
 343  304.9969
 344  365.7261
 345  489.094
 346  456.602
 347  383.4606
 348  587.7679
 349  485.8209
 350  332.4124
 351  262.3106
 352  262.941
 353  388.7194
 354  365.0035
 355  351.1551
 356  474.351
 357  466.3914
 358  411.0474
 359  300.4602
 360  373.0147
 361  357.6712
 362  405.8537
 363  487.5105
 364  329.0594
 365  359.3196
 366  445.8943
 367  359.1894
 368  467.4212
 369  401.2005
 370  299.5134
 371  368.6904
 372  524.144
 373  388.7062
 374  306.7548
 375  423.574
 376  439.7195
 377  399.9394
 378  470.1189
 379  491.9531
 380  415.9492
 381  353.9125
 382  316.0473
 383  370.7964
 384  314.459
 385  357.1385
 386  513.1534
 387  434.0729
 388  387.3065
 389  337.4003
 390  430.0449
 391  519.5413
 392  520.8885
 393  424.4402
 394  480.0579
 395  440.2628
 396  345.3722
 397  449.3556
 398  519.6326
 399  470.5174
 400  413.8218
 401  523.6682
 402  504.1824
 403  408.9449
 404  371.1708
 405  437.8831
 406  394.4505
 407  309.4464
 408  368.7746
 409  343.0537
 410  276.1578
 411  279.2143
 412  280.2361
 413  260.6703
 414  299.833
 415  290.7367
 416  245.3347
 417  285.1184
 418  319.3858
 419  310.2591
 420  373.8176
 421  301.4725
 422  416.1509
 423  501.4912
 424  389.7027
 425  289.6005
 426  377.0518
 427  437.6929
 428  353.8313
 429  357.938
 430  416.7607
 431  417.0411
 432  452.7376
 433  532.3098
 434  570.2445
 435  531.4768
 436  570.4572
 437  536.9293
 438  357.3007
 439  370.1328
 440  387.9288
 441  396.1438
 442  469.4284
 443  366.839
 444  389.2874
 445  484.9561
 446  408.8797
 447  318.6857
 448  343.5925
 449  320.7766
 450  374.25
 451  340.6045
 452  328.2494
 453  431.5191
 454  377.6913
 455  319.6096
 456  413.4405
 457  307.3013
 458  280.2272
 459  310.6322
 460  281.5258
 461  226.3105
 462  384.8779
 463  433.8485
 464  517.5065
 465  459.3877
 466  558.4629
 467  505.2586
 468  274.5721
 469  263.1707
 470  276.5234
 471  241.5208
 472  348.9574
 473  426.1338
 474  519.777
 475  455.6418
 476  329.1774
 477  366.669
 478  456.624
 479  422.2931
 480  445.5283
 481  438.2502
 482  279.3883
 483  297.9837
 484  291.4785
 485  312.3727
 486  474.1853
 487  526.8712
 488  424.1502
 489  304.9343
 490  329.1662
 491  447.8652
 492  442.3626
 493  275.3599
 494  522.0967
 495  538.6649
 496  563.2783
 497  512.3694
 498  515.2408
 499  455.1754
 500  473.132
 501  440.5847
 502  389.2511
 503  345.5505
 504  384.628
 505  477.347
 506  565.4672
 507  663.3629
 508  658.1945
 509  661.0322
 510  912.6134
 511  1062.977
