# Input file       =  1193246852.144733_cleaned.dat
# Candidate        =  PSR_0332+5434
# Telescope        =  AR
# Epoch_topo       =  58054.727247045521
# Epoch_bary       =  N/A
# T_sample         =  0.002
# Data Folded      =  7143424
# Data Avg         =  0.0221113999190817
# Data StdDev      =  1.00015085629673 
# Profile Bins     =  512
# Profile Avg      =  308.422793536793 
# Profile StdDev   =  118.136403414097 
# Reduced chi-sqr  =  1.347
# Prob(Noise)      <  2.48e-07   (~5.0 sigma)
# P_topo (ms)      =  714.492752712593  +/- 9.72e-05
# P'_topo (s/s)    =  -0                +/- 5.27e-11
# P''_topo (s/s^2) =  0                 +/- 2.39e-14
# P_bary (ms)      =  N/A
# P'_bary (s/s)    =  N/A
# P''_bary (s/s^2) =  N/A
# P_orb (s)        =  N/A
# asin(i)/c (s)    =  N/A
# eccentricity     =  N/A
# w (rad)          =  N/A
# T_peri           =  N/A
######################################################
   0  1010.141
   1  898.4593
   2  639.9939
   3  438.7413
   4  252.9002
   5  157.47
   6  361.1488
   7  379.4563
   8  418.7156
   9  251.8889
  10  211.0587
  11  183.1864
  12  159.9074
  13  245.1591
  14  303.275
  15  342.7117
  16  507.531
  17  518.872
  18  345.3783
  19  386.9217
  20  308.7554
  21  398.2457
  22  374.7195
  23  305.7081
  24  222.6947
  25  380.9962
  26  330.9608
  27  140.3771
  28  213.1019
  29  173.5812
  30  302.7326
  31  419.7783
  32  375.1299
  33  304.0388
  34  385.3986
  35  360.2884
  36  335.6084
  37  307.2079
  38  368.3232
  39  292.2226
  40  375.1098
  41  279.2563
  42  345.3741
  43  309.0557
  44  112.8938
  45  258.5853
  46  292.6906
  47  371.2455
  48  327.3087
  49  389.7761
  50  373.4897
  51  265.2355
  52  189.3169
  53  281.8835
  54  317.35
  55  316.5889
  56  336.8552
  57  364.0681
  58  394.8736
  59  283.3681
  60  167.1487
  61  297.3182
  62  310.3931
  63  308.3999
  64  417.9777
  65  413.9136
  66  366.6883
  67  312.8271
  68  416.204
  69  320.4145
  70  221.413
  71  207.5456
  72  338.6816
  73  503.9323
  74  501.9356
  75  381.0629
  76  349.0381
  77  305.1904
  78  298.676
  79  301.7556
  80  260.0633
  81  351.9138
  82  348.3706
  83  392.6693
  84  338.6263
  85  316.917
  86  305.1239
  87  196.8084
  88  329.7174
  89  471.6618
  90  466.828
  91  265.7475
  92  169.1135
  93  341.3358
  94  319.1173
  95  330.4884
  96  316.8351
  97  306.6814
  98  304.3049
  99  364.2831
 100  370.0369
 101  262.6994
 102  220.0627
 103  275.2973
 104  284.5245
 105  289.7167
 106  376.5175
 107  343.7946
 108  163.8669
 109  293.0363
 110  352.7862
 111  319.4572
 112  349.2149
 113  309.5179
 114  240.6895
 115  251.0233
 116  349.9223
 117  330.0559
 118  194.3646
 119  304.7204
 120  326.7873
 121  350.7609
 122  329.594
 123  322.9698
 124  246.9152
 125  282.0181
 126  270.6745
 127  296.6103
 128  262.037
 129  141.9942
 130  148.2103
 131  166.8549
 132  264.3711
 133  216.2432
 134  213.7625
 135  416.8006
 136  448.5661
 137  288.8698
 138  355.3775
 139  329.4706
 140  257.9025
 141  234.9432
 142  213.1469
 143  248.4479
 144  299.8021
 145  414.3228
 146  383.6238
 147  283.0971
 148  110.3567
 149  123.1793
 150  296.0311
 151  288.7783
 152  179.8732
 153  277.9699
 154  335.4756
 155  434.8252
 156  437.0386
 157  265.7675
 158  152.9125
 159  274.9369
 160  209.599
 161  203.7185
 162  169.9718
 163  93.91544
 164  304.8368
 165  282.5103
 166  246.271
 167  280.5551
 168  293.8841
 169  454.3949
 170  321.7024
 171  337.1684
 172  258.0256
 173  188.8179
 174  291.2029
 175  290.2916
 176  338.7371
 177  198.393
 178  330.3929
 179  421.6092
 180  288.7227
 181  265.6874
 182  238.64
 183  139.2415
 184  240.5691
 185  374.4703
 186  296.0834
 187  348.4691
 188  340.369
 189  331.1465
 190  352.6057
 191  302.7886
 192  246.6022
 193  192.1913
 194  208.9944
 195  386.9222
 196  474.6421
 197  418.46
 198  368.1953
 199  300.8358
 200  289.2542
 201  245.8763
 202  296.8228
 203  282.5238
 204  165.6193
 205  172.5142
 206  145.9315
 207  140.9882
 208  187.1525
 209  233.8822
 210  215.8459
 211  170.2527
 212  164.0534
 213  192.4531
 214  344.4891
 215  335.7206
 216  306.0427
 217  117.4604
 218  156.98
 219  268.1176
 220  212.2881
 221  157.3455
 222  232.5439
 223  186.4551
 224  213.1737
 225  213.659
 226  222.0975
 227  321.9197
 228  284.8694
 229  361.6263
 230  315.2777
 231  341.5684
 232  296.9212
 233  253.6222
 234  351.2681
 235  406.8688
 236  424.8754
 237  361.5499
 238  423.6932
 239  278.732
 240  316.4545
 241  292.9146
 242  284.7303
 243  293.696
 244  276.401
 245  254.9476
 246  244.4435
 247  232.3135
 248  190.9431
 249  184.7334
 250  201.0591
 251  301.6479
 252  194.5816
 253  256.9006
 254  369.5891
 255  307.2401
 256  417.5486
 257  353.9943
 258  162.6412
 259  260.3122
 260  286.3732
 261  301.4159
 262  154.4691
 263  166.9863
 264  269.712
 265  377.1839
 266  256.4417
 267  193.5907
 268  154.9095
 269  335.9095
 270  395.6195
 271  461.1599
 272  457.6717
 273  418.9585
 274  321.1786
 275  286.1059
 276  272.9233
 277  330.7541
 278  423.8396
 279  327.7858
 280  143.7422
 281  223.3243
 282  230.516
 283  435.6955
 284  406.9051
 285  224.8218
 286  332.3566
 287  418.9598
 288  422.3585
 289  255.4063
 290  212.2801
 291  272.7876
 292  305.4702
 293  366.546
 294  289.707
 295  365.0161
 296  301.2773
 297  232.0891
 298  363.2206
 299  303.5254
 300  222.5156
 301  338.2761
 302  360.3211
 303  305.2558
 304  417.9675
 305  362.9837
 306  368.6046
 307  330.6283
 308  327.4032
 309  260.0711
 310  315.5924
 311  351.658
 312  376.9186
 313  306.2028
 314  200.5727
 315  230.6686
 316  218.9488
 317  182.0489
 318  322.6933
 319  370.1806
 320  348.7915
 321  395.35
 322  230.5404
 323  175.6492
 324  221.5775
 325  324.2337
 326  299.7972
 327  303.484
 328  268.5353
 329  255.5191
 330  409.3149
 331  395.5635
 332  319.8518
 333  254.6286
 334  349.7647
 335  359.8106
 336  267.0427
 337  342.8363
 338  397.8714
 339  343.8532
 340  226.806
 341  223.0475
 342  247.8786
 343  215.3259
 344  273.4517
 345  325.4439
 346  330.5576
 347  376.985
 348  354.7113
 349  235.847
 350  221.8716
 351  214.3488
 352  294.1505
 353  290.9476
 354  326.7164
 355  396.3336
 356  300.8112
 357  335.8684
 358  234.5291
 359  253.0647
 360  433.9268
 361  475.004
 362  436.5016
 363  244.021
 364  202.3225
 365  268.1521
 366  305.7402
 367  275.5759
 368  328.3367
 369  390.7365
 370  404.2096
 371  375.2234
 372  321.8946
 373  305.4894
 374  315.7865
 375  401.8094
 376  349.6471
 377  372.2731
 378  306.9782
 379  344.6223
 380  275.8828
 381  412.0609
 382  374.1971
 383  257.8462
 384  404.8971
 385  430.4969
 386  447.7073
 387  407.3118
 388  308.0399
 389  355.5608
 390  317.2782
 391  233.2311
 392  310.0141
 393  318.1718
 394  316.8745
 395  329.1409
 396  256.3916
 397  238.0613
 398  244.892
 399  113.8359
 400  343.9039
 401  395.3681
 402  226.3567
 403  172.9762
 404  343.2698
 405  333.0291
 406  187.9835
 407  253.1044
 408  290.4823
 409  404.9754
 410  339.4113
 411  294.0065
 412  236.4405
 413  236.0888
 414  413.6203
 415  323.649
 416  358.2932
 417  406.2579
 418  333.2348
 419  329.8475
 420  434.0124
 421  479.9157
 422  247.9086
 423  202.908
 424  179.4185
 425  145.4305
 426  215.05
 427  223.2716
 428  189.3969
 429  273.6711
 430  281.6837
 431  313.3877
 432  274.415
 433  343.9897
 434  485.1893
 435  499.0667
 436  361.8604
 437  267.6297
 438  151.1172
 439  172.2981
 440  303.4046
 441  381.7795
 442  354.9305
 443  416.8349
 444  316.9411
 445  500.206
 446  553.7341
 447  311.0339
 448  233.4119
 449  301.6487
 450  309.4025
 451  348.2877
 452  425.7798
 453  434.0258
 454  338.3746
 455  143.974
 456  139.4106
 457  194.2146
 458  170.1753
 459  269.2726
 460  330.1023
 461  361.1645
 462  277.7615
 463  297.6479
 464  336.1041
 465  169.3559
 466  203.088
 467  295.5679
 468  260.9091
 469  244.6875
 470  239.1133
 471  249.8115
 472  275.5171
 473  312.3604
 474  335.3625
 475  311.1557
 476  224.0507
 477  188.5201
 478  170.1299
 479  257.8408
 480  252.4392
 481  197.4628
 482  330.8018
 483  347.563
 484  416.3749
 485  340.9117
 486  367.6436
 487  351.908
 488  248.6351
 489  309.0523
 490  346.1296
 491  269.7615
 492  326.391
 493  420.9319
 494  471.8824
 495  430.9165
 496  319.6538
 497  347.3858
 498  204.2898
 499  195.0313
 500  353.9127
 501  416.904
 502  461.0783
 503  474.7197
 504  505.2663
 505  504.2657
 506  281.3022
 507  283.1347
 508  478.7748
 509  602.4533
 510  728.5037
 511  826.6937
