# Input file       =  1193332959.148284_cleaned.dat
# Candidate        =  PSR_0332+5434
# Telescope        =  AR
# Epoch_topo       =  58055.723855882919
# Epoch_bary       =  N/A
# T_sample         =  0.002
# Data Folded      =  7208960
# Data Avg         =  0.0160034164129743
# Data StdDev      =  1.00004635051073 
# Profile Bins     =  512
# Profile Avg      =  225.410762438682 
# Profile StdDev   =  118.664675706931 
# Reduced chi-sqr  =  1.366
# Prob(Noise)      <  6.29e-08   (~5.3 sigma)
# P_topo (ms)      =  714.493642527402  +/- 0.000338
# P'_topo (s/s)    =  -0                +/- 1.82e-10
# P''_topo (s/s^2) =  0                 +/- 8.16e-14
# P_bary (ms)      =  N/A
# P'_bary (s/s)    =  N/A
# P''_bary (s/s^2) =  N/A
# P_orb (s)        =  N/A
# asin(i)/c (s)    =  N/A
# eccentricity     =  N/A
# w (rad)          =  N/A
# T_peri           =  N/A
######################################################
   0  894.2002
   1  764.5197
   2  602.3873
   3  441.629
   4  301.694
   5  315.8303
   6  193.2281
   7  289.6891
   8  249.0947
   9  192.7254
  10  279.6263
  11  249.9174
  12  173.7912
  13  220.9895
  14  221.8474
  15  268.8775
  16  215.2647
  17  314.2173
  18  340.4066
  19  406.2388
  20  263.2538
  21  128.9714
  22  166.1494
  23  206.9538
  24  204.1662
  25  210.447
  26  233.9798
  27  173.177
  28  172.1967
  29  299.0433
  30  298.6041
  31  206.3679
  32  189.8413
  33  271.6262
  34  231.9374
  35  164.8545
  36  140.9152
  37  248.2424
  38  259.3368
  39  144.929
  40  225.2656
  41  254.1377
  42  175.3642
  43  86.04253
  44  159.0934
  45  191.6234
  46  204.131
  47  242.1409
  48  268.596
  49  284.6516
  50  166.927
  51  211.5728
  52  197.7043
  53  251.6289
  54  334.3529
  55  275.9478
  56  192.8742
  57  155.8469
  58  202.457
  59  220.3919
  60  268.8238
  61  323.4806
  62  160.2229
  63  331.3311
  64  250.3478
  65  253.3616
  66  297.4159
  67  326.493
  68  246.8088
  69  194.7521
  70  328.6447
  71  328.2274
  72  342.3122
  73  310.0993
  74  317.2601
  75  332.7567
  76  217.0152
  77  243.2532
  78  386.1394
  79  300.2365
  80  169.3181
  81  253.0147
  82  375.0436
  83  317.2338
  84  275.4489
  85  409.0899
  86  251.7637
  87  122.4487
  88  284.043
  89  151.0639
  90  221.0708
  91  163.3905
  92  283.5801
  93  318.2205
  94  275.8828
  95  299.776
  96  204.7574
  97  152.0785
  98  161.6028
  99  150.5911
 100  119.5198
 101  240.8976
 102  330.5049
 103  237.5643
 104  315.0472
 105  270.3615
 106  272.0392
 107  160.5393
 108  144.4512
 109  309.4261
 110  283.7668
 111  319.8041
 112  391.7053
 113  416.1395
 114  281.1283
 115  152.5425
 116  231.38
 117  309.34
 118  292.9562
 119  78.02694
 120  288.5752
 121  317.2743
 122  297.9309
 123  333.4268
 124  200.705
 125  262.7281
 126  277.2834
 127  344.8389
 128  447.9383
 129  243.3403
 130  279.5051
 131  247.8453
 132  312.8599
 133  414.6524
 134  223.8849
 135  267.3157
 136  210.5363
 137  316.8153
 138  351.1549
 139  341.7828
 140  372.9614
 141  291.8645
 142  212.6791
 143  167.3221
 144  103.2659
 145  243.8802
 146  339.4059
 147  378.6327
 148  347.4489
 149  274.3404
 150  317.3113
 151  259.3167
 152  185.2984
 153  275.8497
 154  191.2955
 155  150.7575
 156  165.2809
 157  314.3766
 158  256.6601
 159  146.5207
 160  60.07588
 161  68.54532
 162  207.1692
 163  277.3226
 164  234.4489
 165  289.7152
 166  218.6659
 167  192.2893
 168  158.5309
 169  171.9786
 170  272.9323
 171  311.0576
 172  214.9193
 173  172.9625
 174  89.32574
 175  72.91648
 176  167.0077
 177  172.5161
 178  315.3783
 179  257.1954
 180  212.7102
 181  189.7189
 182  96.29327
 183  216.2447
 184  159.0578
 185  162.6931
 186  177.2191
 187  214.1411
 188  148.053
 189  180.1006
 190  221.8284
 191  168.5872
 192  164.1747
 193  236.8618
 194  213.2956
 195  233.9043
 196  209.177
 197  174.1451
 198  222.2125
 199  227.3402
 200  356.1035
 201  246.3352
 202  282.6784
 203  250.2823
 204  222.6282
 205  204.8829
 206  116.153
 207  54.79058
 208  79.9636
 209  174.7608
 210  258.6281
 211  232.0253
 212  264.1795
 213  312.7697
 214  288.5111
 215  187.2657
 216  126.9682
 217  90.93214
 218  197.4655
 219  134.291
 220  192.4024
 221  93.76795
 222  86.47922
 223  113.4072
 224  181.0734
 225  149.8819
 226  126.2352
 227  232.9821
 228  211.3515
 229  172.2584
 230  261.1232
 231  193.5713
 232  279.4032
 233  185.1916
 234  111.6373
 235  162.4767
 236  212.614
 237  190.2741
 238  112.406
 239  110.8977
 240  234.9695
 241  243.5077
 242  201.2973
 243  263.2281
 244  119.2434
 245  75.35976
 246  160.6691
 247  186.0505
 248  293.7948
 249  341.6095
 250  284.1192
 251  191.4981
 252  188.7522
 253  99.72125
 254  306.288
 255  207.4246
 256  1.846984
 257  40.37978
 258  190.7199
 259  224.6732
 260  117.9086
 261  155.8284
 262  128.8288
 263  33.84134
 264  94.51973
 265  167.1368
 266  96.37056
 267  134.969
 268  211.1353
 269  307.5023
 270  235.0234
 271  360.1008
 272  247.9111
 273  189.0826
 274  270.7162
 275  318.0928
 276  275.9959
 277  180.3755
 278  255.8097
 279  178.5052
 280  195.2759
 281  236.0761
 282  272.1416
 283  198.0348
 284  136.2506
 285  154.1382
 286  231.6953
 287  230.7779
 288  129.6002
 289  206.2392
 290  239.4142
 291  145.2056
 292  154.44
 293  236.8004
 294  248.909
 295  220.4253
 296  307.8237
 297  257.7726
 298  321.7198
 299  302.5635
 300  339.8134
 301  377.3204
 302  385.355
 303  297.7202
 304  205.4324
 305  91.05872
 306  129.2447
 307  296.8549
 308  242.4422
 309  194.6852
 310  235.0103
 311  230.7655
 312  361.4132
 313  210.6203
 314  154.2954
 315  225.6955
 316  196.1497
 317  139.1921
 318  126.0985
 319  152.4492
 320  37.49639
 321  144.56
 322  112.9512
 323  112.9733
 324  198.4658
 325  189.5403
 326  164.6327
 327  137.3082
 328  161.6128
 329  270.0026
 330  231.5455
 331  295.1111
 332  247.2804
 333  271.4614
 334  331.0053
 335  161.4461
 336  167.0914
 337  158.1204
 338  290.8407
 339  247.8962
 340  247.1583
 341  319.8293
 342  357.8672
 343  325.0285
 344  118.3395
 345  123.092
 346  161.9549
 347  212.1981
 348  149.4292
 349  175.4999
 350  201.8855
 351  35.50255
 352  283.9191
 353  433.7725
 354  335.1209
 355  294.4998
 356  240.1648
 357  283.0244
 358  271.1597
 359  180.0159
 360  100.7439
 361  166.1478
 362  240.2827
 363  273.3253
 364  225.0178
 365  151.526
 366  143.8015
 367  246.7955
 368  324.2876
 369  257.456
 370  202.4615
 371  163.6326
 372  184.5568
 373  254.08
 374  283.2027
 375  193.246
 376  166.9729
 377  168.0624
 378  218.4244
 379  220.582
 380  233.4256
 381  195.8826
 382  196.9536
 383  284.1474
 384  306.7341
 385  182.9294
 386  168.4831
 387  33.89528
 388  210.9358
 389  214.1975
 390  99.18735
 391  124.8902
 392  110.5099
 393  119.5939
 394  201.6631
 395  259.7894
 396  298.7097
 397  136.5128
 398  115.7407
 399  120.1944
 400  134.1048
 401  123.1801
 402  230.9322
 403  240.561
 404  131.8281
 405  98.52631
 406  71.51797
 407  114.7749
 408  154.2211
 409  193.4611
 410  303.6791
 411  252.094
 412  149.9903
 413  146.4222
 414  275.8111
 415  242.5891
 416  199.79
 417  223.7958
 418  123.9468
 419  213.1499
 420  248.4408
 421  322.5414
 422  292.9673
 423  308.4867
 424  240.3199
 425  215.5153
 426  149.5123
 427  120.2536
 428  115.9953
 429  57.48781
 430  133.9956
 431  59.12672
 432  170.3808
 433  155.912
 434  73.24127
 435  225.7367
 436  332.2524
 437  274.0032
 438  212.2584
 439  237.1873
 440  158.1626
 441  122.4847
 442  148.5917
 443  127.7517
 444  175.935
 445  238.9082
 446  198.2101
 447  80.23868
 448  146.8212
 449  188.578
 450  305.3306
 451  252.5013
 452  137.7298
 453  50.21005
 454  72.55843
 455  113.8306
 456  244.8882
 457  360.5879
 458  355.082
 459  366.8911
 460  246.336
 461  136.3056
 462  98.92898
 463  17.80015
 464  244.9213
 465  265.7514
 466  277.4668
 467  250.0855
 468  228.6576
 469  202.7114
 470  50.12528
 471  316.0428
 472  317.7995
 473  311.6971
 474  242.0071
 475  167.1553
 476  137.0072
 477  212.6443
 478  364.2214
 479  159.3948
 480  30.56669
 481  213.5853
 482  229.499
 483  198.4649
 484  174.5396
 485  206.5063
 486  82.15355
 487  184.0187
 488  173.6965
 489  173.4978
 490  123.1794
 491  179.8496
 492  210.1873
 493  239.5976
 494  179.2585
 495  83.11196
 496  136.7499
 497  257.5194
 498  260.9109
 499  292.2875
 500  294.2939
 501  422.3143
 502  308.701
 503  196.4891
 504  233.7164
 505  393.9087
 506  444.6129
 507  344.2391
 508  512.8437
 509  683.664
 510  707.084
 511  869.3256
