# Input file       =  1193591436.151234_cleaned.dat
# Candidate        =  PSR_0332+5434
# Telescope        =  AR
# Epoch_topo       =  58058.715487861504
# Epoch_bary       =  N/A
# T_sample         =  0.002
# Data Folded      =  7143424
# Data Avg         =  0.0291179213680193
# Data StdDev      =  1.00002913764062 
# Profile Bins     =  512
# Profile Avg      =  406.285626369053 
# Profile StdDev   =  118.122026178732 
# Reduced chi-sqr  =  1.376
# Prob(Noise)      <  3.15e-08   (~5.4 sigma)
# P_topo (ms)      =  714.49635882015   +/- 0.000152
# P'_topo (s/s)    =  -0                +/- 8.23e-11
# P''_topo (s/s^2) =  0                 +/- 3.73e-14
# P_bary (ms)      =  N/A
# P'_bary (s/s)    =  N/A
# P''_bary (s/s^2) =  N/A
# P_orb (s)        =  N/A
# asin(i)/c (s)    =  N/A
# eccentricity     =  N/A
# w (rad)          =  N/A
# T_peri           =  N/A
######################################################
   0  1064.889
   1  902.6821
   2  795.8267
   3  626.7057
   4  531.0982
   5  451.9951
   6  418.5451
   7  411.5859
   8  397.8667
   9  365.0205
  10  331.3929
  11  362.4506
  12  387.7494
  13  450.3632
  14  464.69
  15  400.6017
  16  417.0443
  17  404.8973
  18  467.4093
  19  527.3989
  20  434.2065
  21  275.5987
  22  356.1191
  23  416.6728
  24  494.2768
  25  400.215
  26  404.3146
  27  411.5533
  28  439.1577
  29  393.5568
  30  245.2445
  31  378.5234
  32  345.5421
  33  353.794
  34  471.4062
  35  468.3004
  36  425.0564
  37  432.7463
  38  394.2399
  39  434.9405
  40  484.8906
  41  519.8448
  42  392.8216
  43  443.7297
  44  369.8324
  45  492.6509
  46  595.6089
  47  472.2105
  48  587.4659
  49  498.6359
  50  449.446
  51  324.8067
  52  401.0018
  53  425.534
  54  366.4709
  55  366.0013
  56  371.6995
  57  341.7536
  58  398.1882
  59  321.8025
  60  487.8529
  61  575.7516
  62  293.0351
  63  303.9965
  64  430.6601
  65  320.0462
  66  327.0127
  67  443.6241
  68  427.1009
  69  476.2238
  70  437.8046
  71  447.4392
  72  373.3843
  73  311.6481
  74  385.5012
  75  370.8518
  76  514.6896
  77  377.8387
  78  294.1417
  79  374.1907
  80  417.2285
  81  397.1032
  82  431.6659
  83  499.4566
  84  382.6819
  85  397.0035
  86  443.9305
  87  405.4746
  88  297.3841
  89  313.1016
  90  514.4319
  91  460.2482
  92  290.4514
  93  361.5621
  94  495.3832
  95  392.605
  96  402.059
  97  592.3129
  98  553.3202
  99  333.179
 100  326.1017
 101  390.9254
 102  335.6426
 103  382.9974
 104  460.388
 105  365.8715
 106  319.7008
 107  243.2979
 108  167.116
 109  268.8379
 110  320.4116
 111  411.4753
 112  330.4003
 113  323.9265
 114  403.3106
 115  404.9171
 116  420.0463
 117  469.7711
 118  434.6986
 119  449.3398
 120  476.5508
 121  441.4731
 122  424.835
 123  432.1007
 124  397.6687
 125  351.4638
 126  443.5805
 127  485.7862
 128  415.713
 129  442.5183
 130  408.2222
 131  331.7723
 132  400.4264
 133  442.1938
 134  425.1006
 135  375.296
 136  389.0982
 137  293.4404
 138  284.4792
 139  470.1867
 140  433.9663
 141  464.924
 142  425.605
 143  389.9482
 144  373.4224
 145  425.0745
 146  455.0532
 147  581.0491
 148  588.2092
 149  433.081
 150  346.7221
 151  417.2693
 152  379.1788
 153  289.3654
 154  364.4767
 155  520.3397
 156  369.7408
 157  331.1129
 158  477.5271
 159  538.5802
 160  465.8367
 161  426.7322
 162  425.3452
 163  436.2506
 164  431.3917
 165  520.905
 166  436.8812
 167  383.6963
 168  479.4127
 169  442.8283
 170  374.5742
 171  405.6976
 172  292.3196
 173  389.9427
 174  323.3601
 175  437.5868
 176  469.5282
 177  312.9037
 178  490.8163
 179  471.946
 180  348.9742
 181  291.4191
 182  413.7116
 183  428.0116
 184  328.552
 185  321.3415
 186  328.4419
 187  429.0471
 188  397.5436
 189  389.3379
 190  457.8177
 191  373.4421
 192  239.4277
 193  225.6089
 194  303.1402
 195  332.6275
 196  326.7296
 197  305.2836
 198  347.9316
 199  323.0722
 200  377.7483
 201  471.2245
 202  343.1743
 203  425.527
 204  603.7941
 205  559.7174
 206  468.6387
 207  511.6024
 208  489.8005
 209  471.7842
 210  442.7489
 211  458.2228
 212  489.7027
 213  461.5708
 214  434.3621
 215  351.799
 216  357.9679
 217  449.4293
 218  340.4092
 219  414.9916
 220  388.6305
 221  335.9661
 222  444.9516
 223  516.2998
 224  445.7326
 225  414.3278
 226  392.6126
 227  413.0723
 228  294.2598
 229  299.5021
 230  431.5177
 231  239.2573
 232  280.0913
 233  350.0269
 234  331.2755
 235  413.5757
 236  378.2748
 237  294.7578
 238  377.0676
 239  295.4877
 240  246.5731
 241  296.7032
 242  416.5663
 243  367.6187
 244  346.6364
 245  310.6932
 246  293.2325
 247  420.1024
 248  452.9651
 249  450.0676
 250  506.4753
 251  478.4027
 252  438.8861
 253  387.7737
 254  363.6972
 255  425.531
 256  310.9328
 257  272.2423
 258  368.6292
 259  412.5472
 260  261.6606
 261  360.0794
 262  406.3924
 263  366.2134
 264  350.1013
 265  321.7045
 266  163.9227
 267  331.9569
 268  252.9067
 269  286.7929
 270  266.03
 271  314.4451
 272  386.0058
 273  406.7198
 274  393.3212
 275  352.4268
 276  357.0349
 277  410.0507
 278  388.3615
 279  525.3661
 280  355.3209
 281  346.6703
 282  411.3893
 283  469.7073
 284  418.7415
 285  328.5014
 286  359.5777
 287  334.4979
 288  382.3293
 289  481.4755
 290  428.4149
 291  460.1419
 292  486.6432
 293  357.3085
 294  375.3715
 295  486.7592
 296  443.6837
 297  592.5236
 298  328.946
 299  274.9243
 300  321.9127
 301  318.0065
 302  302.1032
 303  299.6638
 304  398.2712
 305  319.2425
 306  350.5643
 307  427.9972
 308  361.3573
 309  347.6072
 310  207.6041
 311  333.5517
 312  451.9918
 313  301.313
 314  399.3345
 315  523.3526
 316  384.8675
 317  421.8822
 318  365.6453
 319  418.717
 320  307.8428
 321  345.6874
 322  510.5868
 323  509.6974
 324  387.0417
 325  445.1373
 326  475.0864
 327  452.1969
 328  507.5479
 329  558.6105
 330  407.2489
 331  208.3587
 332  351.2169
 333  433.1356
 334  446.9285
 335  428.1984
 336  469.8956
 337  535.9028
 338  429.4151
 339  372.868
 340  417.3582
 341  476.8185
 342  344.9479
 343  335.4919
 344  423.5681
 345  517.9758
 346  363.0232
 347  515.5383
 348  576.2624
 349  367.6646
 350  295.2467
 351  233.2351
 352  348.1429
 353  390.2728
 354  334.2378
 355  439.0529
 356  465.922
 357  452.8648
 358  321.7639
 359  348.5752
 360  379.1431
 361  347.0126
 362  475.6558
 363  415.479
 364  315.9102
 365  442.9503
 366  371.0555
 367  404.9875
 368  467.364
 369  327.4545
 370  319.0714
 371  458.4324
 372  491.1209
 373  308.3527
 374  371.4157
 375  440.3248
 376  424.979
 377  412.6782
 378  521.4393
 379  430.0808
 380  389.5023
 381  328.0532
 382  339.3265
 383  358.5154
 384  311.0031
 385  458.6598
 386  495.2359
 387  384.8115
 388  357.6417
 389  369.8815
 390  487.1012
 391  540.6203
 392  462.1234
 393  442.641
 394  484.5828
 395  373.2673
 396  375.1245
 397  499.9593
 398  499.2169
 399  446.4223
 400  458.5541
 401  556.7373
 402  420.1044
 403  397.317
 404  393.9491
 405  435.4016
 406  322.5506
 407  348.0014
 408  370.258
 409  296.4868
 410  263.8255
 411  293.2131
 412  258.6915
 413  284.7242
 414  294.1767
 415  292.6709
 416  239.0323
 417  331.0144
 418  287.6067
 419  360.5937
 420  310.8869
 421  356.8708
 422  484.0936
 423  453.2965
 424  325.2747
 425  309.0455
 426  438.5507
 427  391.6115
 428  341.4134
 429  409.2934
 430  426.9515
 431  417.3796
 432  503.6238
 433  558.5892
 434  547.5962
 435  518.9313
 436  593.0456
 437  417.9594
 438  373.8005
 439  372.5905
 440  383.3138
 441  446.9065
 442  418.8462
 443  364.549
 444  431.2034
 445  484.6348
 446  323.7165
 447  369.8449
 448  289.4375
 449  382.1504
 450  326.0558
 451  352.4225
 452  350.3575
 453  445.6216
 454  327.1117
 455  376.9408
 456  381.8943
 457  239.3971
 458  335.7758
 459  293.3607
 460  240.8681
 461  292.793
 462  422.0174
 463  488.7908
 464  491.3057
 465  502.5988
 466  570.5906
 467  362.0583
 468  244.5057
 469  284.5542
 470  244.7927
 471  292.7794
 472  394.9912
 473  483.7204
 474  511.6314
 475  366.4748
 476  317.6389
 477  437.4734
 478  438.3416
 479  435.2757
 480  458.9355
 481  354.7109
 482  259.6537
 483  329.1789
 484  265.5624
 485  401.4071
 486  535.009
 487  467.1774
 488  371.5738
 489  273.1188
 490  400.7925
 491  479.4038
 492  311.8079
 493  406.154
 494  571.902
 495  532.3326
 496  550.9433
 497  504.1475
 498  485.2705
 499  448.9022
 500  456.0084
 501  418.3696
 502  376.8484
 503  346.5493
 504  447.9483
 505  501.2454
 506  642.7513
 507  675.2416
 508  637.0969
 509  786.94
 510  1023.73
 511  1080.727
