# Input file       =  1193261429.141686_cleaned.dat
# Candidate        =  PSR_0332+5434
# Telescope        =  AR
# Epoch_topo       =  58054.895962288028
# Epoch_bary       =  N/A
# T_sample         =  0.002
# Data Folded      =  7340032
# Data Avg         =  0.0243692940781397
# Data StdDev      =  1.00003963730412 
# Profile Bins     =  512
# Profile Avg      =  349.354328555466 
# Profile StdDev   =  119.737782271542 
# Reduced chi-sqr  =  1.186
# Prob(Noise)      <  0.00239   (~2.8 sigma)
# P_topo (ms)      =  714.492912765734  +/- 0.00022
# P'_topo (s/s)    =  -0                +/- 1.16e-10
# P''_topo (s/s^2) =  0                 +/- 5.12e-14
# P_bary (ms)      =  N/A
# P'_bary (s/s)    =  N/A
# P''_bary (s/s^2) =  N/A
# P_orb (s)        =  N/A
# asin(i)/c (s)    =  N/A
# eccentricity     =  N/A
# w (rad)          =  N/A
# T_peri           =  N/A
######################################################
   0  935.4507
   1  903.3303
   2  806.877
   3  524.3966
   4  438.8284
   5  479.5375
   6  383.2095
   7  265.7021
   8  359.9258
   9  308.7043
  10  337.3411
  11  420.601
  12  382.2373
  13  315.7884
  14  355.6443
  15  383.4439
  16  393.1732
  17  307.9952
  18  337.9365
  19  259.8328
  20  307.7527
  21  319.1984
  22  294.3521
  23  330.2114
  24  355.4697
  25  351.5227
  26  403.9811
  27  363.961
  28  344.4074
  29  333.3331
  30  375.6014
  31  308.839
  32  347.9558
  33  379.6257
  34  350.0598
  35  420.5514
  36  377.6635
  37  275.5343
  38  375.6048
  39  509.0532
  40  422.1824
  41  426.4905
  42  463.7436
  43  315.0315
  44  301.9151
  45  316.4759
  46  333.3452
  47  271.6907
  48  284.6811
  49  348.4414
  50  329.7061
  51  281.1883
  52  302.043
  53  315.9176
  54  347.7621
  55  413.8886
  56  357.8124
  57  372.1278
  58  323.3914
  59  278.9787
  60  405.2183
  61  322.1168
  62  338.1699
  63  405.8069
  64  315.4659
  65  213.8323
  66  268.9977
  67  376.952
  68  405.0243
  69  264.3678
  70  234.5885
  71  419.7014
  72  335.2308
  73  301.1174
  74  276.2914
  75  374.9566
  76  303.8912
  77  296.8193
  78  370.9144
  79  382.2141
  80  214.3229
  81  330.8772
  82  376.8866
  83  388.9815
  84  300.6476
  85  319.7436
  86  339.6361
  87  415.4697
  88  526.3904
  89  410.4752
  90  369.301
  91  455.8699
  92  399.4873
  93  416.368
  94  330.5286
  95  420.1659
  96  402.94
  97  286.2253
  98  257.2119
  99  180.0994
 100  225.5354
 101  274.2351
 102  296.8873
 103  287.9818
 104  262.7776
 105  168.6403
 106  236.7353
 107  381.1287
 108  462.3091
 109  414.7018
 110  363.8734
 111  293.1515
 112  268.4386
 113  349.174
 114  296.3311
 115  251.3044
 116  396.783
 117  299.8498
 118  233.6699
 119  316.5587
 120  373.2905
 121  302.9979
 122  344.1123
 123  349.394
 124  365.5462
 125  489.4218
 126  429.7198
 127  269.6284
 128  336.6124
 129  436.8862
 130  429.5605
 131  444.7212
 132  520.5629
 133  476.5792
 134  428.66
 135  573.4474
 136  502.1263
 137  363.0387
 138  445.7928
 139  346.5366
 140  197.0861
 141  348.939
 142  376.0284
 143  329.0182
 144  319.4532
 145  378.205
 146  383.2791
 147  349.6356
 148  283.8082
 149  333.0801
 150  260.3054
 151  309.9452
 152  322.9298
 153  368.6271
 154  348.9128
 155  344.3854
 156  235.1901
 157  211.0744
 158  245.5742
 159  424.9889
 160  319.9012
 161  382.6308
 162  315.077
 163  227.2623
 164  226.976
 165  188.7717
 166  266.5144
 167  314.2116
 168  235.5599
 169  325.8997
 170  257.203
 171  286.1961
 172  309.5528
 173  395.7755
 174  506.6909
 175  426.5995
 176  413.3489
 177  409.1149
 178  297.1203
 179  417.9462
 180  351.9441
 181  270.9959
 182  306.576
 183  360.4668
 184  433.9487
 185  387.6528
 186  385.1646
 187  367.5348
 188  397.1407
 189  354.6627
 190  219.1261
 191  163.2986
 192  203.4794
 193  273.8115
 194  204.9778
 195  220.9616
 196  307.4087
 197  316.9454
 198  269.68
 199  284.6383
 200  418.8548
 201  537.7242
 202  558.8721
 203  451.2874
 204  353.7845
 205  364.1982
 206  327.4026
 207  294.1722
 208  253.0929
 209  360.3239
 210  442.7124
 211  298.2807
 212  360.0985
 213  360.1445
 214  445.9808
 215  384.0651
 216  252.7103
 217  355.0836
 218  341.0102
 219  167.6138
 220  338.1314
 221  327.4602
 222  293.3291
 223  220.828
 224  325.8443
 225  361.5646
 226  357.3418
 227  337.3971
 228  312.7122
 229  362.1507
 230  398.572
 231  426.7107
 232  365.108
 233  311.9807
 234  302.1206
 235  354.2277
 236  360.9316
 237  266.9985
 238  210.7656
 239  254.3347
 240  220.6445
 241  363.7973
 242  277.527
 243  259.6815
 244  286.0418
 245  341.8134
 246  400.8187
 247  350.8292
 248  371.4279
 249  307.7358
 250  403.9133
 251  336.3071
 252  345.0081
 253  344.6912
 254  321.0676
 255  350.7574
 256  340.9313
 257  267.3195
 258  372.4398
 259  321.1477
 260  369.999
 261  368.3761
 262  320.7711
 263  415.235
 264  316.4521
 265  440.2563
 266  441.8399
 267  386.88
 268  413.2835
 269  350.3805
 270  386.2448
 271  380.6317
 272  376.7061
 273  506.9663
 274  471.918
 275  338.6044
 276  227.2562
 277  276.3365
 278  363.1212
 279  512.4497
 280  359.5372
 281  375.7209
 282  398.0572
 283  409.8095
 284  329.8108
 285  356.2625
 286  405.556
 287  297.392
 288  367.9683
 289  434.2525
 290  362.1505
 291  313.3789
 292  235.7653
 293  346.8801
 294  356.0353
 295  395.3047
 296  434.229
 297  408.9189
 298  315.9312
 299  253.2101
 300  362.8494
 301  368.6876
 302  298.8593
 303  222.0183
 304  329.3458
 305  321.0083
 306  256.4452
 307  277.696
 308  306.7262
 309  319.5515
 310  229.0314
 311  178.1708
 312  342.3045
 313  370.0805
 314  260.134
 315  119.8801
 316  273.0384
 317  365.4914
 318  308.0485
 319  238.7388
 320  199.4939
 321  180.3257
 322  221.3477
 323  163.7276
 324  246.5671
 325  162.0059
 326  232.8583
 327  237.1503
 328  377.6517
 329  507.047
 330  391.4938
 331  235.0404
 332  294.6849
 333  437.9699
 334  387.6469
 335  346.7036
 336  417.8417
 337  396.7805
 338  337.8105
 339  266.1677
 340  198.2104
 341  278.2631
 342  438.4975
 343  411.276
 344  385.9357
 345  296.7156
 346  308.5266
 347  391.6811
 348  312.8251
 349  249.9649
 350  232.1587
 351  280.4962
 352  338.8966
 353  370.8364
 354  311.0724
 355  362.4007
 356  336.686
 357  398.9843
 358  355.086
 359  275.9829
 360  233.2519
 361  453.6727
 362  449.9953
 363  430.1686
 364  295.6916
 365  406.4472
 366  378.8828
 367  272.807
 368  225.6389
 369  239.9042
 370  254.662
 371  273.2066
 372  202.0088
 373  215.4297
 374  369.9919
 375  376.3316
 376  322.7044
 377  253.716
 378  281.3721
 379  369.0967
 380  289.559
 381  250.7221
 382  233.3343
 383  243.732
 384  358.9959
 385  382.6407
 386  496.386
 387  307.6734
 388  240.2346
 389  301.8692
 390  458.8485
 391  399.6808
 392  284.0223
 393  287.5021
 394  416.5779
 395  424.6291
 396  378.4599
 397  386.2597
 398  365.847
 399  370.5363
 400  330.2067
 401  404.5405
 402  381.3687
 403  341.5137
 404  316.096
 405  407.6481
 406  339.3919
 407  320.5644
 408  431.3699
 409  287.6477
 410  378.9756
 411  406.5286
 412  440.6134
 413  496.1919
 414  302.448
 415  291.4377
 416  245.3208
 417  196.6115
 418  361.0928
 419  469.398
 420  421.8376
 421  346.1793
 422  358.7358
 423  278.1274
 424  267.3634
 425  303.5375
 426  398.9554
 427  472.8349
 428  477.157
 429  443.9771
 430  240.6035
 431  208.6479
 432  226.5247
 433  264.3166
 434  359.809
 435  421.2652
 436  364.3992
 437  214.3747
 438  204.7433
 439  368.2069
 440  525.7687
 441  484.5471
 442  492.5765
 443  503.9525
 444  505.7034
 445  379.1198
 446  331.3633
 447  336.8242
 448  452.8493
 449  402.4686
 450  329.2684
 451  355.8592
 452  302.8496
 453  378.4186
 454  338.6638
 455  339.2621
 456  390.6242
 457  363.9886
 458  330.1161
 459  261.875
 460  277.5494
 461  325.375
 462  380.8876
 463  260.3692
 464  292.2643
 465  307.0981
 466  302.9596
 467  331.3568
 468  298.3651
 469  373.6871
 470  222.4702
 471  281.3797
 472  446.5881
 473  433.8157
 474  474.0388
 475  468.5499
 476  410.6004
 477  315.065
 478  374.7076
 479  379.3108
 480  311.045
 481  293.8716
 482  411.6092
 483  346.9888
 484  251.1913
 485  352.7227
 486  365.3237
 487  342.864
 488  465.1758
 489  318.5132
 490  264.5874
 491  289.9292
 492  272.2553
 493  378.1516
 494  418.4851
 495  336.6052
 496  539.7397
 497  572.6871
 498  529.3942
 499  324.3528
 500  416.6554
 501  467.3988
 502  437.6667
 503  354.3559
 504  369.1535
 505  452.4556
 506  509.7832
 507  493.1588
 508  461.7966
 509  673.0506
 510  780.9298
 511  922.6209
