# Input file       =  1193966255.105368_cleaned.dat
# Candidate        =  PSR_0332+5434
# Telescope        =  AR
# Epoch_topo       =  58063.053670201014
# Epoch_bary       =  N/A
# T_sample         =  0.002
# Data Folded      =  7340032
# Data Avg         =  0.0161397980274823
# Data StdDev      =  0.999999652026107
# Profile Bins     =  512
# Profile Avg      =  231.33273164617  
# Profile StdDev   =  119.732994712795 
# Reduced chi-sqr  =  1.189
# Prob(Noise)      <  0.00208   (~2.9 sigma)
# P_topo (ms)      =  714.500768216135  +/- 0.000166
# P'_topo (s/s)    =  -0                +/- 8.76e-11
# P''_topo (s/s^2) =  0                 +/- 3.87e-14
# P_bary (ms)      =  N/A
# P'_bary (s/s)    =  N/A
# P''_bary (s/s^2) =  N/A
# P_orb (s)        =  N/A
# asin(i)/c (s)    =  N/A
# eccentricity     =  N/A
# w (rad)          =  N/A
# T_peri           =  N/A
######################################################
   0  785.8265
   1  692.0901
   2  542.7303
   3  453.2106
   4  311.5517
   5  167.8011
   6  155.3141
   7  234.0602
   8  264.8486
   9  197.8533
  10  83.87502
  11  160.6902
  12  203.5609
  13  317.3314
  14  355.3669
  15  246.0325
  16  223.3235
  17  183.021
  18  174.5369
  19  244.748
  20  260.644
  21  270.3504
  22  244.8551
  23  250.2762
  24  203.3209
  25  197.8786
  26  71.20707
  27  196.9028
  28  171.5804
  29  149.819
  30  275.6048
  31  231.3433
  32  212.1983
  33  102.6814
  34  92.22346
  35  121.4838
  36  334.9271
  37  326.2369
  38  348.4836
  39  282.7534
  40  250.7642
  41  236.3235
  42  208.7601
  43  148.6717
  44  222.9555
  45  273.7386
  46  265.2316
  47  211.4794
  48  164.5963
  49  288.5629
  50  231.1799
  51  311.5833
  52  267.3071
  53  165.2021
  54  133.5815
  55  218.0965
  56  283.7892
  57  272.4919
  58  130.903
  59  243.785
  60  251.7263
  61  218.5883
  62  142.7487
  63  218.4771
  64  241.601
  65  153.9398
  66  147.6222
  67  222.8149
  68  50.76291
  69  192.6429
  70  206.5467
  71  266.6949
  72  175.3598
  73  87.50716
  74  236.0342
  75  297.1633
  76  279.8619
  77  307.6691
  78  226.7192
  79  44.79095
  80  226.309
  81  242.4763
  82  151.1409
  83  187.8962
  84  280.5964
  85  324.9303
  86  195.6979
  87  198.8855
  88  206.1631
  89  264.4966
  90  180.6758
  91  96.30125
  92  80.80531
  93  149.5352
  94  128.6267
  95  122.623
  96  215.204
  97  303.7865
  98  224.9498
  99  186.8495
 100  193.8441
 101  168.9558
 102  241.8609
 103  286.1297
 104  221.2455
 105  219.8797
 106  314.3955
 107  162.6764
 108  169.088
 109  220.1778
 110  331.5838
 111  229.3572
 112  192.2854
 113  184.3539
 114  249.5267
 115  168.1131
 116  362.3766
 117  331.885
 118  299.4456
 119  177.7113
 120  222.3494
 121  163.9471
 122  268.1607
 123  211.0642
 124  256.0334
 125  292.2714
 126  355.4439
 127  305.8248
 128  332.4247
 129  180.6602
 130  202.4506
 131  182.106
 132  119.8369
 133  190.8693
 134  254.8867
 135  211.7036
 136  248.8108
 137  210.1996
 138  161.3641
 139  199.5196
 140  233.1992
 141  209.2558
 142  296.158
 143  190.1661
 144  131.4247
 145  146.3149
 146  264.9323
 147  267.1205
 148  137.1288
 149  152.2888
 150  209.834
 151  198.4346
 152  243.7724
 153  350.9917
 154  345.3102
 155  246.242
 156  287.831
 157  240.3617
 158  232.0736
 159  88.90842
 160  191.4333
 161  164.3996
 162  91.25488
 163  134.4593
 164  136.3491
 165  176.2068
 166  170.1532
 167  167.5732
 168  173.5791
 169  229.2038
 170  131.1324
 171  106.4452
 172  93.67787
 173  97.58479
 174  147.2329
 175  167.6488
 176  234.8987
 177  164.7647
 178  168.8831
 179  215.8496
 180  265.8315
 181  259.9787
 182  193.6827
 183  170.6324
 184  126.0647
 185  262.1306
 186  271.1367
 187  220.7155
 188  255.5336
 189  245.9993
 190  185.9796
 191  182.1706
 192  157.2655
 193  161.8957
 194  192.1826
 195  234.3096
 196  276.2631
 197  255.107
 198  202.784
 199  98.28065
 200  72.25164
 201  214.7025
 202  310.7184
 203  293.2063
 204  239.6503
 205  154.6337
 206  297.8057
 207  257.3531
 208  304.7322
 209  327.1068
 210  309.8603
 211  165.2693
 212  117.8506
 213  220.71
 214  252.3217
 215  269.3091
 216  311.5033
 217  298.402
 218  297.825
 219  231.8293
 220  176.8026
 221  125.4471
 222  282.1205
 223  221.0668
 224  117.4823
 225  151.4737
 226  407.692
 227  293.6476
 228  94.25484
 229  264.0412
 230  426.4117
 231  250.2015
 232  245.9469
 233  403.2003
 234  347.3015
 235  150.3544
 236  140.4238
 237  198.8322
 238  93.43629
 239  190.5909
 240  271.5255
 241  256.5342
 242  293.4845
 243  259.6202
 244  311.2499
 245  356.1344
 246  212.8535
 247  231.3966
 248  172.1295
 249  194.0598
 250  233.1031
 251  413.5061
 252  317.3955
 253  159.109
 254  191.1542
 255  122.93
 256  185.5896
 257  272.4303
 258  78.33432
 259  189.9075
 260  358.1743
 261  356.7691
 262  248.0581
 263  338.9548
 264  356.9432
 265  159.7894
 266  65.13947
 267  128.9298
 268  104.7807
 269  54.37766
 270  60.56376
 271  260.7879
 272  319.9487
 273  255.1317
 274  232.1663
 275  122.5448
 276  189.1519
 277  237.715
 278  304.1798
 279  275.7322
 280  283.4899
 281  325.4183
 282  256.1663
 283  275.0467
 284  341.6778
 285  342.5789
 286  377.2011
 287  205.6252
 288  217.5674
 289  286.7991
 290  235.5133
 291  187.2003
 292  193.4747
 293  126.9659
 294  196.3696
 295  205.7736
 296  165.3788
 297  196.7237
 298  148.235
 299  240.3571
 300  184.4271
 301  295.6469
 302  279.9194
 303  182.216
 304  226.6367
 305  277.0228
 306  228.1506
 307  103.8001
 308  189.6592
 309  130.9221
 310  166.8306
 311  249.6931
 312  227.4191
 313  171.5864
 314  171.8093
 315  144.2667
 316  116.6006
 317  289.8637
 318  245.2393
 319  203.6434
 320  274.1498
 321  294.3856
 322  230.2803
 323  155.4653
 324  252.3783
 325  187.9463
 326  62.42415
 327  159.2807
 328  218.8805
 329  218.3422
 330  124.4389
 331  163.5099
 332  182.7073
 333  232.6667
 334  226.3426
 335  347.2658
 336  380.6625
 337  178.8206
 338  118.588
 339  313.9591
 340  261.8182
 341  331.7046
 342  387.2464
 343  350.5588
 344  279.2359
 345  165.4562
 346  271.0186
 347  242.0601
 348  172.0638
 349  96.70994
 350  162.1905
 351  198.1543
 352  194.9612
 353  206.8211
 354  193.3155
 355  98.7223
 356  43.26712
 357  32.93383
 358  87.23147
 359  204.0024
 360  320.1187
 361  318.3347
 362  270.7848
 363  189.5259
 364  202.686
 365  347.686
 366  313.4855
 367  188.6528
 368  70.31358
 369  125.8748
 370  177.2183
 371  219.0459
 372  160.4162
 373  204.2958
 374  289.8617
 375  205.9549
 376  224.6175
 377  320.8101
 378  306.8612
 379  273.9536
 380  301.3503
 381  203.129
 382  195.6001
 383  179.8199
 384  240.8204
 385  211.7395
 386  259.0509
 387  373.218
 388  298.4556
 389  274.6612
 390  216.349
 391  172.1072
 392  87.32597
 393  62.60289
 394  281.5508
 395  290.0894
 396  193.9561
 397  276.505
 398  285.7649
 399  229.8696
 400  196.129
 401  173.7331
 402  278.4129
 403  303.061
 404  330.9184
 405  457.3143
 406  238.8878
 407  174.2319
 408  283.2423
 409  318.5023
 410  402.705
 411  390.4661
 412  272.1251
 413  131.3992
 414  285.5575
 415  358.9577
 416  421.959
 417  274.0675
 418  227.846
 419  344.3387
 420  214.2995
 421  187.349
 422  237.5393
 423  189.2505
 424  137.4627
 425  154.8834
 426  122.3215
 427  164.6111
 428  168.8734
 429  193.8007
 430  169.7004
 431  328.6817
 432  341.539
 433  228.8665
 434  177.2858
 435  182.9979
 436  189.4796
 437  274.714
 438  181.6307
 439  284.1997
 440  384.3221
 441  164.668
 442  206.6346
 443  208.0401
 444  284.022
 445  218.5853
 446  230.4302
 447  30.04529
 448  -1.110729
 449  126.0921
 450  370.4117
 451  337.8996
 452  248.2435
 453  223.9151
 454  240.3512
 455  153.8842
 456  36.81774
 457  40.69966
 458  80.33037
 459  208.6474
 460  271.4882
 461  264.5022
 462  318.2499
 463  270.4451
 464  279.2508
 465  145.2886
 466  178.2385
 467  329.2562
 468  440.6003
 469  420.1342
 470  394.9369
 471  344.0854
 472  277.4159
 473  127.2186
 474  131.8374
 475  291.3778
 476  338.6258
 477  307.55
 478  308.2171
 479  129.1509
 480  133.9453
 481  175.5655
 482  329.564
 483  361.193
 484  192.097
 485  275.6823
 486  236.4999
 487  135.6085
 488  127.1098
 489  271.9749
 490  399.6873
 491  344.8246
 492  276.0067
 493  295.0773
 494  342.0299
 495  335.4776
 496  230.0013
 497  310.0559
 498  337.0526
 499  278.7543
 500  158.3591
 501  268.5702
 502  409.7205
 503  315.8295
 504  272.1031
 505  98.13541
 506  184.9303
 507  297.3334
 508  531.7951
 509  530.4682
 510  662.5449
 511  774.8096
