# Input file       =  1193002974.143132_cleaned.dat
# Candidate        =  PSR_0332+5434
# Telescope        =  AR
# Epoch_topo       =  58051.904584989956
# Epoch_bary       =  N/A
# T_sample         =  0.002
# Data Folded      =  7340032
# Data Avg         =  0.0234885711810562
# Data StdDev      =  1.00029230374888 
# Profile Bins     =  512
# Profile Avg      =  336.73868755074  
# Profile StdDev   =  119.768034792163 
# Reduced chi-sqr  =  1.208
# Prob(Noise)      <  0.00085   (~3.1 sigma)
# P_topo (ms)      =  714.490291410959  +/- 0.000281
# P'_topo (s/s)    =  -0                +/- 1.48e-10
# P''_topo (s/s^2) =  0                 +/- 6.54e-14
# P_bary (ms)      =  N/A
# P'_bary (s/s)    =  N/A
# P''_bary (s/s^2) =  N/A
# P_orb (s)        =  N/A
# asin(i)/c (s)    =  N/A
# eccentricity     =  N/A
# w (rad)          =  N/A
# T_peri           =  N/A
######################################################
   0  845.8135
   1  864.8502
   2  768.0129
   3  614.9118
   4  511.5034
   5  456.104
   6  471.8902
   7  312.6365
   8  245.5498
   9  440.6899
  10  459.2402
  11  402.4411
  12  523.491
  13  538.0444
  14  535.9078
  15  414.9061
  16  304.1783
  17  329.1821
  18  334.0466
  19  301.8702
  20  354.8417
  21  417.402
  22  411.4809
  23  365.7469
  24  316.2858
  25  389.5032
  26  354.3156
  27  286.9713
  28  282.4773
  29  260.7778
  30  320.2854
  31  299.7048
  32  275.5064
  33  361.9386
  34  229.3417
  35  186.461
  36  246.7141
  37  188.7818
  38  198.3406
  39  259.593
  40  267.2818
  41  259.1143
  42  463.5102
  43  303.7245
  44  376.7336
  45  279.9719
  46  272.5693
  47  322.9861
  48  196.2599
  49  237.7648
  50  287.3275
  51  356.5284
  52  334.2173
  53  337.579
  54  327.9376
  55  373.79
  56  301.3283
  57  282.3654
  58  302.0265
  59  313.9977
  60  447.5378
  61  460.2424
  62  378.7248
  63  361.1053
  64  330.7852
  65  327.2574
  66  402.4827
  67  357.0009
  68  273.5063
  69  250.5367
  70  256.8537
  71  141.4374
  72  170.2929
  73  257.8398
  74  305.9903
  75  407.1356
  76  420.3534
  77  333.5992
  78  375.8896
  79  343.3294
  80  272.8889
  81  280.4059
  82  427.6306
  83  461.6394
  84  346.5407
  85  283.8141
  86  281.208
  87  309.2454
  88  439.9936
  89  468.1501
  90  343.2572
  91  427.3844
  92  416.1731
  93  382.6189
  94  315.3469
  95  272.6257
  96  300.9957
  97  335.8064
  98  384.8392
  99  424.0918
 100  354.2974
 101  370.6702
 102  350.4639
 103  294.1203
 104  398.4337
 105  410.2906
 106  467.5068
 107  466.7657
 108  402.7712
 109  420.2864
 110  399.7196
 111  379.8954
 112  360.4464
 113  280.941
 114  234.9208
 115  248.8837
 116  200.1136
 117  328.5779
 118  267.7773
 119  309.4566
 120  270.5482
 121  243.2745
 122  329.5924
 123  455.5046
 124  458.4605
 125  401.7141
 126  452.5318
 127  393.0089
 128  375.1159
 129  410.7621
 130  470.5819
 131  466.2246
 132  412.2581
 133  415.2174
 134  369.2412
 135  380.3803
 136  423.346
 137  370.9175
 138  388.949
 139  554.1989
 140  497.8951
 141  434.2618
 142  357.0949
 143  319.9464
 144  217.3312
 145  206.3028
 146  321.3297
 147  183.5282
 148  182.4238
 149  280.7254
 150  456.6337
 151  450.9284
 152  346.4906
 153  326.7444
 154  273.7809
 155  196.0275
 156  214.3555
 157  315.3853
 158  360.6373
 159  276.1325
 160  237.315
 161  295.0508
 162  351.1762
 163  197.5726
 164  306.2004
 165  274.0341
 166  339.1364
 167  224.9812
 168  203.7872
 169  260.948
 170  182.5327
 171  234.2511
 172  410.9387
 173  330.9503
 174  317.6111
 175  316.6172
 176  379.222
 177  386.311
 178  406.6233
 179  424.6712
 180  453.3805
 181  293.215
 182  314.7273
 183  315.6215
 184  260.741
 185  317.9195
 186  380.3118
 187  343.9819
 188  430.9855
 189  362.2863
 190  263.7079
 191  268.9804
 192  371.5834
 193  345.5746
 194  262.5349
 195  304.2139
 196  375.9155
 197  341.2152
 198  261.1234
 199  289.8128
 200  288.3745
 201  234.1252
 202  286.3831
 203  297.4944
 204  221.2914
 205  252.3246
 206  320.4534
 207  359.5605
 208  290.1535
 209  361.7814
 210  415.8881
 211  389.8915
 212  319.4874
 213  349.607
 214  234.0546
 215  310.0473
 216  183.0657
 217  363.3065
 218  411.0747
 219  335.8286
 220  432.2594
 221  306.5869
 222  295.9493
 223  318.873
 224  469.5398
 225  403.0529
 226  126.7916
 227  197.4189
 228  233.1967
 229  207.1613
 230  317.6111
 231  388.0943
 232  504.7063
 233  409.778
 234  357.2167
 235  208.6278
 236  406.2813
 237  471.1516
 238  337.7665
 239  295.0167
 240  382.7934
 241  254.431
 242  131.1575
 243  169.8843
 244  286.7335
 245  293.8328
 246  255.1372
 247  278.0397
 248  302.4482
 249  386.2988
 250  292.4303
 251  328.1674
 252  387.7931
 253  357.1308
 254  361.387
 255  443.2761
 256  339.0946
 257  285.1474
 258  368.893
 259  386.092
 260  281.8822
 261  255.0774
 262  283.0275
 263  302.4911
 264  347.7094
 265  307.2931
 266  371.2391
 267  444.1261
 268  330.8094
 269  232.4377
 270  263.7603
 271  263.3149
 272  313.0863
 273  390.9995
 274  331.6382
 275  263.7607
 276  289.8923
 277  287.9289
 278  390.1137
 279  478.3065
 280  341.5562
 281  208.9212
 282  241.9581
 283  231.6978
 284  264.5099
 285  426.2391
 286  292.9402
 287  289.8122
 288  293.2926
 289  289.2476
 290  257.2347
 291  198.4191
 292  165.954
 293  138.2716
 294  153.8989
 295  299.0307
 296  324.1755
 297  343.97
 298  216.7324
 299  215.2047
 300  248.8466
 301  290.1063
 302  353.1977
 303  431.7608
 304  259.7389
 305  229.6177
 306  255.8913
 307  179.0933
 308  249.6127
 309  219.7743
 310  279.6243
 311  219.9283
 312  178.0226
 313  310.8875
 314  395.1392
 315  277.1273
 316  207.3665
 317  253.309
 318  347.5095
 319  373.7392
 320  347.2234
 321  320.5272
 322  318.1682
 323  428.089
 324  446.0941
 325  370.5131
 326  297.6016
 327  358.2735
 328  268.6197
 329  413.7495
 330  519.8427
 331  457.1461
 332  427.3557
 333  350.6695
 334  377.4388
 335  477.6147
 336  445.0876
 337  366.7187
 338  384.5887
 339  308.0555
 340  316.5683
 341  366.7589
 342  277.771
 343  341.5048
 344  267.4372
 345  377.0684
 346  395.7161
 347  454.1099
 348  333.8185
 349  313.0556
 350  400.8202
 351  463.1541
 352  341.9947
 353  416.4078
 354  319.1233
 355  293.2192
 356  312.5047
 357  350.9522
 358  334.7973
 359  297.0377
 360  358.6284
 361  301.9269
 362  345.5592
 363  414.3246
 364  366.0942
 365  408.6064
 366  291.3767
 367  309.0005
 368  439.2747
 369  406.907
 370  352.9669
 371  279.6522
 372  213.0847
 373  356.7865
 374  233.179
 375  96.74143
 376  263.4238
 377  234.3421
 378  122.7472
 379  223.856
 380  199.6915
 381  266.2533
 382  233.9649
 383  348.1175
 384  351.7661
 385  313.8293
 386  402.9017
 387  358.8078
 388  327.0963
 389  252.0935
 390  210.0881
 391  141.3399
 392  390.2445
 393  386.3327
 394  360.9908
 395  361.8965
 396  339.9793
 397  363.1114
 398  356.4412
 399  353.6652
 400  330.5404
 401  402.9604
 402  340.6162
 403  335.0492
 404  146.3546
 405  182.5244
 406  305.5243
 407  342.8188
 408  424.7336
 409  351.3464
 410  304.3418
 411  355.2445
 412  350.075
 413  275.5757
 414  382.4551
 415  371.4258
 416  463.2386
 417  369.0262
 418  334.1154
 419  266.7434
 420  330.2345
 421  430.8684
 422  467.4534
 423  377.7872
 424  324.4615
 425  452.6982
 426  382.4492
 427  419.5114
 428  401.4801
 429  414.8112
 430  484.517
 431  452.7936
 432  378.2937
 433  364.2159
 434  355.8914
 435  467.562
 436  492.5092
 437  424.9426
 438  349.764
 439  224.2323
 440  304.7689
 441  344.2472
 442  357.4784
 443  394.5814
 444  459.8406
 445  375.0502
 446  371.1328
 447  369.6609
 448  450.0218
 449  407.5746
 450  280.6207
 451  214.943
 452  222.9542
 453  257.6916
 454  201.8128
 455  295.319
 456  269.1324
 457  278.9817
 458  222.6016
 459  171.6103
 460  279.7387
 461  374.9024
 462  364.795
 463  429.9418
 464  389.0136
 465  262.7153
 466  265.11
 467  190.1828
 468  255.1284
 469  370.784
 470  341.5804
 471  365.9157
 472  461.1863
 473  331.2298
 474  238.7089
 475  234.7684
 476  325.1689
 477  314.9662
 478  283.4806
 479  299.6477
 480  256.2372
 481  264.6237
 482  351.0761
 483  384.8844
 484  427.7066
 485  325.2227
 486  267.5986
 487  250.3804
 488  207.4017
 489  318.0318
 490  361.1682
 491  414.0602
 492  288.8977
 493  363.9491
 494  299.816
 495  301.8396
 496  218.8935
 497  346.3333
 498  405.2083
 499  344.5257
 500  309.1665
 501  279.0491
 502  294.081
 503  363.8964
 504  365.7988
 505  527.429
 506  463.2713
 507  524.7221
 508  581.5919
 509  692.944
 510  714.204
 511  758.8456
