# Input file       =  1193175289.14436_cleaned.dat
# Candidate        =  PSR_0332+5434
# Telescope        =  AR
# Epoch_topo       =  58053.898971578245
# Epoch_bary       =  N/A
# T_sample         =  0.002
# Data Folded      =  7340032
# Data Avg         =  0.015931525201736
# Data StdDev      =  0.999750757529713
# Profile Bins     =  512
# Profile Avg      =  228.387778228091 
# Profile StdDev   =  119.703193819005 
# Reduced chi-sqr  =  1.272
# Prob(Noise)      <  2.77e-05   (~4.0 sigma)
# P_topo (ms)      =  714.492030516643  +/- 0.000175
# P'_topo (s/s)    =  -0                +/- 9.25e-11
# P''_topo (s/s^2) =  0                 +/- 4.08e-14
# P_bary (ms)      =  N/A
# P'_bary (s/s)    =  N/A
# P''_bary (s/s^2) =  N/A
# P_orb (s)        =  N/A
# asin(i)/c (s)    =  N/A
# eccentricity     =  N/A
# w (rad)          =  N/A
# T_peri           =  N/A
######################################################
   0  810.361
   1  813.0611
   2  811.2696
   3  608.9836
   4  487.5996
   5  319.3209
   6  290.7639
   7  284.1251
   8  253.7173
   9  232.3476
  10  167.7283
  11  194.3988
  12  203.3074
  13  123.8382
  14  207.2437
  15  296.9565
  16  254.6038
  17  275.8319
  18  281.0765
  19  247.9091
  20  184.5413
  21  138.171
  22  263.5315
  23  141.0004
  24  74.59286
  25  211.4166
  26  243.688
  27  159.2647
  28  147.2113
  29  14.07357
  30  29.05386
  31  185.7418
  32  220.5786
  33  248.1102
  34  242.2767
  35  366.4992
  36  334.362
  37  181.2881
  38  330.8955
  39  263.9909
  40  181.1752
  41  154.3954
  42  214.5218
  43  373.4166
  44  325.3072
  45  91.54191
  46  143.1101
  47  138.9795
  48  247.3271
  49  143.6491
  50  177.6495
  51  338.72
  52  174.3835
  53  209.9097
  54  238.5654
  55  258.4414
  56  183.8046
  57  205.506
  58  306.8336
  59  283.0446
  60  294.9413
  61  362.9389
  62  294.007
  63  339.0451
  64  398.7435
  65  236.9392
  66  174.3619
  67  335.3418
  68  244.7912
  69  221.2949
  70  181.2719
  71  251.5289
  72  259.87
  73  294.2775
  74  234.7195
  75  173.4789
  76  133.4611
  77  242.3266
  78  155.1782
  79  142.9095
  80  97.09515
  81  122.8363
  82  144.215
  83  109.6155
  84  140.667
  85  96.2534
  86  221.9235
  87  346.4863
  88  290.8804
  89  212.8509
  90  209.0084
  91  326.1703
  92  245.9306
  93  299.4101
  94  226.7555
  95  214.5876
  96  242.1361
  97  212.0916
  98  286.6649
  99  421.1996
 100  353.6369
 101  113.8041
 102  139.1656
 103  223.6952
 104  294.0877
 105  151.7151
 106  77.24861
 107  125.2892
 108  241.0029
 109  256.5603
 110  97.77218
 111  59.64798
 112  95.1853
 113  57.1202
 114  229.4813
 115  290.9183
 116  259.08
 117  194.9211
 118  118.3341
 119  214.44
 120  362.6555
 121  377.5468
 122  378.6235
 123  228.6531
 124  251.588
 125  152.911
 126  177.3227
 127  223.4566
 128  223.096
 129  297.5048
 130  277.8029
 131  247.246
 132  279.9383
 133  213.3339
 134  184.5857
 135  191.7026
 136  185.7594
 137  210.9749
 138  357.7839
 139  305.0795
 140  273.5911
 141  257.9055
 142  230.6947
 143  194.517
 144  146.3977
 145  158.7652
 146  186.6433
 147  334.0365
 148  167.7067
 149  163.5692
 150  183.7095
 151  215.3336
 152  216.8951
 153  238.9262
 154  194.5219
 155  260.1354
 156  254.1471
 157  152.6359
 158  179.6779
 159  279.687
 160  277.5971
 161  158.4791
 162  217.2409
 163  215.1978
 164  129.4944
 165  287.848
 166  275.3092
 167  219.8785
 168  306.4669
 169  279.8405
 170  197.5918
 171  254.2263
 172  329.328
 173  410.7355
 174  287.8665
 175  124.7636
 176  353.4763
 177  464.3206
 178  452.2892
 179  276.1794
 180  223.566
 181  272.4346
 182  182.5984
 183  174.6732
 184  202.3132
 185  249.7195
 186  270.0125
 187  282.367
 188  321.6671
 189  242.6412
 190  154.943
 191  190.8315
 192  254.7916
 193  292.1856
 194  201.9143
 195  239.2093
 196  251.3066
 197  272.0004
 198  221.4724
 199  219.9952
 200  383.3152
 201  288.337
 202  276.6258
 203  299.9012
 204  257.0117
 205  129.1374
 206  252.9946
 207  206.4592
 208  172.1214
 209  221.6776
 210  302.8314
 211  323.1257
 212  241.6276
 213  235.5064
 214  276.2828
 215  388.0555
 216  344.7783
 217  245.0435
 218  199.5162
 219  146.5408
 220  221.6729
 221  207.1544
 222  229.9173
 223  180.0696
 224  139.6702
 225  144.6799
 226  197.3771
 227  294.3749
 228  110.0221
 229  -11.07966
 230  123.0411
 231  245.6433
 232  342.3539
 233  301.4209
 234  77.19365
 235  115.0418
 236  209.3149
 237  164.452
 238  189.2939
 239  172.4543
 240  225.7228
 241  150.6217
 242  129.7957
 243  133.5049
 244  215.6496
 245  308.8713
 246  257.2025
 247  242.4489
 248  85.70713
 249  105.0548
 250  104.9622
 251  62.06818
 252  200.9272
 253  368.4075
 254  277.5478
 255  253.8503
 256  219.4286
 257  258.7299
 258  266.4995
 259  176.5926
 260  248.0296
 261  329.8904
 262  194.5409
 263  219.1598
 264  233.6039
 265  214.9899
 266  303.7636
 267  265.2069
 268  116.0966
 269  118.245
 270  335.5455
 271  319.1317
 272  86.30454
 273  146.5543
 274  230.1501
 275  254.4579
 276  249.4175
 277  246.482
 278  195.6342
 279  110.6701
 280  174.3652
 281  230.3716
 282  162.6967
 283  114.4554
 284  202.361
 285  133.182
 286  90.38367
 287  104.5053
 288  234.1
 289  290.382
 290  242.7194
 291  155.1843
 292  212.7421
 293  178.2697
 294  251.8857
 295  224.1968
 296  235.2269
 297  89.76176
 298  99.43885
 299  188.616
 300  64.25767
 301  103.3766
 302  207.6635
 303  94.38622
 304  184.1555
 305  314.0862
 306  307.7688
 307  136.6235
 308  190.7674
 309  63.00293
 310  196.896
 311  148.4093
 312  172.3578
 313  163.6717
 314  176.4657
 315  244.1383
 316  139.4923
 317  212.3005
 318  205.7769
 319  171.9278
 320  134.2027
 321  199.0088
 322  231.9339
 323  198.2166
 324  266.1375
 325  448.2286
 326  498.3547
 327  330.275
 328  186.7362
 329  253.78
 330  247.1235
 331  374.3454
 332  317.5556
 333  294.9761
 334  294.664
 335  238.4194
 336  287.0772
 337  264.0757
 338  185.2885
 339  236.2254
 340  222.8277
 341  197.2561
 342  187.6393
 343  184.1649
 344  260.2763
 345  320.8613
 346  275.2986
 347  331.3091
 348  176.1668
 349  174.3605
 350  185.4133
 351  192.3229
 352  249.1636
 353  264.6356
 354  160.8185
 355  277.4279
 356  285.0325
 357  318.2539
 358  176.7592
 359  243.5408
 360  145.707
 361  148.2404
 362  153.015
 363  160.8932
 364  192.3267
 365  173.5069
 366  193.3218
 367  153.9596
 368  127.244
 369  183.4986
 370  209.946
 371  83.28146
 372  126.2169
 373  223.3705
 374  251.4878
 375  206.9727
 376  152.3421
 377  114.6465
 378  132.7966
 379  10.1022
 380  102.1478
 381  178.0823
 382  302.7162
 383  260.1787
 384  183.3578
 385  139.2344
 386  224.3132
 387  94.03212
 388  217.2115
 389  283.7649
 390  306.1905
 391  392.7068
 392  239.7078
 393  265.4922
 394  321.3989
 395  332.5253
 396  217.0027
 397  166.8553
 398  177.9429
 399  119.3425
 400  85.44031
 401  190.8959
 402  262.781
 403  222.1568
 404  281.0698
 405  257.4216
 406  271.7715
 407  368.9166
 408  123.883
 409  222.656
 410  236.2217
 411  158.2771
 412  38.87303
 413  97.3004
 414  212.8405
 415  203.8214
 416  113.2945
 417  226.9783
 418  258.891
 419  278.4076
 420  313.5388
 421  399.6121
 422  404.7848
 423  268.0844
 424  223.9669
 425  213.9536
 426  249.4582
 427  227.9058
 428  205.0741
 429  130.8264
 430  272.2572
 431  285.9527
 432  299.2918
 433  265.7826
 434  224.7823
 435  177.0614
 436  123.604
 437  268.5222
 438  201.4362
 439  164.1568
 440  152.6444
 441  230.314
 442  302.4243
 443  264.7339
 444  95.75306
 445  164.5367
 446  271.0122
 447  272.4814
 448  268.1455
 449  253.888
 450  243.3222
 451  310.5352
 452  282.9004
 453  97.10085
 454  205.1015
 455  115.3425
 456  160.3503
 457  154.3884
 458  125.0691
 459  210.3195
 460  196.9844
 461  174.2145
 462  102.1868
 463  175.7523
 464  175.6214
 465  187.0159
 466  179.6378
 467  247.5082
 468  320.054
 469  300.4059
 470  231.2701
 471  244.5378
 472  285.3806
 473  262.6845
 474  163.8215
 475  24.27839
 476  60.06983
 477  78.53678
 478  180.5436
 479  189.7466
 480  294.3744
 481  303.6342
 482  221.2972
 483  233.5474
 484  223.1089
 485  235.5827
 486  302.7061
 487  328.7105
 488  223.9351
 489  205.5456
 490  214.4773
 491  254.4591
 492  252.9207
 493  193.7732
 494  235.3001
 495  231.1931
 496  202.1503
 497  220.6017
 498  268.2955
 499  319.1474
 500  181.566
 501  242.9098
 502  330.2234
 503  296.1157
 504  231.0555
 505  301.1889
 506  296.2382
 507  307.8788
 508  462.7186
 509  397.8656
 510  600.5656
 511  850.7045
