# Input file       =  1193951359.083581_cleaned.dat
# Candidate        =  PSR_0332+5434
# Telescope        =  AR
# Epoch_topo       =  58062.881262541443
# Epoch_bary       =  N/A
# T_sample         =  0.002
# Data Folded      =  7340032
# Data Avg         =  0.0185254176755735
# Data StdDev      =  1.00002339491434 
# Profile Bins     =  512
# Profile Avg      =  265.727026207275 
# Profile StdDev   =  119.735837520896 
# Reduced chi-sqr  =  1.234
# Prob(Noise)      <  0.000224   (~3.5 sigma)
# P_topo (ms)      =  714.500264887777  +/- 0.000133
# P'_topo (s/s)    =  -0                +/- 7.01e-11
# P''_topo (s/s^2) =  0                 +/- 3.09e-14
# P_bary (ms)      =  N/A
# P'_bary (s/s)    =  N/A
# P''_bary (s/s^2) =  N/A
# P_orb (s)        =  N/A
# asin(i)/c (s)    =  N/A
# eccentricity     =  N/A
# w (rad)          =  N/A
# T_peri           =  N/A
######################################################
   0  827.1155
   1  674.8771
   2  676.2419
   3  407.9646
   4  347.141
   5  156.6468
   6  186.3521
   7  220.8578
   8  228.5508
   9  376.3436
  10  434.0219
  11  356.7931
  12  342.3231
  13  367.1661
  14  266.6876
  15  352.448
  16  364.9923
  17  288.4949
  18  274.5038
  19  349.4834
  20  267.7135
  21  296.1387
  22  201.425
  23  173.5057
  24  191.8755
  25  259.2457
  26  379.8261
  27  191.0219
  28  274.9776
  29  340.6024
  30  287.9261
  31  282.4727
  32  234.25
  33  224.0819
  34  292.5074
  35  291.2901
  36  155.7206
  37  237.1677
  38  292.2402
  39  333.5455
  40  301.457
  41  320.4855
  42  191.2346
  43  203.1628
  44  246.4499
  45  311.4267
  46  433.0905
  47  244.1448
  48  244.5971
  49  178.9476
  50  172.9711
  51  254.9336
  52  250.398
  53  328.4447
  54  256.0645
  55  162.9069
  56  180.0677
  57  220.6945
  58  269.3062
  59  281.9245
  60  227.1852
  61  188.8592
  62  277.3654
  63  377.6374
  64  318.0445
  65  280.3495
  66  270.1691
  67  379.6299
  68  293.1362
  69  172.5745
  70  355.5771
  71  474.2314
  72  321.9427
  73  292.5949
  74  411.662
  75  317.1824
  76  236.6714
  77  295.3008
  78  360.3745
  79  301.8605
  80  249.2685
  81  261.3552
  82  225.1859
  83  183.9931
  84  112.6628
  85  311.3822
  86  296.7269
  87  292.0132
  88  289.2527
  89  295.156
  90  318.1968
  91  230.2462
  92  179.7557
  93  271.7241
  94  165.0151
  95  157.1236
  96  137.4766
  97  145.8125
  98  137.4999
  99  125.1969
 100  181.9238
 101  253.9362
 102  216.4855
 103  190.2266
 104  253.4825
 105  226.4716
 106  157.4258
 107  258.8709
 108  302.1943
 109  288.758
 110  101.0417
 111  88.20598
 112  211.0332
 113  198.6807
 114  251.3737
 115  187.8072
 116  254.94
 117  256.8569
 118  267.6142
 119  255.448
 120  151.2468
 121  266.0785
 122  459.6479
 123  326.182
 124  242.9488
 125  301.2878
 126  316.1561
 127  337.8451
 128  232.0596
 129  372.779
 130  328.7805
 131  320.5092
 132  260.2708
 133  101.8288
 134  163.7098
 135  134.0754
 136  156.2153
 137  258.5975
 138  330.2402
 139  296.1203
 140  151.6516
 141  206.107
 142  215.3937
 143  114.8078
 144  161.2602
 145  300.1213
 146  405.2405
 147  364.5762
 148  365.0333
 149  316.0886
 150  227.2592
 151  177.001
 152  238.1537
 153  226.2266
 154  213.6713
 155  198.9919
 156  181.4921
 157  274.2963
 158  162.4324
 159  283.5711
 160  292.9517
 161  298.9252
 162  325.0215
 163  214.5186
 164  232.285
 165  217.7109
 166  214.3473
 167  288.7019
 168  383.4518
 169  268.219
 170  171.3255
 171  95.67798
 172  145.1219
 173  227.8514
 174  301.9645
 175  191.2277
 176  189.8121
 177  193.9662
 178  257.236
 179  237.997
 180  167.2365
 181  401.9026
 182  513.7706
 183  416.2854
 184  293.8134
 185  311.5133
 186  277.558
 187  174.744
 188  160.082
 189  341.2161
 190  412.2281
 191  296.254
 192  347.3964
 193  413.3401
 194  311.0099
 195  360.1438
 196  490.7129
 197  413.0753
 198  259.8862
 199  322.0981
 200  254.0928
 201  149.3869
 202  169.6935
 203  265.7402
 204  228.0765
 205  321.3965
 206  424.9708
 207  352.0167
 208  370.4087
 209  351.066
 210  319.813
 211  266.5501
 212  274.4663
 213  192.9147
 214  258.3883
 215  275.8212
 216  316.7087
 217  392.9165
 218  461.4153
 219  386.0816
 220  381.0391
 221  400.0081
 222  320.7228
 223  246.5278
 224  303.4967
 225  310.428
 226  254.8495
 227  346.0173
 228  312.8709
 229  116.7529
 230  50.95565
 231  102.1122
 232  155.3442
 233  312.3043
 234  268.8464
 235  202.7496
 236  277.9399
 237  232.648
 238  217.6634
 239  201.2343
 240  199.4558
 241  311.0134
 242  384.7831
 243  288.9336
 244  252.6061
 245  275.5327
 246  304.6997
 247  301.7233
 248  247.7703
 249  236.9944
 250  220.4342
 251  265.7872
 252  316.4592
 253  271.1028
 254  330.2809
 255  505.0862
 256  369.4538
 257  314.6236
 258  217.5269
 259  69.6929
 260  71.88496
 261  111.9655
 262  247.705
 263  195.631
 264  256.7745
 265  330.8232
 266  267.9253
 267  205.8445
 268  201.744
 269  222.0151
 270  180.7184
 271  295.1886
 272  428.5962
 273  318.031
 274  294.3902
 275  202.162
 276  207.7349
 277  284.4041
 278  298.799
 279  354.1358
 280  311.6513
 281  268.4816
 282  202.9152
 283  109.5061
 284  101.2856
 285  252.0537
 286  349.0333
 287  232.1387
 288  236.5311
 289  261.8781
 290  260.5159
 291  305.4549
 292  316.4751
 293  387.6567
 294  234.8547
 295  184.401
 296  284.0444
 297  255.3201
 298  169.386
 299  257.2266
 300  419.4051
 301  506.1336
 302  401.1209
 303  433.5009
 304  472.5144
 305  185.1808
 306  186.4821
 307  163.1329
 308  113.9966
 309  200.4123
 310  167.7603
 311  264.4163
 312  214.2215
 313  198.6372
 314  230.569
 315  352.4256
 316  247.2126
 317  202.324
 318  211.2529
 319  228.8202
 320  162.1203
 321  269.1554
 322  366.7746
 323  330.3566
 324  284.3298
 325  267.6583
 326  314.301
 327  234.3215
 328  336.1114
 329  223.5021
 330  235.3826
 331  222.3784
 332  306.9044
 333  143.1502
 334  130.4051
 335  195.2009
 336  247.323
 337  234.775
 338  221.0962
 339  122.505
 340  72.0061
 341  82.17657
 342  286.6436
 343  296.4975
 344  222.8568
 345  194.2221
 346  276.8143
 347  361.231
 348  260.2775
 349  150.5112
 350  314.4769
 351  269.1995
 352  238.6127
 353  278.9445
 354  341.2991
 355  212.2341
 356  107.9271
 357  201.4083
 358  314.512
 359  129.5733
 360  287.8075
 361  373.6266
 362  211.7117
 363  239.5189
 364  276.157
 365  345.99
 366  423.1153
 367  413.2113
 368  275.4373
 369  243.7273
 370  195.3601
 371  188.9861
 372  190.7195
 373  318.6003
 374  384.7493
 375  353.6127
 376  320.4279
 377  314.7211
 378  307.3598
 379  158.7929
 380  204.1449
 381  260.5626
 382  274.2809
 383  227.5
 384  154.1715
 385  299.9487
 386  401.877
 387  245.9588
 388  224.959
 389  126.4034
 390  162.2973
 391  184.806
 392  258.1296
 393  153.002
 394  85.12115
 395  175.7159
 396  169.6898
 397  148.5804
 398  179.3413
 399  206.4296
 400  201.2632
 401  237.439
 402  247.7085
 403  284.3709
 404  215.9004
 405  341.5957
 406  292.3976
 407  241.9641
 408  243.3719
 409  234.468
 410  319.2225
 411  228.8702
 412  258.8546
 413  405.9492
 414  424.9036
 415  259.6841
 416  149.4908
 417  178.1496
 418  351.8468
 419  267.2715
 420  277.7492
 421  227.6821
 422  316.4851
 423  339.8049
 424  282.4575
 425  310.1305
 426  239.5089
 427  277.6145
 428  375.6109
 429  255.8317
 430  130.7081
 431  188.454
 432  296.4651
 433  357.0504
 434  286.6974
 435  280.575
 436  202.4815
 437  337.9163
 438  225.5719
 439  207.4299
 440  292.1132
 441  239.494
 442  238.2758
 443  246.2172
 444  242.532
 445  146.6624
 446  143.4255
 447  258.5487
 448  267.7868
 449  251.6873
 450  184.6596
 451  153.09
 452  248.9234
 453  267.3817
 454  406.8833
 455  229.2101
 456  134.657
 457  242.6431
 458  183.3534
 459  84.51839
 460  194.1496
 461  337.569
 462  238.1703
 463  250.775
 464  203.2265
 465  174.8804
 466  207.4096
 467  219.8876
 468  265.0448
 469  269.9453
 470  291.4845
 471  264.346
 472  182.7175
 473  205.0431
 474  70.0221
 475  230.0627
 476  281.0962
 477  284.0889
 478  280.1101
 479  249.0259
 480  259.2402
 481  219.9515
 482  281.2967
 483  358.5249
 484  329.2422
 485  342.0604
 486  263.4969
 487  252.4848
 488  232.7745
 489  209.5615
 490  163.8723
 491  245.6395
 492  363.0297
 493  341.4756
 494  206.0254
 495  227.5626
 496  184.4046
 497  198.9021
 498  275.0062
 499  302.1448
 500  255.0384
 501  403.9301
 502  463.337
 503  373.0295
 504  206.6714
 505  215.4092
 506  191.8603
 507  313.9176
 508  390.7318
 509  569.4533
 510  769.2821
 511  895.9369
