# Input file       =  1193707102.15065_cleaned.dat
# Candidate        =  PSR_0332+5434
# Telescope        =  AR
# Epoch_topo       =  58060.054214706601
# Epoch_bary       =  N/A
# T_sample         =  0.002
# Data Folded      =  7340032
# Data Avg         =  0.0233703298476598
# Data StdDev      =  1.00007014964951 
# Profile Bins     =  512
# Profile Avg      =  335.095535956205 
# Profile StdDev   =  119.741435607303 
# Reduced chi-sqr  =  1.179
# Prob(Noise)      <  0.00321   (~2.7 sigma)
# P_topo (ms)      =  714.497935769741  +/- 0.000169
# P'_topo (s/s)    =  -0                +/- 8.91e-11
# P''_topo (s/s^2) =  0                 +/- 3.93e-14
# P_bary (ms)      =  N/A
# P'_bary (s/s)    =  N/A
# P''_bary (s/s^2) =  N/A
# P_orb (s)        =  N/A
# asin(i)/c (s)    =  N/A
# eccentricity     =  N/A
# w (rad)          =  N/A
# T_peri           =  N/A
######################################################
   0  905.1453
   1  783.8677
   2  646.7206
   3  427.5284
   4  354.792
   5  351.1779
   6  344.8445
   7  306.7574
   8  317.323
   9  307.4474
  10  356.245
  11  400.885
  12  407.0694
  13  358.3132
  14  412.1099
  15  429.3598
  16  353.1293
  17  271.6646
  18  197.6958
  19  272.6019
  20  370.856
  21  375.2176
  22  269.7719
  23  113.645
  24  350.6298
  25  340.3501
  26  286.1505
  27  366.8836
  28  490.7898
  29  343.2121
  30  349.3125
  31  426.9187
  32  272.7579
  33  354.8382
  34  304.6221
  35  360.7755
  36  314.0663
  37  131.9065
  38  247.068
  39  295.2249
  40  227.836
  41  267.4691
  42  347.0936
  43  331.6672
  44  275.067
  45  102.1666
  46  160.8608
  47  213.1603
  48  260.9603
  49  257.3872
  50  257.2894
  51  290.2904
  52  287.6877
  53  218.6979
  54  262.4621
  55  331.7184
  56  302.5488
  57  307.3955
  58  233.2893
  59  224.6548
  60  150.6498
  61  274.4647
  62  306.9716
  63  371.6482
  64  297.1705
  65  188.4302
  66  224.0512
  67  508.8975
  68  526.9516
  69  444.7427
  70  381.3418
  71  384.8333
  72  326.2601
  73  407.9434
  74  444.3812
  75  437.4036
  76  385.3464
  77  319.3465
  78  298.4967
  79  253.6683
  80  272.7803
  81  330.1325
  82  465.8072
  83  271.2175
  84  218.7805
  85  310.4376
  86  296.4761
  87  220.9088
  88  253.4035
  89  364.6581
  90  345.5366
  91  246.6025
  92  272.8687
  93  241.563
  94  209.4864
  95  265.1447
  96  270.7608
  97  166.2084
  98  320.3046
  99  377.6518
 100  275.3728
 101  314.7914
 102  493.6107
 103  535.0527
 104  550.3835
 105  379.4246
 106  266.6349
 107  141.5309
 108  192.4502
 109  266.5863
 110  316.1239
 111  251.6126
 112  219.0821
 113  284.1416
 114  294.6364
 115  136.9368
 116  143.9601
 117  301.9985
 118  391.6434
 119  368.7297
 120  354.4627
 121  385.1251
 122  361.3069
 123  312.5821
 124  337.5472
 125  417.7432
 126  360.5475
 127  234.8376
 128  170.361
 129  227.5098
 130  315.789
 131  281.257
 132  261.3842
 133  112.9141
 134  246.3746
 135  410.8183
 136  332.0805
 137  389.7225
 138  336.2923
 139  343.009
 140  321.0162
 141  365.0749
 142  298.3922
 143  327.8362
 144  289.4323
 145  173.8282
 146  262.0422
 147  359.2456
 148  344.4921
 149  329.5435
 150  234.095
 151  210.1055
 152  279.957
 153  449.8231
 154  401.7029
 155  276.8936
 156  409.8048
 157  443.8579
 158  434.5121
 159  406.3922
 160  334.1238
 161  391.1131
 162  449.6656
 163  442.2233
 164  343.6977
 165  308.6459
 166  286.7755
 167  329.326
 168  359.5225
 169  370.4562
 170  354.0026
 171  297.5818
 172  353.3399
 173  329.7758
 174  328.6252
 175  292.0703
 176  244.906
 177  279.6219
 178  343.6024
 179  292.0442
 180  262.9854
 181  400.0398
 182  368.135
 183  258.9137
 184  330.1366
 185  415.9601
 186  328.9834
 187  180.0764
 188  290.5975
 189  362.4068
 190  399.0547
 191  433.3254
 192  320.3428
 193  291.943
 194  214.1568
 195  271.8766
 196  310.9061
 197  304.6878
 198  361.3064
 199  392.7391
 200  410.3745
 201  283.8389
 202  297.2611
 203  444.1387
 204  326.5462
 205  313.7375
 206  326.4041
 207  475.6676
 208  448.8352
 209  390.9368
 210  261.1713
 211  304.2049
 212  217.0723
 213  91.75444
 214  172.5211
 215  287.7693
 216  331.2063
 217  272.7904
 218  320.7861
 219  285.4621
 220  265.5674
 221  301.3821
 222  318.123
 223  368.1011
 224  339.1476
 225  395.8649
 226  403.1592
 227  354.7325
 228  432.1013
 229  338.153
 230  209.8384
 231  265.9812
 232  384.9317
 233  341.1833
 234  344.834
 235  330.3067
 236  292.9369
 237  322.4907
 238  274.9235
 239  189.8131
 240  258.9864
 241  399.6104
 242  340.4789
 243  381.1107
 244  413.4852
 245  476.0808
 246  435.4331
 247  440.9485
 248  423.4271
 249  306.2397
 250  425.933
 251  434.2204
 252  275.2831
 253  220.809
 254  280.2744
 255  301.6072
 256  278.9182
 257  352.2245
 258  381.9379
 259  361.3739
 260  321.0053
 261  473.8887
 262  478.9221
 263  334.6966
 264  365.4108
 265  401.6819
 266  290.7909
 267  341.6894
 268  390.5426
 269  324.8929
 270  316.7812
 271  286.3697
 272  310.9578
 273  273.8301
 274  311.613
 275  433.4795
 276  513.1913
 277  344.4518
 278  330.0887
 279  289.4882
 280  350.5937
 281  397.428
 282  400.5167
 283  448.429
 284  540.107
 285  426.8172
 286  333.7119
 287  342.1169
 288  408.4907
 289  332.9066
 290  279.0983
 291  274.4632
 292  374.4586
 293  460.8155
 294  450.9163
 295  351.7146
 296  314.6375
 297  313.6423
 298  402.5986
 299  198.0211
 300  194.4447
 301  272.9562
 302  294.1725
 303  444.8045
 304  396.9162
 305  414.1141
 306  546.0406
 307  440.0485
 308  378.8758
 309  353.1407
 310  361.5113
 311  385.9919
 312  414.4339
 313  348.37
 314  352.2063
 315  314.5634
 316  385.1539
 317  444.2732
 318  400.5716
 319  311.5147
 320  252.6947
 321  224.4125
 322  385.9824
 323  393.9948
 324  350.2532
 325  381.5934
 326  370.0291
 327  238.61
 328  184.4485
 329  226.0502
 330  237.2971
 331  307.6593
 332  275.7706
 333  172.3876
 334  162.7631
 335  316.7184
 336  336.1783
 337  343.3734
 338  254.7119
 339  312.3322
 340  202.0725
 341  251.0898
 342  448.9324
 343  325.1401
 344  377.9358
 345  431.773
 346  347.0308
 347  366.9678
 348  409.7769
 349  401.271
 350  322.5704
 351  193.8879
 352  318.0224
 353  427.3094
 354  247.9455
 355  334.4716
 356  403.1086
 357  356.9486
 358  388.0484
 359  343.4395
 360  387.5478
 361  397.9319
 362  372.2596
 363  318.8605
 364  381.8712
 365  423.0697
 366  338.7356
 367  260.6688
 368  364.1804
 369  320.3978
 370  168.4631
 371  267.7976
 372  400.8317
 373  438.6344
 374  448.0265
 375  333.5493
 376  317.5098
 377  374.6922
 378  288.6463
 379  338.651
 380  318.8678
 381  385.8399
 382  406.0692
 383  207.7826
 384  314.5386
 385  314.0357
 386  353.8057
 387  347.0242
 388  357.0778
 389  404.3755
 390  422.7558
 391  402.0292
 392  335.0229
 393  336.1991
 394  399.3951
 395  340.0008
 396  216.1805
 397  236.5817
 398  340.7422
 399  306.4441
 400  316.8659
 401  405.3079
 402  341.8317
 403  446.9436
 404  321.5904
 405  304.4453
 406  295.7571
 407  346.1399
 408  438.2849
 409  367.1409
 410  321.8309
 411  292.2654
 412  240.6869
 413  308.1293
 414  339.5439
 415  337.9868
 416  441.9088
 417  351.2882
 418  353.3442
 419  269.091
 420  344.7774
 421  306.9561
 422  319.5729
 423  399.0431
 424  380.0692
 425  352.9436
 426  347.9768
 427  146.881
 428  221.7304
 429  331.2845
 430  389.6076
 431  493.521
 432  439.7604
 433  466.7374
 434  436.6379
 435  405.2844
 436  300.2325
 437  238.0205
 438  269.9458
 439  217.9842
 440  245.3967
 441  355.9223
 442  442.875
 443  332.3958
 444  323.7628
 445  356.6705
 446  334.7765
 447  273.569
 448  296.9679
 449  422.2726
 450  537.0056
 451  511.2194
 452  291.0122
 453  250.2403
 454  425.3408
 455  235.4698
 456  297.1226
 457  262.8541
 458  287.1277
 459  381.9881
 460  245.3868
 461  168.5265
 462  282.6102
 463  297.2623
 464  324.603
 465  385.8999
 466  396.5196
 467  329.7659
 468  276.8444
 469  352.5815
 470  427.896
 471  357.0906
 472  322.7171
 473  299.3494
 474  402.7784
 475  310.01
 476  230.4833
 477  304.3761
 478  304.6881
 479  345.3941
 480  351.0476
 481  312.2574
 482  161.819
 483  288.1218
 484  275.5468
 485  417.1357
 486  415.861
 487  294.1537
 488  268.9853
 489  273.7094
 490  306.6301
 491  340.2817
 492  365.9436
 493  352.6454
 494  415.2462
 495  399.8989
 496  271.6762
 497  250.3996
 498  241.6443
 499  246.4898
 500  388.2752
 501  444.722
 502  349.4405
 503  156.761
 504  191.2779
 505  277.8791
 506  408.253
 507  483.2412
 508  548.3997
 509  645.1376
 510  845.4437
 511  929.364
