# Input file       =  1193104069.1423_cleaned.dat
# Candidate        =  PSR_0332+5434
# Telescope        =  AR
# Epoch_topo       =  58053.074665998844
# Epoch_bary       =  N/A
# T_sample         =  0.002
# Data Folded      =  7340032
# Data Avg         =  0.0148023929110995
# Data StdDev      =  1.00011183593727 
# Profile Bins     =  512
# Profile Avg      =  212.228665798672 
# Profile StdDev   =  119.746426833111 
# Reduced chi-sqr  =  1.269
# Prob(Noise)      <  3.32e-05   (~4.0 sigma)
# P_topo (ms)      =  714.491641369285  +/- 0.00015
# P'_topo (s/s)    =  -0                +/- 7.9e-11
# P''_topo (s/s^2) =  0                 +/- 3.49e-14
# P_bary (ms)      =  N/A
# P'_bary (s/s)    =  N/A
# P''_bary (s/s^2) =  N/A
# P_orb (s)        =  N/A
# asin(i)/c (s)    =  N/A
# eccentricity     =  N/A
# w (rad)          =  N/A
# T_peri           =  N/A
######################################################
   0  797.2841
   1  779.931
   2  761.8444
   3  421.3606
   4  269.0758
   5  240.0472
   6  285.4686
   7  254.4997
   8  126.5627
   9  49.43184
  10  292.5334
  11  331.7038
  12  316.6477
  13  333.0523
  14  167.794
  15  256.872
  16  246.3375
  17  378.063
  18  299.4138
  19  223.7094
  20  273.7299
  21  209.6966
  22  180.291
  23  61.7499
  24  186.2222
  25  214.9877
  26  237.6869
  27  158.0851
  28  50.90068
  29  121.5719
  30  284.5679
  31  401.3026
  32  425.8188
  33  159.9851
  34  82.93982
  35  255.1333
  36  216.5389
  37  312.1711
  38  270.0245
  39  185.9004
  40  282.8651
  41  225.5016
  42  135.8389
  43  257.7099
  44  175.1536
  45  120.3377
  46  76.54118
  47  209.2457
  48  236.0236
  49  127.5909
  50  244.5795
  51  265.5436
  52  245.4026
  53  219.6941
  54  210.728
  55  297.5313
  56  420.4153
  57  321.833
  58  163.5787
  59  255.3517
  60  208.1342
  61  270.5284
  62  235.6349
  63  335.2403
  64  158.034
  65  105.7762
  66  108.3834
  67  223.8281
  68  175.0505
  69  224.1822
  70  317.6292
  71  84.29944
  72  205.7045
  73  240.8846
  74  106.0182
  75  177.6388
  76  109.4307
  77  119.5059
  78  163.6626
  79  194.2079
  80  239.3782
  81  299.6773
  82  342.9458
  83  219.6653
  84  163.4596
  85  109.0782
  86  212.8277
  87  21.824
  88  4.483318
  89  118.4182
  90  165.1039
  91  233.5244
  92  173.2293
  93  135.2606
  94  172.1707
  95  210.6709
  96  226.7119
  97  166.9299
  98  147.3391
  99  222.568
 100  287.6513
 101  225.7661
 102  55.93995
 103  -38.18847
 104  124.9013
 105  299.624
 106  266.3225
 107  254.274
 108  150.7148
 109  189.582
 110  284.5115
 111  275.0614
 112  211.5209
 113  227.5412
 114  339.1349
 115  188.1723
 116  216.5381
 117  154.6363
 118  202.7728
 119  303.4722
 120  274.0907
 121  84.77769
 122  72.74375
 123  74.94761
 124  90.33968
 125  188.8706
 126  195.5323
 127  284.0095
 128  195.7497
 129  297.2277
 130  214.4707
 131  218.5125
 132  314.7235
 133  324.4696
 134  233.3961
 135  246.88
 136  161.3482
 137  120.7617
 138  62.94589
 139  149.8433
 140  164.7523
 141  227.2894
 142  173.8838
 143  165.5168
 144  194.3456
 145  81.38483
 146  -2.833866
 147  145.968
 148  197.0049
 149  168.1368
 150  237.9354
 151  239.0713
 152  95.53837
 153  165.8156
 154  250.0224
 155  332.5298
 156  183.2329
 157  148.6906
 158  178.0969
 159  71.09801
 160  115.2293
 161  142.8319
 162  96.90462
 163  205.493
 164  310.2918
 165  120.9704
 166  177.0961
 167  216.5198
 168  174.9711
 169  210.8344
 170  242.4148
 171  312.4735
 172  120.5545
 173  110.5099
 174  224.176
 175  298.8302
 176  225.5417
 177  249.3986
 178  119.7872
 179  135.5016
 180  264.2104
 181  280.5753
 182  206.7391
 183  215.0392
 184  109.3448
 185  202.5039
 186  200.0064
 187  238.4411
 188  228.0269
 189  211.934
 190  99.45023
 191  8.570099
 192  158.4102
 193  179.2894
 194  215.8672
 195  91.98694
 196  59.3574
 197  168.3908
 198  217.7788
 199  183.5193
 200  83.62178
 201  101.4191
 202  147.3804
 203  219.6331
 204  148.1603
 205  223.3122
 206  147.2471
 207  109.8262
 208  -24.22846
 209  65.19916
 210  58.33639
 211  41.93329
 212  116.3259
 213  167.8882
 214  335.2424
 215  223.1452
 216  138.485
 217  122.2217
 218  18.12466
 219  8.091427
 220  -51.51265
 221  158.8
 222  119.6769
 223  196.0187
 224  111.74
 225  91.50674
 226  245.1421
 227  351.663
 228  311.5408
 229  264.6473
 230  248.2342
 231  233.5831
 232  383.7755
 233  425.5532
 234  260.2652
 235  140.2969
 236  137.3071
 237  169.5422
 238  112.9463
 239  179.0292
 240  299.4461
 241  173.3145
 242  156.4519
 243  177.1608
 244  379.1657
 245  276.1619
 246  234.8095
 247  220.1636
 248  235.6318
 249  332.9507
 250  283.9732
 251  275.2646
 252  211.1382
 253  166.6478
 254  300.6087
 255  278.934
 256  153.7981
 257  176.0066
 258  181.6133
 259  226.9976
 260  299.0146
 261  336.6361
 262  262.0396
 263  313.5904
 264  381.4713
 265  244.9286
 266  229.0935
 267  159.3581
 268  118.2643
 269  84.42475
 270  159.5928
 271  348.0233
 272  220.9494
 273  76.91147
 274  -5.976399
 275  127.6017
 276  178.282
 277  221.4554
 278  314.9323
 279  275.4995
 280  245.629
 281  59.71067
 282  88.07183
 283  150.6881
 284  176.2571
 285  97.30283
 286  132.3989
 287  185.3938
 288  267.8457
 289  158.8356
 290  214.9678
 291  227.4003
 292  229.8753
 293  177.086
 294  293.1599
 295  231.2672
 296  234.7513
 297  220.8712
 298  161.0907
 299  329.7065
 300  280.3503
 301  348.4968
 302  339.0013
 303  183.8115
 304  192.7587
 305  187.6058
 306  211.081
 307  205.8809
 308  304.7214
 309  267.4719
 310  237.3631
 311  296.1666
 312  221.6956
 313  137.6973
 314  226.9081
 315  253.5836
 316  101.0295
 317  107.363
 318  250.0208
 319  284.1146
 320  336.3821
 321  468.588
 322  291.6649
 323  258.7642
 324  154.0476
 325  135.0677
 326  290.1523
 327  315.2823
 328  250.4468
 329  166.9389
 330  153.1361
 331  106.575
 332  123.6062
 333  246.9279
 334  225.6696
 335  138.0917
 336  80.77258
 337  101.733
 338  183.0634
 339  102.5862
 340  241.0644
 341  241.1802
 342  207.8582
 343  211.7259
 344  381.8475
 345  392.1411
 346  191.6996
 347  195.5482
 348  247.4867
 349  239.2214
 350  130.1454
 351  137.429
 352  218.1275
 353  141.0391
 354  100.2677
 355  198.5035
 356  253.5744
 357  315.501
 358  210.0495
 359  231.8109
 360  231.2508
 361  192.2186
 362  216.0468
 363  269.7291
 364  287.3266
 365  165.8575
 366  77.45235
 367  165.8116
 368  207.021
 369  223.8607
 370  219.3787
 371  279.0204
 372  260.1464
 373  75.07234
 374  112.5063
 375  210.4823
 376  191.9613
 377  333.4556
 378  176.877
 379  24.37006
 380  189.3605
 381  212.3345
 382  175.9009
 383  186.503
 384  207.7286
 385  173.403
 386  222.8372
 387  279.9207
 388  194.7633
 389  121.5323
 390  266.8065
 391  152.0227
 392  80.90424
 393  168.6532
 394  281.8051
 395  279.3901
 396  94.77639
 397  98.56478
 398  125.9336
 399  188.7832
 400  202.4565
 401  149.1535
 402  219.6875
 403  327.5559
 404  272.7775
 405  276.7981
 406  275.8876
 407  228.4822
 408  265.0619
 409  247.6524
 410  144.491
 411  189.3655
 412  75.33512
 413  136.1616
 414  143.1658
 415  271.9052
 416  205.6806
 417  155.86
 418  205.556
 419  285.9516
 420  177.6489
 421  174.7631
 422  146.4561
 423  150.9515
 424  122.1011
 425  260.4066
 426  302.3121
 427  140.6027
 428  160.0575
 429  238.045
 430  300.4395
 431  242.4074
 432  224.5778
 433  248.2616
 434  289.9552
 435  137.2363
 436  152.4725
 437  161.224
 438  281.7639
 439  201.9384
 440  240.7191
 441  150.9012
 442  191.7234
 443  178.5985
 444  189.5293
 445  182.7876
 446  83.66467
 447  233.0954
 448  229.4641
 449  246.226
 450  290.6606
 451  272.516
 452  185.7154
 453  286.0901
 454  331.2647
 455  188.5859
 456  136.7345
 457  255.0606
 458  270.518
 459  252.4572
 460  258.4955
 461  279.132
 462  233.9242
 463  197.7644
 464  216.6139
 465  267.3788
 466  212.2439
 467  329.3593
 468  325.7325
 469  214.0988
 470  148.5903
 471  286.6638
 472  238.0735
 473  221.7467
 474  309.0528
 475  236.5602
 476  120.9382
 477  217.7229
 478  284.2842
 479  210.1605
 480  232.3741
 481  266.0849
 482  240.6794
 483  208.7886
 484  331.9208
 485  316.7587
 486  212.7153
 487  264.2194
 488  278.7023
 489  233.1184
 490  148.8132
 491  187.5414
 492  265.6347
 493  321.6608
 494  337.0266
 495  161.5298
 496  230.6308
 497  99.97742
 498  159.0342
 499  166.0004
 500  123.5382
 501  111.1716
 502  297.4759
 503  287.2965
 504  321.5673
 505  276.4798
 506  353.2474
 507  302.6634
 508  291.6292
 509  471.0147
 510  676.9921
 511  748.6783
