# Input file       =  1193707102.15065_cleaned.dat
# Candidate        =  PSR_0332+5434
# Telescope        =  AR
# Epoch_topo       =  58060.054214706601
# Epoch_bary       =  N/A
# T_sample         =  0.002
# Data Folded      =  7340032
# Data Avg         =  0.0233703298476598
# Data StdDev      =  1.00007014964951 
# Profile Bins     =  512
# Profile Avg      =  335.095535971334 
# Profile StdDev   =  119.741435607303 
# Reduced chi-sqr  =  1.183
# Prob(Noise)      <  0.00269   (~2.8 sigma)
# P_topo (ms)      =  714.497935836828  +/- 0.000166
# P'_topo (s/s)    =  -0                +/- 8.75e-11
# P''_topo (s/s^2) =  0                 +/- 3.86e-14
# P_bary (ms)      =  N/A
# P'_bary (s/s)    =  N/A
# P''_bary (s/s^2) =  N/A
# P_orb (s)        =  N/A
# asin(i)/c (s)    =  N/A
# eccentricity     =  N/A
# w (rad)          =  N/A
# T_peri           =  N/A
######################################################
   0  952.6807
   1  852.8923
   2  726.3071
   3  543.1144
   4  372.2026
   5  348.8985
   6  332.0484
   7  352.3388
   8  303.7867
   9  329.6396
  10  304.2804
  11  388.2579
  12  406.8562
  13  389.0606
  14  372.956
  15  428.7995
  16  406.9656
  17  306.6487
  18  241.4787
  19  199.5463
  20  348.5849
  21  357.3839
  22  374.2828
  23  135.9032
  24  219.4675
  25  367.0305
  26  320.1324
  27  300.3067
  28  448.1017
  29  442.6739
  30  314.7503
  31  406.6631
  32  353.0802
  33  272.4005
  34  371.3545
  35  295.722
  36  399.6134
  37  194.2953
  38  162.3174
  39  288.7579
  40  282.6411
  41  208.6475
  42  328.1364
  43  320.2311
  44  343.2822
  45  180.3276
  46  114.2712
  47  190.3017
  48  237.399
  49  261.335
  50  252.2695
  51  262.3556
  52  302.4527
  53  246.1984
  54  235.8196
  55  302.9328
  56  328.2293
  57  306.2644
  58  279.1623
  59  229.6947
  60  185.3778
  61  180.9699
  62  302.7434
  63  337.2593
  64  347.7043
  65  248.5757
  66  170.5374
  67  349.7115
  68  558.1785
  69  482.8983
  70  409.6325
  71  396.912
  72  343.5809
  73  366.9613
  74  425.5477
  75  440.9569
  76  405.3613
  77  358.6557
  78  315.1454
  79  279.4572
  80  272.4879
  81  256.5709
  82  438.9174
  83  392.9124
  84  209.1043
  85  263.0654
  86  317.4206
  87  258.5119
  88  222.7496
  89  298.4322
  90  379.7433
  91  297.6311
  92  232.1229
  93  297.8696
  94  203.2079
  95  213.5776
  96  293.2732
  97  216.4742
  98  226.3777
  99  374.8384
 100  333.4169
 101  260.2023
 102  396.267
 103  533.415
 104  541.241
 105  500.7163
 106  306.5609
 107  223.2844
 108  132.017
 109  244.1174
 110  280.4185
 111  314.7864
 112  203.9285
 113  259.6129
 114  297.7148
 115  225.8044
 116  96.33253
 117  214.6316
 118  351.7323
 119  407.4662
 120  343.4829
 121  382.4462
 122  372.5993
 123  337.7735
 124  312.2241
 125  375.7732
 126  421.3182
 127  296.0608
 128  199.5735
 129  175.6988
 130  274.9311
 131  304.309
 132  281.3039
 133  197.4711
 134  125.9732
 135  364.0393
 136  365.8305
 137  366.7959
 138  358.255
 139  351.0711
 140  319.1235
 141  356.5067
 142  330.2208
 143  285.281
 144  343.0395
 145  210.8539
 146  203.5609
 147  314.9273
 148  357.8271
 149  350.3087
 150  293.413
 151  204.5149
 152  230.7429
 153  356.1213
 154  482.4257
 155  317.4119
 156  317.3265
 157  444.9481
 158  429.0524
 159  445.1579
 160  345.8036
 161  360.7727
 162  408.7912
 163  473.1761
 164  391.8868
 165  332.105
 166  276.3828
 167  328.1085
 168  319.1958
 169  398.5381
 170  345.6893
 171  335.5627
 172  304.5021
 173  354.1847
 174  332.7119
 175  311.6688
 176  271.8138
 177  232.6517
 178  313.8338
 179  351.1476
 180  253.7906
 181  327.5898
 182  407.1629
 183  304.7826
 184  278.5522
 185  376.818
 186  397.8253
 187  255.9705
 188  190.0647
 189  361.6284
 190  345.0678
 191  451.529
 192  368.4388
 193  326.2644
 194  232.5665
 195  240.2334
 196  289.5526
 197  311.2897
 198  329.8493
 199  370.1743
 200  423.2594
 201  352.4413
 202  259.106
 203  373.1363
 204  408.1957
 205  304.7828
 206  321.353
 207  374.0146
 208  498.5291
 209  423.1385
 210  337.3096
 211  253.7661
 212  306.7843
 213  138.9835
 214  102.8279
 215  244.4622
 216  308.2593
 217  322.3454
 218  261.5891
 219  330.6754
 220  252.5436
 221  307.4533
 222  281.6134
 223  361.9061
 224  336.1667
 225  369.882
 226  404.0897
 227  388.328
 228  370.088
 229  419.1254
 230  274.2088
 231  202.1404
 232  348.3961
 233  367.5679
 234  334.1106
 235  334.2166
 236  322.0967
 237  280.7011
 238  356.1696
 239  204.5317
 240  198.2311
 241  321.6388
 242  391.8041
 243  343.5719
 244  414.0346
 245  429.8655
 246  471.0616
 247  428.9956
 248  447.1203
 249  381.9164
 250  319.9879
 251  474.7561
 252  348.3822
 253  227.9618
 254  266.1488
 255  279.781
 256  302.7404
 257  281.8922
 258  389.8179
 259  380.4427
 260  330.9551
 261  371.9038
 262  513.9542
 263  402.5452
 264  336.8038
 265  389.0358
 266  355.3894
 267  298.0252
 268  372.4017
 269  370.5885
 270  313.1385
 271  303.6322
 272  303.4716
 273  286.1452
 274  292.6803
 275  344.6536
 276  506.7036
 277  425.1443
 278  338.5987
 279  292.3898
 280  334.5679
 281  372.0441
 282  412.5482
 283  390.3624
 284  514.5361
 285  490.8475
 286  397.7608
 287  306.4449
 288  387.8687
 289  372.7096
 290  319.3346
 291  262.1342
 292  318.0991
 293  398.2844
 294  489.8204
 295  396.5502
 296  357.0425
 297  276.1863
 298  375.8672
 299  323.3855
 300  145.9579
 301  246.5554
 302  274.0415
 303  352.306
 304  474.8871
 305  345.5247
 306  508.3749
 307  511.7466
 308  393.7346
 309  373.9514
 310  350.2491
 311  366.8407
 312  418.5781
 313  379.2762
 314  354.9179
 315  319.6424
 316  340.9311
 317  417.9453
 318  432.2464
 319  359.0681
 320  286.046
 321  229.3715
 322  283.992
 323  428.3925
 324  351.0515
 325  372.2428
 326  374.1759
 327  323.6544
 328  190.3738
 329  212.173
 330  226.2563
 331  276.2194
 332  296.9113
 333  254.1799
 334  123.2039
 335  254.0348
 336  309.1202
 337  358.0874
 338  298.8809
 339  274.9708
 340  291.5369
 341  156.233
 342  384.9205
 343  400.1709
 344  329.9143
 345  409.4772
 346  402.0663
 347  332.4445
 348  409.9631
 349  401.0866
 350  385.6815
 351  244.2413
 352  223.938
 353  397.8643
 354  352.4967
 355  246.0218
 356  402.3669
 357  352.6363
 358  398.1059
 359  360.9416
 360  369.9053
 361  382.6292
 362  381.3682
 363  352.6875
 364  324.1656
 365  416.7458
 366  406.9707
 367  280.6465
 368  300.9087
 369  374.9947
 370  250.4918
 371  168.8282
 372  356.0708
 373  404.6993
 374  472.8733
 375  395.189
 376  307.0363
 377  354.6909
 378  337.7875
 379  301.8687
 380  346.036
 381  314.622
 382  452.6046
 383  276.5873
 384  251.992
 385  329.2363
 386  317.2226
 387  369.8487
 388  333.7857
 389  378.2428
 390  424.3101
 391  410.2188
 392  387.3938
 393  300.5435
 394  379.3279
 395  375.5079
 396  305.7702
 397  184.7059
 398  303.5174
 399  328.7027
 400  284.6165
 401  391.2245
 402  359.2255
 403  400.8548
 404  403.2048
 405  286.5421
 406  317.197
 407  289.8102
 408  418.8363
 409  390.3513
 410  355.5862
 411  298.5215
 412  279.9426
 413  240.5719
 414  351.4713
 415  323.5252
 416  389.8935
 417  422.7708
 418  332.8722
 419  335.2589
 420  269.0401
 421  364.6476
 422  289.2794
 423  356.503
 424  415.2375
 425  339.7062
 426  376.8896
 427  242.192
 428  148.4046
 429  303.5816
 430  341.9765
 431  437.5093
 432  480.121
 433  434.618
 434  487.9185
 435  397.9502
 436  387.0923
 437  243.2816
 438  268.2169
 439  241.6649
 440  211.5157
 441  295.2959
 442  402.9236
 443  417.6728
 444  286.3846
 445  361.781
 446  351.041
 447  302.0788
 448  276.9539
 449  338.4203
 450  482.1048
 451  551.6913
 452  438.2896
 453  211.4393
 454  358.7539
 455  339.19
 456  248.8423
 457  313.577
 458  246.2734
 459  339.8615
 460  338.5211
 461  168.0863
 462  220.3751
 463  311.3995
 464  311.0246
 465  346.5944
 466  390.6734
 467  379.6337
 468  287.0186
 469  308.7317
 470  388.0357
 471  409.3294
 472  338.8177
 473  304.3911
 474  345.4222
 475  385.3488
 476  256.2987
 477  258.0003
 478  314.7581
 479  321.9386
 480  353.7892
 481  355.2891
 482  214.6109
 483  205.9642
 484  291.8664
 485  322.9078
 486  451.9612
 487  356.3966
 488  278.7955
 489  251.45
 490  291.9627
 491  324.5118
 492  365.0092
 493  352.1221
 494  376.1996
 495  423.4329
 496  372.3866
 497  216.8066
 498  275.6141
 499  209.8754
 500  318.3297
 501  417.7646
 502  438.1514
 503  231.8128
 504  155.8889
 505  221.2273
 506  339.6725
 507  448.8858
 508  514.3475
 509  567.4742
 510  735.1309
 511  898.6946
