# Input file       =  1193606032.151142_cleaned.dat
# Candidate        =  PSR_0332+5434
# Telescope        =  AR
# Epoch_topo       =  58058.884423045623
# Epoch_bary       =  N/A
# T_sample         =  0.002
# Data Folded      =  7340032
# Data Avg         =  0.0234529973238291
# Data StdDev      =  0.999848194209533
# Profile Bins     =  512
# Profile Avg      =  336.224881722696 
# Profile StdDev   =  119.714860208534 
# Reduced chi-sqr  =  1.566
# Prob(Noise)      <  3.83e-15   (~7.8 sigma)
# P_topo (ms)      =  714.496522667608  +/- 0.000232
# P'_topo (s/s)    =  -0                +/- 1.22e-10
# P''_topo (s/s^2) =  0                 +/- 5.41e-14
# P_bary (ms)      =  N/A
# P'_bary (s/s)    =  N/A
# P''_bary (s/s^2) =  N/A
# P_orb (s)        =  N/A
# asin(i)/c (s)    =  N/A
# eccentricity     =  N/A
# w (rad)          =  N/A
# T_peri           =  N/A
######################################################
   0  986.5657
   1  1011.638
   2  939.3596
   3  731.678
   4  617.5267
   5  550.9537
   6  514.0994
   7  419.4951
   8  400.6223
   9  444.7439
  10  473.4142
  11  373.5539
  12  403.7347
  13  442.7265
  14  314.699
  15  381.8972
  16  334.792
  17  402.2802
  18  377.5019
  19  185.4921
  20  267.0675
  21  353.0297
  22  247.2513
  23  307.1236
  24  283.8357
  25  258.6299
  26  271.7001
  27  282.6771
  28  361.6098
  29  292.0064
  30  377.7489
  31  408.6171
  32  264.4017
  33  241.1531
  34  404.309
  35  379.7357
  36  330.1645
  37  370.1088
  38  313.5612
  39  345.7962
  40  329.188
  41  247.6338
  42  278.4724
  43  205.3221
  44  237.0964
  45  386.6939
  46  575.1319
  47  403.5399
  48  285.325
  49  291.0543
  50  256.9222
  51  238.7082
  52  294.9755
  53  381.7311
  54  304.6847
  55  271.4009
  56  258.0194
  57  335.0771
  58  187.0632
  59  293.6819
  60  283.8712
  61  356.0547
  62  291.4989
  63  278.5694
  64  454.0246
  65  429.1888
  66  251.3407
  67  304.9274
  68  309.4214
  69  270.1832
  70  302.2075
  71  268.2954
  72  331.9766
  73  227.3153
  74  147.1891
  75  319.6318
  76  398.2193
  77  366.3519
  78  266.2236
  79  275.4029
  80  237.2097
  81  342.0822
  82  247.8843
  83  330.3004
  84  454.4834
  85  342.2241
  86  296.6868
  87  380.9676
  88  393.3818
  89  263.0769
  90  150.6863
  91  213.8191
  92  324.6575
  93  290.4618
  94  329.9815
  95  293.1365
  96  325.9595
  97  335.3556
  98  288.2019
  99  283.6499
 100  369.0214
 101  411.4198
 102  371.9927
 103  376.0212
 104  392.3792
 105  262.5928
 106  319.4758
 107  370.2615
 108  272.1446
 109  221.7158
 110  332.4022
 111  450.2495
 112  379.1746
 113  255.9451
 114  326.084
 115  364.6625
 116  308.7838
 117  343.2578
 118  385.3206
 119  321.4794
 120  305.5166
 121  383.9111
 122  348.4488
 123  318.6165
 124  292.924
 125  140.696
 126  201.7477
 127  266.3712
 128  340.0683
 129  352.7176
 130  362.4182
 131  395.4409
 132  355.8112
 133  282.1166
 134  181.0005
 135  260.0143
 136  302.773
 137  302.2754
 138  367.095
 139  509.5208
 140  443.7888
 141  349.6822
 142  412.4536
 143  355.4065
 144  329.502
 145  318.9239
 146  266.0154
 147  280.4408
 148  408.9747
 149  484.6967
 150  410.4844
 151  438.9568
 152  229.3903
 153  246.4479
 154  317.2955
 155  309.2065
 156  409.2361
 157  452.4566
 158  225.2493
 159  167.1436
 160  401.8759
 161  405.1426
 162  325.6117
 163  415.0044
 164  486.3323
 165  321.5897
 166  227.3926
 167  268.1178
 168  328.1677
 169  321.3778
 170  271.4103
 171  257.5801
 172  381.657
 173  355.1266
 174  371.3781
 175  288.7343
 176  286.362
 177  211.6314
 178  202.6391
 179  316.2561
 180  243.1119
 181  278.0798
 182  369.3051
 183  330.2683
 184  198.5171
 185  227.7307
 186  267.0869
 187  227.5961
 188  266.7469
 189  302.6535
 190  268.0598
 191  397.8474
 192  336.0365
 193  286.1787
 194  348.9903
 195  325.9072
 196  405.8067
 197  305.7618
 198  147.0508
 199  336.8678
 200  404.6388
 201  435.2214
 202  323.739
 203  343.0708
 204  188.6558
 205  206.3031
 206  205.3675
 207  118.4851
 208  238.7034
 209  238.0244
 210  368.5295
 211  274.2518
 212  335.0137
 213  515.7726
 214  372.5211
 215  314.3026
 216  298.7234
 217  246.379
 218  237.4829
 219  293.1538
 220  327.9905
 221  236.0259
 222  163.0921
 223  252.6979
 224  339.0813
 225  206.8436
 226  236.8833
 227  126.3198
 228  146.6649
 229  255.9742
 230  249.8128
 231  211.0226
 232  266.3398
 233  325.6761
 234  267.2081
 235  263.9176
 236  472.3859
 237  420.9074
 238  277.736
 239  270.9377
 240  258.2531
 241  273.0521
 242  101.1284
 243  196.9576
 244  367.0674
 245  208.7747
 246  261.3145
 247  268.9332
 248  218.1348
 249  259.3615
 250  264.9539
 251  320.8947
 252  217.3492
 253  369.3291
 254  322.1765
 255  175.4292
 256  302.7765
 257  233.4429
 258  312.8547
 259  296.2482
 260  296.8904
 261  340.2356
 262  405.8474
 263  399.6677
 264  352.4341
 265  224.0252
 266  367.2975
 267  584.1514
 268  480.15
 269  251.5926
 270  172.5344
 271  343.4935
 272  300.4241
 273  492.2294
 274  507.356
 275  397.9699
 276  258.6263
 277  341.2051
 278  379.426
 279  375.929
 280  365.9737
 281  333.1275
 282  345.2019
 283  244.2784
 284  284.6629
 285  325.6321
 286  289.9507
 287  324.2838
 288  250.9341
 289  287.2485
 290  290.1163
 291  272.8394
 292  260.4785
 293  213.5504
 294  114.9427
 295  242.5519
 296  379.0027
 297  407.9023
 298  416.2281
 299  486.0967
 300  315.7805
 301  287.4837
 302  305.4099
 303  248.9808
 304  289.9702
 305  338.8893
 306  389.7811
 307  443.8672
 308  369.4137
 309  299.5423
 310  380.1163
 311  291.388
 312  134.1972
 313  115.9553
 314  269.7553
 315  386.1141
 316  247.1888
 317  142.5334
 318  124.6298
 319  254.7989
 320  352.0326
 321  309.5688
 322  287.9217
 323  251.1447
 324  235.1818
 325  224.4408
 326  268.9172
 327  296.4225
 328  321.1339
 329  388.2344
 330  371.2604
 331  353.9892
 332  326.1187
 333  362.5028
 334  319.6836
 335  236.7317
 336  296.5446
 337  191.0423
 338  238.9384
 339  369.9818
 340  358.9865
 341  263.7759
 342  317.9536
 343  337.0247
 344  319.5604
 345  339.7061
 346  363.1936
 347  307.6819
 348  356.0851
 349  401.0717
 350  197.4196
 351  183.2414
 352  325.5111
 353  271.4223
 354  192.6004
 355  248.7752
 356  143.3062
 357  223.5064
 358  282.308
 359  196.4531
 360  342.8416
 361  323.1267
 362  269.7434
 363  181.7288
 364  262.5103
 365  342.7617
 366  250.3414
 367  210.0457
 368  113.1123
 369  177.4584
 370  283.1146
 371  267.4508
 372  356.9102
 373  338.2724
 374  378.3932
 375  316.6644
 376  444.4132
 377  360.0652
 378  290.7572
 379  131.7769
 380  274.3031
 381  386.3926
 382  425.8836
 383  499.4989
 384  460.1883
 385  434.0417
 386  313.0393
 387  307.1954
 388  279.9751
 389  269.2652
 390  233.2415
 391  279.2034
 392  348.1643
 393  258.6469
 394  366.591
 395  273.497
 396  247.2235
 397  261.1216
 398  270.5902
 399  354.2689
 400  346.9026
 401  418.2306
 402  331.3881
 403  321.4266
 404  322.3299
 405  411.0773
 406  306.458
 407  380.7356
 408  475.6189
 409  480.2284
 410  423.0116
 411  268.4315
 412  264.7344
 413  450.7527
 414  506.8574
 415  470.5544
 416  387.3331
 417  447.1925
 418  500.0001
 419  408.0069
 420  403.092
 421  472.2486
 422  448.5989
 423  473.2951
 424  436.1425
 425  440.1912
 426  473.5592
 427  532.4033
 428  419.9865
 429  286.191
 430  326.1333
 431  390.6999
 432  456.978
 433  355.2362
 434  201.6303
 435  379.8603
 436  373.4456
 437  316.7863
 438  265.8235
 439  370.9964
 440  427.1419
 441  468.5808
 442  351.774
 443  373.7845
 444  317.1168
 445  430.8345
 446  423.3112
 447  399.8352
 448  432.2138
 449  456.1705
 450  434.7872
 451  350.9737
 452  361.2944
 453  302.9422
 454  303.7633
 455  447.8553
 456  322.4698
 457  339.4151
 458  466.7466
 459  460.5892
 460  294.4533
 461  317.7942
 462  355.4981
 463  470.5842
 464  428.8894
 465  352.4116
 466  318.1688
 467  328.56
 468  429.3444
 469  388.0517
 470  329.2483
 471  381.3716
 472  367.0783
 473  451.9274
 474  395.1916
 475  276.3374
 476  397.0336
 477  422.813
 478  357.6705
 479  414.9812
 480  236.0777
 481  215.834
 482  298.3022
 483  502.4379
 484  490.5019
 485  410.9345
 486  339.3575
 487  421.4666
 488  448.9424
 489  492.952
 490  407.6713
 491  512.9711
 492  549.2738
 493  459.2932
 494  462.6129
 495  459.1027
 496  356.3812
 497  355.6142
 498  437.1278
 499  425.4182
 500  410.8798
 501  408.6304
 502  432.2012
 503  360.2764
 504  269.9895
 505  355.3631
 506  383.1397
 507  589.3279
 508  628.8381
 509  602.5116
 510  755.0714
 511  955.5571
