# Input file       =  1193606032.151142_cleaned.dat
# Candidate        =  PSR_0332+5434
# Telescope        =  AR
# Epoch_topo       =  58058.884423045623
# Epoch_bary       =  N/A
# T_sample         =  0.002
# Data Folded      =  7340032
# Data Avg         =  0.0234529973238291
# Data StdDev      =  0.999848194209533
# Profile Bins     =  512
# Profile Avg      =  336.224881721911 
# Profile StdDev   =  119.714860208534 
# Reduced chi-sqr  =  1.560
# Prob(Noise)      <  7.13e-15   (~7.7 sigma)
# P_topo (ms)      =  714.496522733514  +/- 0.000235
# P'_topo (s/s)    =  -0                +/- 1.24e-10
# P''_topo (s/s^2) =  0                 +/- 5.48e-14
# P_bary (ms)      =  N/A
# P'_bary (s/s)    =  N/A
# P''_bary (s/s^2) =  N/A
# P_orb (s)        =  N/A
# asin(i)/c (s)    =  N/A
# eccentricity     =  N/A
# w (rad)          =  N/A
# T_peri           =  N/A
######################################################
   0  1019.194
   1  989.8748
   2  808.9177
   3  665.7278
   4  540.7657
   5  578.5804
   6  437.0796
   7  424.5234
   8  395.9367
   9  481.9317
  10  406.754
  11  373.6834
  12  457.1112
  13  369.8789
  14  346.6531
  15  375.9833
  16  341.1839
  17  441.4979
  18  229.7423
  19  214.1308
  20  337.8874
  21  302.1219
  22  266.2864
  23  310.2627
  24  246.7344
  25  293.1301
  26  235.465
  27  364.4333
  28  310.7177
  29  335.0987
  30  416.0508
  31  329.2743
  32  215.9584
  33  338.8088
  34  416.3483
  35  341.6723
  36  324.2668
  37  380.648
  38  286.1008
  39  394.6826
  40  235.1599
  41  287.8081
  42  231.0056
  43  220.7644
  44  296.4142
  45  521.962
  46  505.8813
  47  312.8416
  48  273.0869
  49  287.2369
  50  233.6451
  51  274.9883
  52  338.2046
  53  361.5025
  54  267.538
  55  272.0287
  56  310.4933
  57  237.9863
  58  235.9222
  59  295.4011
  60  326.007
  61  334.6559
  62  268.9646
  63  362.6738
  64  483.1991
  65  295.3679
  66  278.4001
  67  339.0398
  68  266.8254
  69  298.0615
  70  249.5244
  71  343.1233
  72  278.6926
  73  153.9447
  74  230.1947
  75  371.9836
  76  419.3288
  77  287.0904
  78  285.2737
  79  213.5509
  80  313.9879
  81  287.8195
  82  282.6084
  83  410.6522
  84  413.2855
  85  305.7184
  86  325.4594
  87  420.3707
  88  292.6766
  89  219.2359
  90  147.768
  91  321.4153
  92  282.8091
  93  318.0173
  94  303.0829
  95  304.5672
  96  332.3981
  97  328.2713
  98  274.6913
  99  331.9487
 100  394.3342
 101  392.9757
 102  361.1573
 103  422.7642
 104  294.2076
 105  277.1801
 106  367.6611
 107  334.4916
 108  205.8619
 109  284.9574
 110  416.433
 111  444.5562
 112  280.3181
 113  265.8728
 114  369.5387
 115  330.3148
 116  317.4464
 117  389.0202
 118  360.4649
 119  291.3591
 120  353.7611
 121  370.4478
 122  325.9115
 123  315.1458
 124  208.2808
 125  131.8844
 126  256.8302
 127  299.1468
 128  369.3911
 129  349.7866
 130  389.2103
 131  364.1422
 132  349.2818
 133  186.37
 134  232.0273
 135  272.2368
 136  319.9173
 137  315.7535
 138  457.8842
 139  507.4626
 140  345.8699
 141  427.2043
 142  352.9866
 143  360.3256
 144  288.3356
 145  329.9171
 146  247.2338
 147  337.709
 148  470.1907
 149  438.1759
 150  450.247
 151  320.7551
 152  209.0737
 153  295.9746
 154  318.3158
 155  333.9035
 156  473.8904
 157  337.5479
 158  163.2483
 159  277.4351
 160  456.1122
 161  336.7122
 162  359.8658
 163  482.3184
 164  413.3372
 165  242.7647
 166  245.2843
 167  311.3474
 168  328.2508
 169  299.0732
 170  228.273
 171  340.545
 172  367.1968
 173  367.9534
 174  333.5518
 175  282.2676
 176  258.9954
 177  163.5931
 178  284.6914
 179  269.0526
 180  264.913
 181  313.3189
 182  400.6781
 183  225.5777
 184  226.3094
 185  250.7288
 186  242.4447
 187  240.8125
 188  295.1607
 189  289.9742
 190  316.8581
 191  397.2057
 192  269.9457
 193  342.0337
 194  324.9202
 195  362.9433
 196  396.6218
 197  164.9158
 198  263.668
 199  367.6181
 200  465.3698
 201  334.4453
 202  363.2329
 203  253.8125
 204  172.2932
 205  240.4993
 206  115.4797
 207  211.5797
 208  206.9517
 209  333.9493
 210  329.9674
 211  273.2198
 212  463.0023
 213  434.1884
 214  310.9514
 215  320.3396
 216  271.189
 217  239.9156
 218  273.5451
 219  316.9374
 220  294.5387
 221  162.2308
 222  212.8319
 223  323.8393
 224  271.976
 225  200.693
 226  189.9537
 227  116.6025
 228  211.4157
 229  277.61
 230  213.0497
 231  245.0863
 232  291.3661
 233  317.9231
 234  221.5387
 235  393.1922
 236  479.1656
 237  317.1036
 238  290.6489
 239  241.7842
 240  295.6194
 241  165.602
 242  106.1239
 243  331.5789
 244  282.5046
 245  219.9023
 246  284.8966
 247  228.8271
 248  246.3366
 249  242.2038
 250  329.6949
 251  238.1158
 252  309.0211
 253  385.4128
 254  198.6417
 255  247.3575
 256  275.3715
 257  264.4538
 258  319.9377
 259  289.6981
 260  310.9005
 261  379.9059
 262  412.1177
 263  379.724
 264  264.4352
 265  259.8639
 266  520.7487
 267  559.8931
 268  360.1919
 269  166.3444
 270  290.2683
 271  302.853
 272  389.4944
 273  521.5499
 274  481.6078
 275  297.2184
 276  289.2419
 277  370.7371
 278  376.5922
 279  388.1582
 280  326.7223
 281  358.2296
 282  271.982
 283  272.2218
 284  304.3799
 285  301.4125
 286  316.6897
 287  282.0783
 288  272.3024
 289  273.3693
 290  293.4627
 291  260.7143
 292  269.0389
 293  131.0674
 294  176.02
 295  306.1821
 296  433.9842
 297  378.7746
 298  483.1905
 299  401.1196
 300  277.684
 301  309.6823
 302  262.3024
 303  254.0525
 304  320.7299
 305  372.0979
 306  428.9839
 307  411.5533
 308  321.1445
 309  347.8965
 310  358.4286
 311  191.1065
 312  78.7358
 313  200.4395
 314  358.7479
 315  336.0306
 316  170.9689
 317  124.2479
 318  179.1967
 319  331.7585
 320  316.2008
 321  320.2433
 322  257.7324
 323  242.8222
 324  225.6632
 325  235.7473
 326  284.5623
 327  311.2769
 328  365.7939
 329  388.1917
 330  360.6778
 331  319.6693
 332  357.9993
 333  353.6886
 334  268.9928
 335  251.254
 336  274.5736
 337  164.0967
 338  339.1944
 339  378.5621
 340  296.2335
 341  277.5089
 342  343.6682
 343  327.0593
 344  330.5203
 345  356.7851
 346  324.023
 347  328.8113
 348  407.6335
 349  307.4097
 350  131.9309
 351  260.7014
 352  342.3611
 353  187.0621
 354  262.3032
 355  164.7991
 356  172.8466
 357  282.2802
 358  211.7295
 359  284.8186
 360  351.0109
 361  304.1541
 362  196.921
 363  194.9552
 364  332.3832
 365  307.0831
 366  222.4828
 367  171.6041
 368  111.3131
 369  263.5172
 370  265.8577
 371  315.0594
 372  348.3397
 373  361.1717
 374  329.0015
 375  393.5461
 376  403.4807
 377  340.9494
 378  185.2563
 379  207.4154
 380  342.8528
 381  405.4265
 382  469.9438
 383  474.2238
 384  464.8855
 385  331.8863
 386  332.0362
 387  271.4012
 388  302.3316
 389  227.4857
 390  260.4975
 391  341.58
 392  265.6288
 393  335.9112
 394  314.1034
 395  264.2517
 396  244.7752
 397  265.573
 398  312.0143
 399  367.3138
 400  365.8649
 401  383.368
 402  312.063
 403  322.6754
 404  389.2647
 405  356.3039
 406  325.9017
 407  442.4458
 408  495.4836
 409  440.5072
 410  346.3662
 411  223.4373
 412  388.8837
 413  496.8791
 414  490.2936
 415  424.5322
 416  387.9791
 417  505.064
 418  444.0024
 419  384.2045
 420  450.7005
 421  475.45
 422  454.5027
 423  467.7538
 424  423.3887
 425  474.1109
 426  484.8486
 427  510.6738
 428  305.8363
 429  321.7325
 430  345.6015
 431  441.1642
 432  412.2954
 433  249.4425
 434  285.8075
 435  425.462
 436  312.2052
 437  284.0427
 438  307.0868
 439  412.479
 440  476.0699
 441  391.717
 442  370.2073
 443  317.2703
 444  388.1576
 445  437.5685
 446  416.4755
 447  418.5225
 448  442.8945
 449  446.6622
 450  380.806
 451  352.6372
 452  340.9517
 453  275.4092
 454  393.259
 455  412.5001
 456  282.9528
 457  429.3453
 458  489.6919
 459  361.6431
 460  283.6246
 461  330.2446
 462  425.6588
 463  470.907
 464  366.257
 465  347.5229
 466  291.6295
 467  399.3785
 468  421.5868
 469  363.2277
 470  331.8657
 471  384.8724
 472  403.2785
 473  460.0985
 474  300.6198
 475  311.0391
 476  463.9046
 477  357.9606
 478  419.0253
 479  312.8917
 480  208.5145
 481  241.2345
 482  425.0346
 483  505.9863
 484  464.5758
 485  350.2664
 486  388.5286
 487  425.1921
 488  489.6407
 489  436.8424
 490  438.2357
 491  567.2327
 492  492.8769
 493  452.2134
 494  480.4545
 495  397.5577
 496  333.0784
 497  417.3884
 498  421.4044
 499  428.191
 500  382.7383
 501  448.6229
 502  400.9561
 503  311.2526
 504  294.1768
 505  378.6733
 506  476.6031
 507  652.3351
 508  599.466
 509  653.5441
 510  891.6876
 511  970.227
