# Input file       =  1193677587.15639_cleaned.dat
# Candidate        =  PSR_0332+5434
# Telescope        =  AR
# Epoch_topo       =  58059.712605976732
# Epoch_bary       =  N/A
# T_sample         =  0.002
# Data Folded      =  7143424
# Data Avg         =  0.0175602049233961
# Data StdDev      =  1.00028357811061 
# Profile Bins     =  512
# Profile Avg      =  245.030997546272 
# Profile StdDev   =  118.152080326883 
# Reduced chi-sqr  =  1.540
# Prob(Noise)      <  4.25e-14   (~7.5 sigma)
# P_topo (ms)      =  714.497278665524  +/- 0.000212
# P'_topo (s/s)    =  -0                +/- 1.15e-10
# P''_topo (s/s^2) =  0                 +/- 5.21e-14
# P_bary (ms)      =  N/A
# P'_bary (s/s)    =  N/A
# P''_bary (s/s^2) =  N/A
# P_orb (s)        =  N/A
# asin(i)/c (s)    =  N/A
# eccentricity     =  N/A
# w (rad)          =  N/A
# T_peri           =  N/A
######################################################
   0  1062.559
   1  890.2545
   2  882.0703
   3  638.7398
   4  463.5522
   5  228.196
   6  211.3304
   7  159.3703
   8  166.8423
   9  249.8825
  10  301.4983
  11  224.8622
  12  336.5866
  13  342.8765
  14  379.9391
  15  233.1799
  16  329.4332
  17  306.654
  18  294.6654
  19  233.5934
  20  332.7503
  21  300.3162
  22  143.501
  23  184.1147
  24  276.3127
  25  376.9234
  26  437.6529
  27  427.6313
  28  278.5103
  29  188.8191
  30  303.837
  31  308.2678
  32  380.9474
  33  446.0876
  34  273.1009
  35  158.8977
  36  264.8734
  37  326.5863
  38  307.8581
  39  206.8207
  40  193.0574
  41  295.256
  42  269.6805
  43  190.2489
  44  257.7507
  45  273.1013
  46  140.022
  47  300.8726
  48  300.482
  49  143.8144
  50  117.7994
  51  189.29
  52  134.073
  53  276.925
  54  230.747
  55  261.7596
  56  219.9689
  57  203.931
  58  216.0432
  59  292.8438
  60  410.1028
  61  428.1429
  62  351.4479
  63  393.0807
  64  426.7695
  65  372.8067
  66  348.3383
  67  371.8389
  68  241.8228
  69  314.4626
  70  318.0313
  71  253.5859
  72  227.6196
  73  248.1903
  74  292.0365
  75  387.3596
  76  340.5798
  77  412.8189
  78  385.805
  79  266.9861
  80  272.3611
  81  279.3038
  82  358.173
  83  210.4072
  84  126.8164
  85  240.8707
  86  241.6421
  87  204.0919
  88  189.9765
  89  274.5275
  90  163.7661
  91  222.7485
  92  225.9674
  93  170.6638
  94  314.2643
  95  261.9914
  96  198.3311
  97  211.3226
  98  319.1925
  99  283.9065
 100  167.0931
 101  234.8153
 102  250.3424
 103  282.7127
 104  222.1527
 105  171.6867
 106  136.47
 107  209.8874
 108  212.5593
 109  289.0617
 110  196.6817
 111  307.0797
 112  285.7337
 113  336.0345
 114  198.9764
 115  324.9018
 116  375.9746
 117  281.8693
 118  198.9986
 119  82.56261
 120  2.373165
 121  164.8788
 122  308.4043
 123  213.8897
 124  190.3062
 125  146.1852
 126  160.9398
 127  216.6291
 128  320.9991
 129  350.7521
 130  188.6644
 131  78.61937
 132  80.90186
 133  62.9837
 134  202.8111
 135  345.3654
 136  296.0871
 137  268.0526
 138  266.4208
 139  236.8423
 140  254.7568
 141  137.8374
 142  178.7896
 143  276.5332
 144  249.7704
 145  382.847
 146  295.1724
 147  299.8456
 148  331.4557
 149  354.3612
 150  272.1545
 151  254.949
 152  278.9985
 153  276.3775
 154  232.5568
 155  147.7539
 156  184.9471
 157  245.1404
 158  218.022
 159  207.67
 160  220.7752
 161  214.2149
 162  208.4588
 163  217.5081
 164  257.6827
 165  363.5601
 166  211.485
 167  156.7737
 168  263.3337
 169  193.7183
 170  174.4594
 171  204.9929
 172  202.1784
 173  112.9525
 174  195.0703
 175  388.2296
 176  322.4054
 177  165.4849
 178  286.7725
 179  289.0755
 180  300.4478
 181  375.7398
 182  375.1093
 183  293.0304
 184  263.9262
 185  279.471
 186  207.5614
 187  126.6087
 188  192.4613
 189  246.833
 190  188.341
 191  161.302
 192  102.8247
 193  246.8693
 194  293.9297
 195  251.2535
 196  205.686
 197  68.06081
 198  244.7242
 199  357.4215
 200  430.7307
 201  292.0416
 202  428.65
 203  388.3163
 204  352.8428
 205  271.4382
 206  225.0324
 207  223.1892
 208  164.0234
 209  199.6888
 210  380.7555
 211  390.2087
 212  197.3524
 213  125.8705
 214  153.8816
 215  299.4736
 216  228.115
 217  155.0656
 218  276.8235
 219  253.7625
 220  278.3286
 221  321.3871
 222  279.5886
 223  247.3285
 224  253.4995
 225  162.066
 226  191.7904
 227  290.2361
 228  298.8671
 229  359.6369
 230  374.7849
 231  244.9213
 232  246.3938
 233  254.9083
 234  242.1847
 235  185.2849
 236  195.813
 237  162.0713
 238  315.8686
 239  453.2754
 240  379.5488
 241  274.1627
 242  138.5458
 243  184.767
 244  255.4854
 245  228.674
 246  119.4073
 247  196.4423
 248  267.9426
 249  356.3756
 250  214.6634
 251  214.363
 252  281.8459
 253  171.6486
 254  205.1896
 255  404.4344
 256  187.036
 257  193.4551
 258  348.6311
 259  286.2758
 260  163.7837
 261  224.8513
 262  280.9321
 263  259.9653
 264  142.5663
 265  312.0672
 266  303.8836
 267  302.2854
 268  324.5842
 269  277.9155
 270  348.6426
 271  421.1967
 272  316.9561
 273  102.7298
 274  290.8223
 275  384.3353
 276  290.5734
 277  147.7926
 278  123.4326
 279  219.5209
 280  195.5882
 281  187.0886
 282  208.4211
 283  272.785
 284  362.1402
 285  202.6779
 286  108.396
 287  87.5958
 288  253.7865
 289  329.3135
 290  201.165
 291  196.5946
 292  164.123
 293  193.7605
 294  250.5202
 295  407.2094
 296  276.938
 297  246.6708
 298  218.8614
 299  259.9058
 300  166.7456
 301  105.7575
 302  150.5056
 303  178.6093
 304  211.6846
 305  209.119
 306  293.3765
 307  201.434
 308  215.9869
 309  107.4464
 310  130.8242
 311  103.7849
 312  6.157196
 313  174.8022
 314  163.2441
 315  84.71078
 316  39.97298
 317  185.3187
 318  203.2768
 319  245.3798
 320  185.934
 321  206.985
 322  174.2244
 323  82.64886
 324  184.8755
 325  138.0547
 326  110.9639
 327  107.9803
 328  146.6268
 329  162.9107
 330  175.6624
 331  281.673
 332  222.6358
 333  246.5432
 334  332.2866
 335  263.5625
 336  273.21
 337  139.4969
 338  205.0569
 339  203.7637
 340  147.7488
 341  246.6623
 342  256.2766
 343  116.0035
 344  220.3919
 345  114.9673
 346  161.9704
 347  244.952
 348  184.9856
 349  313.7893
 350  274.8553
 351  207.4502
 352  232.7098
 353  215.6188
 354  361.5702
 355  413.0359
 356  252.6444
 357  206.1364
 358  217.1404
 359  140.3466
 360  201.0667
 361  154.3598
 362  143.8398
 363  85.53447
 364  109.5861
 365  139.1349
 366  168.6864
 367  37.92033
 368  155.0564
 369  302.784
 370  170.1345
 371  85.29622
 372  234.9509
 373  245.801
 374  184.9427
 375  137.2849
 376  231.3813
 377  239.8
 378  420.4764
 379  291.394
 380  141.3209
 381  85.11526
 382  201.4216
 383  259.0143
 384  253.3564
 385  322.8966
 386  411.0195
 387  362.0804
 388  244.1865
 389  157.9056
 390  295.0424
 391  223.4411
 392  236.6142
 393  439.1977
 394  300.0764
 395  179.0282
 396  122.3184
 397  259.7122
 398  273.8194
 399  209.4942
 400  232.1634
 401  246.49
 402  235.0607
 403  353.486
 404  324.7303
 405  178.4015
 406  266.0861
 407  233.954
 408  275.4847
 409  266.2276
 410  272.44
 411  151.4089
 412  224.794
 413  162.0891
 414  127.1083
 415  212.981
 416  280.8811
 417  239.7024
 418  204.0921
 419  153.7422
 420  200.47
 421  225.8264
 422  213.1503
 423  168.8185
 424  39.13873
 425  -17.90589
 426  132.6303
 427  258.289
 428  250.6004
 429  210.1662
 430  140.8219
 431  180.2346
 432  86.98774
 433  187.0018
 434  201.1212
 435  149.121
 436  177.3484
 437  147.307
 438  245.7386
 439  101.0041
 440  133.1788
 441  282.3105
 442  295.4637
 443  258.8158
 444  247.0551
 445  194.037
 446  203.7509
 447  125.72
 448  198.5777
 449  179.2983
 450  134.431
 451  203.2757
 452  109.0962
 453  24.70282
 454  152.197
 455  363.5896
 456  276.4499
 457  269.6367
 458  227.947
 459  147.257
 460  149.1317
 461  198.6033
 462  200.2589
 463  194.0371
 464  246.3055
 465  244.3575
 466  305.7909
 467  204.4404
 468  100.2294
 469  113.2718
 470  79.01014
 471  153.7022
 472  223.4648
 473  157.3563
 474  150.9925
 475  278.7679
 476  295.5768
 477  283.2469
 478  188.8585
 479  233.9723
 480  208.9679
 481  171.565
 482  234.3703
 483  309.1515
 484  237.5026
 485  219.9027
 486  307.7939
 487  287.9093
 488  216.6754
 489  197.3089
 490  269.865
 491  283.056
 492  244.5705
 493  362.3945
 494  354.4318
 495  405.7202
 496  352.0812
 497  332.3099
 498  228.283
 499  367.5774
 500  370.6041
 501  472.2032
 502  305.602
 503  260.6601
 504  344.3212
 505  330.7637
 506  291.6151
 507  318.2213
 508  261.8519
 509  351.1346
 510  584.0542
 511  862.2092
