# Input file       =  1194022278.105005_cleaned.dat
# Candidate        =  PSR_0332+5434
# Telescope        =  AR
# Epoch_topo       =  58063.702084548670
# Epoch_bary       =  N/A
# T_sample         =  0.002
# Data Folded      =  7143424
# Data Avg         =  0.0317872289394105
# Data StdDev      =  0.999990040352518
# Profile Bins     =  512
# Profile Avg      =  443.466762443964 
# Profile StdDev   =  118.117408062405 
# Reduced chi-sqr  =  1.241
# Prob(Noise)      <  0.000162   (~3.6 sigma)
# P_topo (ms)      =  714.501026801938  +/- 0.000216
# P'_topo (s/s)    =  -0                +/- 1.17e-10
# P''_topo (s/s^2) =  0                 +/- 5.3e-14
# P_bary (ms)      =  N/A
# P'_bary (s/s)    =  N/A
# P''_bary (s/s^2) =  N/A
# P_orb (s)        =  N/A
# asin(i)/c (s)    =  N/A
# eccentricity     =  N/A
# w (rad)          =  N/A
# T_peri           =  N/A
######################################################
   0  1026.246
   1  1121.901
   2  998.0176
   3  710.3766
   4  566.5143
   5  512.6938
   6  465.6699
   7  368.8429
   8  457.9546
   9  521.5731
  10  441.1537
  11  497.3759
  12  521.7684
  13  453.4786
  14  413.4336
  15  442.2914
  16  430.792
  17  493.846
  18  538.5139
  19  645.0598
  20  372.2596
  21  253.8355
  22  377.5948
  23  520.4503
  24  449.166
  25  318.9048
  26  465.3203
  27  486.9406
  28  424.0652
  29  469.7835
  30  481.1263
  31  447.0141
  32  378.994
  33  384.1253
  34  510.4748
  35  478.3268
  36  401.0805
  37  419.6957
  38  465.6577
  39  459.1286
  40  339.274
  41  311.6369
  42  347.6546
  43  438.5924
  44  404.9763
  45  333.5547
  46  348.8798
  47  409.8846
  48  418.424
  49  371.1615
  50  312.0971
  51  425.9791
  52  485.0074
  53  480.0586
  54  375.9929
  55  412.0062
  56  511.5528
  57  418.8095
  58  368.0242
  59  264.28
  60  267.5309
  61  363.0585
  62  457.7794
  63  444.8101
  64  455.4594
  65  557.0339
  66  546.7546
  67  488.3688
  68  480.5182
  69  393.1177
  70  503.94
  71  553.0819
  72  328.0088
  73  347.1678
  74  289.0519
  75  267.6277
  76  315.1859
  77  414.7454
  78  461.7709
  79  546.6378
  80  388.5776
  81  341.3813
  82  321.332
  83  323.5424
  84  260.8814
  85  344.6278
  86  317.6137
  87  304.6707
  88  243.0038
  89  466.2111
  90  553.9322
  91  437.4601
  92  378.6873
  93  528.3343
  94  522.6463
  95  378.6246
  96  442.3016
  97  510.2864
  98  464.4074
  99  501.1183
 100  563.1906
 101  455.2813
 102  437.7011
 103  407.485
 104  439.6891
 105  342.2775
 106  388.6458
 107  419.2205
 108  475.9527
 109  482.7424
 110  403.2439
 111  376.9
 112  414.5382
 113  395.4974
 114  376.2704
 115  325.4337
 116  362.8615
 117  481.9993
 118  456.5631
 119  349.7108
 120  437.0948
 121  477.326
 122  393.8492
 123  428.5043
 124  462.5588
 125  427.8363
 126  454.2358
 127  370.4579
 128  484.6126
 129  507.5093
 130  396.2435
 131  385.5914
 132  479.8239
 133  408.4502
 134  499.7047
 135  585.401
 136  480.5389
 137  518.9201
 138  480.8113
 139  270.6696
 140  260.4589
 141  453.1832
 142  462.4449
 143  449.2763
 144  344.3827
 145  408.3864
 146  388.6143
 147  450.544
 148  379.3157
 149  367.1759
 150  403.8911
 151  387.4917
 152  471.2552
 153  522.1832
 154  485.6792
 155  531.5503
 156  412.016
 157  470.467
 158  461.0461
 159  561.2773
 160  610.0403
 161  534.5464
 162  434.5106
 163  410.1978
 164  367.4194
 165  292.8081
 166  462.3736
 167  568.732
 168  525.6885
 169  479.9199
 170  321.2086
 171  383.3773
 172  448.4516
 173  426.6147
 174  441.1749
 175  399.3404
 176  448.4828
 177  431.7369
 178  365.8296
 179  420.6285
 180  410.0985
 181  482.3306
 182  535.5328
 183  542.1389
 184  352.368
 185  335.5268
 186  422.9621
 187  415.8401
 188  381.763
 189  486.8089
 190  544.3787
 191  510.275
 192  552.1972
 193  526.1209
 194  485.4489
 195  482.3097
 196  395.8203
 197  390.6924
 198  560.3359
 199  487.2477
 200  380.0862
 201  471.7666
 202  410.946
 203  309.2585
 204  428.208
 205  557.828
 206  518.7167
 207  469.3575
 208  454.5426
 209  545.559
 210  485.606
 211  512.0118
 212  499.9291
 213  395.2288
 214  327.6011
 215  368.7496
 216  433.6985
 217  488.4317
 218  496.2788
 219  532.2712
 220  422.4576
 221  345.5456
 222  331.9888
 223  344.8278
 224  456.5656
 225  551.4966
 226  544.3105
 227  484.5468
 228  500.4362
 229  455.4713
 230  486.3308
 231  533.9768
 232  550.8967
 233  459.3999
 234  443.6059
 235  467.5534
 236  546.8005
 237  469.7975
 238  567.1957
 239  491.6292
 240  452.1461
 241  436.3981
 242  476.7109
 243  593.0055
 244  642.8019
 245  512.2005
 246  524.0942
 247  508.0731
 248  463.7295
 249  326.5256
 250  380.2703
 251  545.3636
 252  507.182
 253  440.0685
 254  525.6443
 255  403.0177
 256  441.4515
 257  492.4638
 258  308.3975
 259  288.5716
 260  224.0719
 261  229.905
 262  377.4897
 263  507.0228
 264  450.2905
 265  334.6368
 266  325.3715
 267  381.4228
 268  464.0812
 269  468.475
 270  567.0445
 271  621.6102
 272  479.3756
 273  416.5749
 274  409.8068
 275  458.2831
 276  645.7735
 277  593.325
 278  572.4035
 279  450.3374
 280  468.4881
 281  418.7342
 282  584.7459
 283  536.2197
 284  532.7685
 285  393.7103
 286  488.9272
 287  587.8536
 288  369.9484
 289  265.8637
 290  459.8398
 291  567.5869
 292  514.2421
 293  396.1302
 294  496.7291
 295  530.9418
 296  540.0328
 297  549.9102
 298  474.1564
 299  407.2621
 300  477.3368
 301  440.278
 302  353.0097
 303  378.9627
 304  563.6589
 305  398.3308
 306  499.336
 307  455.8333
 308  364.1954
 309  493.109
 310  525.7279
 311  354.2929
 312  379.7196
 313  443.0949
 314  414.1234
 315  412.9615
 316  363.3934
 317  290.9836
 318  226.0669
 319  197.2515
 320  367.4037
 321  402.912
 322  325.9373
 323  388.0407
 324  383.7084
 325  392.2681
 326  427.5575
 327  396.7258
 328  371.4344
 329  390.5252
 330  392.3604
 331  386.4345
 332  495.0549
 333  533.3112
 334  488.7222
 335  511.5924
 336  397.9504
 337  367.5949
 338  378.6192
 339  528.298
 340  560.722
 341  420.0311
 342  292.2583
 343  323.3329
 344  354.7625
 345  441.3063
 346  426.1423
 347  436.8912
 348  442.5895
 349  423.5824
 350  351.0546
 351  345.6384
 352  343.1278
 353  325.5523
 354  415.9599
 355  460.3972
 356  477.0219
 357  479.1411
 358  529.4973
 359  510.777
 360  420.6126
 361  406.2988
 362  544.7576
 363  494.3526
 364  454.3466
 365  414.5271
 366  459.1387
 367  381.8289
 368  421.2787
 369  533.8331
 370  496.3461
 371  412.0102
 372  437.97
 373  336.1494
 374  482.389
 375  511.6879
 376  497.1902
 377  456.3475
 378  415.8259
 379  412.7542
 380  440.3981
 381  373.7208
 382  433.9939
 383  573.5905
 384  464.2946
 385  377.151
 386  385.8281
 387  510.0662
 388  397.5564
 389  449.5306
 390  329.174
 391  397.1188
 392  342.1036
 393  438.0975
 394  438.2278
 395  353.352
 396  493.9225
 397  581.1614
 398  539.303
 399  537.6653
 400  438.7638
 401  344.3492
 402  373.2047
 403  468.675
 404  369.8644
 405  337.4236
 406  440.6703
 407  343.9994
 408  264.7934
 409  442.0907
 410  512.3975
 411  437.6643
 412  432.6433
 413  423.924
 414  310.7185
 415  266.61
 416  320.1551
 417  353.6333
 418  478.7422
 419  522.3149
 420  459.9047
 421  364.0775
 422  357.1571
 423  437.3329
 424  441.7323
 425  524.2819
 426  320.6345
 427  339.792
 428  369.7257
 429  399.1125
 430  495.4715
 431  515.0867
 432  395.5978
 433  449.624
 434  507.3114
 435  436.3385
 436  444.8698
 437  501.7096
 438  473.9851
 439  607.3629
 440  548.4222
 441  526.55
 442  449.5032
 443  519.3976
 444  497.8731
 445  398.3426
 446  354.5757
 447  321.6494
 448  423.356
 449  454.8748
 450  401.5475
 451  375.163
 452  499.9847
 453  487.8122
 454  490.5125
 455  520.4837
 456  487.3067
 457  483.7542
 458  480.8851
 459  409.0776
 460  366.0427
 461  429.4562
 462  517.4724
 463  422.9576
 464  422.7807
 465  454.8056
 466  505.8659
 467  345.5612
 468  390.4954
 469  472.4893
 470  452.5446
 471  391.574
 472  378.3897
 473  444.7411
 474  433.8454
 475  397.5027
 476  389.8456
 477  421.7992
 478  457.7576
 479  461.3376
 480  317.2303
 481  325.0111
 482  349.7728
 483  379.6968
 484  530.1967
 485  463.4441
 486  313.6234
 487  291.9452
 488  380.6514
 489  576.1903
 490  476.2136
 491  442.758
 492  327.5713
 493  401.9911
 494  452.7355
 495  439.217
 496  493.3635
 497  473.3232
 498  503.351
 499  447.8989
 500  316.1409
 501  405.9052
 502  538.6503
 503  615.7946
 504  482.4366
 505  399.582
 506  537.8944
 507  600.8849
 508  599.3165
 509  657.0178
 510  763.9973
 511  875.0255
