# Input file       =  1194827813.107991_cleaned.dat
# Candidate        =  PSR_0332+5434
# Telescope        =  AR
# Epoch_topo       =  58073.025406342487
# Epoch_bary       =  N/A
# T_sample         =  0.002
# Data Folded      =  7340032
# Data Avg         =  0.0266942840378806
# Data StdDev      =  1.00016578218473 
# Profile Bins     =  512
# Profile Avg      =  382.789714121605 
# Profile StdDev   =  119.752885981121 
# Reduced chi-sqr  =  1.063
# Prob(Noise)      <  0.156   (~1.0 sigma)
# P_topo (ms)      =  714.510579415743  +/- 0.000327
# P'_topo (s/s)    =  -0                +/- 1.73e-10
# P''_topo (s/s^2) =  0                 +/- 7.62e-14
# P_bary (ms)      =  N/A
# P'_bary (s/s)    =  N/A
# P''_bary (s/s^2) =  N/A
# P_orb (s)        =  N/A
# asin(i)/c (s)    =  N/A
# eccentricity     =  N/A
# w (rad)          =  N/A
# T_peri           =  N/A
######################################################
   0  876.9622
   1  841.6046
   2  702.4807
   3  514.2589
   4  443.6755
   5  415.2293
   6  400.3167
   7  445.6132
   8  352.8715
   9  248.4255
  10  401.2694
  11  487.3814
  12  444.2502
  13  463.4394
  14  401.8346
  15  547.042
  16  507.4853
  17  347.6626
  18  412.4605
  19  520.8096
  20  478.0403
  21  505.5376
  22  507.3807
  23  425.785
  24  443.6273
  25  327.9413
  26  323.2712
  27  261.9122
  28  360.4585
  29  445.1743
  30  387.1799
  31  385.9055
  32  420.7419
  33  511.5012
  34  434.5912
  35  550.2271
  36  506.4972
  37  381.1414
  38  386.0089
  39  313.2701
  40  364.4047
  41  463.8411
  42  437.4647
  43  466.2746
  44  580.5135
  45  445.7711
  46  337.5491
  47  252.5586
  48  409.2654
  49  471.0722
  50  428.5102
  51  485.8245
  52  486.6122
  53  492.15
  54  395.6524
  55  501.9147
  56  516.9837
  57  397.3523
  58  356.4746
  59  323.3569
  60  317.8947
  61  378.3894
  62  442.5312
  63  425.4581
  64  305.128
  65  247.2288
  66  253.8399
  67  248.1853
  68  409.5663
  69  295.1539
  70  287.6059
  71  425.7098
  72  300.5038
  73  357.6933
  74  302.7279
  75  313.9956
  76  432.6013
  77  395.562
  78  392.7646
  79  396.0594
  80  391.1206
  81  285.1597
  82  323.836
  83  333.8421
  84  433.636
  85  432.947
  86  367.9501
  87  488.1187
  88  436.4774
  89  489.5269
  90  498.0076
  91  446.4302
  92  372.1254
  93  291.7324
  94  368.9428
  95  335.6273
  96  447.417
  97  449.7335
  98  338.7271
  99  319.3773
 100  309.6454
 101  321.3185
 102  293.487
 103  343.0986
 104  460.8147
 105  353.1795
 106  431.5388
 107  420.2745
 108  415.284
 109  357.0184
 110  354.9641
 111  340.7668
 112  318.3902
 113  348.6562
 114  378.2332
 115  452.8343
 116  462.4636
 117  386.9699
 118  442.2654
 119  534.8735
 120  569.7068
 121  419.3163
 122  452.9786
 123  534.5179
 124  405.9711
 125  473.365
 126  414.9181
 127  464.6042
 128  453.1173
 129  505.257
 130  419.577
 131  467.6675
 132  480.3602
 133  521.8088
 134  420.4935
 135  508.4966
 136  549.9109
 137  451.8856
 138  335.3835
 139  391.6277
 140  383.7824
 141  263.0067
 142  181.5886
 143  294.6219
 144  302.5956
 145  336.4399
 146  492.7226
 147  467.6727
 148  356.4616
 149  346.2706
 150  326.1197
 151  338.3512
 152  329.8461
 153  313.6566
 154  372.1388
 155  420.789
 156  372.4155
 157  417.4863
 158  422.5299
 159  399.0444
 160  237.1832
 161  195.3012
 162  296.8557
 163  249.6808
 164  348.9512
 165  394.8929
 166  382.8979
 167  347.3947
 168  309.0286
 169  371.6779
 170  286.9467
 171  445.8316
 172  494.512
 173  456.0453
 174  467.5697
 175  487.3254
 176  448.425
 177  407.5216
 178  447.6299
 179  450.1939
 180  363.1143
 181  306.1329
 182  324.4323
 183  336.8308
 184  321.5191
 185  298.0351
 186  326.5856
 187  331.6549
 188  232.355
 189  299.8274
 190  258.5349
 191  425.577
 192  476.532
 193  477.0759
 194  352.7279
 195  302.3684
 196  416.2062
 197  296.6711
 198  263.8468
 199  280.8032
 200  329.3109
 201  411.3708
 202  411.2926
 203  450.8547
 204  502.4445
 205  559.428
 206  473.0262
 207  456.6267
 208  402.0847
 209  313.8582
 210  315.0726
 211  385.851
 212  282.5425
 213  310.3637
 214  338.6195
 215  403.4884
 216  344.2912
 217  331.4069
 218  286.4829
 219  336.318
 220  426.7773
 221  421.5169
 222  333.4214
 223  284.0883
 224  357.4859
 225  356.1969
 226  376.5453
 227  460.8542
 228  432.2672
 229  406.4
 230  289.941
 231  241.3586
 232  398.9171
 233  404.8528
 234  275.0668
 235  221.7286
 236  251.5252
 237  327.1966
 238  232.2982
 239  345.763
 240  373.5885
 241  400.6618
 242  338.7357
 243  371.2541
 244  428.2331
 245  478.2038
 246  404.9775
 247  360.4646
 248  383.5208
 249  400.5965
 250  498.4852
 251  469.5763
 252  432.0145
 253  365.2251
 254  411.276
 255  506.3457
 256  381.1317
 257  317.1367
 258  266.4602
 259  229.82
 260  264.6698
 261  351.3897
 262  436.6953
 263  313.9594
 264  314.9748
 265  426.6569
 266  450.4188
 267  485.845
 268  489.982
 269  544.5511
 270  587.1825
 271  434.5703
 272  429.9442
 273  429.7743
 274  363.5693
 275  393.1867
 276  436.8859
 277  422.2835
 278  335.6808
 279  297.7424
 280  371.9442
 281  403.6399
 282  365.4921
 283  283.9432
 284  325.7797
 285  369.0393
 286  361.4677
 287  254.7002
 288  323.4269
 289  321.144
 290  230.9407
 291  382.8975
 292  413.7659
 293  343.9174
 294  286.2688
 295  362.9284
 296  344.1549
 297  334.0685
 298  408.3192
 299  364.623
 300  376.0932
 301  306.9958
 302  350.3666
 303  392.816
 304  379.2464
 305  412.0223
 306  333.3235
 307  230.7774
 308  251.3785
 309  297.4191
 310  275.6569
 311  278.2578
 312  459.4399
 313  392.4586
 314  400.199
 315  401.4667
 316  389.5293
 317  299.3995
 318  314.7225
 319  502.1736
 320  502.1506
 321  389.9151
 322  470.7219
 323  401.9102
 324  358.7285
 325  350.0045
 326  450.9204
 327  451.6619
 328  475.3219
 329  497.4391
 330  358.2718
 331  414.063
 332  431.2392
 333  398.2002
 334  378.1521
 335  301.6631
 336  344.5807
 337  308.2487
 338  312.9678
 339  331.0125
 340  289.8347
 341  334.4565
 342  509.4566
 343  417.1924
 344  321.2657
 345  321.7485
 346  281.8353
 347  282.2762
 348  336.667
 349  550.072
 350  337.6246
 351  298.7595
 352  410.8459
 353  489.0495
 354  438.1861
 355  412.8351
 356  351.6668
 357  275.7075
 358  396.9956
 359  446.2346
 360  356.0578
 361  411.7223
 362  508.5941
 363  484.0157
 364  413.6657
 365  372.3606
 366  450.3807
 367  535.4199
 368  397.0287
 369  419.2737
 370  275.5661
 371  375.6071
 372  385.9527
 373  309.3436
 374  446.169
 375  500.1645
 376  481.8152
 377  449.8563
 378  310.0177
 379  329.4516
 380  401.9002
 381  357.8582
 382  348.9379
 383  490.349
 384  446.6161
 385  339.1838
 386  330.2987
 387  340.8662
 388  350.8356
 389  393.8726
 390  422.4865
 391  508.8753
 392  435.6859
 393  385.0306
 394  448.3457
 395  489.2295
 396  461.7972
 397  403.1534
 398  365.5139
 399  363.8851
 400  352.7485
 401  471.1525
 402  403.8608
 403  400.7858
 404  422.679
 405  367.6121
 406  305.1564
 407  334.9163
 408  357.2326
 409  347.2127
 410  382.6548
 411  361.3645
 412  442.1272
 413  389.5466
 414  259.5878
 415  284.2307
 416  467.292
 417  469.6442
 418  398.1477
 419  475.4311
 420  434.0112
 421  404.3376
 422  283.6615
 423  219.2659
 424  400.9634
 425  351.8476
 426  327.3164
 427  342.8916
 428  336.4769
 429  313.6886
 430  342.5589
 431  315.5483
 432  295.1065
 433  246.3233
 434  261.3396
 435  225.7667
 436  239.9147
 437  181.5859
 438  324.1567
 439  310.9003
 440  297.2122
 441  229.743
 442  335.83
 443  382.3291
 444  506.2055
 445  417.8315
 446  262.9925
 447  198.8884
 448  309.7624
 449  281.3208
 450  246.836
 451  149.5854
 452  267.273
 453  404.062
 454  302.3472
 455  349.6965
 456  440.3333
 457  427.5533
 458  479.1048
 459  383.8874
 460  347.3077
 461  294.2093
 462  220.4792
 463  221.0541
 464  269.1336
 465  408.6493
 466  314.1744
 467  323.2478
 468  395.4802
 469  394.9485
 470  292.7662
 471  227.1797
 472  321.6629
 473  311.9712
 474  320.047
 475  415.5493
 476  416.837
 477  439.6088
 478  366.1602
 479  366.8058
 480  364.2559
 481  286.2425
 482  389.2561
 483  468.447
 484  416.5805
 485  291.4171
 486  295.0491
 487  458.5275
 488  280.3147
 489  277.1432
 490  318.5501
 491  359.7627
 492  446.321
 493  300.561
 494  247.7178
 495  354.0418
 496  390.3839
 497  251.6322
 498  390.5631
 499  387.8579
 500  362.8458
 501  356.2734
 502  422.1157
 503  402.37
 504  326.8144
 505  288.2479
 506  352.535
 507  469.9597
 508  658.0203
 509  716.8655
 510  672.0157
 511  809.2325
