# Input file       =  1194467733.106676_cleaned.dat
# Candidate        =  PSR_0332+5434
# Telescope        =  AR
# Epoch_topo       =  58068.857813734678
# Epoch_bary       =  N/A
# T_sample         =  0.002
# Data Folded      =  7340032
# Data Avg         =  0.0202432399696762
# Data StdDev      =  1.00009631437907 
# Profile Bins     =  512
# Profile Avg      =  290.109356242573 
# Profile StdDev   =  119.744568389818 
# Reduced chi-sqr  =  1.130
# Prob(Noise)      <  0.0218   (~2.0 sigma)
# P_topo (ms)      =  714.506050716796  +/- 0.000352
# P'_topo (s/s)    =  -0                +/- 1.86e-10
# P''_topo (s/s^2) =  0                 +/- 8.2e-14
# P_bary (ms)      =  N/A
# P'_bary (s/s)    =  N/A
# P''_bary (s/s^2) =  N/A
# P_orb (s)        =  N/A
# asin(i)/c (s)    =  N/A
# eccentricity     =  N/A
# w (rad)          =  N/A
# T_peri           =  N/A
######################################################
   0  783.569
   1  812.7953
   2  831.1904
   3  692.2806
   4  539.5395
   5  473.2748
   6  422.9558
   7  366.0628
   8  185.0488
   9  228.4985
  10  397.0262
  11  385.4195
  12  373.6956
  13  386.9784
  14  377.3234
  15  415.4269
  16  398.2947
  17  368.7602
  18  336.7077
  19  284.709
  20  235.289
  21  424.3757
  22  398.6305
  23  249.2435
  24  265.1205
  25  329.4462
  26  265.4242
  27  240.7661
  28  166.8439
  29  144.7509
  30  221.8623
  31  297.0873
  32  435.1091
  33  317.3191
  34  217.79
  35  401.5468
  36  355.5042
  37  206.1118
  38  276.863
  39  353.2419
  40  348.9034
  41  321.283
  42  293.5424
  43  354.4988
  44  389.3735
  45  308.8143
  46  250.8622
  47  248.4952
  48  121.8558
  49  160.4385
  50  114.3868
  51  332.1685
  52  338.5599
  53  321.5938
  54  203.5113
  55  208.0717
  56  229.8992
  57  252.6953
  58  362.9345
  59  299.5522
  60  280.8066
  61  239.3829
  62  197.4473
  63  194.8033
  64  238.4563
  65  257.909
  66  173.347
  67  193.791
  68  258.4085
  69  227.4692
  70  163.3861
  71  195.674
  72  273.2152
  73  259.9956
  74  300.1412
  75  266.8629
  76  300.505
  77  352.5344
  78  301.5752
  79  260.6286
  80  285.1288
  81  323.0592
  82  268.978
  83  331.6251
  84  356.7519
  85  344.2859
  86  205.6693
  87  239.0738
  88  278.0739
  89  292.1377
  90  181.6172
  91  263.4217
  92  428.2632
  93  418.8417
  94  408.2742
  95  337.5985
  96  393.99
  97  279.2978
  98  196.4205
  99  307.4511
 100  291.4752
 101  296.5253
 102  269.9363
 103  292.1616
 104  405.9993
 105  444.3687
 106  416.1888
 107  336.7378
 108  303.3931
 109  271.3694
 110  264.3751
 111  196.2009
 112  226.155
 113  212.7842
 114  341.5334
 115  350.0907
 116  212.5317
 117  182.5739
 118  383.8053
 119  304.0024
 120  251.2755
 121  103.9681
 122  154.4204
 123  268.5633
 124  316.2737
 125  251.4476
 126  220.9637
 127  286.2271
 128  292.2615
 129  337.8927
 130  269.3863
 131  204.5518
 132  248.4973
 133  253.2751
 134  235.6528
 135  223.3968
 136  237.7118
 137  138.457
 138  253.6292
 139  360.1033
 140  341.5909
 141  218.0701
 142  209.3637
 143  391.084
 144  249.8753
 145  145.842
 146  176.9442
 147  259.3143
 148  273.2299
 149  326.2173
 150  390.2927
 151  241.5846
 152  270.8851
 153  341.6208
 154  386.997
 155  272.4305
 156  242.0585
 157  233.4939
 158  216.1348
 159  237.4176
 160  359.6574
 161  363.198
 162  346.4948
 163  258.5542
 164  274.9777
 165  229.0212
 166  259.4646
 167  227.2441
 168  258.6528
 169  356.2687
 170  198.1924
 171  223.6934
 172  206.9987
 173  251.5946
 174  444.8878
 175  412.0771
 176  308.6634
 177  276.5249
 178  274.546
 179  307.4385
 180  297.2557
 181  330.9742
 182  311.7565
 183  259.4433
 184  235.8787
 185  252.1694
 186  285.6803
 187  267.0307
 188  274.0957
 189  244.4588
 190  189.9538
 191  222.6419
 192  262.7902
 193  286.8678
 194  309.3237
 195  414.1845
 196  265.1781
 197  328.8891
 198  320.4232
 199  356.4144
 200  341.2915
 201  341.6844
 202  152.0104
 203  192.1776
 204  361.8642
 205  396.2047
 206  271.0257
 207  287.8771
 208  266.2185
 209  196.3065
 210  249.7682
 211  255.0382
 212  304.7054
 213  331.6212
 214  349.2564
 215  343.2841
 216  263.6868
 217  287.0401
 218  239.798
 219  252.9909
 220  313.0463
 221  341.292
 222  322.2843
 223  209.3527
 224  151.4457
 225  171.7413
 226  209.1112
 227  230.3825
 228  270.6317
 229  346.4589
 230  344.29
 231  191.9716
 232  281.612
 233  261.649
 234  124.0157
 235  175.6852
 236  376.6501
 237  370.5523
 238  347.5712
 239  267.7196
 240  305.8034
 241  242.8042
 242  282.4498
 243  404.2739
 244  271.077
 245  268.9729
 246  254.0034
 247  353.188
 248  305.169
 249  315.4487
 250  340.9054
 251  375.3847
 252  327.421
 253  173.369
 254  242.6278
 255  243.2366
 256  147.5809
 257  144.5916
 258  171.0465
 259  193.337
 260  285.3323
 261  336.6934
 262  310.957
 263  255.2483
 264  265.1823
 265  283.0432
 266  419.248
 267  274.2792
 268  254.8092
 269  274.5965
 270  236.8888
 271  260.4346
 272  260.4824
 273  152.0296
 274  130.8247
 275  262.5212
 276  358.3556
 277  273.6344
 278  375.6981
 279  472.0813
 280  356.4744
 281  274.0831
 282  299.1487
 283  267.2247
 284  280.7945
 285  255.2542
 286  398.4681
 287  423.9713
 288  377.4619
 289  371.1361
 290  463.9534
 291  386.9207
 292  333.5858
 293  303.7886
 294  462.4811
 295  353.7207
 296  332.0526
 297  330.0148
 298  422.135
 299  390.5332
 300  231.3422
 301  252.8026
 302  210.6026
 303  284.8497
 304  359.6951
 305  367.7854
 306  355.3966
 307  222.6125
 308  313.5804
 309  302.74
 310  254.8214
 311  212.8928
 312  229.5072
 313  243.4125
 314  289.2407
 315  308.496
 316  266.3293
 317  194.9486
 318  141.2781
 319  232.5785
 320  301.4606
 321  396.4216
 322  400.3808
 323  343.8856
 324  331.2624
 325  310.7661
 326  369.7715
 327  243.4293
 328  274.0201
 329  210.4286
 330  259.7729
 331  212.3015
 332  278.796
 333  223.9873
 334  264.6454
 335  292.5984
 336  321.1113
 337  276.0545
 338  332.6534
 339  182.8517
 340  311.1621
 341  362.5389
 342  326.5973
 343  164.6941
 344  167.622
 345  266.5645
 346  230.5026
 347  318.9759
 348  154.6953
 349  277.7743
 350  336.224
 351  171.4866
 352  123.9741
 353  111.3532
 354  302.1231
 355  340.1988
 356  315.0937
 357  334.1144
 358  315.2821
 359  270.6709
 360  333.6107
 361  249.0524
 362  314.2467
 363  317.7994
 364  220.2279
 365  171.4643
 366  317.5493
 367  340.0294
 368  253.4607
 369  232.9161
 370  257.9337
 371  336.7527
 372  211.1971
 373  220.2933
 374  315.2852
 375  331.2902
 376  286.8292
 377  213.1424
 378  354.8575
 379  304.5674
 380  187.0535
 381  202.4806
 382  209.8854
 383  360.8262
 384  369.8781
 385  291.1237
 386  217.2769
 387  284.6192
 388  428.0691
 389  192.8901
 390  41.76583
 391  48.81382
 392  243.5767
 393  296.9673
 394  389.5966
 395  434.8233
 396  388.4808
 397  319.1792
 398  270.6547
 399  307.3568
 400  446.5024
 401  390.3361
 402  359.3982
 403  330.8521
 404  240.3989
 405  329.6301
 406  322.3068
 407  213.7188
 408  177.7333
 409  267.1151
 410  215.8265
 411  263.1787
 412  306.7104
 413  378.1989
 414  340.9296
 415  257.9258
 416  113.2614
 417  204.7095
 418  342.2934
 419  282.9655
 420  201.1808
 421  241.2566
 422  307.0395
 423  302.6489
 424  352.5625
 425  360.7298
 426  207.3363
 427  200.1866
 428  296.6169
 429  263.6555
 430  274.6668
 431  252.6094
 432  141.5859
 433  194.6006
 434  154.6074
 435  254.6617
 436  378.2274
 437  217.1094
 438  257.3167
 439  365.3297
 440  354.4768
 441  225.9822
 442  254.871
 443  362.3762
 444  308.7066
 445  234.1528
 446  191.1869
 447  214.5756
 448  297.3783
 449  175.8552
 450  173.0827
 451  239.815
 452  226.0234
 453  193.3174
 454  193.0336
 455  177.0338
 456  197.0604
 457  135.2156
 458  322.0034
 459  309.5158
 460  309.8992
 461  320.0183
 462  228.8046
 463  232.4354
 464  265.5431
 465  281.2581
 466  245.1852
 467  296.0646
 468  328.795
 469  312.6425
 470  380.1392
 471  239.5229
 472  338.6448
 473  318.0712
 474  200.5566
 475  289.3715
 476  324.8028
 477  116.6334
 478  98.48569
 479  298.4357
 480  298.798
 481  178.0126
 482  299.6814
 483  323.8567
 484  294.674
 485  220.6556
 486  225.6854
 487  295.7529
 488  229.8856
 489  260.5608
 490  236.7363
 491  291.1669
 492  363.1429
 493  389.3977
 494  385.9238
 495  350.1277
 496  415.9032
 497  437.3939
 498  358.7974
 499  297.1193
 500  287.3007
 501  394.2442
 502  399.9643
 503  433.2896
 504  412.3254
 505  326.8337
 506  301.9206
 507  336.9741
 508  427.0793
 509  582.61
 510  605.4597
 511  817.5029
