# Input file       =  1194310941.104431_cleaned.dat
# Candidate        =  PSR_0332+5434
# Telescope        =  AR
# Epoch_topo       =  58067.043091486470
# Epoch_bary       =  N/A
# T_sample         =  0.002
# Data Folded      =  7340032
# Data Avg         =  0.0184000241431128
# Data StdDev      =  1.00019356122785 
# Profile Bins     =  512
# Profile Avg      =  263.715256456827 
# Profile StdDev   =  119.756212050302 
# Reduced chi-sqr  =  0.919
# Prob(Noise)      <  0.906   (~0.0 sigma)
# P_topo (ms)      =  714.504613090888  +/- 0.000129
# P'_topo (s/s)    =  -0                +/- 6.82e-11
# P''_topo (s/s^2) =  0                 +/- 3.01e-14
# P_bary (ms)      =  N/A
# P'_bary (s/s)    =  N/A
# P''_bary (s/s^2) =  N/A
# P_orb (s)        =  N/A
# asin(i)/c (s)    =  N/A
# eccentricity     =  N/A
# w (rad)          =  N/A
# T_peri           =  N/A
######################################################
   0  731.1024
   1  594.3264
   2  544.1185
   3  486.6933
   4  312.0428
   5  165.3037
   6  188.3891
   7  260.031
   8  323.8732
   9  270.5911
  10  207.3163
  11  136.5255
  12  177.843
  13  169.4604
  14  324.3474
  15  378.8158
  16  242.7754
  17  186.9787
  18  155.2783
  19  242.6807
  20  126.8609
  21  187.7791
  22  263.2835
  23  323.1882
  24  292.229
  25  196.2436
  26  315.1653
  27  232.7283
  28  172.7595
  29  201.2478
  30  134.4025
  31  228.5758
  32  258.8209
  33  231.9001
  34  271.3115
  35  328.954
  36  395.4372
  37  334.0897
  38  244.4045
  39  203.2224
  40  179.672
  41  230.77
  42  275.5422
  43  266.3247
  44  227.6671
  45  237.7697
  46  370.6264
  47  272.7513
  48  223.0282
  49  323.1448
  50  392.5856
  51  341.9097
  52  236.0887
  53  173.0009
  54  204.0332
  55  189.4262
  56  259.6635
  57  329.1116
  58  443.5217
  59  461.4746
  60  351.0886
  61  257.0938
  62  135.1585
  63  194.3076
  64  207.7344
  65  160.6514
  66  163.6688
  67  268.2902
  68  363.6528
  69  243.8538
  70  277.993
  71  368.4853
  72  216.119
  73  209.8744
  74  279.739
  75  332.1522
  76  260.2149
  77  161.2422
  78  183.9525
  79  170.6782
  80  244.8033
  81  388.2651
  82  328.9802
  83  276.2448
  84  294.8958
  85  232.1889
  86  204.1535
  87  274.0832
  88  203.2693
  89  26.5189
  90  44.69087
  91  209.7533
  92  184.9574
  93  241.0424
  94  195.7652
  95  133.8934
  96  259.7734
  97  315.9414
  98  265.5043
  99  319.8971
 100  322.9985
 101  332.4102
 102  354.3275
 103  134.674
 104  111.495
 105  224.0887
 106  317.4023
 107  384.0835
 108  266.7371
 109  403.2096
 110  315.6106
 111  351.6092
 112  279.3263
 113  209.6324
 114  292.6994
 115  203.4373
 116  321.3034
 117  355.5443
 118  331.9405
 119  277.4329
 120  369.4074
 121  428.1269
 122  356.4172
 123  183.4567
 124  278.6421
 125  319.7169
 126  375.1283
 127  309.2085
 128  269.1341
 129  311.6316
 130  251.1237
 131  197.1573
 132  265.9988
 133  126.2739
 134  199.5188
 135  466.8985
 136  471.5946
 137  329.8848
 138  344.2425
 139  431.6111
 140  369.5237
 141  289.3356
 142  186.8519
 143  262.8706
 144  324.9221
 145  258.3838
 146  243.8202
 147  182.258
 148  291.1302
 149  348.2536
 150  375.9517
 151  235.4576
 152  222.6134
 153  279.6479
 154  240.2707
 155  173.2858
 156  210.4036
 157  234.8727
 158  307.1471
 159  220.8872
 160  283.0706
 161  288.8949
 162  290.8126
 163  246.3097
 164  279.3641
 165  276.2221
 166  266.7479
 167  352.2008
 168  408.6807
 169  343.2467
 170  131.6074
 171  314.8197
 172  337.832
 173  232.065
 174  191.2091
 175  148.3442
 176  177.0112
 177  317.2815
 178  332.9634
 179  305.0205
 180  331.829
 181  255.4625
 182  316.8387
 183  405.5777
 184  249.1544
 185  103.9927
 186  288.1886
 187  253.0713
 188  222.4842
 189  200.6959
 190  295.1172
 191  249.6042
 192  223.4057
 193  305.4865
 194  214.0109
 195  195.762
 196  264.3076
 197  266.7201
 198  242.9243
 199  237.3709
 200  251.5685
 201  300.942
 202  341.016
 203  172.2628
 204  202.3779
 205  300.9422
 206  241.7282
 207  228.9062
 208  257.5779
 209  255.2537
 210  309.5755
 211  312.9922
 212  278.6566
 213  311.1529
 214  318.2649
 215  329.7419
 216  318.2467
 217  274.5005
 218  283.2787
 219  232.9011
 220  323.274
 221  374.8409
 222  365.4142
 223  327.4839
 224  304.3566
 225  316.53
 226  270.202
 227  309.7872
 228  225.9077
 229  162.6882
 230  186.6321
 231  210.9741
 232  372.4549
 233  315.3849
 234  267.7045
 235  358.7019
 236  348.3641
 237  292.9371
 238  238.8224
 239  176.721
 240  71.89058
 241  157.3089
 242  175.1125
 243  230.7592
 244  259.9692
 245  232.9868
 246  359.2831
 247  301.7513
 248  302.7058
 249  373.1989
 250  250.1245
 251  187.8964
 252  307.8277
 253  264.5648
 254  175.1899
 255  281.8905
 256  290.5237
 257  143.1126
 258  104.5658
 259  208.5754
 260  307.5223
 261  280.2802
 262  213.9885
 263  221.4427
 264  252.4542
 265  276.0005
 266  340.135
 267  277.2637
 268  151.1919
 269  187.7205
 270  352.0702
 271  259.5854
 272  278.184
 273  285.4247
 274  296.9739
 275  247.2732
 276  209.9752
 277  195.9834
 278  239.6981
 279  229.1337
 280  205.8979
 281  164.6958
 282  177.6248
 283  260.9842
 284  207.4257
 285  241.6803
 286  188.9685
 287  339.94
 288  306.8806
 289  209.6575
 290  218.4989
 291  327.7211
 292  314.8046
 293  320.9285
 294  300.7007
 295  364.9739
 296  273.2593
 297  220.6276
 298  281.346
 299  233.7515
 300  215.36
 301  171.9483
 302  283.2404
 303  270.589
 304  201.7934
 305  247.9359
 306  393.4609
 307  318.6201
 308  289.5295
 309  292.2143
 310  336.185
 311  352.5063
 312  261.3368
 313  276.0243
 314  269.4227
 315  229.626
 316  274.8141
 317  146.9872
 318  125.5389
 319  170.507
 320  191.9098
 321  169.0673
 322  126.6828
 323  88.13017
 324  190.6542
 325  296.1183
 326  395.7634
 327  315.7398
 328  324.7031
 329  377.5853
 330  425.2732
 331  419.2257
 332  256.7732
 333  121.7702
 334  267.6734
 335  335.8338
 336  385.8922
 337  295.5489
 338  193.4207
 339  234.0999
 340  259.1706
 341  232.5009
 342  79.52329
 343  108.9574
 344  257.5457
 345  266.9345
 346  273.9526
 347  255.1253
 348  219.3743
 349  263.8029
 350  229.4703
 351  154.4469
 352  184.9612
 353  199.0334
 354  218.2544
 355  269.4195
 356  204.1702
 357  194.7297
 358  359.9686
 359  364.6202
 360  178.8776
 361  272.7898
 362  375.1691
 363  298.8902
 364  171.4303
 365  293.5986
 366  219.4297
 367  172.3112
 368  283.9867
 369  337.1104
 370  314.1972
 371  287.6676
 372  243.8321
 373  300.6219
 374  375.4789
 375  255.518
 376  229.2035
 377  283.1226
 378  290.7428
 379  332.1051
 380  290.2203
 381  151.2909
 382  250.6244
 383  168.7321
 384  222.6881
 385  306.219
 386  334.5439
 387  253.8095
 388  312.808
 389  297.3049
 390  283.8676
 391  216.7832
 392  201.387
 393  323.096
 394  322.358
 395  345.3548
 396  244.0695
 397  260.02
 398  248.696
 399  299.8
 400  376.0464
 401  363.6998
 402  243.7781
 403  262.7457
 404  320.9176
 405  319.6385
 406  213.9021
 407  309.9219
 408  336.1355
 409  247.239
 410  265.6311
 411  250.3138
 412  426.0985
 413  389.2148
 414  294.2411
 415  276.5901
 416  189.8702
 417  169.4707
 418  188.953
 419  261.7844
 420  226.7071
 421  221.1178
 422  276.631
 423  207.6701
 424  140.0453
 425  235.547
 426  189.0129
 427  237.4591
 428  312.8301
 429  372.6229
 430  256.5123
 431  309.9177
 432  349.8075
 433  233.0753
 434  253.3274
 435  193.6125
 436  320.7435
 437  334.9732
 438  305.3717
 439  317.9238
 440  231.746
 441  281.4643
 442  186.9914
 443  224.0495
 444  191.6632
 445  133.0822
 446  52.6297
 447  50.35358
 448  109.5758
 449  235.8531
 450  305.1709
 451  280.1391
 452  273.0546
 453  225.7545
 454  152.9063
 455  130.5991
 456  182.5215
 457  202.9735
 458  236.2704
 459  316.2631
 460  337.0559
 461  273.0227
 462  275.6104
 463  316.1086
 464  242.2345
 465  263.1562
 466  292.83
 467  217.2378
 468  158.0442
 469  224.6264
 470  232.5837
 471  160.9395
 472  193.1843
 473  123.8862
 474  84.83635
 475  186.4249
 476  240.7896
 477  259.2469
 478  193.3312
 479  224.07
 480  239.3107
 481  290.1982
 482  265.1994
 483  209.0501
 484  292.7777
 485  255.74
 486  238.6654
 487  254.3196
 488  262.3656
 489  264.1886
 490  214.0009
 491  202.4876
 492  300.8597
 493  308.8979
 494  272.0541
 495  177.5461
 496  204.2962
 497  214.4146
 498  246.0729
 499  257.8871
 500  201.949
 501  222.4217
 502  227.0326
 503  320.1338
 504  183.7709
 505  197.6071
 506  305.1831
 507  380.2448
 508  426.4904
 509  385.9025
 510  601.1516
 511  789.8981
