# Input file       =  1194051750.097979_cleaned.dat
# Candidate        =  PSR_0332+5434
# Telescope        =  AR
# Epoch_topo       =  58064.043195578459
# Epoch_bary       =  N/A
# T_sample         =  0.002
# Data Folded      =  7340032
# Data Avg         =  0.0247269487397063
# Data StdDev      =  1.00006694125866 
# Profile Bins     =  512
# Profile Avg      =  354.45904406763  
# Profile StdDev   =  119.741051456924 
# Reduced chi-sqr  =  1.288
# Prob(Noise)      <  1.13e-05   (~4.2 sigma)
# P_topo (ms)      =  714.501693474758  +/- 0.00024
# P'_topo (s/s)    =  -0                +/- 1.27e-10
# P''_topo (s/s^2) =  0                 +/- 5.59e-14
# P_bary (ms)      =  N/A
# P'_bary (s/s)    =  N/A
# P''_bary (s/s^2) =  N/A
# P_orb (s)        =  N/A
# asin(i)/c (s)    =  N/A
# eccentricity     =  N/A
# w (rad)          =  N/A
# T_peri           =  N/A
######################################################
   0  940.4031
   1  842.0209
   2  855.666
   3  639.8149
   4  601.3131
   5  507.4453
   6  381.8819
   7  413.6785
   8  394.6415
   9  348.808
  10  349.6148
  11  459.1244
  12  455.9082
  13  365.3932
  14  404.694
  15  448.8289
  16  499.6626
  17  472.6016
  18  418.4465
  19  402.037
  20  484.8962
  21  469.9694
  22  374.1346
  23  298.1754
  24  385.0265
  25  290.2468
  26  429.0199
  27  332.8094
  28  260.6115
  29  291.377
  30  381.9191
  31  300.8014
  32  288.4961
  33  234.4841
  34  379.1674
  35  420.7274
  36  401.7542
  37  288.9521
  38  250.7437
  39  386.0937
  40  354.4865
  41  470.8419
  42  420.7351
  43  454.7216
  44  324.4929
  45  297.9753
  46  389.2304
  47  260.93
  48  348.1514
  49  309.7703
  50  235.5458
  51  270.2772
  52  295.8491
  53  386.2148
  54  601.2326
  55  429.5639
  56  280.6919
  57  263.53
  58  313.2697
  59  327.7888
  60  329.6356
  61  414.5027
  62  296.7391
  63  408.1581
  64  379.1498
  65  293.3666
  66  244.53
  67  304.8923
  68  367.2155
  69  346.0289
  70  262.1142
  71  345.6353
  72  484.5136
  73  386.8573
  74  473.5424
  75  442.3482
  76  373.7653
  77  367.1461
  78  347.4508
  79  323.391
  80  171.886
  81  288.4717
  82  526.8337
  83  405.5777
  84  334.8587
  85  199.1115
  86  168.5069
  87  314.5063
  88  407.2977
  89  366.379
  90  401.6124
  91  454.3177
  92  426.2693
  93  377.1471
  94  241.3141
  95  265.8131
  96  221.4655
  97  369.1104
  98  426.2996
  99  294.1038
 100  343.2221
 101  257.6935
 102  225.2037
 103  218.0318
 104  224.2622
 105  245.4449
 106  290.7415
 107  326.3017
 108  339.4877
 109  397.0807
 110  392.4102
 111  315.637
 112  364.1969
 113  377.8752
 114  331.0941
 115  309.0274
 116  319.594
 117  247.8739
 118  286.5064
 119  350.5777
 120  303.3584
 121  420.7735
 122  323.002
 123  258.4033
 124  356.8505
 125  291.0084
 126  302.275
 127  309.92
 128  308.7984
 129  258.6242
 130  301.7028
 131  342.6564
 132  278.5857
 133  356.4441
 134  250.6924
 135  266.083
 136  344.2969
 137  406.5126
 138  363.4895
 139  359.7372
 140  414.9036
 141  375.0494
 142  322.8637
 143  326.8705
 144  380.1684
 145  422.4558
 146  502.8481
 147  415.8567
 148  452.5237
 149  392.5069
 150  311.2682
 151  348.5654
 152  429.308
 153  407.4047
 154  361.9519
 155  387.7762
 156  412.9717
 157  328.75
 158  401.1577
 159  475.5277
 160  340.934
 161  310.1262
 162  437.8419
 163  370.8142
 164  351.2371
 165  320.8116
 166  339.5744
 167  261.9355
 168  286.5797
 169  255.3775
 170  297.9451
 171  422.4952
 172  357.1598
 173  331.8958
 174  240.5955
 175  256.49
 176  191.0352
 177  239.4487
 178  315.8416
 179  323.4157
 180  258.1274
 181  286.4787
 182  365.4545
 183  428.0258
 184  328.5534
 185  356.8782
 186  460.139
 187  321.5228
 188  244.2765
 189  353.2327
 190  219.4595
 191  186.3273
 192  435.8097
 193  411.3133
 194  269.7512
 195  288.7665
 196  296.9953
 197  237.0469
 198  473.9023
 199  477.643
 200  438.0329
 201  209.2453
 202  340.4267
 203  305.5938
 204  317.13
 205  352.5274
 206  371.0301
 207  363.1725
 208  443.5624
 209  478.4169
 210  499.298
 211  461.65
 212  532.2661
 213  529.9853
 214  481.0753
 215  334.1055
 216  414.2731
 217  339.1031
 218  301.9594
 219  281.0475
 220  411.6751
 221  473.8713
 222  404.4106
 223  350.2045
 224  413.9878
 225  380.8222
 226  333.2978
 227  294.1868
 228  322.2115
 229  374.3925
 230  457.2406
 231  409.8535
 232  429.9937
 233  391.7853
 234  450.4253
 235  446.0775
 236  328.128
 237  402.6208
 238  475.652
 239  324.926
 240  221.5909
 241  398.6524
 242  455.5028
 243  201.4485
 244  209.7204
 245  356.9864
 246  370.6261
 247  292.7435
 248  301.176
 249  275.7875
 250  332.4632
 251  384.1306
 252  347.8878
 253  403.8246
 254  423.7547
 255  215.0187
 256  363.6482
 257  459.6731
 258  386.814
 259  392.943
 260  561.4449
 261  534.8447
 262  434.6418
 263  429.6122
 264  504.8983
 265  398.5698
 266  315.2007
 267  303.331
 268  229.5184
 269  303.9608
 270  329.4164
 271  363.4945
 272  307.3499
 273  335.793
 274  406.2926
 275  382.0695
 276  342.0755
 277  299.5017
 278  305.9225
 279  353.2993
 280  272.0423
 281  304.8944
 282  332.5598
 283  292.9877
 284  330.8311
 285  521.2538
 286  375.6546
 287  364.9132
 288  401.8235
 289  246.6699
 290  284.8004
 291  275.3934
 292  291.0667
 293  323.423
 294  293.5164
 295  387.78
 296  236.6306
 297  362.3605
 298  498.6085
 299  378.3118
 300  358.7798
 301  390.8684
 302  308.7278
 303  263.643
 304  315.396
 305  373.2989
 306  422.3462
 307  338.2832
 308  364.5187
 309  323.4901
 310  244.76
 311  135.4099
 312  246.0425
 313  309.1205
 314  376.0132
 315  209.5516
 316  208.5869
 317  362.6819
 318  355.7642
 319  371.52
 320  509.8845
 321  401.3785
 322  317.7415
 323  269.8756
 324  380.8721
 325  412.2784
 326  349.8414
 327  384.3851
 328  275.9698
 329  311.5289
 330  335.4563
 331  363.6087
 332  223.9582
 333  263.4859
 334  355.0685
 335  346.3451
 336  404.4341
 337  424.571
 338  336.9753
 339  294.8513
 340  317.9741
 341  318.9479
 342  430.5992
 343  376.1913
 344  329.5332
 345  423.2395
 346  374.8075
 347  236.542
 348  268.6755
 349  439.6697
 350  450.1741
 351  211.6049
 352  254.8869
 353  294.9863
 354  325.2835
 355  340.8268
 356  279.2672
 357  319.4558
 358  342.7393
 359  455.2923
 360  374.4679
 361  427.0384
 362  302.8878
 363  307.2825
 364  344.0824
 365  410.3589
 366  406.8161
 367  325.7116
 368  445.2612
 369  372.31
 370  316.6157
 371  408.5162
 372  340.0257
 373  278.4974
 374  267.6322
 375  283.7101
 376  258.2458
 377  300.9865
 378  401.032
 379  375.5832
 380  276.9104
 381  296.3238
 382  248.7708
 383  285.9342
 384  343.8608
 385  369.0442
 386  354.7358
 387  207.8446
 388  285.9326
 389  351.7083
 390  309.8817
 391  309.1207
 392  342.5864
 393  309.1497
 394  412.5298
 395  380.9729
 396  339.8182
 397  359.2667
 398  269.8997
 399  347.1663
 400  322.1408
 401  357.9373
 402  371.6789
 403  313.1151
 404  369.6908
 405  360.0959
 406  247.3669
 407  220.7388
 408  314.1851
 409  296.8439
 410  191.7906
 411  253.0607
 412  361.8652
 413  464.1123
 414  284.8997
 415  323.8932
 416  285.6348
 417  302.0183
 418  339.6737
 419  413.1548
 420  383.0397
 421  432.0891
 422  562.0912
 423  413.0757
 424  286.1388
 425  279.0413
 426  155.8245
 427  183.6283
 428  225.2413
 429  193.711
 430  212.854
 431  205.0699
 432  348.4329
 433  343.4052
 434  327.2379
 435  250.5972
 436  275.9814
 437  345.0894
 438  284.9305
 439  351.8206
 440  418.4288
 441  412.7049
 442  500.4306
 443  478.7397
 444  401.3853
 445  318.9692
 446  384.1706
 447  337.2431
 448  374.1437
 449  467.107
 450  438.8839
 451  440.1743
 452  325.4875
 453  289.5103
 454  312.8182
 455  158.7513
 456  265.1588
 457  276.3721
 458  272.3353
 459  264.606
 460  304.709
 461  327.5229
 462  321.2321
 463  281.2523
 464  205.5274
 465  262.5612
 466  331.8167
 467  471.7084
 468  488.3496
 469  500.8186
 470  543.7703
 471  393.9435
 472  385.9385
 473  492.8958
 474  353.9745
 475  336.2953
 476  368.7398
 477  531.7183
 478  428.6951
 479  255.1213
 480  335.8839
 481  325.6615
 482  309.3311
 483  277.9159
 484  437.9002
 485  312.137
 486  306.2159
 487  302.349
 488  315.9897
 489  407.8141
 490  346.1433
 491  362.0494
 492  434.9772
 493  364.2023
 494  355.0819
 495  302.7289
 496  234.2686
 497  277.7834
 498  260.9978
 499  175.54
 500  272.3485
 501  371.4314
 502  359.9594
 503  415.0266
 504  443.7575
 505  339.2469
 506  355.7913
 507  638.9277
 508  621.8642
 509  669.2344
 510  866.7368
 511  1019.164
