# Input file       =  1194310941.104431_cleaned.dat
# Candidate        =  PSR_0332+5434
# Telescope        =  AR
# Epoch_topo       =  58067.043091486470
# Epoch_bary       =  N/A
# T_sample         =  0.002
# Data Folded      =  7340032
# Data Avg         =  0.0184000241431128
# Data StdDev      =  1.00019356122785 
# Profile Bins     =  512
# Profile Avg      =  263.715256566349 
# Profile StdDev   =  119.756212050302 
# Reduced chi-sqr  =  0.922
# Prob(Noise)      <  0.897   (~0.0 sigma)
# P_topo (ms)      =  714.504613337671  +/- 0.000132
# P'_topo (s/s)    =  -0                +/- 6.98e-11
# P''_topo (s/s^2) =  0                 +/- 3.08e-14
# P_bary (ms)      =  N/A
# P'_bary (s/s)    =  N/A
# P''_bary (s/s^2) =  N/A
# P_orb (s)        =  N/A
# asin(i)/c (s)    =  N/A
# eccentricity     =  N/A
# w (rad)          =  N/A
# T_peri           =  N/A
######################################################
   0  783.6124
   1  674.5188
   2  559.1223
   3  540.7733
   4  401.0812
   5  244.1681
   6  150.7101
   7  232.421
   8  294.4776
   9  295.803
  10  264.7945
  11  136.8672
  12  166.0699
  13  150.5238
  14  237.0024
  15  373.1888
  16  326.7462
  17  218.7019
  18  151.295
  19  203.3476
  20  196.8893
  21  137.1918
  22  250.2546
  23  265.2869
  24  341.7047
  25  218.8368
  26  253.8817
  27  293.3944
  28  183.4936
  29  198.8477
  30  176.0969
  31  147.7739
  32  263.6274
  33  256.8672
  34  245.1198
  35  275.8447
  36  367.2614
  37  388.6612
  38  288.7442
  39  216.0385
  40  185.2803
  41  206.2361
  42  256.2178
  43  271.0539
  44  255.4455
  45  223.7259
  46  298.6835
  47  354.431
  48  210.5883
  49  264.0405
  50  370.4097
  51  372.4127
  52  302.6106
  53  188.8239
  54  190.0006
  55  201.4558
  56  221.799
  57  279.9894
  58  388.1229
  59  453.9663
  60  436.7277
  61  305.1362
  62  191.0131
  63  147.1575
  64  209.5479
  65  201.4233
  66  132.6748
  67  200.3696
  68  334.0123
  69  328.5621
  70  228.7777
  71  333.6794
  72  339.6259
  73  161.6797
  74  253.2155
  75  278.6774
  76  344.4641
  77  184.7963
  78  172.779
  79  191.4744
  80  175.6194
  81  352.8935
  82  342.0761
  83  306.806
  84  272.8173
  85  280.95
  86  205.3246
  87  231.5192
  88  284.9286
  89  114.229
  90  -10.09828
  91  136.0796
  92  205.6292
  93  210.7608
  94  225.796
  95  158.1172
  96  176.0918
  97  304.5888
  98  287.2897
  99  293.42
 100  332.1814
 101  323.1917
 102  340.8688
 103  284.8832
 104  86.4556
 105  159.9272
 106  259.3973
 107  370.2559
 108  326.4534
 109  319.6038
 110  366.2647
 111  335.7884
 112  337.0958
 113  233.9781
 114  222.6924
 115  281.1034
 116  209.912
 117  374.7245
 118  345.031
 119  319.6712
 120  301.1233
 121  384.5441
 122  426.1216
 123  274.1155
 124  205.3423
 125  310.7064
 126  328.6168
 127  374.9554
 128  264.0755
 129  290.2923
 130  307.5445
 131  209.181
 132  235.1891
 133  201.1696
 134  109.7625
 135  330.3172
 136  524.6854
 137  389.9323
 138  329.2707
 139  373.6591
 140  425.5934
 141  336.1048
 142  252.5048
 143  196.0594
 144  292.0321
 145  297.0224
 146  259.5421
 147  223.8159
 148  202.7539
 149  327.3492
 150  374.2698
 151  338.1093
 152  181.9407
 153  259.9929
 154  270.8655
 155  203.9403
 156  186.3883
 157  201.5358
 158  302.2547
 159  256.8923
 160  249.2872
 161  276.2195
 162  320.6516
 163  249.4422
 164  256.1907
 165  270.3399
 166  272.9442
 167  298.8403
 168  386.4775
 169  418.4818
 170  226.681
 171  180.692
 172  356.8968
 173  299.7487
 174  194.981
 175  177.1698
 176  118.8732
 177  257.6571
 178  350.8423
 179  312.2339
 180  324.3672
 181  294.0756
 182  276.0109
 183  352.1329
 184  379.6726
 185  137.6014
 186  191.7482
 187  283.953
 188  236.9151
 189  184.7508
 190  264.0948
 191  272.9806
 192  242.7049
 193  265.9743
 194  291.3661
 195  155.1493
 196  238.412
 197  282.7889
 198  264.8134
 199  209.7391
 200  251.1745
 201  261.0718
 202  355.2316
 203  246.2935
 204  174.9736
 205  261.1644
 206  294.4913
 207  198.8658
 208  247.4529
 209  260.3334
 210  283.2945
 211  300.9103
 212  302.2346
 213  287.804
 214  325.0819
 215  309.4762
 216  346.8877
 217  284.1309
 218  299.1269
 219  248.2757
 220  256.6699
 221  372.7619
 222  355.0514
 223  371.6821
 224  294.054
 225  322.2509
 226  286.2131
 227  281.4955
 228  287.567
 229  191.8715
 230  164.4868
 231  193.2973
 232  271.6836
 233  396.8725
 234  237.5401
 235  330.3829
 236  373.4407
 237  317.5756
 238  271.2781
 239  200.1803
 240  140.3143
 241  93.4212
 242  166.9784
 243  182.5063
 244  278.9746
 245  229.4529
 246  294.7702
 247  341.3385
 248  290.3801
 249  342.4305
 250  330.4308
 251  188.6305
 252  255.9615
 253  312.6765
 254  214.9402
 255  190.7973
 256  334.4171
 257  214.0187
 258  106.0097
 259  146.1384
 260  263.9786
 261  318.0759
 262  225.2118
 263  224.845
 264  221.6206
 265  267.1694
 266  300.2489
 267  338.7896
 268  211.3125
 269  128.7305
 270  272.8183
 271  343.4211
 272  241.8105
 273  300.0804
 274  289.052
 275  278.9314
 276  227.627
 277  177.3384
 278  230.2688
 279  231.2981
 280  244.0712
 281  155.9715
 282  171.8874
 283  225.3506
 284  243.5522
 285  220.4583
 286  208.7435
 287  245.7325
 288  357.6829
 289  240.793
 290  198.9824
 291  277.6712
 292  336.6003
 293  305.7852
 294  325.536
 295  307.6121
 296  374.665
 297  200.975
 298  269.8434
 299  254.3986
 300  222.5337
 301  197.514
 302  208.0551
 303  312.2679
 304  225.9556
 305  195.6015
 306  322.5927
 307  386.3662
 308  285.4609
 309  291.9678
 310  303.7257
 311  365.3109
 312  312.0164
 313  252.1519
 314  295.5689
 315  235.8845
 316  257.6703
 317  208.9789
 318  139.5314
 319  141.5731
 320  186.8301
 321  176.0544
 322  162.287
 323  96.30538
 324  108.7875
 325  241.5735
 326  362.6056
 327  379.2791
 328  292.6798
 329  342.8531
 330  406.1082
 331  430.3052
 332  367.6077
 333  168.8724
 334  181.553
 335  305.5787
 336  349.8259
 337  367.0864
 338  249.1738
 339  197.2099
 340  243.5436
 341  262.6846
 342  177.1627
 343  61.67257
 344  177.7118
 345  273.0266
 346  268.6533
 347  284.105
 348  210.2619
 349  254.8512
 350  253.3673
 351  182.0876
 352  160.1704
 353  195.0836
 354  214.7325
 355  231.7964
 356  258.7655
 357  175.2431
 358  258.2839
 359  408.4517
 360  249.0978
 361  216.9624
 362  324.3604
 363  367.2999
 364  214.587
 365  215.588
 366  311.0422
 367  145.3037
 368  244.0785
 369  301.3878
 370  363.635
 371  265.2974
 372  276.8145
 373  241.5666
 374  357.0843
 375  334.3016
 376  217.1473
 377  267.0191
 378  289.8781
 379  299.5066
 380  343.0026
 381  197.6334
 382  199.2715
 383  218.8849
 384  179.1283
 385  250.5182
 386  341.8727
 387  297.4842
 388  276.9987
 389  335.5777
 390  265.8332
 391  272.5226
 392  170.5766
 393  282.1378
 394  307.4021
 395  356.9958
 396  287.0899
 397  260.5503
 398  237.7809
 399  270.2552
 400  332.1769
 401  406.3151
 402  289.7877
 403  245.4831
 404  282.6738
 405  356.3123
 406  242.9362
 407  241.982
 408  344.8294
 409  295.4505
 410  240.3479
 411  254.392
 412  318.921
 413  458.1001
 414  326.83
 415  283.2492
 416  255.1245
 417  165.4982
 418  156.6456
 419  242.4088
 420  239.272
 421  241.0621
 422  206.3081
 423  306.3233
 424  138.5309
 425  192.0111
 426  224.5629
 427  182.3323
 428  278.4167
 429  334.0994
 430  344.2493
 431  245.5676
 432  376.7519
 433  274.4975
 434  234.3844
 435  241.5013
 436  231.5482
 437  352.6671
 438  290.5995
 439  327.1613
 440  274.0799
 441  257.4991
 442  244.8964
 443  192.7006
 444  229.0191
 445  151.4841
 446  94.19806
 447  42.06016
 448  75.95294
 449  157.3922
 450  294.0305
 451  296.535
 452  276.1957
 453  242.0747
 454  187.9256
 455  139.4977
 456  160.9035
 457  187.3567
 458  217.7541
 459  264.3478
 460  352.0401
 461  298.75
 462  269.4873
 463  311.3161
 464  292.8245
 465  212.8577
 466  302.771
 467  257.5018
 468  199.8532
 469  153.0208
 470  255.106
 471  196.1141
 472  170.0074
 473  188.0104
 474  71.37466
 475  147.8973
 476  199.8196
 477  261.2159
 478  239.2069
 479  192.0195
 480  233.4141
 481  244.7216
 482  303.2719
 483  224.1116
 484  247.9939
 485  278.8857
 486  245.5174
 487  238.6802
 488  263.074
 489  258.1346
 490  275.5445
 491  170.6899
 492  248.2986
 493  313.3729
 494  309.8075
 495  237.8778
 496  151.4334
 497  229.3715
 498  203.8727
 499  280.2431
 500  203.4252
 501  230.1915
 502  212.5472
 503  287.0144
 504  261.6061
 505  167.8986
 506  251.0041
 507  345.3628
 508  410.7632
 509  394.2877
 510  446.6466
 511  718.2219
