# Input file       =  1194108959.124819_cleaned.dat
# Candidate        =  PSR_0332+5434
# Telescope        =  AR
# Epoch_topo       =  58064.705337092812
# Epoch_bary       =  N/A
# T_sample         =  0.002
# Data Folded      =  7208960
# Data Avg         =  0.0229972712048937
# Data StdDev      =  0.999924500957399
# Profile Bins     =  512
# Profile Avg      =  323.725971297275 
# Profile StdDev   =  118.650217139362 
# Reduced chi-sqr  =  1.307
# Prob(Noise)      <  3.36e-06   (~4.5 sigma)
# P_topo (ms)      =  714.501980999628  +/- 0.000137
# P'_topo (s/s)    =  -0                +/- 7.36e-11
# P''_topo (s/s^2) =  0                 +/- 3.31e-14
# P_bary (ms)      =  N/A
# P'_bary (s/s)    =  N/A
# P''_bary (s/s^2) =  N/A
# P_orb (s)        =  N/A
# asin(i)/c (s)    =  N/A
# eccentricity     =  N/A
# w (rad)          =  N/A
# T_peri           =  N/A
######################################################
   0  958.5754
   1  950.9581
   2  822.7079
   3  592.2683
   4  479.4059
   5  450.6748
   6  290.5
   7  356.4628
   8  354.5102
   9  209.5998
  10  294.1763
  11  260.1264
  12  282.6452
  13  303.2683
  14  448.9698
  15  494.5966
  16  291.1146
  17  461.5083
  18  300.7169
  19  412.2611
  20  399.8969
  21  299.4621
  22  186.6112
  23  184.5818
  24  277.7746
  25  233.3725
  26  257.9119
  27  281.7343
  28  262.5905
  29  226.583
  30  368.2972
  31  345.722
  32  333.1278
  33  288.7789
  34  172.1141
  35  366.9807
  36  321.7935
  37  406.5847
  38  432.2407
  39  377.0829
  40  349.8456
  41  369.2308
  42  352.535
  43  401.4279
  44  333.9028
  45  332.2536
  46  299.8419
  47  442.5803
  48  423.9926
  49  464.8552
  50  356.1859
  51  330.5978
  52  453.5228
  53  279.1207
  54  482.8797
  55  418.1827
  56  420.5256
  57  391.1196
  58  315.0796
  59  308.2657
  60  303.9713
  61  315.1626
  62  365.1093
  63  236.4721
  64  212.8457
  65  301.3504
  66  364.5651
  67  354.719
  68  271.9853
  69  278.8744
  70  202.9334
  71  394.7165
  72  375.3777
  73  356.227
  74  300.7926
  75  161.7261
  76  240.6042
  77  415.9148
  78  474.3619
  79  364.9299
  80  213.5713
  81  304.0276
  82  422.4599
  83  439.4234
  84  304.6943
  85  212.6261
  86  422.2635
  87  392.8106
  88  390.4582
  89  334.4029
  90  330.413
  91  211.3458
  92  304.2333
  93  394.8737
  94  406.1744
  95  371.5202
  96  263.2819
  97  209.4664
  98  287.635
  99  351.0441
 100  432.5514
 101  392.2938
 102  352.0419
 103  317.2484
 104  344.4944
 105  341.8495
 106  280.304
 107  331.6752
 108  467.7982
 109  329.8602
 110  263.5252
 111  299.1487
 112  492.226
 113  605.764
 114  480.5878
 115  400.1403
 116  302.9389
 117  256.9085
 118  348.6536
 119  150.0127
 120  118.6759
 121  263.2545
 122  212.9576
 123  213.8026
 124  225.8656
 125  222.7012
 126  158.4245
 127  264.5023
 128  316.9328
 129  276.7601
 130  337.3506
 131  367.8382
 132  355.6444
 133  212.8696
 134  250.5121
 135  352.7175
 136  344.2692
 137  273.4877
 138  124.5841
 139  244.3609
 140  381.4202
 141  249.7199
 142  271.9035
 143  323.5179
 144  378.3242
 145  385.9289
 146  397.1509
 147  369.143
 148  394.724
 149  260.2949
 150  256.8768
 151  286.0328
 152  342.9487
 153  405.3796
 154  411.1
 155  422.2293
 156  295.2925
 157  286.2877
 158  319.6578
 159  289.2268
 160  304.846
 161  274.0231
 162  383.3962
 163  308.1026
 164  387.8151
 165  350.4184
 166  426.4556
 167  311.3845
 168  210.9437
 169  221.3191
 170  349.1079
 171  328.5244
 172  282.6494
 173  390.6939
 174  413.0581
 175  332.8154
 176  277.5009
 177  259.5536
 178  366.5806
 179  439.3255
 180  363.8912
 181  383.3761
 182  337.6463
 183  308.3397
 184  287.257
 185  345.57
 186  358.8444
 187  381.2667
 188  364.8184
 189  334.33
 190  366.715
 191  404.1394
 192  298.8553
 193  306.5415
 194  409.6933
 195  297.2868
 196  413.4651
 197  285.3836
 198  285.0945
 199  351.8358
 200  347.9297
 201  256.0388
 202  225.4335
 203  225.3874
 204  311.8249
 205  204.294
 206  259.9316
 207  290.0915
 208  282.1362
 209  308.7619
 210  320.0204
 211  315.7144
 212  221.2525
 213  248.5056
 214  282.196
 215  342.0207
 216  383.026
 217  393.9736
 218  311.6712
 219  316.9128
 220  425.9678
 221  338.4419
 222  223.2629
 223  199.82
 224  157.7825
 225  177.8212
 226  131.5874
 227  257.3394
 228  400.8182
 229  312.1835
 230  157.0506
 231  179.5716
 232  251.4864
 233  332.2103
 234  223.5387
 235  372.7618
 236  431.54
 237  423.4234
 238  382.3527
 239  319.6434
 240  379.0896
 241  265.9134
 242  264.9445
 243  216.891
 244  303.1875
 245  348.2126
 246  455.9419
 247  463.1876
 248  289.6335
 249  279.5996
 250  329.7303
 251  265.2466
 252  366.143
 253  352.0917
 254  404.6892
 255  231.0525
 256  310.5243
 257  212.8835
 258  193.9669
 259  151.3594
 260  155.5609
 261  256.8946
 262  325.5789
 263  293.7611
 264  334.766
 265  384.1568
 266  381.5711
 267  240.0493
 268  366.0997
 269  266.4748
 270  236.9004
 271  249.377
 272  237.6297
 273  240.5563
 274  158.2279
 275  202.8376
 276  272.4975
 277  279.5639
 278  252.8903
 279  181.7618
 280  256.2989
 281  200.4346
 282  223.6811
 283  335.3735
 284  468.7057
 285  463.977
 286  335.5014
 287  157.3826
 288  263.3988
 289  409.578
 290  381.009
 291  398.9346
 292  422.2262
 293  332.3249
 294  165.9101
 295  298.6498
 296  255.8289
 297  304.7058
 298  352.7629
 299  442.6978
 300  321.2039
 301  284.5671
 302  206.9413
 303  282.9002
 304  273.6075
 305  224.5098
 306  249.8814
 307  427.291
 308  392.1142
 309  251.702
 310  263.3063
 311  227.7007
 312  366.8821
 313  299.4325
 314  462.3207
 315  440.2196
 316  374.0025
 317  340.9828
 318  226.1606
 319  320.5684
 320  466.2937
 321  450.5213
 322  298.2393
 323  248.5558
 324  278.3862
 325  437.5882
 326  411.8439
 327  271.6902
 328  325.6933
 329  463.521
 330  342.1958
 331  274.6059
 332  307.4367
 333  231.4514
 334  250.3661
 335  320.4371
 336  364.5106
 337  515.9039
 338  434.838
 339  319.7791
 340  166.0976
 341  66.2696
 342  166.5719
 343  236.4455
 344  286.8878
 345  367.681
 346  435.1388
 347  316.4383
 348  308.6986
 349  244.7644
 350  260.5957
 351  352.0321
 352  397.3585
 353  396.1601
 354  343.489
 355  341.2802
 356  463.8444
 357  399.3051
 358  411.4225
 359  508.9805
 360  419.3121
 361  249.162
 362  203.7217
 363  151.9337
 364  253.2378
 365  263.563
 366  277.2361
 367  166.3392
 368  250.4032
 369  327.21
 370  321.5281
 371  281.5655
 372  303.9179
 373  203.6976
 374  215.8908
 375  278.6858
 376  257.9177
 377  222.326
 378  414.4291
 379  418.6826
 380  388.2668
 381  381.262
 382  336.8622
 383  290.0831
 384  367.9273
 385  323.4201
 386  251.848
 387  245.1611
 388  284.3705
 389  213.1214
 390  206.3837
 391  242.3304
 392  438.3612
 393  422.1559
 394  385.6284
 395  432.7247
 396  428.8496
 397  352.729
 398  258.6346
 399  367.6266
 400  447.5336
 401  435.4488
 402  278.4359
 403  382.5774
 404  340.253
 405  487.7096
 406  398.4732
 407  391.9852
 408  188.5575
 409  187.5488
 410  323.6547
 411  327.7185
 412  208.7979
 413  356.8983
 414  339.7093
 415  299.441
 416  283.5125
 417  312.0989
 418  246.8837
 419  243.2279
 420  332.1294
 421  374.4621
 422  273.5609
 423  150.2388
 424  189.005
 425  234.9507
 426  324.1753
 427  288.7399
 428  278.5371
 429  304.4274
 430  163.7108
 431  177.657
 432  360.3148
 433  340.7667
 434  291.2024
 435  312.3283
 436  296.534
 437  281.0405
 438  318.1079
 439  368.3821
 440  299.6313
 441  439.777
 442  446.1393
 443  227.231
 444  181.9039
 445  247.75
 446  386.7614
 447  381.8632
 448  418.2546
 449  258.5935
 450  197.5241
 451  274.3283
 452  290.6508
 453  310.5458
 454  249.1217
 455  287.4734
 456  275.9019
 457  295.5979
 458  249.4424
 459  186.219
 460  283.29
 461  323.6114
 462  372.4845
 463  393.8179
 464  294.7507
 465  267.5074
 466  235.8782
 467  217.9902
 468  319.3645
 469  313.552
 470  404.7786
 471  302.5264
 472  389.5981
 473  370.6152
 474  267.7374
 475  314.4038
 476  371.7256
 477  485.8261
 478  445.0671
 479  326.522
 480  238.7693
 481  244.1981
 482  285.6521
 483  328.8293
 484  253.6736
 485  305.1344
 486  386.7538
 487  260.8429
 488  260.8634
 489  174.4164
 490  256.5936
 491  184.6774
 492  342.6256
 493  322.1736
 494  449.9415
 495  349.8148
 496  325.5443
 497  390.6565
 498  476.6824
 499  504.3794
 500  323.56
 501  329.3467
 502  447.7501
 503  457.6021
 504  444.0171
 505  259.7435
 506  290.7812
 507  383.583
 508  537.5441
 509  540.1041
 510  630.3521
 511  798.7673
