# Input file       =  1194194576.102522_cleaned.dat
# Candidate        =  PSR_0332+5434
# Telescope        =  AR
# Epoch_topo       =  58065.696274334747
# Epoch_bary       =  N/A
# T_sample         =  0.002
# Data Folded      =  7143424
# Data Avg         =  0.0282808690525338
# Data StdDev      =  1.00000429391405 
# Profile Bins     =  512
# Profile Avg      =  394.632708433639 
# Profile StdDev   =  118.119091672917 
# Reduced chi-sqr  =  1.152
# Prob(Noise)      <  0.00962   (~2.3 sigma)
# P_topo (ms)      =  714.502943747249  +/- 0.000141
# P'_topo (s/s)    =  -0                +/- 7.67e-11
# P''_topo (s/s^2) =  0                 +/- 3.48e-14
# P_bary (ms)      =  N/A
# P'_bary (s/s)    =  N/A
# P''_bary (s/s^2) =  N/A
# P_orb (s)        =  N/A
# asin(i)/c (s)    =  N/A
# eccentricity     =  N/A
# w (rad)          =  N/A
# T_peri           =  N/A
######################################################
   0  858.5366
   1  837.3144
   2  674.4169
   3  511.1836
   4  495.3722
   5  496.7093
   6  605.7441
   7  465.0146
   8  359.8878
   9  303.543
  10  348.9521
  11  292.9181
  12  406.2347
  13  411.0773
  14  384.3503
  15  572.1288
  16  518.5464
  17  450.1561
  18  283.0013
  19  318.8327
  20  491.374
  21  476.5848
  22  358.6078
  23  360.5299
  24  436.5197
  25  454.484
  26  461.5413
  27  454.6367
  28  521.6612
  29  419.6259
  30  338.0439
  31  362.9562
  32  380.7133
  33  282.8298
  34  301.649
  35  389.9321
  36  394.9361
  37  408.739
  38  330.623
  39  287.7096
  40  308.4639
  41  369.0471
  42  406.7866
  43  364.0768
  44  369.1371
  45  421.4761
  46  372.6566
  47  287.1204
  48  300.8579
  49  239.4394
  50  266.7239
  51  245.3361
  52  306.6276
  53  338.5057
  54  325.2802
  55  309.506
  56  277.4704
  57  261.7102
  58  387.1883
  59  356.9705
  60  401.5445
  61  295.5566
  62  151.9256
  63  297.3418
  64  345.941
  65  378.1057
  66  361.1895
  67  325.2519
  68  300.6581
  69  318.4548
  70  517.1534
  71  448.4928
  72  344.1319
  73  341.5631
  74  190.2956
  75  240.48
  76  341.3925
  77  315.9142
  78  404.2213
  79  563.4525
  80  496.8462
  81  356.4952
  82  387.5447
  83  278.4499
  84  323.7335
  85  469.0265
  86  575.5818
  87  502.4484
  88  339.7381
  89  267.7679
  90  361.9582
  91  380.1075
  92  477.2697
  93  488.1464
  94  452.4776
  95  498.9528
  96  489.7755
  97  428.1667
  98  356.3654
  99  312.4197
 100  467.2892
 101  511.7088
 102  468.3801
 103  524.8878
 104  402.1006
 105  394.2101
 106  432.0734
 107  353.1038
 108  347.9864
 109  491.217
 110  558.7678
 111  493.3738
 112  405.9221
 113  402.8546
 114  428.647
 115  435.8146
 116  362.5398
 117  198.3712
 118  335.564
 119  336.5456
 120  256.0925
 121  232.5015
 122  283.9301
 123  190.8575
 124  317.1135
 125  330.5211
 126  351.2231
 127  124.8409
 128  238.8531
 129  273.004
 130  297.4
 131  394.0214
 132  354.5168
 133  372.8266
 134  359.2725
 135  494.4594
 136  474.0439
 137  436.2408
 138  442.5098
 139  380.1245
 140  353.2495
 141  404.1005
 142  408.6122
 143  474.6841
 144  444.3539
 145  385.1448
 146  404.2234
 147  349.6476
 148  392.5529
 149  394.7796
 150  332.4321
 151  380.6651
 152  343.7759
 153  548.2958
 154  447.9663
 155  364.9051
 156  268.4954
 157  433.2433
 158  480.6913
 159  383.3477
 160  412.1709
 161  527.8139
 162  518.3133
 163  491.0153
 164  441.1342
 165  361.6394
 166  456.3955
 167  323.0947
 168  398.9449
 169  480.546
 170  448.25
 171  368.8865
 172  339.0096
 173  332.7632
 174  369.0491
 175  539.82
 176  507.416
 177  376.7871
 178  391.66
 179  353.748
 180  306.759
 181  300.0552
 182  442.0384
 183  406.2008
 184  332.6906
 185  328.119
 186  356.7975
 187  438.0343
 188  439.5444
 189  448.965
 190  473.0958
 191  586.2405
 192  466.9467
 193  330.898
 194  364.1553
 195  451.9585
 196  291.563
 197  354.7253
 198  345.6355
 199  530.6926
 200  480.0654
 201  477.8582
 202  392.7781
 203  520.7405
 204  425.4008
 205  256.9939
 206  316.9742
 207  496.2166
 208  501.4629
 209  483.4624
 210  473.6826
 211  309.4648
 212  325.7286
 213  490.9978
 214  359.1473
 215  357.6447
 216  302.1965
 217  390.8045
 218  494.2242
 219  518.6204
 220  451.2023
 221  508.6404
 222  572.2043
 223  429.2383
 224  311.7668
 225  263.1677
 226  405.072
 227  389.7275
 228  282.4206
 229  284.8265
 230  341.9955
 231  311.9974
 232  228.041
 233  458.0462
 234  416.6687
 235  351.0831
 236  370.4059
 237  355.0315
 238  421.2525
 239  288.0644
 240  326.4339
 241  439.4349
 242  521.0818
 243  582.3051
 244  496.322
 245  406.3334
 246  454.046
 247  456.4426
 248  396.3865
 249  399.1862
 250  539.9204
 251  367.2476
 252  337.5884
 253  358.7668
 254  365.4471
 255  318.7284
 256  357.8997
 257  393.1885
 258  433.3282
 259  434.465
 260  421.8909
 261  456.5546
 262  371.5057
 263  436.1352
 264  542.5754
 265  454.3063
 266  343.5929
 267  316.9943
 268  384.8648
 269  382.7227
 270  304.1277
 271  343.6709
 272  380.8205
 273  348.0332
 274  337.7215
 275  398.8389
 276  536.5374
 277  471.9977
 278  336.6678
 279  316.4333
 280  296.7245
 281  335.0106
 282  268.6547
 283  268.4681
 284  381.3957
 285  491.7456
 286  374.5608
 287  325.6529
 288  273.0017
 289  253.5864
 290  338.7965
 291  452.3782
 292  426.7796
 293  472.4747
 294  333.8277
 295  310.3873
 296  356.2038
 297  459.027
 298  500.8334
 299  399.2892
 300  491.6212
 301  481.4893
 302  397.9041
 303  384.4276
 304  417.3866
 305  370.4787
 306  366.5218
 307  509.1664
 308  500.9551
 309  489.7605
 310  502.9932
 311  412.9286
 312  533.1527
 313  496.8388
 314  448.8812
 315  387.934
 316  551.3636
 317  447.2968
 318  352.9723
 319  270.0251
 320  448.7904
 321  566.0486
 322  404.5392
 323  389.7524
 324  481.739
 325  459.0013
 326  431.0996
 327  326.7346
 328  368.2933
 329  357.4232
 330  441.4647
 331  374.912
 332  457.3787
 333  415.1573
 334  375.2747
 335  382.4737
 336  407.7616
 337  347.8519
 338  348.3596
 339  310.7617
 340  337.9456
 341  390.5067
 342  362.5084
 343  371.8006
 344  316.5463
 345  276.147
 346  322.1196
 347  400.136
 348  463.0371
 349  432.2882
 350  352.6591
 351  434.3497
 352  340.0518
 353  337.7172
 354  370.311
 355  311.4264
 356  317.9771
 357  368.8438
 358  434.4151
 359  408.5351
 360  279.3381
 361  236.1185
 362  217.7678
 363  322.5526
 364  350.3467
 365  394.6495
 366  430.5003
 367  541.327
 368  407.2549
 369  412.994
 370  531.0601
 371  379.9317
 372  354.7516
 373  436.7789
 374  383.1679
 375  352.1403
 376  419.6946
 377  416.8656
 378  352.5294
 379  348.6037
 380  375.9947
 381  501.7679
 382  472.4216
 383  490.5172
 384  352.8862
 385  309.2539
 386  467.2779
 387  436.4294
 388  423.9813
 389  510.3687
 390  477.6029
 391  486.7863
 392  403.1615
 393  421.5473
 394  456.1023
 395  522.454
 396  426.9709
 397  419.797
 398  504.9481
 399  365.0896
 400  449.7848
 401  418.757
 402  450.6595
 403  387.4208
 404  349.363
 405  374.5938
 406  421.1535
 407  424.4165
 408  350.0417
 409  386.2354
 410  409.0104
 411  422.9637
 412  295.2295
 413  251.0515
 414  227.9032
 415  353.4969
 416  448.2973
 417  283.1239
 418  350.8516
 419  402.0394
 420  367.4982
 421  344.0811
 422  353.2435
 423  383.2717
 424  390.9789
 425  475.7919
 426  384.377
 427  401.0105
 428  393.417
 429  419.7563
 430  436.9025
 431  417.7261
 432  427.2224
 433  456.2727
 434  375.5318
 435  353.3423
 436  409.1179
 437  364.1425
 438  347.9725
 439  391.824
 440  306.6318
 441  322.9956
 442  208.6892
 443  285.3136
 444  427.6473
 445  384.3947
 446  383.9508
 447  365.3375
 448  476.6562
 449  487.3149
 450  488.5722
 451  445.6411
 452  276.7992
 453  248.2056
 454  291.3561
 455  327.4689
 456  340.5642
 457  274.0151
 458  356.9279
 459  425.3596
 460  314.0112
 461  313.6276
 462  429.7274
 463  451.64
 464  389.0497
 465  343.9691
 466  385.6273
 467  494.8295
 468  457.0545
 469  470.8545
 470  402.8242
 471  379.3832
 472  465.1685
 473  447.4874
 474  403.3396
 475  414.5235
 476  492.93
 477  454.5313
 478  369.924
 479  307.6067
 480  360.1943
 481  253.6749
 482  303.9025
 483  423.7655
 484  422.9276
 485  331.5954
 486  155.3515
 487  263.345
 488  236.5538
 489  271.6066
 490  143.2514
 491  161.6019
 492  350.9488
 493  383.9357
 494  516.8305
 495  437.4731
 496  465.9234
 497  355.6116
 498  267.6371
 499  352.1837
 500  450.3598
 501  471.9789
 502  411.6204
 503  337.9672
 504  372.7848
 505  355.5666
 506  448.7948
 507  476.9848
 508  662.3763
 509  728.4385
 510  771.5757
 511  853.9448
