# Input file       =  1194812911.096002_cleaned.dat
# Candidate        =  PSR_0332+5434
# Telescope        =  AR
# Epoch_topo       =  58072.852929351873
# Epoch_bary       =  N/A
# T_sample         =  0.002
# Data Folded      =  7340032
# Data Avg         =  0.023040863162271
# Data StdDev      =  0.999889949873888
# Profile Bins     =  512
# Profile Avg      =  330.325741628606 
# Profile StdDev   =  119.719859741013 
# Reduced chi-sqr  =  0.929
# Prob(Noise)      <  0.872   (~0.0 sigma)
# P_topo (ms)      =  714.510065528115  +/- 0.000334
# P'_topo (s/s)    =  -0                +/- 1.76e-10
# P''_topo (s/s^2) =  0                 +/- 7.79e-14
# P_bary (ms)      =  N/A
# P'_bary (s/s)    =  N/A
# P''_bary (s/s^2) =  N/A
# P_orb (s)        =  N/A
# asin(i)/c (s)    =  N/A
# eccentricity     =  N/A
# w (rad)          =  N/A
# T_peri           =  N/A
######################################################
   0  723.3499
   1  749.2827
   2  609.934
   3  401.6414
   4  302.8953
   5  357.0482
   6  313.3723
   7  256.347
   8  294.7628
   9  376.9308
  10  357.4356
  11  334.0858
  12  418.2314
  13  508.4357
  14  394.1515
  15  378.2726
  16  423.7859
  17  487.5087
  18  469.5094
  19  286.892
  20  305.6848
  21  261.0076
  22  277.6339
  23  361.0887
  24  301.8438
  25  347.919
  26  337.9316
  27  384.8198
  28  480.6607
  29  418.3445
  30  304.1346
  31  323.0858
  32  428.2751
  33  309.2778
  34  256.2302
  35  296.614
  36  261.2474
  37  366.072
  38  259.5615
  39  185.1805
  40  305.9951
  41  377.5657
  42  255.4513
  43  273.2155
  44  318.869
  45  262.048
  46  245.5809
  47  142.4953
  48  81.759
  49  197.7878
  50  271.7307
  51  287.1382
  52  204.0454
  53  305.8916
  54  353.9987
  55  348.0382
  56  370.1264
  57  307.4009
  58  276.0844
  59  333.1444
  60  259.7145
  61  266.6507
  62  430.5415
  63  330.1865
  64  261.8088
  65  195.8629
  66  147.6031
  67  234.3153
  68  277.3621
  69  280.6342
  70  144.161
  71  232.6448
  72  360.2153
  73  327.7294
  74  279.5792
  75  269.7314
  76  331.7328
  77  308.7343
  78  288.7519
  79  279.4305
  80  304.4251
  81  315.0048
  82  376.8733
  83  314.6772
  84  276.9055
  85  344.1109
  86  322.5677
  87  188.8312
  88  275.3422
  89  391.2402
  90  341.152
  91  263.5749
  92  272.6163
  93  332.012
  94  338.9508
  95  264.6749
  96  268.2292
  97  333.3785
  98  485.0894
  99  333.7634
 100  282.8596
 101  456.453
 102  501.4187
 103  388.1846
 104  268.2798
 105  334.6395
 106  376.0007
 107  344.5105
 108  396.2786
 109  426.4932
 110  392.5009
 111  294.7058
 112  317.8823
 113  294.0955
 114  346.9322
 115  291.7802
 116  233.2128
 117  187.3505
 118  336.1969
 119  414.1945
 120  213.8269
 121  124.2335
 122  363.3624
 123  395.6541
 124  397.9021
 125  209.2383
 126  265.6792
 127  296.0461
 128  220.245
 129  295.0198
 130  381.9636
 131  300.6716
 132  306.6634
 133  161.2902
 134  176.57
 135  321.8366
 136  314.8121
 137  369.8029
 138  317.3552
 139  357.0243
 140  375.8668
 141  271.8433
 142  158.3632
 143  265.0473
 144  270.5536
 145  241.2737
 146  265.8161
 147  316.2975
 148  395.1094
 149  398.17
 150  359.6104
 151  296.3247
 152  157.3386
 153  336.6437
 154  355.1908
 155  306.629
 156  261.4117
 157  289.509
 158  254.6238
 159  333.7228
 160  382.702
 161  295.599
 162  216.6922
 163  225.9622
 164  264.2632
 165  299.8544
 166  313.7974
 167  497.1277
 168  508.6124
 169  501.4927
 170  387.5674
 171  309.0081
 172  325.8671
 173  313.2523
 174  383.0111
 175  356.4333
 176  323.6455
 177  326.54
 178  254.707
 179  326.3537
 180  356.4413
 181  340.7773
 182  269.58
 183  271.8202
 184  256.7496
 185  269.4648
 186  286.7466
 187  242.32
 188  293.9527
 189  349.4061
 190  255.086
 191  315.8011
 192  284.1214
 193  381.4835
 194  235.9219
 195  204.5878
 196  328.1391
 197  283.6955
 198  176.8077
 199  307.8087
 200  404.8542
 201  366.1519
 202  265.1559
 203  307.9456
 204  253.5657
 205  370.3455
 206  353.9746
 207  386.8924
 208  328.7067
 209  217.671
 210  202.8487
 211  342.8611
 212  309.8054
 213  210.022
 214  239.3184
 215  195.7444
 216  298.2817
 217  429.1824
 218  401.0215
 219  361.2962
 220  349.0647
 221  273.0512
 222  187.7696
 223  252.2787
 224  345.7463
 225  271.6554
 226  264.6456
 227  293.1515
 228  305.5263
 229  235.2986
 230  279.7953
 231  356.1522
 232  339.5334
 233  374.3122
 234  427.043
 235  472.0765
 236  337.4483
 237  298.661
 238  269.8716
 239  312.8551
 240  276.1818
 241  418.3855
 242  373.883
 243  287.9983
 244  232.7184
 245  343.2112
 246  489.2549
 247  422.7131
 248  313.5851
 249  281.8007
 250  240.118
 251  184.3723
 252  256.0146
 253  353.4716
 254  372.0742
 255  413.1561
 256  365.84
 257  202.4853
 258  245.6541
 259  278.287
 260  375.6405
 261  246.1466
 262  250.3962
 263  315.2909
 264  327.6026
 265  309.0501
 266  298.8009
 267  307.2742
 268  395.2126
 269  379.7315
 270  426.6438
 271  327.8844
 272  319.6914
 273  417.227
 274  439.2626
 275  399.1306
 276  335.2171
 277  183.2546
 278  252.3095
 279  366.05
 280  413.8464
 281  340.6162
 282  457.8079
 283  471.0209
 284  282.526
 285  320.8154
 286  325.7912
 287  348.5107
 288  324.1053
 289  327.1205
 290  295.4585
 291  245.3507
 292  295.0424
 293  260.0154
 294  261.0214
 295  282.7461
 296  406.9783
 297  370.0244
 298  365.7632
 299  197.7401
 300  126.2553
 301  274.7817
 302  352.8843
 303  363.6767
 304  367.4485
 305  236.4268
 306  222.2447
 307  257.2969
 308  323.2307
 309  450.4588
 310  382.1753
 311  409.1383
 312  270.6812
 313  247.1278
 314  354.8868
 315  406.0184
 316  373.786
 317  367.8615
 318  413.1782
 319  355.0898
 320  281.2972
 321  269.4684
 322  358.9554
 323  350.1786
 324  307.4831
 325  306.822
 326  350.8847
 327  303.9147
 328  311.7021
 329  294.9897
 330  257.3782
 331  348.7961
 332  334.4551
 333  328.9647
 334  379.7331
 335  404.0461
 336  415.6207
 337  409.6274
 338  361.1672
 339  332.298
 340  392.7595
 341  354.1468
 342  319.5157
 343  336.2865
 344  334.5257
 345  350.054
 346  327.5355
 347  257.8947
 348  204.8656
 349  396.05
 350  350.717
 351  195.4033
 352  228.2068
 353  261.2536
 354  278.3396
 355  319.6665
 356  371.6537
 357  198.6468
 358  174.976
 359  254.1355
 360  349.2703
 361  282.5975
 362  394.5934
 363  294.6498
 364  317.3596
 365  369.4821
 366  314.9932
 367  344.9098
 368  326.6092
 369  361.5101
 370  379.0902
 371  277.7733
 372  428.7861
 373  475.5604
 374  372.621
 375  471.1639
 376  428.8394
 377  350.2508
 378  371.2384
 379  425.1805
 380  344.6971
 381  256.2534
 382  388.3716
 383  482.205
 384  443.6273
 385  414.5573
 386  521.8938
 387  423.935
 388  381.1114
 389  302.7526
 390  289.4335
 391  317.3469
 392  332.1463
 393  365.2702
 394  263.4311
 395  283.4402
 396  325.6201
 397  340.9268
 398  420.8331
 399  304.4825
 400  384.7217
 401  385.9373
 402  372.6101
 403  263.6044
 404  275.9164
 405  298.4715
 406  268.559
 407  324.1453
 408  382.5086
 409  427.3896
 410  257.1617
 411  257.1644
 412  331.7335
 413  275.0573
 414  320.9469
 415  339.3712
 416  311.8762
 417  361.4426
 418  429.6509
 419  439.2873
 420  412.3958
 421  389.0229
 422  362.5988
 423  366.2256
 424  330.3095
 425  374.3369
 426  374.0049
 427  295.9632
 428  372.312
 429  393.8641
 430  402.1464
 431  353.4666
 432  292.8651
 433  266.5659
 434  309.1121
 435  354.0999
 436  326.7614
 437  293.5693
 438  305.9117
 439  260.6813
 440  343.9077
 441  276.9024
 442  336.9045
 443  386.541
 444  348.9258
 445  335.8978
 446  442.5356
 447  424.3031
 448  219.2621
 449  271.4522
 450  379.4351
 451  280.6679
 452  317.1409
 453  295.4425
 454  406.769
 455  332.264
 456  299.0142
 457  320.7005
 458  411.0205
 459  348.2211
 460  366.5593
 461  445.4252
 462  330.9955
 463  392.6511
 464  445.1133
 465  485.325
 466  399.1056
 467  302.0546
 468  302.3622
 469  325.542
 470  253.3824
 471  372.5661
 472  415.7783
 473  362.0439
 474  364.4397
 475  366.0896
 476  291.3614
 477  234.4463
 478  218.7467
 479  285.9696
 480  278.3551
 481  259.596
 482  265.004
 483  321.5734
 484  457.3501
 485  297.9176
 486  322.8741
 487  362.9258
 488  317.7185
 489  461.4903
 490  409.0426
 491  480.347
 492  386.0039
 493  326.3893
 494  332.5531
 495  309.2502
 496  254.8791
 497  326.2414
 498  383.7392
 499  411.2135
 500  375.7095
 501  412.2979
 502  249.6165
 503  254.9933
 504  332.27
 505  393.1327
 506  408.5056
 507  493.9657
 508  549.5511
 509  620.1217
 510  766.9713
 511  823.9874
