# Input file       =  1194366952.10939_cleaned.dat
# Candidate        =  PSR_0332+5434
# Telescope        =  AR
# Epoch_topo       =  58067.691367006832
# Epoch_bary       =  N/A
# T_sample         =  0.002
# Data Folded      =  7208960
# Data Avg         =  0.0206300213825032
# Data StdDev      =  1.00016537229182 
# Profile Bins     =  512
# Profile Avg      =  290.443694676253 
# Profile StdDev   =  118.678798733377 
# Reduced chi-sqr  =  1.064
# Prob(Noise)      <  0.153   (~1.0 sigma)
# P_topo (ms)      =  714.504889628712  +/- 0.000181
# P'_topo (s/s)    =  -0                +/- 9.73e-11
# P''_topo (s/s^2) =  0                 +/- 4.37e-14
# P_bary (ms)      =  N/A
# P'_bary (s/s)    =  N/A
# P''_bary (s/s^2) =  N/A
# P_orb (s)        =  N/A
# asin(i)/c (s)    =  N/A
# eccentricity     =  N/A
# w (rad)          =  N/A
# T_peri           =  N/A
######################################################
   0  875.3997
   1  816.1706
   2  631.0754
   3  506.6053
   4  255.4047
   5  247.4187
   6  214.2793
   7  262.5513
   8  261.9021
   9  297.6406
  10  321.3657
  11  309.0327
  12  372.5952
  13  332.0905
  14  353.4912
  15  294.0661
  16  306.2458
  17  302.4765
  18  404.7251
  19  250.6561
  20  272.5512
  21  394.2571
  22  228.861
  23  185.6773
  24  193.1044
  25  221.1069
  26  270.8958
  27  249.6603
  28  423.7119
  29  256.6058
  30  162.2876
  31  242.0601
  32  223.9558
  33  206.0355
  34  382.4695
  35  365.0779
  36  319.2883
  37  237.0866
  38  253.103
  39  212.8469
  40  300.0759
  41  228.478
  42  224.6425
  43  207.1556
  44  146.9711
  45  319.6401
  46  435.1164
  47  421.307
  48  194.8208
  49  95.14241
  50  106.8257
  51  382.1967
  52  389.9668
  53  171.6734
  54  170.3966
  55  210.4487
  56  337.5012
  57  218.6575
  58  241.8548
  59  330.2829
  60  340.3317
  61  337.4756
  62  217.5696
  63  142.3634
  64  193.1945
  65  207.8696
  66  251.9493
  67  274.5954
  68  160.8232
  69  235.1384
  70  273.2739
  71  178.728
  72  194.4683
  73  278.5354
  74  370.6679
  75  373.381
  76  333.5795
  77  450.964
  78  259.2089
  79  175.7247
  80  177.7392
  81  244.7527
  82  245.1965
  83  275.5366
  84  239.0112
  85  243.6776
  86  253.4721
  87  328.8787
  88  389.2278
  89  310.1726
  90  256.2706
  91  272.5866
  92  304.8782
  93  207.4617
  94  164.1232
  95  237.5276
  96  334.3358
  97  363.8847
  98  318.2321
  99  303.1901
 100  422.0219
 101  248.5992
 102  201.1743
 103  322.0475
 104  331.789
 105  405.343
 106  439.1763
 107  318.7208
 108  266.8559
 109  388.4421
 110  286.5037
 111  184.2953
 112  193.1374
 113  221.5434
 114  262.9902
 115  159.3586
 116  170.9685
 117  277.0316
 118  302.6183
 119  238.7653
 120  298.8145
 121  473.63
 122  476.3859
 123  309.6352
 124  231.1741
 125  218.6331
 126  113.2402
 127  168.694
 128  300.7557
 129  341.0222
 130  296.5635
 131  216.0228
 132  296.2671
 133  362.1921
 134  348.4542
 135  228.5945
 136  269.3591
 137  279.1477
 138  265.7525
 139  260.166
 140  207.4871
 141  178.536
 142  146.6544
 143  221.2222
 144  375.4585
 145  373.3279
 146  344.583
 147  402.8347
 148  305.3166
 149  256.0923
 150  320.9829
 151  397.3463
 152  252.0293
 153  277.6858
 154  213.553
 155  262.3903
 156  102.7294
 157  224.2709
 158  371.9832
 159  253.2724
 160  191.1591
 161  258.6544
 162  199.9829
 163  238.2861
 164  339.6126
 165  332.3037
 166  419.8453
 167  402.6966
 168  287.9079
 169  324.7349
 170  457.4985
 171  388.4559
 172  257.854
 173  154.5784
 174  319.4149
 175  312.7744
 176  270.8906
 177  353.0193
 178  340.2727
 179  351.045
 180  266.1844
 181  376.6761
 182  349.9005
 183  200.9409
 184  230.3325
 185  223.6177
 186  358.5288
 187  356.1434
 188  386.146
 189  358.0358
 190  269.4188
 191  274.864
 192  331.1352
 193  292.4069
 194  318.7262
 195  199.7727
 196  305.2112
 197  283.7742
 198  347.5237
 199  231.5809
 200  325.1749
 201  366.6757
 202  329.1987
 203  347.2296
 204  347.8355
 205  307.5929
 206  346.6255
 207  408.7654
 208  261.1826
 209  260.5444
 210  311.9717
 211  287.5547
 212  177.542
 213  271.9538
 214  373.5841
 215  296.6553
 216  238.5036
 217  328.9273
 218  427.8711
 219  309.5085
 220  298.2174
 221  411.3697
 222  373.4642
 223  230.8217
 224  345.0663
 225  438.9971
 226  211.3521
 227  264.583
 228  283.6132
 229  277.0219
 230  332.2153
 231  376.4213
 232  371.5495
 233  263.9292
 234  139.9153
 235  287.0894
 236  305.9537
 237  205.336
 238  176.8176
 239  285.7571
 240  339.3583
 241  247.3119
 242  267.6468
 243  347.8978
 244  334.6052
 245  356.8692
 246  327.5113
 247  283.6406
 248  371.1566
 249  398.2012
 250  337.2722
 251  353.2468
 252  403.3184
 253  264.8453
 254  367.6481
 255  323.203
 256  228.7549
 257  304.3995
 258  347.167
 259  263.0242
 260  264.8471
 261  369.4549
 262  444.096
 263  319.4852
 264  242.2595
 265  189.4819
 266  245.5182
 267  336.9218
 268  356.4342
 269  497.5029
 270  464.7553
 271  349.1624
 272  390.9773
 273  390.6169
 274  219.4205
 275  281.7305
 276  244.4342
 277  325.097
 278  379.2778
 279  395.9274
 280  347.7277
 281  352.3352
 282  394.9666
 283  412.857
 284  273.2847
 285  284.9316
 286  286.7012
 287  332.2844
 288  323.9671
 289  265.3762
 290  261.8125
 291  237.2996
 292  163.0114
 293  191.4062
 294  292.2576
 295  370.072
 296  363.999
 297  240.6851
 298  226.9448
 299  257.2552
 300  217.8046
 301  139.3402
 302  212.3549
 303  275.4989
 304  185.3603
 305  262.1581
 306  237.5866
 307  320.1421
 308  363.242
 309  469.5357
 310  381.3188
 311  427.9841
 312  306.9149
 313  317.4554
 314  233.7577
 315  262.338
 316  247.4718
 317  167.8705
 318  223.3751
 319  249.568
 320  244.2464
 321  276.0681
 322  129.491
 323  258.2637
 324  234.1519
 325  111.3969
 326  248.8281
 327  234.1095
 328  148.631
 329  201.461
 330  261.1729
 331  322.4891
 332  317.9169
 333  275.7353
 334  159.6525
 335  226.5733
 336  192.454
 337  151.5247
 338  131.0647
 339  152.8549
 340  335.6333
 341  341.2685
 342  266.1102
 343  296.7314
 344  261.4462
 345  204.0278
 346  218.9289
 347  233.9365
 348  307.5268
 349  294.3554
 350  137.0408
 351  281.3186
 352  296.1071
 353  225.8716
 354  228.0935
 355  230.5338
 356  353.0198
 357  284.6298
 358  199.8152
 359  197.0654
 360  246.5584
 361  332.8938
 362  261.9259
 363  259.2452
 364  276.4099
 365  304.3024
 366  200.8456
 367  181.727
 368  389.212
 369  425.4661
 370  230.5141
 371  188.7037
 372  309.7308
 373  168.7968
 374  221.8623
 375  304.848
 376  339.7149
 377  210.2172
 378  185.2442
 379  224.5726
 380  311.4265
 381  396.7529
 382  361.0923
 383  228.7917
 384  299.0322
 385  299.1171
 386  299.1851
 387  280.7074
 388  256.0169
 389  299.8274
 390  265.124
 391  177.3607
 392  214.9059
 393  221.4641
 394  378.5513
 395  410.5721
 396  308.6411
 397  299.3507
 398  247.6243
 399  230.2271
 400  270.6504
 401  285.3535
 402  338.8796
 403  210.01
 404  301.7455
 405  365.1873
 406  445.5794
 407  368.6456
 408  222.0911
 409  225.0417
 410  277.9048
 411  353.0383
 412  377.7416
 413  419.4825
 414  298.7777
 415  307.7944
 416  370.5893
 417  258.752
 418  236.7321
 419  267.4903
 420  221.3848
 421  230.0844
 422  143.6645
 423  187.7719
 424  244.3605
 425  166.8202
 426  220.1138
 427  248.353
 428  249.3294
 429  218.9816
 430  193.0353
 431  212.8702
 432  177.2946
 433  203.6611
 434  313.3959
 435  273.1385
 436  217.5713
 437  220.9231
 438  273.5475
 439  281.0833
 440  238.8681
 441  328.0925
 442  364.9156
 443  406.113
 444  411.9778
 445  326.9655
 446  289.748
 447  258.4554
 448  195.4325
 449  225.476
 450  191.3797
 451  136.5465
 452  214.7385
 453  263.305
 454  426.0938
 455  419.6702
 456  361.0064
 457  307.2426
 458  317.1767
 459  362.6057
 460  226.3422
 461  234.7171
 462  326.0955
 463  311.9106
 464  239.8161
 465  265.9921
 466  349.0178
 467  308.5272
 468  297.1242
 469  178.4806
 470  146.7179
 471  181.3496
 472  306.5103
 473  344.5384
 474  309.5035
 475  311.8011
 476  342.5716
 477  249.9136
 478  277.2769
 479  300.5888
 480  243.0259
 481  269.5266
 482  270.9432
 483  196.4046
 484  274.1681
 485  383.4929
 486  351.0295
 487  279.1638
 488  301.0132
 489  329.4567
 490  198.8559
 491  237.9585
 492  373.1862
 493  287.257
 494  320.8655
 495  440.8457
 496  334.124
 497  355.8449
 498  359.9454
 499  356.7475
 500  334.7781
 501  323.2573
 502  304.3745
 503  354.5118
 504  372.9146
 505  357.5646
 506  469.4713
 507  360.7375
 508  504.6516
 509  477.1885
 510  582.3136
 511  754.3105
