# Input file       =  1194884445.113245_cleaned.dat
# Candidate        =  PSR_0332+5434
# Telescope        =  AR
# Epoch_topo       =  58073.680869366261
# Epoch_bary       =  N/A
# T_sample         =  0.002
# Data Folded      =  7208960
# Data Avg         =  0.0279380779633362
# Data StdDev      =  1.00009622220397 
# Profile Bins     =  512
# Profile Avg      =  393.295827021861 
# Profile StdDev   =  118.670593440947 
# Reduced chi-sqr  =  1.406
# Prob(Noise)      <  3.3e-09   (~5.8 sigma)
# P_topo (ms)      =  714.510883006879  +/- 6.24e-05
# P'_topo (s/s)    =  -0                +/- 3.35e-11
# P''_topo (s/s^2) =  0                 +/- 1.51e-14
# P_bary (ms)      =  N/A
# P'_bary (s/s)    =  N/A
# P''_bary (s/s^2) =  N/A
# P_orb (s)        =  N/A
# asin(i)/c (s)    =  N/A
# eccentricity     =  N/A
# w (rad)          =  N/A
# T_peri           =  N/A
######################################################
   0  1016.465
   1  1010.919
   2  948.456
   3  787.7579
   4  500.4703
   5  413.9135
   6  408.6111
   7  403.1276
   8  305.9072
   9  446.6124
  10  493.9082
  11  518.4687
  12  459.5566
  13  473.9129
  14  440.461
  15  502.4561
  16  457.5932
  17  453.9825
  18  498.6231
  19  416.733
  20  286.7865
  21  360.3143
  22  449.6546
  23  428.3017
  24  450.604
  25  470.0717
  26  374.0397
  27  335.8901
  28  433.97
  29  282.009
  30  388.5417
  31  426.1499
  32  514.963
  33  516.8832
  34  581.0118
  35  547.3646
  36  407.2395
  37  457.0652
  38  509.4341
  39  431.1919
  40  425.2915
  41  388.9305
  42  538.9695
  43  531.2154
  44  427.3607
  45  285.8099
  46  338.8362
  47  400.3862
  48  354.116
  49  339.9738
  50  370.5829
  51  306.6161
  52  356.1604
  53  260.6008
  54  344.9507
  55  406.5353
  56  441.887
  57  484.4683
  58  405.1104
  59  308.7168
  60  361.9417
  61  356.7989
  62  340.294
  63  407.2939
  64  382.9505
  65  366.2872
  66  441.3468
  67  313.2655
  68  343.7035
  69  422.9414
  70  361.9932
  71  413.1932
  72  378.7151
  73  314.7085
  74  418.6772
  75  394.2062
  76  313.4143
  77  419.6152
  78  435.5593
  79  409.075
  80  319.4305
  81  388.8121
  82  499
  83  452.8108
  84  366.4398
  85  529.0839
  86  545.7912
  87  426.9659
  88  345.7128
  89  463.3444
  90  537.5865
  91  390.8284
  92  469.3017
  93  423.1421
  94  446.9866
  95  419.7355
  96  369.435
  97  433.7284
  98  369.5755
  99  463.0587
 100  478.4479
 101  293.4608
 102  290.7406
 103  313.0045
 104  357.3827
 105  369.2576
 106  322.6754
 107  236.3221
 108  262.2504
 109  369.6335
 110  415.9871
 111  375.4832
 112  236.5701
 113  409.2363
 114  437.0415
 115  262.7445
 116  381.9808
 117  375.3232
 118  369.8413
 119  237.4129
 120  153.3967
 121  295.8112
 122  271.8853
 123  166.4452
 124  256.5158
 125  447.3579
 126  422.1166
 127  316.4274
 128  441.0536
 129  461.3269
 130  468.2208
 131  315.5792
 132  324.1036
 133  386.3341
 134  368.9663
 135  358.6407
 136  531.4163
 137  545.4406
 138  336.2552
 139  394.3334
 140  359.3715
 141  301.7526
 142  392.5945
 143  411.2218
 144  473.7766
 145  398.1139
 146  356.9349
 147  377.5227
 148  458.3714
 149  512.7197
 150  519.1165
 151  386.3282
 152  357.9523
 153  301.6601
 154  453.4397
 155  429.8825
 156  314.235
 157  354.4114
 158  299.376
 159  215.2715
 160  399.7877
 161  416.5774
 162  308.6855
 163  335.0446
 164  337.4105
 165  348.9742
 166  365.699
 167  403.6391
 168  453.3727
 169  393.9664
 170  292.1022
 171  380.7286
 172  345.7352
 173  315.9217
 174  364.8528
 175  357.621
 176  384.748
 177  417.4621
 178  453.6586
 179  400.4659
 180  253.2393
 181  368.2802
 182  341.9172
 183  357.7362
 184  304.6787
 185  294.0413
 186  377.8528
 187  304.6977
 188  377.6436
 189  325.6277
 190  372.969
 191  326.452
 192  350.7742
 193  379.719
 194  251.0339
 195  294.0971
 196  377.5713
 197  304.101
 198  344.5526
 199  404.7694
 200  296.136
 201  49.1032
 202  122.0808
 203  315.5009
 204  256.4192
 205  227.9201
 206  275.6436
 207  265.0537
 208  304.5735
 209  293.3954
 210  355.7876
 211  390.0348
 212  281.3815
 213  384.5951
 214  420.2273
 215  333.3232
 216  317.7718
 217  326.8439
 218  321.9224
 219  273.9536
 220  327.4709
 221  481.8577
 222  435.6467
 223  359.7018
 224  383.3851
 225  433.0104
 226  397.9899
 227  380.4362
 228  331.9602
 229  411.1209
 230  321.3921
 231  413.3854
 232  462.8839
 233  456.9965
 234  407.5994
 235  435.4804
 236  452.3663
 237  335.4912
 238  478.9193
 239  590.5805
 240  410.7965
 241  333.5516
 242  461.8523
 243  562.3253
 244  333.9947
 245  316.0746
 246  370.9878
 247  336.3766
 248  307.8946
 249  216.3813
 250  344.1513
 251  366.7443
 252  450.2418
 253  549.2494
 254  657.3134
 255  510.8089
 256  389.0694
 257  456.8808
 258  474.2143
 259  402.1377
 260  412.044
 261  398.3026
 262  392.8413
 263  431.2491
 264  412.9422
 265  281.456
 266  387.183
 267  375.3005
 268  340.898
 269  294.8418
 270  425.376
 271  508.2217
 272  435.6474
 273  460.1687
 274  354.2483
 275  409.5323
 276  375.7784
 277  398.9203
 278  415.1246
 279  490.1578
 280  466.3311
 281  429.5724
 282  444.6104
 283  440.965
 284  270.1927
 285  313.0028
 286  388.7525
 287  432.4189
 288  336.8669
 289  341.2915
 290  359.8219
 291  402.8392
 292  271.0644
 293  430.3186
 294  397.494
 295  293.6717
 296  266.7526
 297  301.3959
 298  363.063
 299  316.6803
 300  487.019
 301  443.3344
 302  326.9563
 303  446.1245
 304  510.3633
 305  416.3444
 306  358.1958
 307  416.1811
 308  433.6255
 309  330.0161
 310  332.2628
 311  491.2962
 312  458.7899
 313  194.9977
 314  233.0108
 315  280.7976
 316  422.9742
 317  451.9268
 318  462.8969
 319  355.7614
 320  165.619
 321  279.3037
 322  480.6057
 323  437.1591
 324  329.827
 325  328.1423
 326  308.1524
 327  266.5398
 328  283.7734
 329  403.2429
 330  320.1568
 331  366.1174
 332  374.1835
 333  435.3257
 334  439.4998
 335  519.0716
 336  416.5215
 337  370.8577
 338  454.4146
 339  445.7645
 340  291.8585
 341  299.3723
 342  355.3159
 343  335.299
 344  232.0355
 345  290.5856
 346  398.5319
 347  381.2739
 348  350.1977
 349  301.0627
 350  260.2587
 351  282.1447
 352  275.3528
 353  284.6384
 354  340.4348
 355  359.8452
 356  425.4058
 357  420.3246
 358  250.7121
 359  225.6471
 360  420.2205
 361  386.203
 362  390.843
 363  330.5464
 364  304.7128
 365  361.2037
 366  272.0254
 367  219.9749
 368  442.1381
 369  413.3839
 370  432.3719
 371  422.2934
 372  483.8489
 373  462.1652
 374  400.1537
 375  500.1431
 376  402.664
 377  435.8101
 378  430.7233
 379  453.8335
 380  444.341
 381  357.2655
 382  346.9192
 383  322.3718
 384  324.2021
 385  392.2237
 386  461.3428
 387  341.9764
 388  292.6235
 389  355.4686
 390  467.1433
 391  247.1868
 392  291.5084
 393  432.061
 394  427.1428
 395  390.4033
 396  390.8344
 397  476.9054
 398  433.1331
 399  448.2053
 400  409.931
 401  400.7767
 402  256.1427
 403  285.7116
 404  480.2595
 405  452.5178
 406  487.9854
 407  372.496
 408  430.8872
 409  466.2505
 410  393.9096
 411  433.4017
 412  453.1611
 413  467.9421
 414  425.4426
 415  341.3172
 416  414.9121
 417  344.4339
 418  369.541
 419  413.7283
 420  370.4024
 421  251.0012
 422  325.5907
 423  405.0799
 424  373.2079
 425  372.2034
 426  335.374
 427  318.3266
 428  271.0316
 429  342.2257
 430  521.2376
 431  413.5198
 432  360.0273
 433  382.4505
 434  502.9502
 435  456.4034
 436  358.9854
 437  418.8884
 438  438.4773
 439  449.249
 440  325.6715
 441  324.3204
 442  294.8396
 443  437.6438
 444  481.8601
 445  337.696
 446  426.4868
 447  461.7845
 448  428.9828
 449  463.7165
 450  528.8535
 451  582.8977
 452  365.464
 453  357.6725
 454  401.7537
 455  399.8398
 456  525.6949
 457  471.2769
 458  468.8151
 459  440.9449
 460  295.1269
 461  477.4495
 462  540.1306
 463  390.1418
 464  316.4318
 465  371.0708
 466  359.3767
 467  212.6309
 468  243.3796
 469  391.4634
 470  363.7079
 471  315.2981
 472  364.7343
 473  331.2787
 474  391.0598
 475  335.914
 476  374.2761
 477  298.1782
 478  325.2191
 479  373.4973
 480  325.0787
 481  294.0186
 482  549.2806
 483  528.1022
 484  217.2037
 485  238.6283
 486  464.7947
 487  634.7809
 488  612.1498
 489  456.4547
 490  496.6436
 491  465.6972
 492  425.7224
 493  475.5078
 494  546.6392
 495  333.9221
 496  331.981
 497  440.5069
 498  351.2496
 499  335.6494
 500  498.6092
 501  379.6443
 502  489.346
 503  471.8852
 504  475.9789
 505  414.8896
 506  541.9573
 507  685.7238
 508  670.8134
 509  724.7391
 510  842.4399
 511  908.3939
