# Input file       =  1194654907.104029_cleaned.dat
# Candidate        =  PSR_0332+5434
# Telescope        =  AR
# Epoch_topo       =  58071.024179444779
# Epoch_bary       =  N/A
# T_sample         =  0.002
# Data Folded      =  7340032
# Data Avg         =  -0.0426372671992515
# Data StdDev      =  1.00029487075071 
# Profile Bins     =  512
# Profile Avg      =  -611.29038024209 
# Profile StdDev   =  119.768342147087 
# Reduced chi-sqr  =  0.745
# Prob(Noise)      <  1   (~0.0 sigma)
# P_topo (ms)      =  714.508543531619  +/- 0.000139
# P'_topo (s/s)    =  -0                +/- 7.34e-11
# P''_topo (s/s^2) =  0                 +/- 3.24e-14
# P_bary (ms)      =  N/A
# P'_bary (s/s)    =  N/A
# P''_bary (s/s^2) =  N/A
# P_orb (s)        =  N/A
# asin(i)/c (s)    =  N/A
# eccentricity     =  N/A
# w (rad)          =  N/A
# T_peri           =  N/A
######################################################
   0  -273.5511
   1  -279.2927
   2  -427.498
   3  -536.5799
   4  -747.2637
   5  -709.1976
   6  -697.5334
   7  -666.0898
   8  -570.2529
   9  -643.8984
  10  -665.5042
  11  -486.3184
  12  -540.9487
  13  -651.8144
  14  -597.3942
  15  -594.8574
  16  -578.7405
  17  -544.9756
  18  -626.167
  19  -636.0046
  20  -651.1817
  21  -657.5198
  22  -689.681
  23  -667.8165
  24  -541.0419
  25  -490.0972
  26  -620.6716
  27  -633.3038
  28  -691.9396
  29  -685.9479
  30  -606.5728
  31  -615.8145
  32  -626.3311
  33  -607.3431
  34  -544.7772
  35  -549.6852
  36  -703.3716
  37  -721.3629
  38  -656.7244
  39  -693.4647
  40  -571.7272
  41  -544.9839
  42  -557.7012
  43  -546.9796
  44  -589.2549
  45  -649.6172
  46  -589.5029
  47  -591.3791
  48  -709.4293
  49  -730.1203
  50  -605.7566
  51  -556.2654
  52  -583.1982
  53  -674.907
  54  -636.3314
  55  -621.4613
  56  -610.8616
  57  -644.6952
  58  -505.6038
  59  -523.4824
  60  -584.9496
  61  -572.2901
  62  -714.1368
  63  -610.4368
  64  -569.4381
  65  -517.3964
  66  -568.2029
  67  -655.5368
  68  -588.7669
  69  -576.7403
  70  -691.5664
  71  -643.6151
  72  -627.9702
  73  -570.5104
  74  -647.4468
  75  -594.673
  76  -466.3696
  77  -514.0521
  78  -507.9736
  79  -522.1973
  80  -535.6098
  81  -500.0089
  82  -587.1105
  83  -553.3569
  84  -532.541
  85  -542.4199
  86  -554.4593
  87  -633.3881
  88  -585.9326
  89  -502.073
  90  -496.6498
  91  -564.2695
  92  -539.7245
  93  -558.6475
  94  -569.6727
  95  -506.888
  96  -554.3478
  97  -643.4748
  98  -484.8313
  99  -442.9777
 100  -520.6179
 101  -606.1601
 102  -641.0518
 103  -697.2744
 104  -671.0772
 105  -548.8035
 106  -503.9423
 107  -456.9665
 108  -498.7969
 109  -602.2863
 110  -612.5126
 111  -652.9682
 112  -581.9864
 113  -543.8775
 114  -574.8688
 115  -550.8991
 116  -510.8055
 117  -529.9216
 118  -618.423
 119  -558.6342
 120  -497.9451
 121  -512.5635
 122  -697.7969
 123  -696.843
 124  -573.4597
 125  -597.2812
 126  -614.0565
 127  -535.6912
 128  -610.4697
 129  -662.0652
 130  -525.7851
 131  -563.6046
 132  -673.282
 133  -631.8468
 134  -643.5972
 135  -732.7711
 136  -695.6656
 137  -649.603
 138  -703.997
 139  -634.7886
 140  -509.538
 141  -546.2733
 142  -573.5501
 143  -614.9125
 144  -642.4168
 145  -642.0777
 146  -682.0523
 147  -730.4265
 148  -679.5432
 149  -616.4218
 150  -640.5078
 151  -622.5818
 152  -587.0241
 153  -584.1133
 154  -577.6776
 155  -592.0294
 156  -627.9421
 157  -510.2084
 158  -685.6991
 159  -641.1815
 160  -548.609
 161  -514.2032
 162  -551.4677
 163  -634.1913
 164  -601.5817
 165  -641.4385
 166  -611.7321
 167  -650.8372
 168  -530.1522
 169  -527.5532
 170  -613.6664
 171  -691.0814
 172  -654.7856
 173  -704.2443
 174  -752.6216
 175  -652.4006
 176  -665.7419
 177  -703.6347
 178  -769.655
 179  -769.2023
 180  -784.3798
 181  -755.179
 182  -707.5089
 183  -618.4842
 184  -617.6684
 185  -714.1304
 186  -690.1811
 187  -756.9244
 188  -649.5573
 189  -599.1044
 190  -647.0505
 191  -692.561
 192  -711.6699
 193  -650.9919
 194  -562.4857
 195  -586.806
 196  -657.7943
 197  -639.5104
 198  -572.3804
 199  -612.9695
 200  -672.7185
 201  -660.2102
 202  -547.2622
 203  -561.1595
 204  -593.2645
 205  -697.8881
 206  -709.6834
 207  -640.188
 208  -674.8824
 209  -579.3908
 210  -524.349
 211  -603.2775
 212  -712.3118
 213  -686.5229
 214  -529.3766
 215  -632.0973
 216  -586.4286
 217  -609.9489
 218  -716.1815
 219  -655.0664
 220  -641.9634
 221  -569.2902
 222  -564.2283
 223  -616.0245
 224  -589.8871
 225  -665.6986
 226  -604.7305
 227  -560.1246
 228  -606.2574
 229  -598.9283
 230  -572.7882
 231  -614.1851
 232  -614.4584
 233  -597.3963
 234  -689.0576
 235  -617.3033
 236  -648.8696
 237  -625.9276
 238  -595.506
 239  -573.8408
 240  -731.5181
 241  -637.1412
 242  -650.8252
 243  -639.1085
 244  -677.425
 245  -606.9528
 246  -519.6772
 247  -582.579
 248  -563.3191
 249  -593.7067
 250  -659.7627
 251  -619.9482
 252  -615.35
 253  -631.9607
 254  -600.5598
 255  -659.3934
 256  -623.4534
 257  -517.5229
 258  -501.5353
 259  -568.487
 260  -627.5414
 261  -622.6816
 262  -599.299
 263  -493.3238
 264  -465.3119
 265  -584.3328
 266  -726.9113
 267  -673.685
 268  -679.6229
 269  -673.3912
 270  -529.1733
 271  -537.2275
 272  -463.4239
 273  -671.1572
 274  -731.1411
 275  -734.2276
 276  -609.1786
 277  -485.5288
 278  -537.6314
 279  -552.1599
 280  -610.0085
 281  -683.9015
 282  -643.8901
 283  -599.1841
 284  -639.1337
 285  -661.2733
 286  -624.7471
 287  -553.6145
 288  -655.832
 289  -679.9434
 290  -598.4104
 291  -644.5762
 292  -588.6885
 293  -626.7111
 294  -579.3219
 295  -510.1267
 296  -486.5851
 297  -538.9299
 298  -587.0332
 299  -497.7583
 300  -474.158
 301  -554.5313
 302  -582.0034
 303  -644.6595
 304  -622.5784
 305  -592.763
 306  -591.1871
 307  -661.099
 308  -723.2028
 309  -600.5851
 310  -583.8466
 311  -652.1686
 312  -655.6318
 313  -580.2195
 314  -629.9724
 315  -623.4858
 316  -658.0438
 317  -687.8605
 318  -647.661
 319  -616.2739
 320  -593.6599
 321  -532.1014
 322  -490.1302
 323  -508.1622
 324  -687.3798
 325  -641.6768
 326  -583.4797
 327  -641.9669
 328  -671.1053
 329  -623.4883
 330  -589.8108
 331  -587.5562
 332  -616.1518
 333  -675.0808
 334  -581.1813
 335  -612.1185
 336  -718.8672
 337  -708.1971
 338  -632.1522
 339  -526.371
 340  -611.4093
 341  -662.6116
 342  -701.5495
 343  -628.162
 344  -703.4855
 345  -621.392
 346  -640.204
 347  -690.8882
 348  -706.5647
 349  -715.9243
 350  -675.8354
 351  -694.3596
 352  -594.9538
 353  -660.1609
 354  -654.1827
 355  -747.0848
 356  -681.282
 357  -706.3524
 358  -729.9826
 359  -776.2843
 360  -725.0882
 361  -626.9672
 362  -600.2138
 363  -678.8926
 364  -634.0145
 365  -592.4673
 366  -578.3792
 367  -667.7886
 368  -630.5648
 369  -566.329
 370  -555.5494
 371  -543.1663
 372  -559.4041
 373  -657.9161
 374  -585.8716
 375  -477.6344
 376  -519.367
 377  -442.6367
 378  -500.1899
 379  -539.2397
 380  -602.142
 381  -663.9461
 382  -607.9094
 383  -615.3923
 384  -602.4636
 385  -532.8209
 386  -559.5827
 387  -511.5482
 388  -495.7889
 389  -529.3593
 390  -587.5417
 391  -679.4612
 392  -684.726
 393  -655.7261
 394  -648.8089
 395  -721.3819
 396  -671.194
 397  -510.2186
 398  -437.4374
 399  -588.4343
 400  -705.7903
 401  -736.2244
 402  -650.3893
 403  -625.8981
 404  -631.0889
 405  -558.8284
 406  -609.5048
 407  -566.3248
 408  -592.9816
 409  -690.3516
 410  -616.3002
 411  -605.5855
 412  -556.3371
 413  -445.2413
 414  -625.5446
 415  -601.8035
 416  -623.1807
 417  -655.952
 418  -680.448
 419  -605.2425
 420  -617.6965
 421  -630.9886
 422  -583.6978
 423  -715.4788
 424  -761.1198
 425  -751.25
 426  -675.1908
 427  -624.5711
 428  -592.0461
 429  -622.8318
 430  -696.7739
 431  -651.8129
 432  -575.572
 433  -596.8218
 434  -767.4414
 435  -757.8269
 436  -583.0531
 437  -602.3493
 438  -717.9926
 439  -722.9988
 440  -651.7134
 441  -621.1378
 442  -609.0403
 443  -674.4756
 444  -670.2177
 445  -664.7372
 446  -512.7238
 447  -496.3967
 448  -566.5575
 449  -644.9214
 450  -624.7679
 451  -579.7685
 452  -584.2269
 453  -581.0822
 454  -600.3092
 455  -610.4008
 456  -593.3977
 457  -585.1042
 458  -579.3384
 459  -698.8046
 460  -799.8246
 461  -705.8636
 462  -688.2041
 463  -638.3397
 464  -661.2345
 465  -749.5287
 466  -709.3876
 467  -726.5004
 468  -690.189
 469  -694.8005
 470  -622.4195
 471  -559.0779
 472  -560.2467
 473  -659.5641
 474  -642.2666
 475  -675.8179
 476  -683.5345
 477  -726.0419
 478  -650.0518
 479  -579.2258
 480  -624.7192
 481  -577.7275
 482  -534.3839
 483  -573.2582
 484  -610.1761
 485  -593.3546
 486  -649.1449
 487  -567.6405
 488  -497.0355
 489  -693.7739
 490  -739.2108
 491  -686.3232
 492  -621.5179
 493  -591.9996
 494  -528.6914
 495  -549.1209
 496  -481.7786
 497  -517.3546
 498  -554.5201
 499  -502.6096
 500  -603.2006
 501  -657.0195
 502  -626.6331
 503  -623.1672
 504  -677.7727
 505  -550.9787
 506  -469.7044
 507  -566.0382
 508  -457.5051
 509  -350.097
 510  -334.1312
 511  -348.2474
