# Input file       =  1194366952.10939_cleaned.dat
# Candidate        =  PSR_0332+5434
# Telescope        =  AR
# Epoch_topo       =  58067.691367006832
# Epoch_bary       =  N/A
# T_sample         =  0.002
# Data Folded      =  7208960
# Data Avg         =  0.0206300213825032
# Data StdDev      =  1.00016537229182 
# Profile Bins     =  512
# Profile Avg      =  290.44369470326  
# Profile StdDev   =  118.678798733377 
# Reduced chi-sqr  =  1.052
# Prob(Noise)      <  0.203   (~0.8 sigma)
# P_topo (ms)      =  714.504889675773  +/- 0.00023
# P'_topo (s/s)    =  -0                +/- 1.23e-10
# P''_topo (s/s^2) =  0                 +/- 5.55e-14
# P_bary (ms)      =  N/A
# P'_bary (s/s)    =  N/A
# P''_bary (s/s^2) =  N/A
# P_orb (s)        =  N/A
# asin(i)/c (s)    =  N/A
# eccentricity     =  N/A
# w (rad)          =  N/A
# T_peri           =  N/A
######################################################
   0  865.0369
   1  691.6443
   2  577.4329
   3  351.1092
   4  239.7984
   5  223.2314
   6  245.3132
   7  273.3905
   8  276.5305
   9  312.1686
  10  303.2184
  11  350.943
  12  360.6825
  13  325.7686
  14  326.4317
  15  296.2863
  16  308.045
  17  352.6925
  18  356.1474
  19  196.1157
  20  389.1481
  21  306.6891
  22  174.846
  23  216.9336
  24  175.7585
  25  279.2961
  26  226.5615
  27  359.5968
  28  374.48
  29  156.4957
  30  214.431
  31  250.2534
  32  179.8667
  33  324.5963
  34  396.7733
  35  332.4685
  36  274.791
  37  230.654
  38  233.9251
  39  253.3884
  40  278.4588
  41  207.9455
  42  237.8651
  43  153.1201
  44  234.5081
  45  400.0595
  46  452.7061
  47  292.7643
  48  111.9941
  49  71.40792
  50  262.3206
  51  447.4498
  52  256.9313
  53  145.8243
  54  179.2425
  55  294.1797
  56  290.8541
  57  203.4084
  58  304.7604
  59  333.4004
  60  346.5483
  61  273.8388
  62  167.8079
  63  165.2438
  64  205.6681
  65  216.251
  66  286.2209
  67  202.8365
  68  184.6989
  69  292.5561
  70  202.4433
  71  184.0216
  72  214.5621
  73  361.7223
  74  381.0805
  75  333.5198
  76  406.7081
  77  365.308
  78  196.2102
  79  161.4878
  80  214.7702
  81  264.1871
  82  250.0921
  83  258.3672
  84  231.3906
  85  260.2561
  86  286.7891
  87  388.9014
  88  331.3659
  89  293.1775
  90  233.1896
  91  317.3315
  92  240.4378
  93  179.6466
  94  187.4252
  95  307.9279
  96  368.4588
  97  346.9596
  98  282.4261
  99  372.4742
 100  344.8726
 101  194.1154
 102  260.4341
 103  355.4365
 104  343.6065
 105  470.9211
 106  362.9415
 107  264.0806
 108  334.2029
 109  364.4773
 110  214.6296
 111  168.0397
 112  210.6912
 113  258.1017
 114  222.5789
 115  134.0926
 116  225.7922
 117  307.9552
 118  265.271
 119  263.6223
 120  372.2023
 121  525.8234
 122  361.8778
 123  268.9539
 124  224.3259
 125  175.3885
 126  114.6307
 127  253.7691
 128  319.6804
 129  342.9171
 130  223.2587
 131  261.9667
 132  338.4449
 133  391.0142
 134  262.1422
 135  219.7355
 136  301.6518
 137  261.8944
 138  274.8814
 139  211.6632
 140  204.1361
 141  146.247
 142  188.3021
 143  305.0675
 144  408.8257
 145  332.6106
 146  388.0726
 147  355.6511
 148  272.837
 149  267.4557
 150  388.2469
 151  308.9235
 152  253.0351
 153  243.8924
 154  244.8679
 155  200.8862
 156  101.1068
 157  355.1362
 158  309.4551
 159  199.703
 160  241.1843
 161  226.8868
 162  195.3177
 163  311.5656
 164  328.1999
 165  383.9788
 166  432.1899
 167  330.9995
 168  282.2532
 169  408.4323
 170  451.7985
 171  299.2116
 172  201.5079
 173  204.6793
 174  379.2643
 175  243.7923
 176  329.2006
 177  351.1187
 178  359.3116
 179  304.3607
 180  292.5929
 181  404.2548
 182  233.2359
 183  240.649
 184  208.5057
 185  291.0334
 186  375.4431
 187  360.8288
 188  397.6382
 189  287.1093
 190  265.7862
 191  311.9193
 192  310.0085
 193  318.4402
 194  235.4721
 195  274.0495
 196  273.6798
 197  330.291
 198  272.8417
 199  284.5659
 200  345.7376
 201  373.2203
 202  298.316
 203  391.5941
 204  311.1651
 205  327.2469
 206  390.4229
 207  338.2414
 208  233.3837
 209  285.7376
 210  315.2709
 211  215.437
 212  205.2073
 213  359.3957
 214  342.2062
 215  255.7195
 216  258.257
 217  416.485
 218  377.2133
 219  280.1606
 220  364.2396
 221  404.8225
 222  299.5122
 223  236.0477
 224  455.4693
 225  294.0537
 226  220.106
 227  299.8902
 228  270.4233
 229  295.5769
 230  371.0734
 231  374.9651
 232  332.3474
 233  161.9547
 234  205.0734
 235  336.7619
 236  249.7347
 237  182.1851
 238  225.5298
 239  330.1984
 240  303.6169
 241  215.8441
 242  344.3593
 243  317.4905
 244  344.597
 245  360.248
 246  292.4806
 247  331.1113
 248  386.4614
 249  381.4567
 250  307.8835
 251  426.0242
 252  292.3874
 253  343.7302
 254  339.5344
 255  276.7423
 256  230.2341
 257  371.1186
 258  291.8726
 259  239.2497
 260  314.9254
 261  443.617
 262  396.6759
 263  247.1217
 264  220.1875
 265  190.8074
 266  331.8857
 267  316.1373
 268  450.3948
 269  501.2953
 270  398.4045
 271  328.3317
 272  449.6004
 273  279.6426
 274  244.3966
 275  262.0565
 276  281.9892
 277  366.3349
 278  398.5262
 279  356.7495
 280  365.7172
 281  355.7146
 282  433.0358
 283  316.2164
 284  274.0027
 285  294.5963
 286  302.5097
 287  334.0511
 288  298.8026
 289  239.77
 290  277.1829
 291  182.5918
 292  180.0548
 293  234.4825
 294  334.1993
 295  369.4582
 296  309.984
 297  210.0448
 298  266.9777
 299  237.5722
 300  167.5871
 301  156.9289
 302  262.8856
 303  227.1834
 304  228.2798
 305  249.8297
 306  284.4486
 307  321.0721
 308  465.7941
 309  391.756
 310  438.8678
 311  342.1265
 312  306.8261
 313  273.6505
 314  221.3501
 315  298.0376
 316  182.6168
 317  188.661
 318  240.8188
 319  249.194
 320  285.9379
 321  187.3039
 322  172.9968
 323  282.4654
 324  136.5901
 325  185.2714
 326  261.8603
 327  193.1035
 328  146.207
 329  243.4713
 330  284.1987
 331  344.6045
 332  299.9151
 333  222.3109
 334  163.9271
 335  243.1184
 336  146.3582
 337  152.0788
 338  115.0822
 339  259.3128
 340  368.301
 341  280.5396
 342  286.7586
 343  276.4301
 344  239.5706
 345  191.0832
 346  229.7599
 347  265.4764
 348  323.0261
 349  191.2522
 350  205.8889
 351  319.1857
 352  246.1404
 353  224.1514
 354  231.8786
 355  297.2195
 356  336.9911
 357  195.6704
 358  208.5625
 359  226.1962
 360  309.9803
 361  293.0505
 362  254.5846
 363  258.1159
 364  316.4246
 365  235.6645
 366  182.2021
 367  270.8716
 368  468.1333
 369  309.8014
 370  171.2753
 371  269.1819
 372  249.1669
 373  169.5266
 374  279.3586
 375  331.3298
 376  258.6015
 377  196.9753
 378  200.2298
 379  289.7148
 380  349.946
 381  393.7589
 382  282.269
 383  235.6406
 384  336.2917
 385  269.8196
 386  315.5263
 387  252.2232
 388  288.5997
 389  299.7599
 390  202.2242
 391  178.9177
 392  227.4499
 393  271.8193
 394  451.6295
 395  321.65
 396  327.2086
 397  258.4468
 398  244.5916
 399  240.5242
 400  284.2944
 401  316.2595
 402  268.7936
 403  248.4533
 404  339.8408
 405  420.9747
 406  412.196
 407  290.9267
 408  196.8408
 409  265.5529
 410  313.9283
 411  351.0056
 412  424.7751
 413  359.6541
 414  297.9413
 415  349.3583
 416  309.4109
 417  218.8755
 418  284.5771
 419  203.2487
 420  257.2426
 421  154.4569
 422  181.8661
 423  230.7051
 424  195.4498
 425  200.9469
 426  230.4095
 427  248.0856
 428  235.1581
 429  188.7021
 430  232.6727
 431  175.6977
 432  193.6497
 433  266.1963
 434  310.7977
 435  223.2048
 436  213.1732
 437  238.0874
 438  306.7267
 439  235.9699
 440  297.6662
 441  355.7924
 442  383.2171
 443  426.3708
 444  364.268
 445  281.011
 446  304.3008
 447  196.1254
 448  235.9836
 449  204.8035
 450  138.3754
 451  179.8267
 452  220.1672
 453  376.1996
 454  423.6458
 455  393.3445
 456  322.163
 457  313.8505
 458  362.4209
 459  290.1906
 460  207.3315
 461  291.8303
 462  323.2886
 463  266.5638
 464  239.9761
 465  327.1797
 466  332.4753
 467  283.3502
 468  246.2361
 469  149.8435
 470  161.8369
 471  246.1165
 472  359.0593
 473  320.905
 474  308.6748
 475  330.2166
 476  314.6798
 477  226.8559
 478  314.5703
 479  226.8533
 480  280.624
 481  261.786
 482  247.0536
 483  205.3628
 484  353.579
 485  370.5609
 486  300.2971
 487  286.2268
 488  340.5089
 489  260.247
 490  181.9106
 491  343.1934
 492  337.9752
 493  280.0392
 494  390.454
 495  394.6805
 496  327.6504
 497  382.8102
 498  336.6332
 499  357.4175
 500  334.5549
 501  315.1698
 502  329.3091
 503  367.7762
 504  354.4677
 505  422.1263
 506  417.3251
 507  410.894
 508  518.8663
 509  509.6778
 510  686.2563
 511  838.0047
