# Input file       =  1194453136.114215_cleaned.dat
# Candidate        =  PSR_0332+5434
# Telescope        =  AR
# Epoch_topo       =  58068.688867062672
# Epoch_bary       =  N/A
# T_sample         =  0.002
# Data Folded      =  7143424
# Data Avg         =  0.0187317864580267
# Data StdDev      =  1.00000519882543 
# Profile Bins     =  512
# Profile Avg      =  261.384165159986 
# Profile StdDev   =  118.119198559768 
# Reduced chi-sqr  =  1.098
# Prob(Noise)      <  0.0626   (~1.5 sigma)
# P_topo (ms)      =  714.50587349301   +/- 0.000106
# P'_topo (s/s)    =  -0                +/- 5.74e-11
# P''_topo (s/s^2) =  0                 +/- 2.61e-14
# P_bary (ms)      =  N/A
# P'_bary (s/s)    =  N/A
# P''_bary (s/s^2) =  N/A
# P_orb (s)        =  N/A
# asin(i)/c (s)    =  N/A
# eccentricity     =  N/A
# w (rad)          =  N/A
# T_peri           =  N/A
######################################################
   0  953.4313
   1  825.7992
   2  511.0297
   3  288.729
   4  194.1891
   5  152.7386
   6  179.0893
   7  281.3776
   8  207.218
   9  250.1501
  10  226.0479
  11  137.9072
  12  291.0027
  13  237.1469
  14  235.1942
  15  361.5802
  16  305.9201
  17  263.6509
  18  249.9149
  19  327.687
  20  317.2442
  21  238.318
  22  252.4196
  23  287.4383
  24  269.6274
  25  239.4035
  26  226.1759
  27  260.6686
  28  295.2055
  29  409.7639
  30  267.3747
  31  324.905
  32  244.5559
  33  225.5313
  34  168.3498
  35  191.0663
  36  221.1605
  37  285.9448
  38  186.6315
  39  243.4231
  40  330.6961
  41  282.4357
  42  241.1738
  43  59.12331
  44  231.7908
  45  182.6318
  46  107.432
  47  174.3595
  48  171.0376
  49  167.5128
  50  200.7357
  51  219.5829
  52  255.3042
  53  280.0089
  54  222.174
  55  241.416
  56  234.1984
  57  240.9338
  58  203.402
  59  217.8018
  60  181.7306
  61  290.9214
  62  302.5568
  63  147.4321
  64  244.2655
  65  257.1847
  66  361.5003
  67  300.8303
  68  360.6855
  69  307.2065
  70  151.9179
  71  223.533
  72  193.6454
  73  206.7293
  74  273.3524
  75  197.3281
  76  239.3199
  77  217.9611
  78  114.7665
  79  173.4489
  80  252.9399
  81  303.0067
  82  292.13
  83  347.515
  84  302.0206
  85  231.713
  86  325.9824
  87  361.2929
  88  174.7607
  89  96.03185
  90  265.1929
  91  293.3384
  92  285.4565
  93  234.6405
  94  324.6686
  95  298.1137
  96  201.7347
  97  103.5985
  98  304.3216
  99  340.0576
 100  127.5146
 101  142.9354
 102  170.6447
 103  276.7584
 104  423.6207
 105  369.0127
 106  209.6743
 107  256.0645
 108  220.309
 109  162.7681
 110  240.7307
 111  305.2491
 112  265.0619
 113  213.4621
 114  265.6049
 115  210.9615
 116  157.9099
 117  77.98619
 118  199.1057
 119  323.2234
 120  280.1883
 121  240.5644
 122  302.2621
 123  295.9896
 124  291.7461
 125  197.5702
 126  207.2445
 127  287.6873
 128  291.2163
 129  267.0516
 130  205.4254
 131  141.4122
 132  83.27743
 133  104.4369
 134  114.4742
 135  261.3198
 136  277.6866
 137  392.5687
 138  340.4435
 139  411.6682
 140  374.5707
 141  325.2451
 142  294.389
 143  298.7514
 144  270.1824
 145  289.0145
 146  406.4409
 147  142.2277
 148  279.4262
 149  347.263
 150  337.0229
 151  304.666
 152  235.2417
 153  117.492
 154  262.8035
 155  357.3313
 156  316.3965
 157  313.0748
 158  260.2705
 159  99.07262
 160  125.1852
 161  178.9185
 162  211.9414
 163  215.9856
 164  397.1605
 165  464.1703
 166  334.7166
 167  271.8916
 168  273.3429
 169  325.4482
 170  245.2841
 171  177.3347
 172  114.9455
 173  228.2815
 174  256.0786
 175  179.844
 176  166.4959
 177  198.1702
 178  310.0005
 179  244.9205
 180  99.16499
 181  264.8782
 182  306.5586
 183  228.2065
 184  253.5022
 185  301.0433
 186  338.921
 187  253.072
 188  348.0402
 189  222.2579
 190  159.1315
 191  313.3954
 192  208.9787
 193  236.8946
 194  265.4476
 195  247.6188
 196  155.7742
 197  163.9229
 198  129.639
 199  280.0204
 200  297.1021
 201  204.5805
 202  290.8012
 203  286.5563
 204  323.5983
 205  91.5291
 206  290.2624
 207  273.912
 208  214.2018
 209  254.0505
 210  192.3936
 211  193.826
 212  202.7481
 213  164.1264
 214  116.8403
 215  145.4268
 216  177.5965
 217  219.7769
 218  167.1745
 219  256.3538
 220  266.7388
 221  136.2235
 222  173.1592
 223  163.8788
 224  322.0333
 225  262.9872
 226  298.4219
 227  217.0603
 228  133.8202
 229  177.0967
 230  128.8351
 231  215.2321
 232  367.6015
 233  357.9146
 234  237.6305
 235  184.2046
 236  170.8307
 237  296.9397
 238  384.6645
 239  210.7802
 240  305.1187
 241  431.1522
 242  267.5049
 243  195.3726
 244  246.7981
 245  161.489
 246  127.3357
 247  178.9155
 248  313.8162
 249  389.2973
 250  296.2206
 251  216.2868
 252  118.9415
 253  173.1273
 254  186.1506
 255  210.1599
 256  288.8864
 257  266.7865
 258  236.5388
 259  279.6255
 260  281.81
 261  292.7055
 262  221.8495
 263  286.475
 264  271.4247
 265  205.4878
 266  282.2921
 267  283.6356
 268  272.9182
 269  238.1164
 270  265.9134
 271  227.8371
 272  178.0204
 273  134.9304
 274  286.7373
 275  238.403
 276  319.0054
 277  248.113
 278  188.369
 279  168.6627
 280  202.6241
 281  218.8887
 282  337.4153
 283  235.3168
 284  206.8385
 285  248.8228
 286  252.6985
 287  413.4602
 288  309.5688
 289  341.8247
 290  315.5106
 291  243.1484
 292  297.5038
 293  276.7934
 294  270.7588
 295  349.3597
 296  292.4432
 297  138.5645
 298  158.3005
 299  363.1771
 300  331.5508
 301  257.3732
 302  246.4946
 303  258.3485
 304  338.4967
 305  320.4245
 306  258.2275
 307  229.413
 308  222.129
 309  243.9218
 310  337.8252
 311  486.5691
 312  332.9074
 313  262.985
 314  192.7019
 315  186.7939
 316  266.9146
 317  279.2883
 318  198.8972
 319  306.4036
 320  392.1386
 321  304.8511
 322  184.5089
 323  154.1455
 324  171.7086
 325  259.9859
 326  212.9123
 327  155.1278
 328  163.686
 329  362.4568
 330  401.4276
 331  412.3907
 332  237.8574
 333  230.1455
 334  249.3161
 335  263.237
 336  206.6723
 337  312.8888
 338  330.6603
 339  221.4539
 340  309.9081
 341  382.1556
 342  383.6894
 343  193.9203
 344  120.2408
 345  355.137
 346  345.4861
 347  272.9967
 348  220.4113
 349  161.3004
 350  147.3879
 351  245.142
 352  251.3035
 353  212.0769
 354  237.1724
 355  270.7181
 356  383.5604
 357  371.9302
 358  207.6042
 359  340.3785
 360  314.7355
 361  270.6931
 362  273.8633
 363  223.962
 364  325.0453
 365  300.3116
 366  246.2718
 367  350.9924
 368  318.8168
 369  264.5426
 370  187.4804
 371  246.1363
 372  381.0394
 373  305.7811
 374  338.1904
 375  351.4201
 376  216.7478
 377  202.7397
 378  279.4389
 379  190.8316
 380  225.2394
 381  156.9644
 382  325.5312
 383  297.9002
 384  223.0187
 385  311.0593
 386  294.7881
 387  207.0511
 388  166.7198
 389  240.8901
 390  193.5739
 391  232.2703
 392  287.528
 393  189.5547
 394  293.3012
 395  421.2736
 396  358.0538
 397  334.7241
 398  133.0492
 399  280.0338
 400  315.3155
 401  243.3819
 402  354.3275
 403  334.7779
 404  254.6318
 405  253.9043
 406  234.6013
 407  222.4033
 408  195.1336
 409  222.061
 410  306.5161
 411  220.4601
 412  119.8394
 413  249.3502
 414  375.7936
 415  339.2919
 416  424.4998
 417  486.407
 418  369.0276
 419  237.9802
 420  124.7337
 421  263.3606
 422  323.0648
 423  178.5484
 424  192.8495
 425  328.844
 426  295.9103
 427  246.736
 428  190.7144
 429  192.2043
 430  176.8125
 431  166.7156
 432  213.5175
 433  85.40084
 434  200.4743
 435  299.7354
 436  274.1078
 437  341.5677
 438  379.9504
 439  268.6772
 440  209.7896
 441  407.6323
 442  295.8864
 443  318.4691
 444  333.8563
 445  271.2518
 446  230.1745
 447  252.044
 448  240.9521
 449  301.1916
 450  359.2952
 451  269.6785
 452  245.2575
 453  195.2841
 454  269.9162
 455  283.918
 456  309.9778
 457  196.6789
 458  198.5809
 459  338.884
 460  284.4123
 461  228.7449
 462  371.4068
 463  231.4641
 464  245.0547
 465  189.2893
 466  217.3124
 467  358.1443
 468  257.6463
 469  159.5057
 470  191.7786
 471  263.4447
 472  144.3982
 473  180.7916
 474  159.7091
 475  198.4845
 476  276.2226
 477  248.2441
 478  194.8563
 479  210.3533
 480  435.6801
 481  330.6505
 482  249.927
 483  281.6505
 484  200.9308
 485  237.5273
 486  268.7901
 487  189.7534
 488  226.2539
 489  312.8274
 490  406.1923
 491  410.907
 492  384.6231
 493  371.4963
 494  373.5818
 495  412.2737
 496  349.9397
 497  255.8464
 498  284.629
 499  200.3156
 500  286.3274
 501  389.9275
 502  335.4414
 503  303.8002
 504  294.8422
 505  379.7062
 506  435.4377
 507  220.2024
 508  295.6852
 509  529.3448
 510  575.2205
 511  747.9743
