# Input file       =  1194914014.106114_cleaned.dat
# Candidate        =  PSR_0332+5434
# Telescope        =  AR
# Epoch_topo       =  58074.023103080021
# Epoch_bary       =  N/A
# T_sample         =  0.002
# Data Folded      =  7340032
# Data Avg         =  0.0269772585465432
# Data StdDev      =  1.0002251057214  
# Profile Bins     =  512
# Profile Avg      =  386.707990951333 
# Profile StdDev   =  119.759988968295 
# Reduced chi-sqr  =  1.182
# Prob(Noise)      <  0.00278   (~2.8 sigma)
# P_topo (ms)      =  714.511595240541  +/- 0.000386
# P'_topo (s/s)    =  -0                +/- 2.04e-10
# P''_topo (s/s^2) =  0                 +/- 9e-14
# P_bary (ms)      =  N/A
# P'_bary (s/s)    =  N/A
# P''_bary (s/s^2) =  N/A
# P_orb (s)        =  N/A
# asin(i)/c (s)    =  N/A
# eccentricity     =  N/A
# w (rad)          =  N/A
# T_peri           =  N/A
######################################################
   0  986.7913
   1  961.1674
   2  887.4572
   3  727.3668
   4  536.2648
   5  370.2109
   6  352.1014
   7  547.0081
   8  563.4456
   9  467.9554
  10  474.3155
  11  540.9203
  12  595.7703
  13  565.9373
  14  370.2458
  15  424.6204
  16  473.9738
  17  468.155
  18  382.8369
  19  444.3124
  20  469.0444
  21  380.3065
  22  450.4991
  23  400.7102
  24  259.3664
  25  341.0578
  26  406.1594
  27  402.0285
  28  353.1935
  29  296.9175
  30  260.1148
  31  322.6856
  32  381.8753
  33  405.4413
  34  433.3539
  35  368.956
  36  327.1541
  37  368.3611
  38  371.9552
  39  405.0749
  40  403.5209
  41  451.9502
  42  328.3295
  43  272.1856
  44  298.0776
  45  310.8336
  46  383.4427
  47  256.3388
  48  218.5764
  49  392.217
  50  456.5713
  51  457.6035
  52  548.5071
  53  501.4281
  54  378.3042
  55  439.2145
  56  509.3936
  57  468.4359
  58  393.6673
  59  392.1236
  60  479.285
  61  383.1351
  62  307.3258
  63  284.5565
  64  399.0459
  65  450.1497
  66  441.1898
  67  418.0723
  68  470.2534
  69  539.3253
  70  431.0157
  71  423.6013
  72  334.71
  73  367.9081
  74  374.7543
  75  233.6755
  76  312.7847
  77  497.3059
  78  431.9023
  79  311.2519
  80  344.6374
  81  407.9934
  82  429.3553
  83  259.3549
  84  270.7319
  85  377.7979
  86  336.6415
  87  386.2924
  88  330.2278
  89  343.7366
  90  421.6233
  91  422.1944
  92  366.3394
  93  398.713
  94  360.969
  95  316.6624
  96  310.032
  97  367.7716
  98  365.3675
  99  321.4341
 100  326.1568
 101  358.1095
 102  358.8608
 103  395.7645
 104  343.6964
 105  431.2581
 106  368.2016
 107  344.3572
 108  254.7595
 109  317.0454
 110  391.2983
 111  465.629
 112  412.9169
 113  452.7964
 114  492.0734
 115  365.9708
 116  325.3076
 117  301.7022
 118  375.1977
 119  311.141
 120  272.6112
 121  264.2396
 122  318.2845
 123  328.4585
 124  432.8047
 125  333.7928
 126  363.3795
 127  363.5696
 128  288.9222
 129  268.9342
 130  326.6445
 131  412.4042
 132  401.9828
 133  354.0478
 134  481.9158
 135  493.9265
 136  417.0542
 137  363.5042
 138  275.7631
 139  359.5608
 140  393.3863
 141  404.3508
 142  375.3981
 143  418.4159
 144  391.2002
 145  398.7804
 146  344.4633
 147  307.1748
 148  501.258
 149  413.4827
 150  407.4855
 151  432.4463
 152  438.8862
 153  322.1013
 154  350.0614
 155  377.2836
 156  445.7704
 157  411.427
 158  360.5571
 159  369.0616
 160  372.8194
 161  402.558
 162  371.6965
 163  347.8013
 164  353.4321
 165  405.79
 166  339.1009
 167  411.939
 168  362.0337
 169  359.4977
 170  457.6308
 171  443.2509
 172  335.9071
 173  351.7375
 174  372.1786
 175  286.8343
 176  253.5077
 177  400.3204
 178  471.3832
 179  349.5911
 180  290.9992
 181  359.4912
 182  328.9119
 183  492.6151
 184  546.9445
 185  511.8933
 186  470.8186
 187  386.7558
 188  313.2859
 189  431.652
 190  504.2881
 191  569.9336
 192  637.1094
 193  478.8325
 194  314.6976
 195  423.2697
 196  366.7248
 197  375.7945
 198  424.1642
 199  346.4185
 200  294.2457
 201  474.8221
 202  497.9354
 203  428.8542
 204  349.0822
 205  429.0445
 206  341.3752
 207  385.303
 208  359.222
 209  249.4407
 210  238.808
 211  358.7521
 212  475.4755
 213  424.5268
 214  331.5888
 215  312.7951
 216  325.4691
 217  418.2273
 218  426.8648
 219  298.0208
 220  268.8806
 221  280.8811
 222  402.0483
 223  432.4218
 224  342.8754
 225  417.6714
 226  418.9409
 227  320.6172
 228  380.4648
 229  396.4409
 230  412.9659
 231  456.4482
 232  518.5992
 233  517.3049
 234  428.1401
 235  544.1614
 236  589.2951
 237  412.8321
 238  364.5648
 239  395.3788
 240  369.7682
 241  337.5303
 242  390.0941
 243  524.4031
 244  549.966
 245  535.6858
 246  391.0864
 247  390.4688
 248  452.9633
 249  459.8639
 250  326.9549
 251  268.9972
 252  427.3075
 253  441.9691
 254  419.2159
 255  421.2964
 256  307.5469
 257  309.634
 258  268.0505
 259  460.3569
 260  404.9201
 261  496.2452
 262  448.4361
 263  274.4585
 264  358.9906
 265  449.5139
 266  577.0948
 267  462.7271
 268  406.1452
 269  320.293
 270  380.0134
 271  438.6461
 272  449.3951
 273  445.4785
 274  389.7225
 275  496.4044
 276  471.284
 277  307.6558
 278  334.1351
 279  511.8621
 280  372.3282
 281  333.6871
 282  412.099
 283  398.9027
 284  358.3269
 285  408.8993
 286  465.1914
 287  431.967
 288  452.4041
 289  400.3562
 290  427.8072
 291  400.0126
 292  358.08
 293  348.6435
 294  357.1887
 295  355.2637
 296  389.8215
 297  381.7754
 298  412.4545
 299  410.633
 300  389.6039
 301  501.2429
 302  587.9718
 303  460.5688
 304  353.7714
 305  320.3596
 306  414.3138
 307  376.4326
 308  466.6169
 309  417.2383
 310  351.1634
 311  384.4922
 312  352.7122
 313  369.0905
 314  359.7125
 315  418.2241
 316  511.4097
 317  341.2938
 318  307.9297
 319  327.439
 320  386.6041
 321  300.5703
 322  267.7534
 323  297.796
 324  293.2699
 325  281.0032
 326  281.3353
 327  353.5421
 328  355.4156
 329  267.1696
 330  332.1059
 331  349.1372
 332  318.9331
 333  402.0508
 334  447.6036
 335  353.3441
 336  323.8582
 337  378.762
 338  495.2675
 339  471.563
 340  362.8827
 341  351.3445
 342  342.441
 343  303.6083
 344  217.1404
 345  241.1822
 346  351.8603
 347  425.3259
 348  348.4498
 349  314.4172
 350  352.7146
 351  280.8964
 352  280.3952
 353  174.7629
 354  246.0404
 355  280.5099
 356  220.2057
 357  370.5699
 358  255.3087
 359  285.1782
 360  231.9576
 361  211.1448
 362  276.6983
 363  266.6731
 364  296.2226
 365  312.0856
 366  203.4952
 367  342.8827
 368  338.1313
 369  311.9977
 370  397.1632
 371  339.8226
 372  356.3468
 373  291.4018
 374  367.3354
 375  329.3948
 376  209.2059
 377  301.6112
 378  443.3811
 379  357.5308
 380  363.0184
 381  338.1626
 382  336.4051
 383  263.1023
 384  340.7893
 385  377.5993
 386  360.4545
 387  393.054
 388  373.5438
 389  276.1512
 390  383.193
 391  423.1549
 392  301.5614
 393  351.7748
 394  312.4428
 395  338.2442
 396  415.7069
 397  365.1756
 398  201.9257
 399  209.1015
 400  293.0186
 401  274.0751
 402  297.6202
 403  293.5334
 404  313.5381
 405  352.7339
 406  402.4321
 407  350.2227
 408  303.5853
 409  301.1463
 410  262.8829
 411  192.4368
 412  219.0311
 413  333.3883
 414  264.9332
 415  281.0443
 416  168.2968
 417  195.1211
 418  347.2429
 419  318.0833
 420  318.2294
 421  403.4333
 422  415.9956
 423  230.8874
 424  157.1771
 425  325.5244
 426  324.726
 427  196.512
 428  216.0825
 429  433.2596
 430  389.0663
 431  392.5837
 432  460.4317
 433  384.3965
 434  363.3675
 435  422.7335
 436  437.2957
 437  480.0863
 438  390.3166
 439  338.869
 440  422.4162
 441  367.5634
 442  427.5489
 443  428.48
 444  309.9572
 445  374.2
 446  464.4738
 447  449.6163
 448  448.2122
 449  390.4446
 450  425.1778
 451  324.2962
 452  439.809
 453  484.8775
 454  525.6492
 455  531.7556
 456  459.5114
 457  412.6075
 458  380.7665
 459  361.576
 460  478.489
 461  541.1198
 462  405.4032
 463  316.3718
 464  477.7968
 465  510.3033
 466  364.3905
 467  331.2663
 468  482.2827
 469  446.7821
 470  499.9234
 471  383.1744
 472  417.5741
 473  395.7837
 474  404.8046
 475  274.2937
 476  435.0155
 477  409.4519
 478  328.4068
 479  297.1488
 480  421.1041
 481  436.906
 482  431.2401
 483  417.97
 484  411.2659
 485  385.0595
 486  416.9132
 487  398.8631
 488  408.3688
 489  393.2928
 490  448.2766
 491  383.3381
 492  513.5872
 493  467.7451
 494  466.3234
 495  493.3671
 496  411.6821
 497  439.9036
 498  503.7718
 499  451.3209
 500  360.7639
 501  339.22
 502  431.1289
 503  418.3874
 504  437.3307
 505  517.7188
 506  418.8318
 507  506.8617
 508  542.0368
 509  488.3199
 510  689.2692
 511  878.499
