# Input file       =  1194296026.116019_cleaned.dat
# Candidate        =  PSR_0332+5434
# Telescope        =  AR
# Epoch_topo       =  58066.870464305779
# Epoch_bary       =  N/A
# T_sample         =  0.002
# Data Folded      =  7340032
# Data Avg         =  0.0252588265143112
# Data StdDev      =  1.00004562261883 
# Profile Bins     =  512
# Profile Avg      =  361.614488560065 
# Profile StdDev   =  119.738498911447 
# Reduced chi-sqr  =  1.193
# Prob(Noise)      <  0.00169   (~2.9 sigma)
# P_topo (ms)      =  714.504104111665  +/- 0.000306
# P'_topo (s/s)    =  -0                +/- 1.61e-10
# P''_topo (s/s^2) =  0                 +/- 7.12e-14
# P_bary (ms)      =  N/A
# P'_bary (s/s)    =  N/A
# P''_bary (s/s^2) =  N/A
# P_orb (s)        =  N/A
# asin(i)/c (s)    =  N/A
# eccentricity     =  N/A
# w (rad)          =  N/A
# T_peri           =  N/A
######################################################
   0  908.1514
   1  863.3328
   2  619.7545
   3  569.3893
   4  440.7014
   5  512.1283
   6  510.9891
   7  374.5147
   8  285.6941
   9  229.5606
  10  326.6367
  11  456.2908
  12  534.9357
  13  526.971
  14  476.8869
  15  446.2211
  16  482.2999
  17  436.7188
  18  376.467
  19  427.3253
  20  482.6028
  21  459.3972
  22  338.0108
  23  372.2569
  24  401.8242
  25  321.1768
  26  404.5271
  27  432.9688
  28  467.8172
  29  435.3205
  30  489.9508
  31  270.7596
  32  248.0371
  33  334.6608
  34  302.2645
  35  270.7775
  36  299.5739
  37  331.4718
  38  348.971
  39  341.0117
  40  381.7395
  41  303.7091
  42  299.3952
  43  345.2176
  44  301.6498
  45  239.9515
  46  243.9624
  47  294.5805
  48  312.0241
  49  278.9019
  50  406.0382
  51  470.8476
  52  378.573
  53  203.0697
  54  263.3304
  55  372.3069
  56  338.0766
  57  322.253
  58  198.2832
  59  262.4299
  60  420.3007
  61  405.679
  62  459.2969
  63  417.1549
  64  329.7203
  65  209.7019
  66  367.8536
  67  310.7285
  68  366.3886
  69  350.0723
  70  326.8716
  71  422.4868
  72  402.7324
  73  362.8846
  74  360.5832
  75  357.8895
  76  322.0707
  77  253.4945
  78  312.336
  79  407.077
  80  441.3078
  81  452.787
  82  444.9168
  83  461.6889
  84  495.1576
  85  407.1635
  86  298.0938
  87  364.9286
  88  353.56
  89  404.8542
  90  512.6641
  91  332.8136
  92  337.8681
  93  453.9153
  94  377.2281
  95  346.4411
  96  388.0355
  97  398.272
  98  432.4944
  99  297.6206
 100  267.0182
 101  335.9729
 102  381.111
 103  322.4051
 104  325.1106
 105  438.1768
 106  430.7239
 107  316.6929
 108  447.023
 109  322.1068
 110  317.868
 111  423.2731
 112  341.4781
 113  259.4121
 114  317.558
 115  382.6749
 116  448.1465
 117  502.9398
 118  404.9818
 119  258.8613
 120  258.2041
 121  373.4069
 122  334.4892
 123  323.2158
 124  283.3509
 125  417.4317
 126  353.9082
 127  362.7226
 128  227.6993
 129  289.2695
 130  342.3492
 131  321.5045
 132  341.0525
 133  424.4395
 134  351.4999
 135  319.5421
 136  375.8835
 137  353.6878
 138  130.1809
 139  291.4832
 140  351.9292
 141  335.7164
 142  349.8322
 143  321.5313
 144  234.3013
 145  215.6762
 146  359.1219
 147  381.2924
 148  334.5779
 149  370.5603
 150  296.8428
 151  350.4298
 152  384.895
 153  291.191
 154  211.7779
 155  202.4283
 156  281.7272
 157  470.5434
 158  283.6269
 159  232.3934
 160  300.6748
 161  292.1947
 162  286.4521
 163  326.1896
 164  505.1106
 165  519.8484
 166  394.9808
 167  374.4779
 168  344.4805
 169  311.769
 170  320.4727
 171  315.9429
 172  270.9053
 173  224.9857
 174  200.1465
 175  290.755
 176  243.351
 177  310.242
 178  378.3931
 179  370.1194
 180  368.4084
 181  349.3773
 182  450.3695
 183  386.8235
 184  369.131
 185  333.4862
 186  199.5492
 187  281.3351
 188  358.4114
 189  373.7411
 190  393.4982
 191  448.3712
 192  375.0677
 193  324.8162
 194  362.306
 195  329.5627
 196  299.5585
 197  431.9784
 198  395.5705
 199  319.2995
 200  308.3483
 201  291.3045
 202  420.4175
 203  418.5804
 204  435.9969
 205  327.1434
 206  369.7688
 207  446.0546
 208  490.734
 209  522.7667
 210  489.0436
 211  454.6483
 212  515.0428
 213  372.6093
 214  298.2072
 215  340.39
 216  370.7401
 217  362.214
 218  376.4283
 219  353.3109
 220  304.4894
 221  292.9378
 222  316.7123
 223  341.657
 224  398.2556
 225  445.5361
 226  450.5724
 227  346.8599
 228  376.2868
 229  295.6675
 230  259.962
 231  267.405
 232  324.4463
 233  442.55
 234  402.2924
 235  266.3133
 236  373.7108
 237  339.7548
 238  373.2941
 239  247.672
 240  215.9479
 241  458.6166
 242  348.8744
 243  208.945
 244  254.3895
 245  296.0159
 246  326.3258
 247  363.6591
 248  443.1988
 249  483.067
 250  391.3824
 251  365.6406
 252  258.9294
 253  284.7208
 254  402.4286
 255  317.2981
 256  313.0471
 257  210.7715
 258  324.4417
 259  303.8898
 260  238.1284
 261  336.3285
 262  369.583
 263  461.2687
 264  419.722
 265  288.1863
 266  290.2221
 267  350.8329
 268  261.0999
 269  277.3318
 270  265.3675
 271  306.6905
 272  230.5879
 273  296.7805
 274  377.7836
 275  301.1314
 276  418.9048
 277  367.3507
 278  239.228
 279  353.0272
 280  376.9697
 281  361.7213
 282  328.4605
 283  316.4042
 284  368.3606
 285  383.8154
 286  307.0627
 287  302.9557
 288  187.7029
 289  288.4042
 290  305.9912
 291  181.7306
 292  321.2322
 293  336.3459
 294  211.9369
 295  249.4735
 296  384.4707
 297  393.7506
 298  361.3847
 299  269.8181
 300  316.2008
 301  439.0834
 302  261.1065
 303  351.3062
 304  393.5203
 305  296.591
 306  219.1378
 307  273.6557
 308  347.1007
 309  330.3649
 310  319.7283
 311  267.5829
 312  274.4551
 313  295.6514
 314  282.7551
 315  245.0889
 316  369.5245
 317  380.3878
 318  338.9075
 319  278.035
 320  209.0925
 321  169.8218
 322  251.528
 323  263.1495
 324  268.3888
 325  322.1075
 326  304.9283
 327  361.3017
 328  334.1266
 329  264.6982
 330  380.0115
 331  377.8109
 332  354.5726
 333  300.977
 334  252.2135
 335  293.2093
 336  349.8867
 337  339.2432
 338  270.6755
 339  203.6961
 340  367.6982
 341  394.5797
 342  319.6905
 343  455.8104
 344  422.6785
 345  287.6794
 346  339.2877
 347  330.7341
 348  429.7146
 349  416.3163
 350  400.8704
 351  200.6522
 352  129.6953
 353  238.5439
 354  255.7626
 355  305.7596
 356  291.5627
 357  287.222
 358  305.7217
 359  293.7472
 360  314.4459
 361  330.7059
 362  264.9205
 363  243.011
 364  127.5282
 365  174.078
 366  243.097
 367  368.8755
 368  396.8593
 369  436.2964
 370  363.8395
 371  412.1186
 372  423.0546
 373  325.0164
 374  341.4494
 375  375.8709
 376  313.3914
 377  325.8334
 378  494.3038
 379  512.872
 380  487.3572
 381  439.3417
 382  416.1498
 383  343.5435
 384  257.383
 385  313.3305
 386  299.343
 387  366.5263
 388  448.5174
 389  376.1917
 390  417.0134
 391  292.6203
 392  197.2704
 393  318.347
 394  388.5708
 395  301.4014
 396  243.8717
 397  321.1184
 398  370.6371
 399  368.8965
 400  334.9989
 401  261.8735
 402  369.6247
 403  381.3201
 404  341.1604
 405  445.7107
 406  358.7322
 407  374.4286
 408  277.1637
 409  379.0146
 410  438.2179
 411  378.9603
 412  422.115
 413  426.2923
 414  439.8349
 415  382.365
 416  263.3076
 417  402.3836
 418  527.7127
 419  388.6254
 420  353.9135
 421  415.6615
 422  512.7352
 423  480.7264
 424  250.7722
 425  371.2899
 426  334.4164
 427  326.6199
 428  428.4388
 429  393.7981
 430  371.4082
 431  375.5576
 432  487.3802
 433  397.5409
 434  388.7733
 435  376.1311
 436  359.9576
 437  382.7729
 438  408.505
 439  492.2204
 440  394.3006
 441  379.6899
 442  425.4335
 443  291.7277
 444  238.8965
 445  381.5851
 446  474.3501
 447  358.5133
 448  342.9647
 449  338.6191
 450  342.4863
 451  453.9805
 452  429.0667
 453  385.4497
 454  319.3127
 455  299.7464
 456  322.1584
 457  359.7087
 458  353.541
 459  365.0101
 460  368.2867
 461  375.7787
 462  286.655
 463  337.6042
 464  411.9763
 465  503.4303
 466  473.0097
 467  483.9734
 468  497.4234
 469  465.7195
 470  471.9636
 471  501.1513
 472  484.7385
 473  451.9931
 474  360.1537
 475  440.8974
 476  417.7719
 477  398.2398
 478  406.1126
 479  292.9291
 480  427.9116
 481  350.6886
 482  400.2788
 483  393.2157
 484  414.1438
 485  473.7021
 486  448.5071
 487  394.1148
 488  333.4478
 489  326.751
 490  502.2738
 491  485.191
 492  528.0643
 493  581.7865
 494  510.5497
 495  491.1007
 496  347.0846
 497  312.2216
 498  378.3314
 499  445.8524
 500  440.3193
 501  428.9055
 502  289.4851
 503  259.7188
 504  572.187
 505  563.1343
 506  564.1926
 507  553.8455
 508  519.5513
 509  695.6159
 510  865.5995
 511  937.1955
