# Input file       =  1194138544.111448_cleaned.dat
# Candidate        =  PSR_0332+5434
# Telescope        =  AR
# Epoch_topo       =  58065.047755919535
# Epoch_bary       =  N/A
# T_sample         =  0.002
# Data Folded      =  7340032
# Data Avg         =  0.0297080274079631
# Data StdDev      =  1.00019605844788 
# Profile Bins     =  512
# Profile Avg      =  425.924520081051 
# Profile StdDev   =  119.756511050038 
# Reduced chi-sqr  =  1.118
# Prob(Noise)      <  0.033   (~1.8 sigma)
# P_topo (ms)      =  714.502674018324  +/- 0.000232
# P'_topo (s/s)    =  -0                +/- 1.22e-10
# P''_topo (s/s^2) =  0                 +/- 5.39e-14
# P_bary (ms)      =  N/A
# P'_bary (s/s)    =  N/A
# P''_bary (s/s^2) =  N/A
# P_orb (s)        =  N/A
# asin(i)/c (s)    =  N/A
# eccentricity     =  N/A
# w (rad)          =  N/A
# T_peri           =  N/A
######################################################
   0  868.7322
   1  919.4283
   2  704.8504
   3  567.6509
   4  506.78
   5  458.8649
   6  447.4794
   7  491.9443
   8  420.9481
   9  522.7717
  10  505.1979
  11  465.1703
  12  431.4624
  13  402.7086
  14  430.1107
  15  438.4166
  16  539.189
  17  552.9365
  18  478.6608
  19  491.3827
  20  403.1059
  21  418.4912
  22  367.1856
  23  349.9835
  24  365.3979
  25  502.6027
  26  580.5749
  27  439.0948
  28  450.8289
  29  431.8292
  30  415.5038
  31  590.8422
  32  379.5266
  33  377.1976
  34  359.3734
  35  362.5635
  36  465.8897
  37  567.4706
  38  481.4411
  39  320.3344
  40  333.3033
  41  454.4603
  42  576.127
  43  485.7516
  44  492.1939
  45  486.5792
  46  538.1271
  47  471.0765
  48  439.9669
  49  330.7453
  50  300.6479
  51  363.4564
  52  474.6671
  53  569.2088
  54  448.0211
  55  412.4171
  56  390.2279
  57  328.9703
  58  377.43
  59  431.9224
  60  400.5095
  61  380.4818
  62  409.1089
  63  477.1141
  64  420.6585
  65  418.7667
  66  336.332
  67  376.0334
  68  401.3733
  69  516.8719
  70  525.9737
  71  383.6183
  72  349.4373
  73  266.7466
  74  269.5729
  75  409.5137
  76  355.786
  77  291.1957
  78  356.998
  79  396.6316
  80  386.3243
  81  332.5048
  82  309.8898
  83  246.2918
  84  360.3701
  85  501.9267
  86  520.7206
  87  558.9131
  88  375.8031
  89  391.6405
  90  286.462
  91  324.0796
  92  417.0159
  93  391.0552
  94  384.3142
  95  399.3507
  96  413.5445
  97  373.6532
  98  295.0393
  99  243.247
 100  302.8699
 101  269.371
 102  339.0149
 103  369.8725
 104  385.0628
 105  334.2769
 106  447.572
 107  354.7507
 108  332.2262
 109  264.2624
 110  305.7915
 111  188.7251
 112  349.6349
 113  529.6899
 114  536.0728
 115  374.3545
 116  333.3456
 117  312.8846
 118  322.3348
 119  373.5613
 120  489.0292
 121  514.036
 122  536.8557
 123  491.1198
 124  459.5047
 125  389.8376
 126  318.097
 127  318.0587
 128  286.4552
 129  287.7893
 130  337.4736
 131  362.2768
 132  349.7906
 133  453.3749
 134  517.7501
 135  559.2008
 136  440.0704
 137  346.3448
 138  413.3866
 139  481.9795
 140  469.2578
 141  514.818
 142  598.0969
 143  567.3888
 144  518.7338
 145  443.4468
 146  510.6624
 147  461.8573
 148  418.4364
 149  430.0337
 150  399.6057
 151  465.4166
 152  457.2625
 153  494.0721
 154  411.3524
 155  370.746
 156  452.7718
 157  479.6203
 158  488.8156
 159  512.2762
 160  368.0511
 161  375.7304
 162  352.1019
 163  541.1184
 164  509.3576
 165  499.174
 166  494.6069
 167  440.5769
 168  490.3358
 169  486.895
 170  448.603
 171  483.1464
 172  437.5361
 173  360.1872
 174  480.9247
 175  526.8828
 176  398.6945
 177  450.7887
 178  357.6696
 179  377.8882
 180  337.8602
 181  327.6306
 182  393.3666
 183  332.1852
 184  427.8184
 185  504.5362
 186  467.4993
 187  460.6459
 188  505.7762
 189  490.2978
 190  472.4645
 191  553.2892
 192  522.0964
 193  520.4901
 194  444.3806
 195  434.4721
 196  519.7275
 197  353.029
 198  364.1876
 199  458.3568
 200  441.8386
 201  459.3491
 202  427.6723
 203  553.4489
 204  438.1938
 205  393.3243
 206  454.3484
 207  432.425
 208  415.8035
 209  359.1633
 210  376.6242
 211  434.5868
 212  480.7189
 213  393.3839
 214  436.8312
 215  426.5089
 216  423.0617
 217  276.7447
 218  321.6377
 219  392.1793
 220  344.0905
 221  316.7346
 222  372.7803
 223  390.0913
 224  417.5671
 225  481.6815
 226  468.7753
 227  501.0326
 228  540.8915
 229  534.4397
 230  402.0424
 231  430.9064
 232  558.0757
 233  463.5688
 234  503.682
 235  593.7426
 236  545.9567
 237  390.0406
 238  491.3882
 239  583.2936
 240  497.2232
 241  461.2683
 242  503.761
 243  516.6623
 244  490.1917
 245  553.1483
 246  481.4763
 247  312.6699
 248  449.468
 249  434.0267
 250  507.3847
 251  480.7083
 252  484.1359
 253  413.0579
 254  536.6343
 255  393.7867
 256  349.3164
 257  436.7104
 258  395.8842
 259  340.6381
 260  319.129
 261  405.8557
 262  502.0969
 263  499.9331
 264  437.3304
 265  480.5816
 266  390.4449
 267  385.4376
 268  557.1213
 269  484.4267
 270  438.534
 271  408.7902
 272  476.6245
 273  419.3661
 274  399.6927
 275  480.9937
 276  472.4266
 277  420.2832
 278  413.0739
 279  341.8677
 280  240.0379
 281  288.7197
 282  384.1378
 283  452.9336
 284  448.9858
 285  431.7599
 286  406.5082
 287  466.1422
 288  516.7711
 289  454.5395
 290  425.5393
 291  325.152
 292  395.6242
 293  517.3853
 294  526.9503
 295  543.6486
 296  616.933
 297  578.6362
 298  369.8654
 299  419.5213
 300  498.5133
 301  427.7607
 302  382.5184
 303  488.9217
 304  476.7093
 305  465.9919
 306  330.0187
 307  336.7094
 308  515.5696
 309  379.2469
 310  304.4459
 311  350.507
 312  420.4188
 313  475.4841
 314  465.5116
 315  419.464
 316  389.0723
 317  397.3273
 318  476.6832
 319  433.6993
 320  410.6494
 321  497.9326
 322  493.6151
 323  449.4052
 324  476.4772
 325  471.3835
 326  383.4178
 327  321.3816
 328  446.5505
 329  481.4489
 330  393.8357
 331  466.6832
 332  515.6219
 333  480.4901
 334  385.6945
 335  395.071
 336  411.0276
 337  380.0471
 338  390.2091
 339  564.9802
 340  443.9641
 341  283.0167
 342  266.0707
 343  486.8732
 344  499.0666
 345  464.3111
 346  528.8342
 347  434.5136
 348  341.8265
 349  438.2697
 350  436.111
 351  289.3202
 352  440.0802
 353  499.929
 354  460.654
 355  377.9203
 356  420.8341
 357  402.4705
 358  530.231
 359  499.1235
 360  308.9589
 361  443.9581
 362  363.5852
 363  404.2642
 364  347.1472
 365  401.597
 366  436.3866
 367  467.9607
 368  525.3841
 369  451.9384
 370  432.0321
 371  420.6837
 372  468.5548
 373  449.9063
 374  393.6049
 375  478.0948
 376  492.1232
 377  438.7917
 378  393.4544
 379  337.3686
 380  385.5878
 381  385.4383
 382  380.9312
 383  410.4877
 384  400.6194
 385  359.8192
 386  323.7723
 387  353.0159
 388  405.4099
 389  411.8391
 390  411.7046
 391  464.3697
 392  365.4821
 393  416.1568
 394  363.9686
 395  336.4471
 396  342.0934
 397  425.6433
 398  497.1133
 399  511.3937
 400  542.604
 401  415.9635
 402  377.8584
 403  498.1068
 404  539.9301
 405  436.5901
 406  376.424
 407  413.133
 408  384.5055
 409  415.7379
 410  411.1935
 411  494.4128
 412  403.9315
 413  384.065
 414  450.2262
 415  435.6527
 416  370.8966
 417  442.5505
 418  517.8324
 419  396.2995
 420  330.3506
 421  318.3889
 422  304.3909
 423  319.4478
 424  286.992
 425  435.3267
 426  403.8192
 427  330.5304
 428  267.5679
 429  291.2521
 430  312.194
 431  360.4048
 432  429.3158
 433  304.1331
 434  279.4242
 435  294.4383
 436  279.8947
 437  323.5674
 438  361.1239
 439  488.1612
 440  398.2166
 441  448.6673
 442  466.2526
 443  493.9443
 444  502.2634
 445  339.362
 446  364.5462
 447  387.8598
 448  404.4137
 449  388.433
 450  379.283
 451  404.257
 452  456.2279
 453  369.7698
 454  357.2262
 455  361.8517
 456  421.5294
 457  383.0757
 458  341.3655
 459  347.0162
 460  282.6499
 461  323.2624
 462  377.7465
 463  479.6429
 464  524.4735
 465  565.3691
 466  347.5756
 467  338.9189
 468  367.9508
 469  371.7917
 470  298.5068
 471  289.0555
 472  317.7094
 473  364.1073
 474  319.6887
 475  328.4532
 476  333.2863
 477  207.3297
 478  181.9254
 479  250.4287
 480  377.1248
 481  335.4326
 482  327.5714
 483  339.4534
 484  316.1067
 485  339.2897
 486  344.8849
 487  371.0284
 488  401.3158
 489  436.9103
 490  448.927
 491  440.5748
 492  467.9441
 493  458.3695
 494  390.1412
 495  515.8133
 496  532.6263
 497  479.7706
 498  395.7859
 499  460.0295
 500  439.8317
 501  410.1363
 502  409.8483
 503  477.7572
 504  600.3106
 505  585.9031
 506  444.0766
 507  552.9874
 508  662.6259
 509  736.8347
 510  950.316
 511  1010.723
