# Input file       =  1194640006.109184_cleaned.dat
# Candidate        =  PSR_0332+5434
# Telescope        =  AR
# Epoch_topo       =  58070.851714226665
# Epoch_bary       =  N/A
# T_sample         =  0.002
# Data Folded      =  7340032
# Data Avg         =  0.0250169578404284
# Data StdDev      =  1.0000599365738  
# Profile Bins     =  512
# Profile Avg      =  358.758594299699 
# Profile StdDev   =  119.740212764737 
# Reduced chi-sqr  =  1.202
# Prob(Noise)      <  0.00111   (~3.1 sigma)
# P_topo (ms)      =  714.508038476175  +/- 0.000254
# P'_topo (s/s)    =  -0                +/- 1.34e-10
# P''_topo (s/s^2) =  0                 +/- 5.92e-14
# P_bary (ms)      =  N/A
# P'_bary (s/s)    =  N/A
# P''_bary (s/s^2) =  N/A
# P_orb (s)        =  N/A
# asin(i)/c (s)    =  N/A
# eccentricity     =  N/A
# w (rad)          =  N/A
# T_peri           =  N/A
######################################################
   0  945.9354
   1  944.1782
   2  692.8889
   3  486.6906
   4  443.3218
   5  353.2894
   6  395.0123
   7  373.1313
   8  253.9911
   9  290.664
  10  320.7846
  11  429.8757
  12  376.0546
  13  166.1401
  14  261.4924
  15  422.5697
  16  458.6678
  17  518.3727
  18  459.8788
  19  544.2991
  20  491.1515
  21  299.3934
  22  248.6838
  23  265.9624
  24  311.3826
  25  501.8058
  26  430.5789
  27  313.3015
  28  420.1827
  29  438.3553
  30  307.7743
  31  290.6569
  32  419.6717
  33  335.344
  34  149.5732
  35  239.3653
  36  463.411
  37  485.4141
  38  447.9511
  39  455.0031
  40  447.0338
  41  370.1821
  42  299.5058
  43  421.7992
  44  451.0928
  45  381.4428
  46  346.7937
  47  279.6855
  48  229.6755
  49  405.7793
  50  364.0398
  51  378.6109
  52  349.4023
  53  418.078
  54  501.2441
  55  447.5618
  56  330.6911
  57  441.0019
  58  452.1926
  59  326.3447
  60  327.024
  61  344.2314
  62  389.6266
  63  337.609
  64  379.3708
  65  394.8763
  66  351.8935
  67  383.0768
  68  293.0013
  69  356.8794
  70  266.7065
  71  282.5599
  72  360.9833
  73  212.2178
  74  227.2025
  75  147.3978
  76  310.7188
  77  453.1791
  78  397.8176
  79  397.2798
  80  302.0571
  81  317.5855
  82  463.7749
  83  406.5154
  84  351.4743
  85  296.3961
  86  271.2453
  87  215.1158
  88  312.6319
  89  410.2256
  90  404.4077
  91  360.9096
  92  396.1722
  93  304.48
  94  273.567
  95  436.6433
  96  538.8112
  97  420.9016
  98  343.0964
  99  491.9867
 100  410.8168
 101  403.5619
 102  385.862
 103  331.5317
 104  202.5291
 105  244.3535
 106  301.5955
 107  339.4768
 108  328.1802
 109  232.759
 110  293.1691
 111  419.4086
 112  375.6286
 113  406.2823
 114  220.8569
 115  266.571
 116  354.6263
 117  375.1485
 118  326.9117
 119  307.2918
 120  276.1782
 121  314.6011
 122  276.5851
 123  220.7712
 124  269.1952
 125  330.4864
 126  248.1845
 127  237.2486
 128  252.9513
 129  222.357
 130  132.2454
 131  196.3782
 132  286.7782
 133  248.5769
 134  343.527
 135  296.1178
 136  205.3299
 137  265.9517
 138  307.8368
 139  317.8322
 140  372.3714
 141  322.0775
 142  344.041
 143  387.8905
 144  403.2399
 145  278.9901
 146  335.0819
 147  402.614
 148  350.9496
 149  378.4316
 150  439.9119
 151  292.9971
 152  212.2296
 153  210.8022
 154  270.6516
 155  265.299
 156  222.0726
 157  286.6005
 158  337.008
 159  297.7435
 160  363.8682
 161  386.1403
 162  309.3369
 163  379.7978
 164  391.5105
 165  436.3124
 166  387.3577
 167  385.7528
 168  397.5174
 169  287.9808
 170  291.5558
 171  324.3134
 172  330.2677
 173  274.1234
 174  234.7476
 175  338.6009
 176  426.233
 177  464.8213
 178  356.4274
 179  289.8581
 180  384.9943
 181  260.7657
 182  262.7546
 183  203.9997
 184  233.1452
 185  471.3497
 186  432.6738
 187  383.211
 188  399.4381
 189  334.5073
 190  343.0908
 191  307.7955
 192  304.0608
 193  378.6756
 194  373.4603
 195  351.201
 196  255.4124
 197  213.8816
 198  284.7864
 199  268.9274
 200  207.9217
 201  323.2629
 202  325.3118
 203  248.5001
 204  332.882
 205  356.9381
 206  358.4929
 207  354.8701
 208  289.0355
 209  264.6977
 210  263.6335
 211  368.5799
 212  452.7802
 213  335.9474
 214  381.2168
 215  301.4953
 216  228.3396
 217  225.4967
 218  326.2876
 219  368.9027
 220  302.7746
 221  308.7024
 222  340.6931
 223  380.772
 224  362.9961
 225  346.1131
 226  394.4851
 227  350.0014
 228  388.4437
 229  265.9401
 230  190.0874
 231  178.558
 232  280.9891
 233  334.2299
 234  354.1541
 235  345.1277
 236  348.734
 237  240.9137
 238  367.9764
 239  264.8204
 240  79.54678
 241  296.2975
 242  337.4315
 243  367.6737
 244  391.0504
 245  376.7584
 246  375.3997
 247  319.2744
 248  307.3142
 249  250.6093
 250  315.4777
 251  409.5749
 252  372.8968
 253  270.515
 254  225.6687
 255  286.3724
 256  237.9202
 257  374.8952
 258  289.0059
 259  369.223
 260  405.8337
 261  368.0208
 262  362.5959
 263  417.8791
 264  350.2082
 265  281.9114
 266  221.8615
 267  284.0741
 268  318.8978
 269  209.1788
 270  235.2827
 271  328.8481
 272  412.513
 273  363.901
 274  249.87
 275  284.8703
 276  354.2057
 277  392.1655
 278  421.4575
 279  449.6939
 280  402.8877
 281  423.7847
 282  521.3187
 283  354.5778
 284  363.1805
 285  428.5773
 286  287.2061
 287  299.8478
 288  327.4181
 289  398.0905
 290  307.5011
 291  392.0343
 292  411.1436
 293  332.318
 294  319.2152
 295  355.4318
 296  395.4977
 297  337.7264
 298  404.6845
 299  448.9173
 300  411.7225
 301  384.5681
 302  424.8264
 303  445.5742
 304  393.7581
 305  337.9606
 306  389.8123
 307  498.1714
 308  481.7405
 309  329.2334
 310  241.6897
 311  313.5333
 312  289.2383
 313  294.8375
 314  258.7853
 315  222.0768
 316  337.7329
 317  413.6727
 318  347.0342
 319  305.5708
 320  352.2948
 321  217.5433
 322  367.6056
 323  454.955
 324  364.3735
 325  289.433
 326  295.7062
 327  298.7729
 328  383.5494
 329  479.1357
 330  433.3011
 331  293.2225
 332  449.2446
 333  410.7263
 334  424.7899
 335  428.42
 336  363.2704
 337  305.3917
 338  342.8761
 339  400.7892
 340  419.2056
 341  414.1086
 342  357.634
 343  366.2638
 344  429.8958
 345  443.4062
 346  431.0805
 347  508.4786
 348  537.4532
 349  404.3918
 350  371.1405
 351  302.6744
 352  236.1922
 353  273.6736
 354  309.3238
 355  365.1095
 356  329.847
 357  381.1224
 358  411.4208
 359  401.0149
 360  459.4838
 361  415.9599
 362  243.1574
 363  264.9095
 364  361.0427
 365  408.4897
 366  410.5224
 367  412.5192
 368  355.1873
 369  277.4204
 370  470.6321
 371  385.2388
 372  319.3796
 373  309.489
 374  363.9419
 375  497.4414
 376  400.9202
 377  361.9632
 378  398.8837
 379  412.0411
 380  429.7123
 381  448.7091
 382  457.9127
 383  417.1578
 384  385.0992
 385  371.0705
 386  362.3355
 387  412.9335
 388  337.6754
 389  370.7173
 390  453.9853
 391  486.0864
 392  410.4807
 393  412.8289
 394  372.2338
 395  412.4263
 396  476.8819
 397  386.2702
 398  509.9301
 399  431.5508
 400  350.3552
 401  335.6031
 402  337.0853
 403  410.7764
 404  375.0262
 405  448.6593
 406  472.1797
 407  390.8774
 408  444.4814
 409  476.2671
 410  458.5345
 411  455.8413
 412  358.503
 413  351.0601
 414  379.0634
 415  352.5138
 416  377.5288
 417  283.1573
 418  270.4302
 419  364.4901
 420  449.0052
 421  473.148
 422  376.7271
 423  413.0576
 424  343.3879
 425  331.989
 426  387.3565
 427  400.6337
 428  372.8148
 429  380.904
 430  390.3258
 431  325.0656
 432  345.8914
 433  373.4615
 434  358.8971
 435  318.1774
 436  339.4796
 437  152.3985
 438  259.2162
 439  348.0439
 440  383.0837
 441  395.0587
 442  317.8717
 443  334.5373
 444  383.8651
 445  407.1446
 446  315.5472
 447  390.9395
 448  228.3805
 449  310.3386
 450  350.259
 451  284.9331
 452  387.1086
 453  380.9013
 454  386.0173
 455  334.444
 456  336.4142
 457  378.7333
 458  334.6689
 459  425.6039
 460  445.5171
 461  410.5727
 462  402.5492
 463  440.4576
 464  369.2621
 465  402.6487
 466  384.191
 467  265.8516
 468  462.5062
 469  623.4874
 470  549.8586
 471  380.0045
 472  388.6181
 473  389.8148
 474  269.2725
 475  321.6814
 476  213.147
 477  234.5043
 478  267.8438
 479  366.86
 480  438.5322
 481  406.282
 482  344.766
 483  261.0688
 484  296.3112
 485  239.0791
 486  315.9925
 487  349.87
 488  354.9588
 489  396.1536
 490  334.9156
 491  260.6088
 492  312.9688
 493  366.1096
 494  401.6067
 495  490.5914
 496  407.9349
 497  324.7768
 498  319.9731
 499  338.844
 500  274.3625
 501  268.6956
 502  433.5474
 503  389.0421
 504  422.62
 505  392.8918
 506  407.2823
 507  452.1357
 508  706.6986
 509  793.2874
 510  841.2979
 511  953.2831
