# Input file       =  1194453136.114215_cleaned.dat
# Candidate        =  PSR_0332+5434
# Telescope        =  AR
# Epoch_topo       =  58068.688867062672
# Epoch_bary       =  N/A
# T_sample         =  0.002
# Data Folded      =  7143424
# Data Avg         =  0.0187317864580267
# Data StdDev      =  1.00000519882543 
# Profile Bins     =  512
# Profile Avg      =  261.384165312966 
# Profile StdDev   =  118.119198559768 
# Reduced chi-sqr  =  1.084
# Prob(Noise)      <  0.0923   (~1.3 sigma)
# P_topo (ms)      =  714.505873381114  +/- 0.00011
# P'_topo (s/s)    =  -0                +/- 5.96e-11
# P''_topo (s/s^2) =  0                 +/- 2.7e-14
# P_bary (ms)      =  N/A
# P'_bary (s/s)    =  N/A
# P''_bary (s/s^2) =  N/A
# P_orb (s)        =  N/A
# asin(i)/c (s)    =  N/A
# eccentricity     =  N/A
# w (rad)          =  N/A
# T_peri           =  N/A
######################################################
   0  863.571
   1  935.1094
   2  689.6505
   3  373.5969
   4  252.4471
   5  177.6488
   6  156.8773
   7  212.6702
   8  269.9727
   9  205.7045
  10  287.8161
  11  144.7817
  12  199.5991
  13  289.6067
  14  200.536
  15  306.0065
  16  351.9574
  17  284.0744
  18  231.2994
  19  295.9783
  20  333.6531
  21  292.9658
  22  236.8328
  23  260.3852
  24  296.8997
  25  241.3283
  26  229.395
  27  243.526
  28  254.7794
  29  387.0939
  30  335.9503
  31  288.75
  32  291.3468
  33  240.1208
  34  201.2571
  35  178.4073
  36  189.1454
  37  266.713
  38  245.7507
  39  188.5296
  40  305.9597
  41  298.567
  42  299.0782
  43  137.1652
  44  113.5986
  45  241.59
  46  120.0723
  47  126.1292
  48  186.705
  49  164.0754
  50  182.8629
  51  214.1492
  52  221.4547
  53  279.9743
  54  258.3381
  55  229.3344
  56  246.1302
  57  244.8195
  58  213.2787
  59  211.386
  60  192.2966
  61  209.7901
  62  342.6386
  63  214.6492
  64  195.6172
  65  228.4715
  66  319.0382
  67  334.8033
  68  313.7568
  69  372.0872
  70  217.3215
  71  175.1711
  72  218.1284
  73  182.3068
  74  254.5414
  75  252.8367
  76  196.6795
  77  245.209
  78  160.893
  79  126.1074
  80  216.2261
  81  284.9985
  82  292.0223
  83  307.917
  84  361.7399
  85  244.4295
  86  267.6664
  87  361.3459
  88  291.1196
  89  117.4783
  90  154.2427
  91  320.326
  92  258.1656
  93  286.0634
  94  240.6856
  95  341.5333
  96  268.395
  97  121.8421
  98  185.3017
  99  354.6418
 100  246.1899
 101  102.1783
 102  166.7464
 103  199.9195
 104  342.3647
 105  448.7838
 106  269.8912
 107  229.1419
 108  245.1476
 109  194.5894
 110  181.0764
 111  283.9227
 112  296.7131
 113  233.0503
 114  232.6683
 115  253.7066
 116  186.616
 117  116.827
 118  107.0467
 119  264.1638
 120  324.7765
 121  240.354
 122  289.7112
 123  293.5988
 124  305.9348
 125  248.0867
 126  192.1738
 127  223.7022
 128  324.4985
 129  263.7139
 130  257.1376
 131  161.1871
 132  95.5807
 133  93.9547
 134  103.6625
 135  187.4834
 136  272.7334
 137  337.624
 138  360.3073
 139  386.4236
 140  383.0849
 141  379.6946
 142  275.5242
 143  315.795
 144  283.0483
 145  263.5677
 146  366.9932
 147  298.6842
 148  143.2396
 149  362.6126
 150  336.9588
 151  315.1678
 152  297.3699
 153  161.0588
 154  168.3251
 155  296.3717
 156  365.8809
 157  281.0025
 158  346.4233
 159  158.8067
 160  106.6454
 161  148.2312
 162  194.9405
 163  196.7559
 164  285.8044
 165  470.4868
 166  408.6888
 167  287.4254
 168  265.7949
 169  305.0881
 170  303.5286
 171  213.6853
 172  148.4318
 173  141.7204
 174  274.7366
 175  207.7585
 176  167.5176
 177  176.0686
 178  239.1255
 179  326.354
 180  146.569
 181  164.0572
 182  311.6975
 183  264.8085
 184  231.0045
 185  264.4669
 186  336.567
 187  286.5611
 188  283.6083
 189  343.3491
 190  133.2658
 191  244.0283
 192  290.4207
 193  198.5627
 194  262.3432
 195  264.6118
 196  198.799
 197  166.6517
 198  135.9113
 199  184.5195
 200  316.6455
 201  234.7162
 202  231.2148
 203  291.2715
 204  346.2531
 205  211.0351
 206  138.1914
 207  318.4705
 208  236.0339
 209  209.8021
 210  271.6336
 211  160.3206
 212  219.2096
 213  185.4755
 214  128.3142
 215  144.4154
 216  136.5646
 217  221.6797
 218  161.5085
 219  226.2578
 220  279.134
 221  209.4426
 222  137.1114
 223  154.3488
 224  244.92
 225  303.441
 226  268.3644
 227  280.8157
 228  169.2334
 229  147.15
 230  171.4932
 231  127.93
 232  296.4574
 233  387.0366
 234  311.974
 235  196.7116
 236  172.3442
 237  204.2545
 238  366.6678
 239  328.0799
 240  191.5292
 241  416.1544
 242  359.6867
 243  214.0236
 244  217.1526
 245  229.1832
 246  125.5384
 247  147.6862
 248  212.8129
 249  382.5157
 250  347.1776
 251  283.6803
 252  151.1365
 253  135.2821
 254  185.6932
 255  195.3913
 256  249.6767
 257  288.9152
 258  254.2857
 259  238.9033
 260  286.7898
 261  276.2494
 262  276.3883
 263  217.0904
 264  317.8042
 265  210.6227
 266  257.9612
 267  270.7874
 268  297.0517
 269  239.389
 270  250.4494
 271  259.1904
 272  196.1497
 273  151.5111
 274  190.2442
 275  295.282
 276  259.0365
 277  312.1217
 278  214.0711
 279  172.0661
 280  194.2454
 281  180.0938
 282  298.9853
 283  307.171
 284  201.9815
 285  240.2695
 286  227.714
 287  332.0183
 288  373.0792
 289  298.7952
 290  375.3933
 291  262.9068
 292  265.5379
 293  298.92
 294  261.7044
 295  310.5569
 296  322.5846
 297  243.0984
 298  92.12938
 299  282.0382
 300  361.2779
 301  291.0011
 302  247.2739
 303  260.6743
 304  277.0322
 305  358.2183
 306  268.1841
 307  249.8095
 308  225.2871
 309  214.5818
 310  291.835
 311  401.5385
 312  467.5718
 313  260.8367
 314  245.4801
 315  175.7574
 316  224.1297
 317  300.5466
 318  234.9486
 319  214.96
 320  368.149
 321  362.3202
 322  243.2455
 323  151.6251
 324  163.3878
 325  226.7026
 326  253.5443
 327  173.8103
 328  140.5846
 329  254.6707
 330  388.5345
 331  427.1349
 332  323.9779
 333  238.8767
 334  227.7261
 335  271.1272
 336  224.7726
 337  235.0234
 338  357.0378
 339  268.0618
 340  252.994
 341  338.5699
 342  396.0741
 343  322.2195
 344  114.7646
 345  226.687
 346  376.1134
 347  309.1377
 348  242.5332
 349  195.5374
 350  140.0967
 351  178.9313
 352  277.4451
 353  224.0876
 354  222.4025
 355  249.9158
 356  323.8095
 357  408.7574
 358  288.7019
 359  224.1098
 360  383.6158
 361  259.5551
 362  297.4665
 363  229.8338
 364  273.1782
 365  336.173
 366  248.1179
 367  298.4883
 368  347.3719
 369  306.4117
 370  202.745
 371  212.9816
 372  298.6296
 373  388.8075
 374  265.8818
 375  389.8335
 376  279.7177
 377  189.8574
 378  251.7013
 379  235.4557
 380  218.8544
 381  172.8895
 382  227.5502
 383  355.5645
 384  235.4647
 385  251.8555
 386  317.1123
 387  260.3682
 388  177.7475
 389  199.5379
 390  231.7542
 391  192.2996
 392  288.6747
 393  234.1795
 394  200.4913
 395  378.4365
 396  391.5455
 397  364.5331
 398  238.0075
 399  153.4831
 400  360.3957
 401  243.0143
 402  307.1927
 403  341.171
 404  303.6557
 405  249.7105
 406  248.0424
 407  232.5116
 408  213.1924
 409  184.6609
 410  271.8307
 411  272.4271
 412  176.1202
 413  137.4668
 414  354.1544
 415  350.0246
 416  368.0209
 417  465.6906
 418  440.9773
 419  326.9269
 420  154.2693
 421  183.1401
 422  301.7882
 423  277.924
 424  138.6313
 425  264.783
 426  332.5237
 427  264.5605
 428  237.6786
 429  155.672
 430  225.6978
 431  131.7408
 432  233.3416
 433  126.9642
 434  119.9394
 435  255.9958
 436  298.0324
 437  292.5083
 438  380.6354
 439  350.1654
 440  196.9708
 441  298.9043
 442  400.3101
 443  277.851
 444  354.6025
 445  303.608
 446  239.3201
 447  225.6588
 448  237.3703
 449  257.9526
 450  345.3982
 451  340.1495
 452  236.6396
 453  242.8645
 454  188.1652
 455  305.1727
 456  288.9184
 457  267.0955
 458  190.844
 459  253.8032
 460  359.8031
 461  201.175
 462  320.8279
 463  317.3655
 464  220.9805
 465  229.9514
 466  172.5702
 467  296.3002
 468  336.1714
 469  211.5994
 470  142.1429
 471  253.6752
 472  202.8997
 473  146.5939
 474  191.7601
 475  150.3207
 476  250.1272
 477  260.2801
 478  251.5039
 479  148.2792
 480  326.1951
 481  418.3183
 482  271.3735
 483  263.8813
 484  263.0939
 485  185.5339
 486  295.5168
 487  207.0157
 488  214.3108
 489  254.568
 490  370.1604
 491  409.6101
 492  392.173
 493  380.98
 494  372.0161
 495  388.4933
 496  409.1604
 497  281.9039
 498  270.4557
 499  244.9251
 500  208.9535
 501  358.0913
 502  370.8787
 503  328.5787
 504  278.7485
 505  333.8492
 506  413.0036
 507  366.1452
 508  200.2073
 509  428.177
 510  543.8193
 511  628.8264
