# Input file       =  1194396499.114743_cleaned.dat
# Candidate        =  PSR_0332+5434
# Telescope        =  AR
# Epoch_topo       =  58068.033346235454
# Epoch_bary       =  N/A
# T_sample         =  0.002
# Data Folded      =  7340032
# Data Avg         =  0.0047546139381755
# Data StdDev      =  1.00007858220604 
# Profile Bins     =  512
# Profile Avg      =  68.238770773456  
# Profile StdDev   =  119.742445262901 
# Reduced chi-sqr  =  1.106
# Prob(Noise)      <  0.048   (~1.7 sigma)
# P_topo (ms)      =  714.505569713261  +/- 0.000288
# P'_topo (s/s)    =  -0                +/- 1.52e-10
# P''_topo (s/s^2) =  0                 +/- 6.7e-14
# P_bary (ms)      =  N/A
# P'_bary (s/s)    =  N/A
# P''_bary (s/s^2) =  N/A
# P_orb (s)        =  N/A
# asin(i)/c (s)    =  N/A
# eccentricity     =  N/A
# w (rad)          =  N/A
# T_peri           =  N/A
######################################################
   0  539.8764
   1  536.8004
   2  361.6452
   3  244.7968
   4  166.5328
   5  33.37846
   6  -70.39992
   7  -65.52951
   8  88.12832
   9  157.5479
  10  228.4059
  11  241.5609
  12  106.7997
  13  48.85983
  14  -2.576263
  15  73.21747
  16  98.31966
  17  80.98692
  18  48.36712
  19  5.583239
  20  -65.29188
  21  -198.429
  22  -126.7536
  23  -18.80709
  24  13.76228
  25  -55.52515
  26  51.89838
  27  3.394991
  28  20.96859
  29  25.14442
  30  100.1118
  31  107.4159
  32  124.4563
  33  124.3685
  34  -25.20011
  35  -106.4943
  36  -27.7834
  37  42.8463
  38  32.62895
  39  68.95158
  40  17.77533
  41  89.60588
  42  -13.35246
  43  -29.99953
  44  -16.69434
  45  96.51423
  46  74.09779
  47  47.08522
  48  39.71988
  49  46.52137
  50  132.7078
  51  49.15046
  52  -8.112071
  53  -106.6324
  54  -27.15192
  55  -121.324
  56  -120.0124
  57  -6.20656
  58  64.59384
  59  54.99455
  60  86.78283
  61  135.8514
  62  69.30991
  63  45.76087
  64  65.31902
  65  13.94219
  66  -18.06374
  67  -26.05729
  68  -76.19736
  69  19.56723
  70  2.387372
  71  -7.789296
  72  26.53036
  73  48.39227
  74  115.2865
  75  51.3434
  76  -4.326281
  77  15.41783
  78  -26.27951
  79  25.77223
  80  26.42652
  81  -73.98448
  82  114.3537
  83  125.7854
  84  27.50183
  85  37.22949
  86  163.4273
  87  86.71114
  88  -26.38623
  89  -80.57879
  90  -63.71176
  91  15.16285
  92  -70.73487
  93  -245.6235
  94  -105.9347
  95  -32.16912
  96  -30.66638
  97  -86.01175
  98  -154.6019
  99  -127.4966
 100  -118.0308
 101  -47.06566
 102  34.68676
 103  -36.68995
 104  -110.0798
 105  -136.9469
 106  -165.0979
 107  -121.8255
 108  -130.5831
 109  -41.15445
 110  -45.14304
 111  -155.3847
 112  -77.86866
 113  43.70851
 114  -24.44934
 115  -39.34079
 116  72.43083
 117  -70.20039
 118  -96.76604
 119  -30.2697
 120  22.7057
 121  67.18993
 122  94.53598
 123  148.9918
 124  46.36454
 125  100.4254
 126  49.32527
 127  26.22802
 128  177.4568
 129  47.66705
 130  87.75224
 131  61.34243
 132  82.38564
 133  63.0042
 134  146.9822
 135  105.2835
 136  108.9062
 137  128.994
 138  108.0394
 139  37.49456
 140  110.8965
 141  122.5541
 142  168.5779
 143  209.6311
 144  109.4954
 145  -14.6571
 146  -4.777737
 147  45.6251
 148  26.64278
 149  -8.153682
 150  77.09856
 151  100.109
 152  62.35716
 153  15.11092
 154  37.21646
 155  -2.316877
 156  6.448099
 157  150.2824
 158  57.43649
 159  -8.397557
 160  67.51038
 161  69.70082
 162  49.32622
 163  126.689
 164  121.9264
 165  168.3899
 166  98.33333
 167  174.2056
 168  126.0371
 169  -95.70764
 170  -149.0797
 171  -51.62706
 172  130.6813
 173  114.4023
 174  1.671288
 175  31.50578
 176  140.8457
 177  29.00394
 178  -74.98147
 179  -3.273815
 180  56.74704
 181  10.78547
 182  -28.737
 183  -29.49825
 184  -85.368
 185  50.40163
 186  106.2693
 187  32.26226
 188  -14.63479
 189  37.91533
 190  75.64893
 191  46.52335
 192  95.20829
 193  162.3409
 194  170.0349
 195  164.8896
 196  184.8081
 197  113.6852
 198  105.7575
 199  104.9825
 200  108.6513
 201  67.43644
 202  21.09042
 203  150.4736
 204  91.33322
 205  121.2768
 206  24.42893
 207  61.16032
 208  117.0927
 209  22.75024
 210  55.12912
 211  81.39449
 212  18.29071
 213  30.06841
 214  44.33695
 215  -123.6838
 216  -4.285469
 217  123.8822
 218  92.98594
 219  38.70091
 220  -59.5479
 221  -56.19017
 222  -5.603532
 223  73.42873
 224  -26.34932
 225  -22.56364
 226  100.9103
 227  76.39353
 228  -8.783063
 229  29.22089
 230  134.4509
 231  81.62884
 232  87.61893
 233  49.34663
 234  -2.799526
 235  11.22286
 236  56.03675
 237  -57.72829
 238  15.96239
 239  75.37833
 240  45.06093
 241  108.4176
 242  104.1003
 243  23.41018
 244  25.90983
 245  71.72647
 246  138.5582
 247  94.94798
 248  61.5658
 249  132.5394
 250  138.3404
 251  73.69695
 252  -1.80559
 253  2.349359
 254  60.91616
 255  -17.11354
 256  -43.97058
 257  18.9106
 258  72.07676
 259  20.16068
 260  44.39193
 261  165.9971
 262  175.1906
 263  72.59422
 264  31.70342
 265  117.6912
 266  99.79722
 267  86.63548
 268  115.6814
 269  140.2589
 270  167.8427
 271  137.2162
 272  208.9461
 273  289.6294
 274  215.9541
 275  181.9752
 276  69.93615
 277  111.3498
 278  125.8234
 279  247.1168
 280  166.586
 281  90.92891
 282  111.738
 283  71.50056
 284  65.36333
 285  183.6413
 286  157.5844
 287  119.2464
 288  234.3149
 289  236.3279
 290  183.4742
 291  138.7728
 292  184.8121
 293  170.0965
 294  181.0681
 295  149.7361
 296  155.9767
 297  211.5145
 298  185.0568
 299  127.8705
 300  124.0253
 301  100.4979
 302  116.829
 303  38.0439
 304  1.626814
 305  17.87269
 306  78.50237
 307  169.4508
 308  117.7498
 309  4.269886
 310  66.16595
 311  95.31225
 312  40.06023
 313  12.39568
 314  8.090536
 315  14.76853
 316  89.97161
 317  109.4183
 318  74.89441
 319  66.41931
 320  136.9319
 321  97.25809
 322  50.42642
 323  30.64944
 324  32.88097
 325  -44.77673
 326  -36.53022
 327  86.52583
 328  81.20248
 329  102.8508
 330  149.1068
 331  86.14897
 332  6.080554
 333  114.7594
 334  204.1408
 335  128.357
 336  150.8242
 337  73.26847
 338  -43.53165
 339  31.75602
 340  36.0561
 341  66.80407
 342  27.04487
 343  54.20557
 344  36.3675
 345  165.608
 346  119.5408
 347  -18.20343
 348  -80.18535
 349  2.815547
 350  87.32577
 351  107.5506
 352  1.984529
 353  -37.31688
 354  111.2233
 355  170.0083
 356  121.8145
 357  31.80484
 358  13.15388
 359  90.34018
 360  100.2624
 361  125.4842
 362  84.72043
 363  69.19593
 364  27.01071
 365  5.979655
 366  115.6765
 367  93.54604
 368  92.24551
 369  112.3974
 370  105.0398
 371  94.88576
 372  80.52719
 373  81.11355
 374  113.6299
 375  82.34739
 376  91.25185
 377  86.29619
 378  108.9755
 379  12.09484
 380  -10.67815
 381  7.77864
 382  14.52895
 383  90.03231
 384  39.44525
 385  116.1956
 386  179.8232
 387  70.26428
 388  144.1814
 389  29.13551
 390  -3.065542
 391  105.6028
 392  81.57907
 393  188.0653
 394  66.09653
 395  -19.05387
 396  98.45
 397  83.99385
 398  63.09502
 399  110.8602
 400  160.8658
 401  163.1022
 402  45.08628
 403  38.46589
 404  38.38342
 405  64.35801
 406  83.07346
 407  105.0055
 408  73.36292
 409  179.7771
 410  138.517
 411  51.90598
 412  -27.15317
 413  -52.2328
 414  42.21727
 415  91.24242
 416  72.22994
 417  0.4545749
 418  31.36473
 419  111.5443
 420  76.92097
 421  118.4848
 422  131.7222
 423  84.96741
 424  31.90594
 425  128.5963
 426  138.8966
 427  104.7055
 428  212.5498
 429  156.3409
 430  65.89835
 431  -18.90417
 432  60.23854
 433  51.72895
 434  32.51479
 435  164.0381
 436  224.0137
 437  193.4541
 438  164.1424
 439  193.4196
 440  117.6525
 441  139.3601
 442  54.28333
 443  46.61239
 444  8.159886
 445  165.5304
 446  259.1093
 447  207.3189
 448  125.7912
 449  173.2296
 450  207.5334
 451  151.8667
 452  177.6449
 453  161.4765
 454  80.46423
 455  14.38303
 456  -40.11429
 457  29.51719
 458  57.71492
 459  39.40147
 460  106.2204
 461  72.93257
 462  -1.544318
 463  -36.52647
 464  -15.66845
 465  14.65511
 466  40.56857
 467  97.83215
 468  10.75653
 469  46.20148
 470  71.79934
 471  178.1483
 472  187.0103
 473  49.79123
 474  33.91473
 475  19.54265
 476  122.6427
 477  72.55318
 478  74.92025
 479  187.5811
 480  111.4437
 481  59.67437
 482  33.45108
 483  157.1615
 484  76.23428
 485  -10.85165
 486  137.5985
 487  149.3521
 488  257.9957
 489  109.4044
 490  37.65367
 491  63.508
 492  109.3287
 493  93.62057
 494  13.40213
 495  75.52882
 496  88.63152
 497  106.911
 498  206.7656
 499  143.3409
 500  72.75404
 501  56.16197
 502  91.15565
 503  10.26225
 504  73.44853
 505  158.9753
 506  214.6151
 507  215.0013
 508  310.1916
 509  343.0447
 510  357.8879
 511  539.1321
