# Input file       =  1194797738.111993_cleaned.dat
# Candidate        =  PSR_0332+5434
# Telescope        =  AR
# Epoch_topo       =  58072.677316111032
# Epoch_bary       =  N/A
# T_sample         =  0.002
# Data Folded      =  7471104
# Data Avg         =  0.0196557641958586
# Data StdDev      =  1.0000961073154  
# Profile Bins     =  512
# Profile Avg      =  286.701011389346 
# Profile StdDev   =  120.808960473441 
# Reduced chi-sqr  =  1.173
# Prob(Noise)      <  0.00408   (~2.6 sigma)
# P_topo (ms)      =  714.509870606273  +/- 0.000393
# P'_topo (s/s)    =  -0                +/- 2.04e-10
# P''_topo (s/s^2) =  0                 +/- 8.84e-14
# P_bary (ms)      =  N/A
# P'_bary (s/s)    =  N/A
# P''_bary (s/s^2) =  N/A
# P_orb (s)        =  N/A
# asin(i)/c (s)    =  N/A
# eccentricity     =  N/A
# w (rad)          =  N/A
# T_peri           =  N/A
######################################################
   0  858.499
   1  794.8247
   2  609.3175
   3  442.6063
   4  316.5457
   5  170.085
   6  125.6143
   7  190.2208
   8  339.3014
   9  382.4684
  10  336.9559
  11  355.1119
  12  401.4001
  13  338.376
  14  246.8233
  15  365.4434
  16  232.7738
  17  278.9202
  18  373.9389
  19  285.5621
  20  306.1389
  21  201.2333
  22  153.1398
  23  276.6355
  24  307.6816
  25  318.6041
  26  253.7523
  27  213.4785
  28  186.4085
  29  298.4955
  30  233.8117
  31  232.6886
  32  275.1682
  33  265.7379
  34  238.9941
  35  169.498
  36  290.6767
  37  256.8586
  38  251.6054
  39  226.2458
  40  266.0468
  41  186.9051
  42  249.7171
  43  226.4189
  44  180.8366
  45  196.7135
  46  218.1317
  47  159.1789
  48  273.7252
  49  202.1848
  50  258.3339
  51  244.7707
  52  383.8443
  53  338.5122
  54  106.2064
  55  171.1909
  56  288.9478
  57  339.3389
  58  246.8306
  59  216.4296
  60  465.6459
  61  442.5817
  62  174.7303
  63  54.45568
  64  345.3557
  65  216.1195
  66  212.5591
  67  154.6809
  68  400.5866
  69  379.938
  70  304.7308
  71  345.6241
  72  308.8423
  73  311.787
  74  417.0629
  75  353.4708
  76  344.565
  77  340.6339
  78  411.6307
  79  447.316
  80  427.8159
  81  254.8961
  82  237.9235
  83  293.6796
  84  253.3617
  85  348.5108
  86  315.2255
  87  317.8616
  88  344.0035
  89  295.2669
  90  366.4401
  91  282.0875
  92  320.1625
  93  192.3246
  94  216.6434
  95  345.9412
  96  329.069
  97  298.9028
  98  360.72
  99  323.7292
 100  275.9291
 101  374.2342
 102  319.2816
 103  294.055
 104  255.6576
 105  259.8964
 106  181.386
 107  317.2217
 108  483.0847
 109  370.5742
 110  334.9522
 111  331.5915
 112  286.8293
 113  300.7653
 114  326.9841
 115  336.5
 116  355.925
 117  271.4288
 118  353.5575
 119  414.1218
 120  425.6515
 121  432.5719
 122  410.7855
 123  327.5219
 124  309.4937
 125  231.051
 126  311.7445
 127  358.0255
 128  338.6622
 129  398.4815
 130  324.9873
 131  368.9195
 132  352.0601
 133  254.5932
 134  234.8273
 135  285.5761
 136  332.5651
 137  345.7599
 138  365.153
 139  352.7689
 140  251.0075
 141  280.6936
 142  341.6359
 143  364.9042
 144  242.4165
 145  315.1516
 146  246.3997
 147  323.7101
 148  330.2961
 149  398.3533
 150  407.4181
 151  312.9046
 152  385.3642
 153  401.7273
 154  239.7541
 155  152.5425
 156  168.8087
 157  371.7989
 158  245.9203
 159  289.526
 160  266.4076
 161  254.8959
 162  251.2138
 163  223.6854
 164  342.077
 165  431.7159
 166  396.4638
 167  455.5192
 168  460.8181
 169  473.8274
 170  426.9788
 171  283.8956
 172  375.2237
 173  398.6582
 174  210.1159
 175  131.374
 176  206.9259
 177  290.3937
 178  329.5754
 179  290.7612
 180  205.3516
 181  320.6913
 182  299.2428
 183  331.9484
 184  272.6884
 185  156.5195
 186  205.7356
 187  146.9259
 188  265.3722
 189  341.0242
 190  277.6785
 191  179.1797
 192  79.38335
 193  182.0359
 194  295.3127
 195  312.4603
 196  311.8316
 197  300.0389
 198  255.9804
 199  366.6024
 200  338.9473
 201  237.2433
 202  304.7995
 203  343.9774
 204  316.5432
 205  363.178
 206  420.0335
 207  335.8782
 208  289.6128
 209  317.5191
 210  315.86
 211  203.604
 212  322.4452
 213  374.1035
 214  433.092
 215  375.0979
 216  190.2982
 217  222.4297
 218  448.0232
 219  260.9664
 220  197.581
 221  300.5713
 222  302.0139
 223  193.6391
 224  202.5826
 225  399.6795
 226  305.659
 227  162.5595
 228  208.8794
 229  349.3878
 230  228.4617
 231  143.6507
 232  215.4679
 233  367.2152
 234  339.8264
 235  318.9577
 236  277.9426
 237  206.067
 238  207.9769
 239  292.6888
 240  232.0928
 241  238.95
 242  338.1256
 243  320.4146
 244  359.913
 245  349.6005
 246  334.4823
 247  299.3968
 248  304.1264
 249  365.7642
 250  288.766
 251  278.0675
 252  319.864
 253  307.7914
 254  320.6485
 255  356.9411
 256  318.7675
 257  242.3322
 258  257.4376
 259  145.0479
 260  248.8068
 261  250.2534
 262  306.3042
 263  304.2122
 264  280.1644
 265  240.8657
 266  179.7033
 267  227.0327
 268  239.5867
 269  375.4037
 270  451.0759
 271  242.7565
 272  163.0737
 273  204.0711
 274  257.0794
 275  217.5732
 276  246.6214
 277  399.8707
 278  386.9939
 279  361.0205
 280  298.4653
 281  287.8307
 282  220.1282
 283  326.9507
 284  234.0195
 285  142.8218
 286  237.5325
 287  267.203
 288  270.427
 289  274.2999
 290  184.7964
 291  245.5832
 292  254.4667
 293  382.9506
 294  346.1253
 295  279.3627
 296  303.5302
 297  204.1221
 298  298.6698
 299  374.565
 300  413.5486
 301  300.9716
 302  273.1814
 303  294.5681
 304  257.8903
 305  389.5713
 306  356.0526
 307  136.3252
 308  97.75833
 309  366.5427
 310  461.381
 311  366.5368
 312  257.3307
 313  305.2883
 314  374.6853
 315  386.412
 316  169.5415
 317  216.0882
 318  311.8062
 319  251.049
 320  181.9814
 321  237.5915
 322  364.6726
 323  349.417
 324  284.1637
 325  270.0388
 326  388.4404
 327  437.9225
 328  293.7435
 329  381.4386
 330  256.0543
 331  179.8655
 332  126.2304
 333  369.1596
 334  397.8745
 335  314.2513
 336  309.3618
 337  215.0177
 338  299.0518
 339  449.5195
 340  392.0395
 341  140.6093
 342  81.30031
 343  238.0067
 344  302.8987
 345  250.6732
 346  133.416
 347  222.154
 348  203.9582
 349  284.2488
 350  251.0157
 351  364.909
 352  253.7906
 353  171.4456
 354  125.6739
 355  344.7797
 356  251.1702
 357  213.6626
 358  134.3947
 359  215.0932
 360  221.884
 361  200.1726
 362  294.3465
 363  343.8568
 364  228.2787
 365  152.2561
 366  251.6264
 367  342.7078
 368  295.0513
 369  352.1764
 370  252.382
 371  63.13373
 372  187.832
 373  227.0138
 374  271.7503
 375  248.421
 376  238.7967
 377  331.0723
 378  193.976
 379  279.2968
 380  295.161
 381  298.3315
 382  317.4672
 383  239.2512
 384  136.3011
 385  141.8203
 386  275.003
 387  401.2416
 388  411.2595
 389  365.5785
 390  363.4732
 391  312.3311
 392  280.8917
 393  347.4422
 394  336.126
 395  349.8458
 396  411.2027
 397  279.7989
 398  209.2834
 399  157.7327
 400  94.06152
 401  192.7007
 402  236.5133
 403  195.3834
 404  172.7698
 405  159.1613
 406  184.075
 407  272.1021
 408  324.4848
 409  261.593
 410  180.2117
 411  204.1058
 412  222.465
 413  204.2144
 414  260.9706
 415  98.12079
 416  195.5332
 417  328.85
 418  287.4266
 419  274.5152
 420  232.8892
 421  244.7536
 422  229.4512
 423  190.0679
 424  159.0549
 425  221.8296
 426  245.8225
 427  265.3153
 428  278.8306
 429  338.2715
 430  232.8735
 431  200.9109
 432  269.9767
 433  330.9485
 434  294.4601
 435  202.1357
 436  220.5329
 437  67.73901
 438  181.0616
 439  208.1615
 440  259.49
 441  258.3077
 442  259.1193
 443  314.2665
 444  210.0787
 445  111.1999
 446  156.1313
 447  255.0475
 448  267.7829
 449  214.7726
 450  369.8162
 451  442.5766
 452  325.4866
 453  294.3803
 454  259.7903
 455  347.8365
 456  226.4674
 457  278.9086
 458  407.1954
 459  200.9734
 460  83.14776
 461  220.691
 462  302.6201
 463  324.1277
 464  316.1081
 465  365.966
 466  400.973
 467  266.1421
 468  258.8949
 469  299.3888
 470  296.0013
 471  236.2898
 472  310.7139
 473  374.7524
 474  345.4131
 475  168.822
 476  243.0579
 477  285.2448
 478  269.4494
 479  364.6367
 480  412.4067
 481  217.1745
 482  123.3807
 483  165.2944
 484  188.7352
 485  152.4481
 486  259.3968
 487  372.6104
 488  161.2428
 489  186.4159
 490  363.4044
 491  395.9644
 492  221.6219
 493  281.132
 494  367.2633
 495  235.6411
 496  121.8925
 497  238.8956
 498  144.7032
 499  130.1208
 500  289.2988
 501  290.0688
 502  271.9149
 503  270.0576
 504  276.0718
 505  276.6598
 506  404.6012
 507  534.8191
 508  486.4271
 509  536.3349
 510  645.3062
 511  815.9242
