# Input file       =  1194467733.106676_cleaned.dat
# Candidate        =  PSR_0332+5434
# Telescope        =  AR
# Epoch_topo       =  58068.857813734678
# Epoch_bary       =  N/A
# T_sample         =  0.002
# Data Folded      =  7340032
# Data Avg         =  0.0202432399696762
# Data StdDev      =  1.00009631437907 
# Profile Bins     =  512
# Profile Avg      =  290.10935621544  
# Profile StdDev   =  119.744568389818 
# Reduced chi-sqr  =  1.131
# Prob(Noise)      <  0.0213   (~2.0 sigma)
# P_topo (ms)      =  714.506050923603  +/- 0.000357
# P'_topo (s/s)    =  -0                +/- 1.89e-10
# P''_topo (s/s^2) =  0                 +/- 8.32e-14
# P_bary (ms)      =  N/A
# P'_bary (s/s)    =  N/A
# P''_bary (s/s^2) =  N/A
# P_orb (s)        =  N/A
# asin(i)/c (s)    =  N/A
# eccentricity     =  N/A
# w (rad)          =  N/A
# T_peri           =  N/A
######################################################
   0  791.8386
   1  825.4216
   2  795.7349
   3  561.1166
   4  528.6516
   5  408.8192
   6  435.8423
   7  247.769
   8  172.8158
   9  339.3085
  10  400.6371
  11  373.753
  12  372.8311
  13  399.6248
  14  389.2427
  15  428.2818
  16  359.2418
  17  358.6204
  18  309.6276
  19  254.8599
  20  319.7822
  21  457.7574
  22  292.2438
  23  236.5187
  24  310.9786
  25  312.6068
  26  250.4049
  27  205.6275
  28  134.5373
  29  176.8586
  30  275.3898
  31  366.7906
  32  423.1759
  33  194.3834
  34  337.8907
  35  406.0209
  36  259.521
  37  215.3834
  38  326.0441
  39  362.5986
  40  330.7589
  41  307.3026
  42  326.5855
  43  360.047
  44  377.656
  45  226.2523
  46  310.3198
  47  141.3942
  48  171.9909
  49  96.10236
  50  243.848
  51  336.7549
  52  356.4509
  53  242.6485
  54  209.3327
  55  207.6753
  56  231.4015
  57  322.6642
  58  346.1848
  59  265.1606
  60  278.0032
  61  200.5086
  62  201.9955
  63  212.4316
  64  270.8544
  65  205.9534
  66  154.7453
  67  249.3366
  68  249.2003
  69  195.008
  70  165.2308
  71  254.2191
  72  256.6009
  73  280.5665
  74  284.8611
  75  274.6218
  76  341.2837
  77  319.606
  78  286.9134
  79  254.2892
  80  336.0532
  81  281.7234
  82  311.1035
  83  350.5514
  84  356.6128
  85  246.9745
  86  213.1063
  87  261.5131
  88  296.718
  89  249.4579
  90  186.7052
  91  379.9276
  92  421.873
  93  412.9022
  94  357.1939
  95  375.1611
  96  357.1922
  97  212.7362
  98  235.6774
  99  328.9333
 100  270.7457
 101  303.3422
 102  257.1472
 103  355.9072
 104  432.9079
 105  443.6111
 106  368.2227
 107  312.6578
 108  282.9656
 109  272.2831
 110  218.897
 111  215.1693
 112  214.9397
 113  291.6113
 114  345.3729
 115  305.6432
 116  124.838
 117  330.753
 118  355.047
 119  288.3044
 120  160.0979
 121  104.121
 122  217.2549
 123  306.4068
 124  285.8528
 125  220.2962
 126  268.4294
 127  289.9801
 128  318.0553
 129  324.3221
 130  208.7232
 131  236.8688
 132  252.2607
 133  250.8767
 134  212.9502
 135  252.9722
 136  152.4346
 137  197.4093
 138  316.2444
 139  375.0059
 140  283.4711
 141  163.3428
 142  335.3215
 143  328.0611
 144  182.4995
 145  132.1818
 146  239.7143
 147  280.0601
 148  278.4787
 149  405.2102
 150  282.5718
 151  253.8028
 152  289.4539
 153  406.401
 154  312.4296
 155  253.6116
 156  222.5681
 157  252.8638
 158  199.396
 159  305.3651
 160  387.652
 161  337.5297
 162  308.5122
 163  244.3698
 164  281.4696
 165  235.4031
 166  245.1384
 167  206.8178
 168  344.6311
 169  269.5666
 170  197.2684
 171  235.0721
 172  189.5505
 173  388.1761
 174  432.0386
 175  362.8159
 176  275.0883
 177  279.0864
 178  293.284
 179  306.381
 180  322.0809
 181  317.4491
 182  280.1787
 183  240.3
 184  235.8463
 185  286.8646
 186  266.235
 187  286.2472
 188  250.2135
 189  220.4394
 190  185.1246
 191  244.2417
 192  286.6677
 193  278.8386
 194  402.962
 195  321.7468
 196  289.2646
 197  322.5622
 198  346.801
 199  349.6748
 200  353.5147
 201  241.9227
 202  123.1519
 203  306.5724
 204  405.0068
 205  330.0508
 206  268.2891
 207  279.4573
 208  220.6465
 209  224.7514
 210  252.4313
 211  291.7077
 212  315.3974
 213  335.4632
 214  352.2875
 215  295.187
 216  265.4084
 217  274.3508
 218  231.0515
 219  304.3913
 220  329.0293
 221  340.3658
 222  273.1006
 223  139.616
 224  178.5082
 225  174.2752
 226  243.0203
 227  222.5919
 228  324.2273
 229  380.3029
 230  237.2416
 231  236.2472
 232  271.9194
 233  197.5907
 234  116.2276
 235  306.8043
 236  390.7816
 237  346.321
 238  302.3672
 239  287.9062
 240  297.1248
 241  216.536
 242  388.999
 243  319.313
 244  251.728
 245  273.6367
 246  298.2196
 247  363.9736
 248  284.2109
 249  327.7975
 250  361.4771
 251  375.7057
 252  213.6289
 253  209.1416
 254  258.6837
 255  201.2719
 256  117.688
 257  179.0082
 258  156.3526
 259  257.1558
 260  306.8675
 261  355.6036
 262  257.3933
 263  268.4328
 264  244.7538
 265  377.1356
 266  352.6071
 267  236.2304
 268  281.3025
 269  248.4219
 270  256.7365
 271  259.4644
 272  227.2345
 273  96.21153
 274  208.8972
 275  329.7872
 276  332.3476
 277  297.5804
 278  462.4126
 279  409.3338
 280  288.8949
 281  284.7256
 282  268.472
 283  282.7942
 284  251.0345
 285  336.7766
 286  435.6967
 287  406.3154
 288  349.8346
 289  437.5917
 290  429.4314
 291  358.5852
 292  292.3082
 293  413.6402
 294  402.9211
 295  343.5761
 296  307.7037
 297  384.7865
 298  424.325
 299  294.2197
 300  232.7537
 301  236.6714
 302  254.0808
 303  314.5672
 304  377.5115
 305  363.2878
 306  279.2574
 307  261.2704
 308  321.3339
 309  273.3979
 310  226.8226
 311  219.8894
 312  224.0017
 313  287.9026
 314  281.0468
 315  328.7912
 316  181.4757
 317  177.4791
 318  174.7168
 319  305.3687
 320  332.5297
 321  412.9006
 322  363.8251
 323  350.1998
 324  301.4331
 325  362.3812
 326  280.8413
 327  260.824
 328  243.7815
 329  232.9715
 330  237.0975
 331  252.7343
 332  251.497
 333  227.2293
 334  291.6369
 335  302.5397
 336  302.656
 337  307.8579
 338  257.4912
 339  220.635
 340  363.1881
 341  373.4313
 342  233.3772
 343  134.3357
 344  235.4103
 345  240.2679
 346  291.2737
 347  233.866
 348  179.2327
 349  359.3355
 350  235.8191
 351  144.892
 352  83.87375
 353  219.3178
 354  338.6835
 355  318.1081
 356  330.9392
 357  339.8982
 358  277.3771
 359  310.953
 360  282.6583
 361  261.8784
 362  346.4277
 363  258.3768
 364  190.8048
 365  223.3739
 366  391.6987
 367  267.6895
 368  246.4528
 369  229.2039
 370  314.7092
 371  278.1768
 372  178.5362
 373  293.0336
 374  326.5102
 375  322.621
 376  198.2639
 377  308.9487
 378  335.2314
 379  251.0373
 380  176.2206
 381  211.4818
 382  285.4035
 383  401.5908
 384  316.1788
 385  260.7653
 386  189.4629
 387  426.6022
 388  303.6556
 389  93.30214
 390  17.12032
 391  163.2561
 392  286.3189
 393  333.3048
 394  419.8494
 395  426.9438
 396  347.4837
 397  297.4443
 398  270.0013
 399  389.4371
 400  434.5239
 401  354.5877
 402  375.8796
 403  255.1738
 404  300.4044
 405  316.8607
 406  275.7819
 407  150.379
 408  251.5282
 409  246.9028
 410  222.0406
 411  299.3086
 412  356.5762
 413  355.921
 414  315.3815
 415  158.674
 416  131.2683
 417  310.0802
 418  322.4225
 419  230.0905
 420  191.0386
 421  301.769
 422  296.9124
 423  326.2346
 424  381.0168
 425  287.3888
 426  168.9989
 427  263.0275
 428  282.7143
 429  253.6432
 430  295.3833
 431  177.1367
 432  159.4912
 433  183.7318
 434  162.0295
 435  380.9651
 436  275.571
 437  219.976
 438  330.529
 439  385.4022
 440  289.2236
 441  196.277
 442  338.8138
 443  341.591
 444  257.8731
 445  218.6007
 446  169.143
 447  280.3619
 448  234.0293
 449  160.4956
 450  212.02
 451  253.9521
 452  183.1116
 453  216.5738
 454  158.0093
 455  208.8151
 456  127.4925
 457  256.9836
 458  343.2848
 459  292.1338
 460  338.3054
 461  259.3411
 462  225.8385
 463  245.8042
 464  279.1313
 465  255.4079
 466  270.6041
 467  319.2697
 468  301.1518
 469  374.0811
 470  299.5612
 471  283.8594
 472  353.0093
 473  235.5679
 474  217.3087
 475  347.9124
 476  223.5769
 477  62.16319
 478  208.7869
 479  331.6673
 480  212.1384
 481  233.9394
 482  323.4129
 483  322.7359
 484  248.1116
 485  219.7536
 486  263.54
 487  272.4439
 488  220.0329
 489  271.7483
 490  237.7778
 491  351.8767
 492  365.4249
 493  409.8849
 494  344.5514
 495  399.1931
 496  435.2016
 497  402.6266
 498  312.3058
 499  285.0703
 500  327.4218
 501  426.8213
 502  389.7226
 503  459.1582
 504  357.56
 505  301.1422
 506  314.5735
 507  357.8937
 508  553.8995
 509  566.0226
 510  739.6162
 511  810.5074
