# Input file       =  1194224056.102329_cleaned.dat
# Candidate        =  PSR_0332+5434
# Telescope        =  AR
# Epoch_topo       =  58066.037478036218
# Epoch_bary       =  N/A
# T_sample         =  0.002
# Data Folded      =  7340032
# Data Avg         =  0.029999215729988
# Data StdDev      =  1.00004602632791 
# Profile Bins     =  512
# Profile Avg      =  430.321370337633 
# Profile StdDev   =  119.73854724876  
# Reduced chi-sqr  =  0.777
# Prob(Noise)      <  1   (~0.0 sigma)
# P_topo (ms)      =  714.503614352205  +/- 0.0003
# P'_topo (s/s)    =  -0                +/- 1.59e-10
# P''_topo (s/s^2) =  0                 +/- 7e-14
# P_bary (ms)      =  N/A
# P'_bary (s/s)    =  N/A
# P''_bary (s/s^2) =  N/A
# P_orb (s)        =  N/A
# asin(i)/c (s)    =  N/A
# eccentricity     =  N/A
# w (rad)          =  N/A
# T_peri           =  N/A
######################################################
   0  822.6031
   1  786.382
   2  695.5743
   3  564.2324
   4  594.4692
   5  456.5129
   6  463.97
   7  530.4202
   8  452.5325
   9  323.2215
  10  374.2338
  11  364.2829
  12  388.8849
  13  485.9341
  14  434.6386
  15  555.9378
  16  478.5598
  17  472.7715
  18  405.2543
  19  408.0547
  20  439.5395
  21  417.2693
  22  466.2928
  23  389.7353
  24  455.7913
  25  542.9822
  26  402.4623
  27  390.5276
  28  411.1288
  29  363.8407
  30  360.5241
  31  297.5158
  32  407.1122
  33  379.174
  34  361.5141
  35  427.6985
  36  401.6399
  37  430.4026
  38  416.4648
  39  368.7249
  40  452.6638
  41  422.567
  42  383.5443
  43  352.0055
  44  379.4761
  45  430.1636
  46  330.2647
  47  300.1873
  48  310.5381
  49  396.7784
  50  378.5708
  51  469.9263
  52  521.2715
  53  577.7557
  54  466.3207
  55  404.8543
  56  409.5266
  57  519.6934
  58  421.9398
  59  416.9443
  60  398.7387
  61  311.3993
  62  418.039
  63  457.5954
  64  501.3367
  65  510.8319
  66  487.7354
  67  487.5195
  68  468.601
  69  456.2458
  70  442.525
  71  487.275
  72  549.7307
  73  524.5209
  74  447.0133
  75  452.7383
  76  438.2054
  77  516.9175
  78  596.476
  79  573.0452
  80  606.7969
  81  531.5223
  82  319.4474
  83  470.9413
  84  511.8531
  85  442.7153
  86  460.0521
  87  469.4286
  88  551.2767
  89  483.0112
  90  422.0848
  91  369.8805
  92  339.0236
  93  259.4428
  94  327.2443
  95  416.3257
  96  476.4986
  97  465.5929
  98  363.2676
  99  276.6941
 100  379.9037
 101  456.0956
 102  430.1474
 103  430.1118
 104  448.1067
 105  429.5076
 106  479.3025
 107  469.3033
 108  411.2706
 109  393.1741
 110  320.433
 111  378.6663
 112  376.7065
 113  448.862
 114  428.825
 115  452.9089
 116  506.0984
 117  467.4698
 118  468.6711
 119  375.6402
 120  437.6374
 121  418.557
 122  348.5213
 123  326.7028
 124  359.7221
 125  379.9385
 126  371.1101
 127  392.2941
 128  332.9763
 129  356.6315
 130  294.1383
 131  359.355
 132  436.0523
 133  450.0949
 134  437.7049
 135  460.8173
 136  439.7574
 137  479.0816
 138  498.1959
 139  416.6181
 140  441.4848
 141  411.4286
 142  354.1737
 143  425.5203
 144  442.57
 145  519.5693
 146  535.0853
 147  527.7628
 148  514.5175
 149  465.9079
 150  528.4918
 151  544.943
 152  473.5442
 153  468.2286
 154  407.933
 155  458.0727
 156  516.5544
 157  370.9885
 158  385.0317
 159  496.7925
 160  353.5414
 161  399.0906
 162  499.1925
 163  384.6817
 164  522.5605
 165  581.2243
 166  596.1139
 167  491.3297
 168  466.4907
 169  513.3713
 170  419.0898
 171  431.3439
 172  490.8509
 173  465.8529
 174  434.5039
 175  431.3186
 176  436.006
 177  513.2695
 178  435.153
 179  429.74
 180  392.2066
 181  241.8796
 182  384.5363
 183  420.1529
 184  418.6132
 185  379.7036
 186  345.7547
 187  368.7126
 188  370.4186
 189  354.4339
 190  329.535
 191  297.3289
 192  367.9469
 193  342.9751
 194  396.7108
 195  465.287
 196  559.525
 197  522.7842
 198  463.438
 199  527.7727
 200  462.4773
 201  382.6338
 202  451.8066
 203  375.3728
 204  321.186
 205  432.3361
 206  552.7979
 207  471.3537
 208  429.3958
 209  530.071
 210  572.8878
 211  514.3171
 212  487.7685
 213  528.4522
 214  431.7773
 215  361.1821
 216  408.7176
 217  446.1691
 218  478.7315
 219  483.275
 220  389.0272
 221  451.2676
 222  357.1786
 223  358.4981
 224  340.363
 225  498.4616
 226  502.4158
 227  431.8655
 228  450.6547
 229  463.8493
 230  296.2043
 231  309.9133
 232  361.0126
 233  393.5538
 234  472.9078
 235  481.1857
 236  461.3363
 237  509.9743
 238  496.9567
 239  454.3505
 240  486.7961
 241  487.6072
 242  446.4934
 243  400.0682
 244  450.6161
 245  407.0331
 246  431.9959
 247  384.356
 248  437.1828
 249  430.9598
 250  376.0537
 251  425.0443
 252  372.9038
 253  400.3438
 254  386.322
 255  341.6929
 256  425.851
 257  320.04
 258  270.1956
 259  274.8785
 260  318.5271
 261  398.1382
 262  383.9053
 263  263.334
 264  297.5429
 265  332.9106
 266  362.8541
 267  327.4365
 268  470.6411
 269  478.4391
 270  337.6945
 271  359.5605
 272  383.234
 273  383.0124
 274  369.8332
 275  367.8376
 276  487.9166
 277  491.8987
 278  434.6977
 279  408.2103
 280  443.0171
 281  432.5243
 282  407.4023
 283  376.8527
 284  433.0226
 285  492.97
 286  608.2738
 287  525.3998
 288  407.8872
 289  387.154
 290  398.7901
 291  395.3156
 292  458.2444
 293  434.6775
 294  520.7748
 295  474.5283
 296  434.9579
 297  486.2604
 298  426.2889
 299  403.6999
 300  404.1245
 301  433.418
 302  459.6555
 303  588.4296
 304  557.1662
 305  581.0046
 306  447.7718
 307  471.5894
 308  414.5067
 309  462.3717
 310  572.0269
 311  523.5989
 312  448.727
 313  411.5748
 314  472.823
 315  526.2579
 316  482.0865
 317  467.4342
 318  414.0444
 319  407.2959
 320  527.6731
 321  629.4691
 322  516.289
 323  402.7993
 324  451.973
 325  455.5011
 326  474.7026
 327  367.5523
 328  369.5968
 329  342.2346
 330  294.5942
 331  355.7819
 332  366.6068
 333  339.107
 334  445.0079
 335  395.3465
 336  426.5905
 337  519.1759
 338  426.2084
 339  396.5265
 340  447.3018
 341  438.8298
 342  440.0582
 343  401.9018
 344  370.9949
 345  336.995
 346  417.8294
 347  470.2562
 348  421.6963
 349  448.512
 350  465.3587
 351  406.9678
 352  422.0492
 353  460.5339
 354  421.3011
 355  429.4427
 356  534.0792
 357  461.7729
 358  416.6156
 359  444.9229
 360  434.2016
 361  346.4579
 362  379.2407
 363  421.5749
 364  505.0085
 365  463.0237
 366  457.8526
 367  518.5407
 368  494.5894
 369  484.8303
 370  390.3084
 371  308.3433
 372  290.9043
 373  368.38
 374  342.4625
 375  356.2429
 376  392.0186
 377  472.6989
 378  497.6883
 379  514.3943
 380  492.5507
 381  437.8192
 382  351.6837
 383  499.2783
 384  444.3691
 385  279.1441
 386  340.3265
 387  301.981
 388  336.5685
 389  390.2017
 390  378.0919
 391  382.175
 392  272.4949
 393  370.4346
 394  342.3339
 395  301.5435
 396  282.0687
 397  242.1743
 398  281.3859
 399  365.6611
 400  421.8538
 401  369.0717
 402  414.0743
 403  474.835
 404  409.6879
 405  338.1037
 406  376.5217
 407  416.7401
 408  390.3827
 409  486.1317
 410  429.9933
 411  377.104
 412  397.5159
 413  322.7709
 414  427.7295
 415  410.5782
 416  380.128
 417  365.9386
 418  343.6898
 419  369.0558
 420  253.3112
 421  365.4319
 422  409.2437
 423  353.3588
 424  415.8607
 425  447.5193
 426  452.2996
 427  422.7664
 428  412.6295
 429  395.2316
 430  330.5211
 431  349.2267
 432  421.4747
 433  392.0024
 434  348.987
 435  306.6902
 436  368.5795
 437  366.3089
 438  444.2398
 439  505.9004
 440  449.5996
 441  489.3311
 442  456.9639
 443  460.4031
 444  385.4379
 445  309.7264
 446  399.7147
 447  478.0526
 448  466.0695
 449  446.7038
 450  426.8341
 451  416.9963
 452  409.4792
 453  313.027
 454  374.4846
 455  476.7586
 456  497.1018
 457  401.6941
 458  487.036
 459  429.94
 460  423.421
 461  369.0689
 462  342.2369
 463  329.0644
 464  437.4833
 465  484.8547
 466  421.4965
 467  473.5648
 468  523.7263
 469  501.2198
 470  480.1365
 471  412.2099
 472  428.0641
 473  415.3972
 474  491.3063
 475  433.5361
 476  351.6129
 477  412.5675
 478  533.0144
 479  562.6924
 480  494.4663
 481  434.4702
 482  416.9495
 483  426.3833
 484  524.5676
 485  497.2892
 486  428.6901
 487  464.5936
 488  437.701
 489  404.6284
 490  419.2718
 491  393.8959
 492  383.7204
 493  301.2078
 494  385.1978
 495  444.1542
 496  427.673
 497  428.6499
 498  491.0464
 499  472.2786
 500  432.962
 501  361.3807
 502  354.0779
 503  478.8837
 504  577.1816
 505  517.246
 506  538.3178
 507  574.077
 508  561.5176
 509  616.0964
 510  679.4915
 511  764.5129
