# Input file       =  1194381597.099506_cleaned.dat
# Candidate        =  PSR_0332+5434
# Telescope        =  AR
# Epoch_topo       =  58067.860869207245
# Epoch_bary       =  N/A
# T_sample         =  0.002
# Data Folded      =  7340032
# Data Avg         =  0.0262771642431053
# Data StdDev      =  1.0001436198535  
# Profile Bins     =  512
# Profile Avg      =  376.922863769235 
# Profile StdDev   =  119.75023241791  
# Reduced chi-sqr  =  0.920
# Prob(Noise)      <  0.904   (~0.0 sigma)
# P_topo (ms)      =  714.505066877802  +/- 0.000223
# P'_topo (s/s)    =  -0                +/- 1.18e-10
# P''_topo (s/s^2) =  0                 +/- 5.2e-14
# P_bary (ms)      =  N/A
# P'_bary (s/s)    =  N/A
# P''_bary (s/s^2) =  N/A
# P_orb (s)        =  N/A
# asin(i)/c (s)    =  N/A
# eccentricity     =  N/A
# w (rad)          =  N/A
# T_peri           =  N/A
######################################################
   0  949.4384
   1  761.0902
   2  670.397
   3  567.8768
   4  393.2026
   5  274.1309
   6  223.2241
   7  242.059
   8  309.7951
   9  182.8624
  10  262.219
  11  320.3622
  12  340.1259
  13  356.6937
  14  360.1725
  15  379.7162
  16  391.8297
  17  461.5303
  18  373.3136
  19  270.5246
  20  388.0186
  21  386.571
  22  307.7428
  23  334.6942
  24  296.8619
  25  321.9964
  26  393.8654
  27  368.4814
  28  387.0211
  29  327.7899
  30  353.9369
  31  307.5378
  32  263.6581
  33  384.4115
  34  416.5014
  35  413.6912
  36  353.2142
  37  417.2851
  38  422.9352
  39  368.3238
  40  395.4378
  41  457.2147
  42  309.5355
  43  285.832
  44  348.0578
  45  423.7245
  46  283.4619
  47  330.7735
  48  360.3488
  49  273.6553
  50  338.0061
  51  418.4019
  52  259.7528
  53  192.7325
  54  244.1815
  55  242.3719
  56  291.9639
  57  318.7049
  58  266.357
  59  311.3747
  60  279.2516
  61  189.0827
  62  171.639
  63  252.1676
  64  378.1935
  65  339.3462
  66  404.905
  67  398.6099
  68  326.794
  69  383.9304
  70  347.8398
  71  243.0661
  72  328.4905
  73  444.4067
  74  312.9477
  75  333.1119
  76  376.6036
  77  327.1179
  78  412.8571
  79  298.9897
  80  245.4462
  81  207.3049
  82  288.4549
  83  389.4545
  84  337.606
  85  332.8347
  86  370.2452
  87  303.5976
  88  293.2425
  89  320.697
  90  298.5987
  91  219.1616
  92  295.844
  93  314.9725
  94  366.2597
  95  374.0948
  96  393.3263
  97  450.7765
  98  430.9072
  99  272.7553
 100  369.1199
 101  486.4655
 102  407.6926
 103  418.2008
 104  461.7551
 105  584.9686
 106  328.375
 107  335.2444
 108  316.3106
 109  269.4618
 110  319.06
 111  326.2178
 112  336.5283
 113  445.3507
 114  384.387
 115  396.1737
 116  503.929
 117  490.1302
 118  498.8669
 119  451.1378
 120  463.2249
 121  410.4126
 122  427.6275
 123  440.6467
 124  485.9548
 125  472.7256
 126  406.7699
 127  435.94
 128  333.1398
 129  350.6737
 130  399.2266
 131  467.5597
 132  554.1871
 133  408.2208
 134  465.227
 135  403.9329
 136  333.6232
 137  455.815
 138  384.7451
 139  317.8164
 140  315.6266
 141  375.3367
 142  489.0409
 143  467.5327
 144  436.0755
 145  488.982
 146  410.6971
 147  554.2286
 148  530.8919
 149  518.4539
 150  455.6585
 151  484.5178
 152  469.0277
 153  477.3443
 154  415.8604
 155  344.7057
 156  278.0523
 157  325.2803
 158  317.5358
 159  354.6626
 160  358.7247
 161  357.769
 162  251.6116
 163  390.8842
 164  258.5182
 165  346.3873
 166  398.0326
 167  244.4377
 168  257.6735
 169  301.8691
 170  398.8571
 171  323.7956
 172  418.1084
 173  352.6839
 174  380.5264
 175  349.3763
 176  298.297
 177  296.5808
 178  358.4058
 179  544.2693
 180  483.5072
 181  315.985
 182  327.961
 183  316.1048
 184  359.6695
 185  334.7853
 186  261.2869
 187  270.3569
 188  273.8882
 189  327.5992
 190  416.6402
 191  422.7563
 192  432.9496
 193  235.491
 194  276.052
 195  420.2788
 196  471.6879
 197  491.9316
 198  454.4402
 199  518.2345
 200  445.5019
 201  423.2487
 202  460.004
 203  457.0307
 204  495.899
 205  442.8026
 206  382.3918
 207  449.5246
 208  459.824
 209  459.1995
 210  416.8734
 211  463.7781
 212  466.2923
 213  376.2471
 214  344.552
 215  470.0941
 216  529.7756
 217  406.2146
 218  430.9774
 219  400.8889
 220  350.5777
 221  330.2181
 222  344.6385
 223  475.0938
 224  385.4294
 225  322.8248
 226  394.2362
 227  445.6353
 228  470.2321
 229  518.6873
 230  383.177
 231  380.1373
 232  380.6681
 233  359.1028
 234  336.4816
 235  437.5434
 236  440.9509
 237  420.213
 238  375.8722
 239  326.974
 240  335.5576
 241  320.8612
 242  388.5871
 243  315.679
 244  432.2295
 245  475.4559
 246  455.2189
 247  370.5629
 248  307.1236
 249  365.1426
 250  409.6246
 251  375.5294
 252  354.7132
 253  347.9424
 254  313.4054
 255  289.2614
 256  311.1042
 257  266.3053
 258  209.7888
 259  375.3374
 260  445.1143
 261  405.076
 262  366.7291
 263  357.5626
 264  378.6988
 265  390.7356
 266  405.0194
 267  343.287
 268  373.0304
 269  418.5067
 270  519.4136
 271  396.6138
 272  323.0903
 273  313.352
 274  433.8788
 275  369.3451
 276  438.7566
 277  401.8521
 278  453.3786
 279  430.8524
 280  415.6467
 281  477.9085
 282  371.2748
 283  325.8568
 284  338.2749
 285  427.6064
 286  488.9962
 287  381.0408
 288  295.9793
 289  354.6075
 290  387.3752
 291  304.0941
 292  301.3795
 293  394.8458
 294  317.0762
 295  281.019
 296  291.1939
 297  382.156
 298  410.6425
 299  379.5411
 300  425.2505
 301  389.131
 302  427.4467
 303  399.0216
 304  291.1321
 305  334.6385
 306  332.1859
 307  349.2791
 308  342.2434
 309  345.421
 310  448.7973
 311  382.7949
 312  358.5404
 313  350.6423
 314  334.9881
 315  432.2705
 316  396.4107
 317  399.8022
 318  373.3436
 319  368.8159
 320  315.4835
 321  431.1472
 322  348.2147
 323  371.3759
 324  428.6022
 325  369.972
 326  307.8288
 327  347.8575
 328  461.2099
 329  413.9361
 330  452.8339
 331  469.5316
 332  388.8159
 333  343.7844
 334  425.5252
 335  430.2621
 336  416.2254
 337  331.5588
 338  290.1595
 339  315.3782
 340  417.2637
 341  347.4849
 342  339.7909
 343  426.0021
 344  485.6463
 345  409.9892
 346  388.0494
 347  445.3346
 348  418.8919
 349  404.857
 350  440.0141
 351  360.4503
 352  321.4292
 353  398.8528
 354  304.2628
 355  351.3659
 356  364.2616
 357  362.1639
 358  416.5566
 359  406.2354
 360  534.5602
 361  308.8967
 362  342.9307
 363  426.2593
 364  359.9595
 365  277.4733
 366  304.9879
 367  358.3098
 368  207.3416
 369  255.7267
 370  423.0695
 371  477.947
 372  504.2347
 373  403.6145
 374  492.0681
 375  390.555
 376  350.0426
 377  287.8646
 378  267.344
 379  266.9374
 380  340.1942
 381  479.5981
 382  381.459
 383  433.1547
 384  406.7977
 385  299.2606
 386  349.8063
 387  301.0887
 388  349.2508
 389  400.6503
 390  437.743
 391  391.9805
 392  285.8721
 393  295.0322
 394  352.2793
 395  362.5644
 396  290.0826
 397  234.6901
 398  247.1034
 399  266.3249
 400  372.2196
 401  385.6641
 402  396.5409
 403  411.0629
 404  392.7949
 405  381.3735
 406  289.2687
 407  298.2223
 408  325.0926
 409  485.1472
 410  450.7596
 411  450.3364
 412  376.176
 413  326.8202
 414  430.3124
 415  373.1365
 416  393.1156
 417  360.5939
 418  445.2631
 419  397.0323
 420  212.132
 421  175.3267
 422  299.965
 423  417.6967
 424  381.035
 425  381.0322
 426  468.5653
 427  430.4285
 428  409.8587
 429  216.4406
 430  275.5829
 431  337.3546
 432  291.609
 433  334.1481
 434  349.0381
 435  347.0829
 436  326.5735
 437  414.0146
 438  444.2288
 439  250.2244
 440  268.0146
 441  350.4216
 442  384.1805
 443  360.233
 444  309.3771
 445  350.9588
 446  306.7373
 447  366.3946
 448  360.7293
 449  257.0161
 450  388.6641
 451  395.6304
 452  306.127
 453  401.334
 454  365.01
 455  393.6012
 456  293.8919
 457  279.4955
 458  350.726
 459  479.3968
 460  476.4025
 461  312.2322
 462  345.0791
 463  405.2045
 464  376.5969
 465  430.4938
 466  445.2025
 467  431.5972
 468  400.886
 469  397.9486
 470  289.6354
 471  230.2932
 472  343.538
 473  422.4809
 474  412.3146
 475  396.1758
 476  371.1391
 477  254.2765
 478  349.9714
 479  317.1343
 480  244.0064
 481  336.6022
 482  408.5797
 483  387.2546
 484  380.3041
 485  379.2437
 486  428.2168
 487  444.0324
 488  424.8781
 489  346.1143
 490  390.8748
 491  418.9279
 492  359.0793
 493  403.799
 494  389.7078
 495  482.0406
 496  577.9196
 497  417.4846
 498  527.0874
 499  514.3597
 500  448.0094
 501  356.4697
 502  372.5855
 503  475.3513
 504  408.5434
 505  416.3217
 506  366.7469
 507  332.5677
 508  444.8255
 509  566.9508
 510  660.234
 511  863.0116
