# Input file       =  1194396499.114743_cleaned.dat
# Candidate        =  PSR_0332+5434
# Telescope        =  AR
# Epoch_topo       =  58068.033346235454
# Epoch_bary       =  N/A
# T_sample         =  0.002
# Data Folded      =  7340032
# Data Avg         =  0.0047546139381755
# Data StdDev      =  1.00007858220604 
# Profile Bins     =  512
# Profile Avg      =  68.2387708179093 
# Profile StdDev   =  119.742445262901 
# Reduced chi-sqr  =  1.100
# Prob(Noise)      <  0.0587   (~1.6 sigma)
# P_topo (ms)      =  714.505569586386  +/- 0.000292
# P'_topo (s/s)    =  -0                +/- 1.54e-10
# P''_topo (s/s^2) =  0                 +/- 6.79e-14
# P_bary (ms)      =  N/A
# P'_bary (s/s)    =  N/A
# P''_bary (s/s^2) =  N/A
# P_orb (s)        =  N/A
# asin(i)/c (s)    =  N/A
# eccentricity     =  N/A
# w (rad)          =  N/A
# T_peri           =  N/A
######################################################
   0  556.0838
   1  536.6487
   2  479.9112
   3  272.8861
   4  248.9477
   5  92.7429
   6  -5.936265
   7  -101.4176
   8  12.76964
   9  126.1437
  10  186.4493
  11  236.6142
  12  191.6512
  13  78.76968
  14  18.45018
  15  21.04589
  16  89.22031
  17  102.4323
  18  69.2407
  19  21.71862
  20  -10.4582
  21  -132.3286
  22  -205.1755
  23  -51.14637
  24  1.218492
  25  -15.89772
  26  -25.83525
  27  45.80392
  28  7.293376
  29  16.63886
  30  59.85165
  31  109.4707
  32  115.7508
  33  130.9657
  34  74.90874
  35  -87.52538
  36  -73.74468
  37  5.803014
  38  49.40605
  39  37.92179
  40  60.08403
  41  19.31441
  42  82.19305
  43  -34.12172
  44  -35.4218
  45  35.91455
  46  84.03041
  47  64.93072
  48  54.35252
  49  20.95175
  50  100.4172
  51  102.0218
  52  38.19946
  53  -72.32796
  54  -81.18464
  55  -50.69251
  56  -147.8444
  57  -73.07495
  58  44.5304
  59  59.76701
  60  70.99425
  61  114.3404
  62  116.368
  63  41.05479
  64  61.16488
  65  49.90543
  66  -9.720607
  67  -5.827562
  68  -64.02012
  69  -44.90644
  70  20.18734
  71  -2.504553
  72  -0.06830238
  73  38.78815
  74  86.98431
  75  98.21281
  76  18.77397
  77  -5.687727
  78  2.051626
  79  -21.22783
  80  67.2637
  81  -57.98336
  82  13.39916
  83  137.7503
  84  86.83035
  85  2.6381
  86  101.4904
  87  165.5548
  88  16.71979
  89  -41.24423
  90  -101.8581
  91  -6.46008
  92  -14.49117
  93  -155.2921
  94  -212.1391
  95  -57.91742
  96  -23.86112
  97  -61.5278
  98  -108.1338
  99  -156.3298
 100  -114.9876
 101  -91.75541
 102  -13.69309
 103  46.09611
 104  -120.3362
 105  -87.35405
 106  -173.8941
 107  -140.2729
 108  -136.9234
 109  -104.1687
 110  -16.39034
 111  -87.66128
 112  -151.0568
 113  -11.441
 114  29.89448
 115  -55.47102
 116  25.31121
 117  27.57634
 118  -105.4618
 119  -66.98761
 120  -7.71934
 121  40.88049
 122  77.30849
 123  136.4008
 124  98.90136
 125  58.16095
 126  105.5657
 127  6.514111
 128  107.5691
 129  138.3939
 130  42.09778
 131  96.00821
 132  64.23841
 133  71.74667
 134  83.67251
 135  140.3598
 136  95.9913
 137  125.1176
 138  148.5504
 139  54.47768
 140  53.85303
 141  140.137
 142  108.0449
 143  224.4761
 144  157.7877
 145  70.8351
 146  -35.7952
 147  20.89812
 148  43.65703
 149  -0.03383631
 150  29.18136
 151  98.48715
 152  85.72945
 153  36.51965
 154  5.498793
 155  37.1589
 156  -10.06849
 157  70.63224
 158  149.1536
 159  -30.69249
 160  49.29843
 161  70.87888
 162  63.23021
 163  74.81718
 164  135.7495
 165  142.6244
 166  144.9658
 167  100.2155
 168  196.2606
 169  11.92632
 170  -125.5322
 171  -126.225
 172  45.17896
 173  144.3751
 174  63.99093
 175  -19.95175
 176  95.85529
 177  122.6081
 178  -55.15125
 179  -44.75812
 180  33.07554
 181  49.11363
 182  -26.85757
 183  -23.06288
 184  -60.20984
 185  -40.68522
 186  108.3119
 187  72.29984
 188  -1.682683
 189  9.513218
 190  54.84438
 191  66.11211
 192  55.39908
 193  132.7455
 194  174.3734
 195  165.4174
 196  173.78
 197  161.1466
 198  94.01324
 199  103.8479
 200  127.2059
 201  82.37389
 202  37.97571
 203  71.80557
 204  136.8589
 205  105.407
 206  79.96324
 207  38.5928
 208  88.06556
 209  88.32224
 210  -12.59699
 211  105.4552
 212  37.49183
 213  24.31577
 214  47.07321
 215  -15.85548
 216  -111.4765
 217  75.81784
 218  107.4021
 219  75.87993
 220  -1.115087
 221  -74.24157
 222  -40.44321
 223  47.94584
 224  38.60548
 225  -42.07769
 226  19.03269
 227  140.0021
 228  14.03642
 229  1.403847
 230  66.07278
 231  133.4667
 232  74.03101
 233  82.23479
 234  12.14004
 235  -10.68686
 236  41.51435
 237  12.37868
 238  -51.006
 239  71.06757
 240  66.2867
 241  53.94917
 242  131.0121
 243  53.51334
 244  25.61044
 245  37.23207
 246  104.8145
 247  130.9191
 248  63.18705
 249  91.45823
 250  153.3993
 251  105.7174
 252  37.78465
 253  -26.77288
 254  51.13957
 255  39.45853
 256  -49.77385
 257  -20.18872
 258  44.76001
 259  71.11854
 260  1.495494
 261  99.96107
 262  198.5081
 263  135.9863
 264  30.99884
 265  65.20538
 266  135.1649
 267  84.52013
 268  109.2673
 269  104.0782
 270  164.7616
 271  135.7254
 272  169.7328
 273  252.0386
 274  274.2287
 275  203.3787
 276  115.5961
 277  83.36823
 278  103.4584
 279  193.3147
 280  238.4275
 281  113.6208
 282  100.3744
 283  100.9771
 284  48.44592
 285  123.6755
 286  207.799
 287  101.2967
 288  178.6123
 289  243.2688
 290  209.9266
 291  157.3388
 292  150.1311
 293  190.5428
 294  163.4177
 295  187.3205
 296  125.1355
 297  201.2515
 298  204.9782
 299  157.0965
 300  132.0099
 301  99.27679
 302  131.8302
 303  76.882
 304  11.88674
 305  -7.536054
 306  46.31
 307  108.9592
 308  190.6697
 309  36.30661
 310  31.54144
 311  90.23174
 312  70.78206
 313  28.83521
 314  7.370189
 315  -0.05268089
 316  48.78333
 317  113.389
 318  96.99204
 319  50.97155
 320  95.52588
 321  126.8729
 322  82.4934
 323  42.46579
 324  41.95492
 325  16.3789
 326  -81.1434
 327  39.55402
 328  78.40871
 329  90.94171
 330  103.1021
 331  152.5125
 332  27.40712
 333  42.72589
 334  165.8669
 335  167.3388
 336  151.4222
 337  123.9327
 338  22.08881
 339  -50.54745
 340  62.28854
 341  52.38043
 342  53.98337
 343  40.17046
 344  29.5461
 345  100.6607
 346  158.9863
 347  67.36948
 348  -72.87479
 349  -50.59417
 350  60.93337
 351  83.33939
 352  96.52496
 353  -65.21236
 354  35.59048
 355  152.1654
 356  149.1028
 357  92.73912
 358  -6.694669
 359  70.19218
 360  82.03101
 361  143.1864
 362  82.25619
 363  83.62022
 364  49.20401
 365  16.63211
 366  53.29995
 367  122.3197
 368  82.85296
 369  100.8074
 370  122.4619
 371  80.97156
 372  99.69354
 373  57.76711
 374  106.8612
 375  94.79273
 376  88.42882
 377  85.839
 378  92.79659
 379  93.23316
 380  -29.87265
 381  22.87657
 382  -27.83568
 383  81.54125
 384  55.71157
 385  67.28885
 386  156.3218
 387  125.272
 388  98.78231
 389  125.2801
 390  -28.22097
 391  62.23408
 392  82.86911
 393  132.2819
 394  172.9475
 395  -5.206696
 396  35.58654
 397  112.0763
 398  43.08607
 399  90.01747
 400  125.6192
 401  190.9955
 402  115.4689
 403  28.97654
 404  39.5767
 405  46.64086
 406  72.60037
 407  100.714
 408  91.33145
 409  105.4324
 410  190.476
 411  88.20435
 412  10.7459
 413  -62.37169
 414  -7.602534
 415  82.22218
 416  100.5199
 417  33.26544
 418  -15.20558
 419  82.06767
 420  96.49808
 421  75.12229
 422  149.4039
 423  110.5754
 424  58.71273
 425  61.29725
 426  151.0135
 427  115.4509
 428  140.6763
 429  205.7263
 430  120.1187
 431  27.66177
 432  8.975696
 433  70.99094
 434  27.36157
 435  77.81801
 436  207.4174
 437  214.9799
 438  185.0556
 439  186.9507
 440  153.83
 441  109.6249
 442  108.3518
 443  44.17398
 444  33.29177
 445  45.15489
 446  228.7305
 447  265.3195
 448  154.613
 449  140.975
 450  190.6417
 451  183.4059
 452  169.0838
 453  168.6704
 454  149.8207
 455  28.92544
 456  -0.6685346
 457  -37.00094
 458  61.80653
 459  37.16402
 460  68.45921
 461  105.6929
 462  41.1692
 463  -22.06152
 464  -33.06615
 465  3.02744
 466  13.26738
 467  82.70186
 468  55.24424
 469  18.86321
 470  59.74541
 471  90.0849
 472  230.1714
 473  112.9361
 474  61.24948
 475  -6.499631
 476  71.29985
 477  120.0127
 478  47.36609
 479  147.0637
 480  139.8839
 481  102.0291
 482  12.95233
 483  100.4017
 484  144.1157
 485  30.77065
 486  45.10058
 487  149.4813
 488  189.0022
 489  227.0813
 490  50.93245
 491  41.78553
 492  91.51963
 493  115.1497
 494  56.05994
 495  17.36612
 496  105.7424
 497  65.53352
 498  169.1139
 499  191.5736
 500  108.791
 501  44.71969
 502  83.38051
 503  47.40112
 504  42.33255
 505  100.7764
 506  197.5687
 507  209.7875
 508  257.3586
 509  345.1827
 510  322.7043
 511  436.4274
