# Input file       =  1194138544.111448_cleaned.dat
# Candidate        =  PSR_0332+5434
# Telescope        =  AR
# Epoch_topo       =  58065.047755919535
# Epoch_bary       =  N/A
# T_sample         =  0.002
# Data Folded      =  7340032
# Data Avg         =  0.0297080274079631
# Data StdDev      =  1.00019605844788 
# Profile Bins     =  512
# Profile Avg      =  425.924519928587 
# Profile StdDev   =  119.756511050038 
# Reduced chi-sqr  =  1.126
# Prob(Noise)      <  0.025   (~2.0 sigma)
# P_topo (ms)      =  714.502674141915  +/- 0.000233
# P'_topo (s/s)    =  -0                +/- 1.23e-10
# P''_topo (s/s^2) =  0                 +/- 5.42e-14
# P_bary (ms)      =  N/A
# P'_bary (s/s)    =  N/A
# P''_bary (s/s^2) =  N/A
# P_orb (s)        =  N/A
# asin(i)/c (s)    =  N/A
# eccentricity     =  N/A
# w (rad)          =  N/A
# T_peri           =  N/A
######################################################
   0  941.8743
   1  876.542
   2  888.2627
   3  590.2967
   4  553.222
   5  466.2447
   6  449.4585
   7  478.4958
   8  461.9449
   9  437.1238
  10  554.3065
  11  466.8007
  12  468.0721
  13  393.6701
  14  418.3997
  15  427.8305
  16  475.966
  17  572.4096
  18  508.9502
  19  487.2361
  20  461.1117
  21  408.9144
  22  399.8239
  23  360.8614
  24  338.0892
  25  407.5907
  26  564.5046
  27  540.0168
  28  408.9137
  29  471.5171
  30  384.75
  31  515.0874
  32  528.5693
  33  326.1776
  34  399.469
  35  339.3903
  36  412.7973
  37  520.4257
  38  558.4446
  39  390.1312
  40  298.1448
  41  375.934
  42  538.3999
  43  545.0299
  44  480.434
  45  489.1647
  46  502.3938
  47  519.0774
  48  455.0443
  49  410.0193
  50  293.4544
  51  326.4669
  52  392.2661
  53  540.3449
  54  533.0884
  55  405.4139
  56  422.8131
  57  357.8223
  58  344.1532
  59  407.7357
  60  418.1954
  61  386.9759
  62  372.2524
  63  457.4955
  64  450.7232
  65  425.5039
  66  375.3905
  67  345.9444
  68  406.8659
  69  426.1264
  70  565.3665
  71  442.6048
  72  367.0844
  73  330.275
  74  228.411
  75  343.8808
  76  396.9021
  77  327.5959
  78  298.8276
  79  401.1583
  80  385.4677
  81  362.1722
  82  330.8728
  83  264.7586
  84  275.9152
  85  444.9073
  86  510.5597
  87  553.1349
  88  488.2852
  89  357.1027
  90  382.0795
  91  256.1518
  92  384.9091
  93  393.1312
  94  393.1669
  95  373.4366
  96  441.5606
  97  371.0405
  98  362.1286
  99  236.1847
 100  290.1103
 101  294.3897
 102  278.6041
 103  370.1985
 104  374.3691
 105  366.4061
 106  366.631
 107  432.8009
 108  319.1054
 109  308.8623
 110  285.334
 111  262.7473
 112  228.0319
 113  448.493
 114  563.0022
 115  456.0638
 116  346.5597
 117  318.5352
 118  315.0816
 119  341.6096
 120  426.4485
 121  502.7784
 122  524.1104
 123  516.3107
 124  478.7792
 125  428.4257
 126  368.0644
 127  319.8758
 128  307.8721
 129  272.0731
 130  302.5968
 131  372.8347
 132  329.8145
 133  398.774
 134  474.8925
 135  547.5692
 136  529.8982
 137  375.7433
 138  379.352
 139  440.0863
 140  475.2236
 141  467.0874
 142  569.1323
 143  615.2378
 144  542.5006
 145  468.8757
 146  455.6141
 147  515.7504
 148  433.2782
 149  420.9718
 150  421.3339
 151  404.6448
 152  488.4802
 153  460.8229
 154  483.8582
 155  380.7853
 156  388.143
 157  480.5055
 158  454.7083
 159  539.7458
 160  425.0203
 161  389.0247
 162  336.8224
 163  436.7697
 164  551.5408
 165  493.3464
 166  507.1977
 167  479.0276
 168  429.3525
 169  522.1
 170  446.035
 171  472.7682
 172  467.6513
 173  395.0062
 174  388.5818
 175  543.243
 176  450.7061
 177  426.0587
 178  424.2819
 179  353.9695
 180  373.6455
 181  310.7948
 182  371.6806
 183  358.9661
 184  359.2564
 185  469.3718
 186  510.1948
 187  454.0753
 188  482.4278
 189  511.1099
 190  472.6426
 191  497.1026
 192  559.5204
 193  504.5663
 194  512.0391
 195  410.1685
 196  482.7911
 197  460.0447
 198  319.7381
 199  421.3682
 200  453.4306
 201  458.0708
 202  436.0793
 203  477.6163
 204  527.1381
 205  386.759
 206  431.8583
 207  443.6791
 208  424.4713
 209  388.8787
 210  373.8569
 211  386.9926
 212  477.9146
 213  431.9678
 214  407.431
 215  442.8431
 216  439.3981
 217  364.4495
 218  253.9855
 219  372.4394
 220  377.5794
 221  333.8331
 222  328.9167
 223  390.4972
 224  384.9439
 225  463.6209
 226  482.1577
 227  482.2507
 228  512.1412
 229  553.3329
 230  484.4217
 231  366.0053
 232  505.7592
 233  528.2182
 234  459.2204
 235  551.2687
 236  591.064
 237  466.2288
 238  403.2792
 239  568.3781
 240  556.2304
 241  457.0606
 242  481.4613
 243  513.3083
 244  503.2351
 245  517.2267
 246  552.7339
 247  390.509
 248  348.5142
 249  459.3738
 250  443.7312
 251  520.2228
 252  474.2907
 253  458.6927
 254  444.3346
 255  523.0311
 256  321.6369
 257  403.3991
 258  437.7942
 259  375.0847
 260  321.5945
 261  338.4871
 262  436.6796
 263  533.3655
 264  462.3177
 265  479.1766
 266  438.9597
 267  354.8269
 268  467.509
 269  542.6013
 270  446.4118
 271  414.6643
 272  448.1057
 273  475.0225
 274  392.6909
 275  424.9658
 276  514.0188
 277  419.3223
 278  440.2419
 279  368.0443
 280  318.2939
 281  215.2177
 282  350.0189
 283  405.4617
 284  476.1536
 285  429.2703
 286  425.0629
 287  410.1748
 288  519.0324
 289  478.5277
 290  457.4512
 291  358.2222
 292  339.6411
 293  459.162
 294  536.9992
 295  534.8241
 296  555.4
 297  651.9895
 298  453.6427
 299  366.8827
 300  482.4559
 301  469.0875
 302  395.1427
 303  412.9776
 304  510.0535
 305  473.3686
 306  418.6918
 307  297.8103
 308  417.8319
 309  506.9832
 310  301.6759
 311  339.9103
 312  351.9025
 313  472.965
 314  462.4849
 315  456.6566
 316  395.5009
 317  386.1992
 318  439.3438
 319  480.1861
 320  402.6311
 321  433.7563
 322  525.0505
 323  451.1197
 324  479.034
 325  468.3763
 326  447.1238
 327  335.6834
 328  356.4414
 329  508.4835
 330  419.1613
 331  422.9645
 332  482.5016
 333  518.958
 334  437.5856
 335  380.5399
 336  406.0898
 337  394.1597
 338  372.6498
 339  460.2068
 340  568.4944
 341  335.4751
 342  271.4734
 343  330.7606
 344  552.6945
 345  440.9219
 346  513.8275
 347  501.6178
 348  370.9546
 349  369.0709
 350  477.4214
 351  348.3558
 352  345.0855
 353  465.6647
 354  525.0363
 355  380.7021
 356  410.5803
 357  400.8377
 358  443.3834
 359  574.3
 360  374.0325
 361  375.7106
 362  418.4035
 363  376.1971
 364  384.5788
 365  350.8079
 366  443.6885
 367  420.4349
 368  523.695
 369  486.9517
 370  443.7491
 371  402.207
 372  459.1802
 373  467.5683
 374  432.5291
 375  411.9485
 376  507.6287
 377  454.813
 378  422.1583
 379  359.191
 380  347.0884
 381  397.5092
 382  383.0234
 383  393.7343
 384  430.2043
 385  359.8802
 386  350.8705
 387  300.4382
 388  408.5984
 389  404.2507
 390  420.5658
 391  440.6956
 392  415.3872
 393  375.42
 394  410.7416
 395  340.2356
 396  327.0261
 397  381.2053
 398  461.8311
 399  506.1648
 400  523.527
 401  505.5626
 402  377.2429
 403  418.0175
 404  547.0173
 405  489.0378
 406  412.86
 407  379.5263
 408  403.729
 409  402.6796
 410  399.8438
 411  458.6273
 412  475.3604
 413  365.7832
 414  422.4997
 415  460.8043
 416  387.1119
 417  395.9442
 418  478.022
 419  489.4005
 420  341.2703
 421  338.1973
 422  291.8702
 423  340.2501
 424  279.0519
 425  357.3508
 426  433.8785
 427  366.8254
 428  297.0211
 429  278.2175
 430  300.6118
 431  332.1935
 432  408.763
 433  381.1382
 434  271.7094
 435  290.4419
 436  294.7689
 437  312.5819
 438  313.9387
 439  418.8305
 440  467.018
 441  375.3058
 442  495.0082
 443  445.6151
 444  544.3593
 445  417.4916
 446  332.5818
 447  364.0428
 448  420.397
 449  383.8921
 450  400.9718
 451  362.1216
 452  448.8231
 453  419.6163
 454  364.1539
 455  345.8419
 456  387.2124
 457  424.7281
 458  346.002
 459  368.9868
 460  301.8922
 461  307.7099
 462  327.5732
 463  426.7773
 464  500.6598
 465  550.681
 466  493.3785
 467  299.8617
 468  368.5358
 469  374.6798
 470  337.7076
 471  296.7525
 472  287.6715
 473  339.6502
 474  351.118
 475  314.2092
 476  338.1292
 477  295.6403
 478  172.7404
 479  215.3766
 480  305.8955
 481  375.7079
 482  310.07
 483  352.7822
 484  316.0092
 485  327.6943
 486  330.7562
 487  379.5162
 488  376.0926
 489  423.823
 490  433.4198
 491  454.3504
 492  442.9624
 493  486.5581
 494  395.6403
 495  448.1752
 496  531.9738
 497  528.1906
 498  412.7181
 499  421.962
 500  467.0101
 501  422.1197
 502  411.6636
 503  404.2478
 504  545.1797
 505  623.3651
 506  519.1319
 507  468.6032
 508  603.0175
 509  691.6608
 510  815.0723
 511  1030.748
