# Input file       =  1194741724.105465_cleaned.dat
# Candidate        =  PSR_0332+5434
# Telescope        =  AR
# Epoch_topo       =  58072.029005850287
# Epoch_bary       =  N/A
# T_sample         =  0.002
# Data Folded      =  7340032
# Data Avg         =  0.00867911442151937
# Data StdDev      =  1.00012086735846 
# Profile Bins     =  512
# Profile Avg      =  124.48510586468  
# Profile StdDev   =  119.747508192593 
# Reduced chi-sqr  =  0.983
# Prob(Noise)      <  0.601   (~0.0 sigma)
# P_topo (ms)      =  714.509572742475  +/- 0.000288
# P'_topo (s/s)    =  -0                +/- 1.52e-10
# P''_topo (s/s^2) =  0                 +/- 6.7e-14
# P_bary (ms)      =  N/A
# P'_bary (s/s)    =  N/A
# P''_bary (s/s^2) =  N/A
# P_orb (s)        =  N/A
# asin(i)/c (s)    =  N/A
# eccentricity     =  N/A
# w (rad)          =  N/A
# T_peri           =  N/A
######################################################
   0  613.6727
   1  479.3982
   2  300.7322
   3  327.3371
   4  206.5489
   5  186.7145
   6  190.353
   7  209.7471
   8  180.0565
   9  105.0365
  10  120.7558
  11  125.2711
  12  206.561
  13  241.1473
  14  192.7442
  15  177.8338
  16  243.0897
  17  249.4245
  18  274.7395
  19  108.3367
  20  35.55665
  21  22.7484
  22  56.35204
  23  250.4857
  24  169.4978
  25  98.21639
  26  149.0714
  27  115.9227
  28  22.98727
  29  74.27145
  30  72.02304
  31  49.5823
  32  137.3384
  33  138.0907
  34  114.1547
  35  113.3916
  36  144.518
  37  139.2067
  38  27.13957
  39  -36.96518
  40  112.4957
  41  166.2255
  42  107.3904
  43  63.922
  44  102.7233
  45  53.63863
  46  37.17043
  47  119.0772
  48  226.8608
  49  102.3941
  50  65.76193
  51  178.6247
  52  31.02809
  53  134.0719
  54  209.5972
  55  121.5072
  56  154.0402
  57  107.2079
  58  52.22769
  59  189.4791
  60  127.5396
  61  130.0017
  62  167.5068
  63  199.0957
  64  72.21124
  65  120.1081
  66  127.6243
  67  148.3505
  68  84.91685
  69  -11.52815
  70  66.33943
  71  167.5043
  72  75.15342
  73  121.4545
  74  76.71941
  75  166.9513
  76  183.0086
  77  201.1948
  78  137.2827
  79  105.102
  80  -6.250634
  81  12.14206
  82  -24.97559
  83  111.4682
  84  99.16695
  85  -6.813533
  86  20.36501
  87  58.29913
  88  30.83593
  89  81.66904
  90  128.0478
  91  111.9321
  92  66.46436
  93  111.2611
  94  61.24465
  95  54.59338
  96  41.79642
  97  98.05734
  98  25.90085
  99  52.26113
 100  73.0468
 101  135.003
 102  123.1284
 103  69.32253
 104  114.9131
 105  76.80935
 106  4.759483
 107  80.41674
 108  34.50822
 109  -18.90449
 110  9.735928
 111  111.0803
 112  19.51525
 113  120.978
 114  125.4904
 115  117.9358
 116  93.81601
 117  87.25262
 118  62.38309
 119  25.80701
 120  -23.12991
 121  33.88208
 122  123.1727
 123  -38.01641
 124  -61.51125
 125  -33.78908
 126  120.4809
 127  97.53939
 128  -21.68516
 129  73.227
 130  128.0626
 131  195.2145
 132  137.8057
 133  70.70811
 134  68.60392
 135  98.50467
 136  167.663
 137  102.4654
 138  120.4067
 139  112.1155
 140  56.8775
 141  56.37048
 142  62.01174
 143  -0.5627657
 144  168.7013
 145  174.3524
 146  87.12482
 147  123.4355
 148  80.46973
 149  79.11743
 150  77.62789
 151  136.4927
 152  73.14432
 153  -8.579515
 154  25.8724
 155  10.77736
 156  -17.56464
 157  90.53072
 158  174.2999
 159  67.67349
 160  84.16515
 161  -14.53958
 162  -15.98526
 163  173.8745
 164  60.9985
 165  208.5199
 166  195.4492
 167  215.356
 168  171.1778
 169  136.6977
 170  260.2382
 171  275.6001
 172  137.2832
 173  113.8085
 174  241.0487
 175  118.3463
 176  57.27477
 177  170.488
 178  230.8893
 179  192.9238
 180  102.9165
 181  5.150481
 182  52.15671
 183  101.2268
 184  92.47943
 185  85.63565
 186  146.6145
 187  188.6416
 188  260.6385
 189  328.4882
 190  179.918
 191  198.9169
 192  164.3124
 193  212.3991
 194  249.1139
 195  140.6773
 196  143.8178
 197  98.22171
 198  83.67075
 199  125.8964
 200  144.2437
 201  149.7924
 202  35.09389
 203  12.21955
 204  115.4382
 205  258.1254
 206  96.93362
 207  158.3673
 208  59.19188
 209  40.19319
 210  107.3785
 211  84.3295
 212  187.0503
 213  237.644
 214  141.9207
 215  124.8745
 216  54.06599
 217  25.58027
 218  212.677
 219  327.9283
 220  225.9287
 221  163.932
 222  195.5486
 223  156.5598
 224  203.9676
 225  224.319
 226  207.2216
 227  174.2267
 228  220.8343
 229  231.2315
 230  124.6277
 231  131.8301
 232  104.1857
 233  131.7258
 234  180.5479
 235  39.80684
 236  167.9582
 237  291.3179
 238  296.2613
 239  155.0879
 240  77.3769
 241  136.4802
 242  201.3691
 243  263.2975
 244  206.3255
 245  189.911
 246  136.9543
 247  156.041
 248  223.538
 249  130.9712
 250  85.56583
 251  232.7048
 252  214.6016
 253  162.3281
 254  279.2382
 255  225.6346
 256  252.948
 257  347.7843
 258  178.4022
 259  134.1325
 260  85.73877
 261  67.42526
 262  129.7388
 263  137.7131
 264  242.1837
 265  194.5352
 266  106.333
 267  138.8347
 268  188.2172
 269  138.4804
 270  90.31335
 271  136.939
 272  87.7597
 273  45.491
 274  100.6338
 275  161.2454
 276  159.493
 277  60.53419
 278  21.35288
 279  169.9399
 280  218.4329
 281  179.8195
 282  221.6565
 283  136.6421
 284  76.92185
 285  31.71005
 286  122.6703
 287  219.8148
 288  97.34526
 289  80.55155
 290  187.7557
 291  199.9592
 292  169.0869
 293  146.2411
 294  283.1177
 295  282.9692
 296  180.1569
 297  103.3373
 298  87.03889
 299  -50.84342
 300  63.25911
 301  130.4844
 302  194.3304
 303  145.7185
 304  -23.43349
 305  144.6017
 306  145.8932
 307  211.0987
 308  100.5529
 309  62.78968
 310  117.3278
 311  174.2028
 312  193.4275
 313  234.9769
 314  114.4473
 315  129.3371
 316  155.4017
 317  159.7792
 318  78.99662
 319  127.8517
 320  211.117
 321  164.4927
 322  140.3482
 323  99.64621
 324  76.39084
 325  115.407
 326  117.4885
 327  177.4915
 328  169.4872
 329  200.0863
 330  162.4002
 331  172.4388
 332  105.5843
 333  217.7947
 334  137.4911
 335  98.14213
 336  93.04371
 337  165.1808
 338  194.6634
 339  208.2397
 340  112.2606
 341  84.53507
 342  222.2231
 343  113.2229
 344  134.6295
 345  168.2765
 346  162.7433
 347  270.3488
 348  267.8301
 349  151.3835
 350  171.4579
 351  227.1503
 352  227.8457
 353  153.5223
 354  43.46058
 355  202.2927
 356  199.0791
 357  80.27298
 358  106.4865
 359  104.8125
 360  24.97975
 361  119.1197
 362  171.258
 363  173.8595
 364  57.89996
 365  119.9549
 366  197.442
 367  176.37
 368  64.56506
 369  169.5407
 370  106.8972
 371  222.4154
 372  255.0677
 373  70.3952
 374  79.39604
 375  49.53102
 376  8.493361
 377  65.50153
 378  242.3631
 379  194.5954
 380  83.08545
 381  50.10364
 382  125.6624
 383  163.2266
 384  139.7096
 385  159.1599
 386  152.6593
 387  190.7241
 388  91.19662
 389  161.6949
 390  152.0153
 391  93.98418
 392  147.4753
 393  178.9097
 394  151.9631
 395  144.0588
 396  169.8987
 397  202.5705
 398  128.0146
 399  95.11465
 400  239.9799
 401  135.4235
 402  99.84602
 403  161.5905
 404  174.8483
 405  139.5452
 406  136.9286
 407  89.02504
 408  221.0501
 409  194.4635
 410  149.2001
 411  78.84069
 412  -8.944626
 413  -8.540167
 414  120.9443
 415  179.25
 416  68.7448
 417  45.77725
 418  129.7074
 419  41.05748
 420  -1.084772
 421  85.14757
 422  94.45496
 423  133.3352
 424  88.95621
 425  68.23586
 426  155.6766
 427  138.4528
 428  84.5851
 429  -31.73946
 430  100.5144
 431  103.4409
 432  68.31695
 433  96.89037
 434  111.0126
 435  204.9047
 436  71.06234
 437  204.6209
 438  171.7216
 439  68.87614
 440  84.96097
 441  181.0159
 442  159.7542
 443  53.04329
 444  73.1265
 445  101.7801
 446  149.6147
 447  285.4792
 448  165.9058
 449  -1.659455
 450  62.05192
 451  157.6853
 452  172.8122
 453  104.8355
 454  99.01981
 455  -55.55011
 456  10.7618
 457  57.07708
 458  -38.62819
 459  -87.92776
 460  -10.66196
 461  54.44418
 462  55.03279
 463  6.437425
 464  99.01151
 465  77.38869
 466  75.18814
 467  124.4127
 468  110.7903
 469  7.094598
 470  19.34033
 471  -5.632947
 472  12.51372
 473  99.69334
 474  107.3518
 475  40.77415
 476  -20.27835
 477  29.66875
 478  89.78585
 479  67.43387
 480  118.0882
 481  121.7954
 482  26.05513
 483  36.48064
 484  61.3989
 485  29.16178
 486  -137.2731
 487  -78.82898
 488  25.33364
 489  61.93136
 490  146.8974
 491  132.355
 492  143.8509
 493  121.9922
 494  139.6853
 495  114.8421
 496  45.8623
 497  31.44369
 498  -7.722567
 499  73.56993
 500  143.5356
 501  122.341
 502  131.5497
 503  32.90697
 504  -32.36048
 505  98.98047
 506  129.4297
 507  145.151
 508  275.6315
 509  350.0156
 510  582.323
 511  659.2063
