# Input file       =  1194726807.10001_cleaned.dat
# Candidate        =  PSR_0332+5434
# Telescope        =  AR
# Epoch_topo       =  58071.856355324191
# Epoch_bary       =  N/A
# T_sample         =  0.002
# Data Folded      =  7340032
# Data Avg         =  0.0298496046330419
# Data StdDev      =  1.00029974825182 
# Profile Bins     =  512
# Profile Avg      =  427.948824095231 
# Profile StdDev   =  119.768926145105 
# Reduced chi-sqr  =  1.100
# Prob(Noise)      <  0.0582   (~1.6 sigma)
# P_topo (ms)      =  714.509058422304  +/- 0.000245
# P'_topo (s/s)    =  -0                +/- 1.29e-10
# P''_topo (s/s^2) =  0                 +/- 5.71e-14
# P_bary (ms)      =  N/A
# P'_bary (s/s)    =  N/A
# P''_bary (s/s^2) =  N/A
# P_orb (s)        =  N/A
# asin(i)/c (s)    =  N/A
# eccentricity     =  N/A
# w (rad)          =  N/A
# T_peri           =  N/A
######################################################
   0  923.1941
   1  908.2091
   2  821.493
   3  561.9691
   4  381.7624
   5  373.8437
   6  487.0065
   7  534.6753
   8  413.8515
   9  429.3535
  10  443.6732
  11  444.2344
  12  470.0728
  13  514.5438
  14  516.0709
  15  579.2573
  16  518.3373
  17  470.4033
  18  375.4163
  19  370.9277
  20  439.7374
  21  277.9389
  22  295.8682
  23  301.8737
  24  353.3599
  25  508.9173
  26  361.9809
  27  292.9638
  28  373.6539
  29  483.4216
  30  471.7711
  31  485.4005
  32  474.2871
  33  534.6598
  34  493.324
  35  423.6201
  36  303.683
  37  298.2077
  38  389.1817
  39  496.2374
  40  511.0311
  41  426.9226
  42  284.3657
  43  379.5476
  44  417.5962
  45  345.765
  46  310.3969
  47  343.0867
  48  415.2255
  49  444.8742
  50  370.3095
  51  321.2751
  52  471.4539
  53  487.8343
  54  466.0983
  55  546.3672
  56  516.4351
  57  356.1744
  58  244.9566
  59  319.3333
  60  371.2748
  61  364.7744
  62  375.7857
  63  473.9307
  64  381.2754
  65  402.8097
  66  484.0153
  67  582.2999
  68  357.0689
  69  280.6443
  70  372.3624
  71  352.4637
  72  428.5422
  73  500.3422
  74  514.1649
  75  431.6205
  76  402.4788
  77  456.0351
  78  454.6123
  79  465.3806
  80  362.4684
  81  428.2173
  82  420.9154
  83  540.4888
  84  459.2688
  85  455.3613
  86  459.9877
  87  420.5477
  88  418.5367
  89  392.0559
  90  297.5444
  91  229.618
  92  405.1981
  93  405.7614
  94  413.2545
  95  410.2691
  96  460.923
  97  384.0223
  98  396.4738
  99  453.1539
 100  489.5216
 101  416.6008
 102  336.3735
 103  353.993
 104  440.1725
 105  447.7451
 106  436.9336
 107  372.908
 108  355.6459
 109  456.0398
 110  589.3256
 111  489.8529
 112  238.7041
 113  344.3175
 114  373.6994
 115  399.9312
 116  435.5753
 117  458.095
 118  431.1917
 119  448.4392
 120  443.1527
 121  395.2351
 122  338.0936
 123  327.1207
 124  382.3286
 125  448.9088
 126  425.2583
 127  458.9637
 128  379.4509
 129  360.4801
 130  392.4906
 131  311.2496
 132  373.9086
 133  469.5589
 134  434.0631
 135  481.8568
 136  367.1627
 137  322.2133
 138  324.4632
 139  449.5442
 140  420.7952
 141  497.7836
 142  481.0314
 143  384.0485
 144  430.9182
 145  485.3634
 146  451.5058
 147  427.2338
 148  510.4998
 149  590.2449
 150  451.229
 151  432.2385
 152  505.5395
 153  553.6651
 154  419.4461
 155  382.3669
 156  398.5871
 157  457.4838
 158  493.4423
 159  456.7971
 160  363.7823
 161  270.7821
 162  392.4197
 163  416.7288
 164  342.5529
 165  228.0982
 166  203.3809
 167  172.857
 168  318.4472
 169  375.403
 170  432.891
 171  406.7853
 172  342.3844
 173  239.9051
 174  255.9444
 175  304.359
 176  325.8717
 177  374.1504
 178  339.9945
 179  345.8451
 180  368.0542
 181  354.8887
 182  354.6937
 183  381.9344
 184  436.1598
 185  480.682
 186  433.3702
 187  441.2816
 188  472.0564
 189  581.3292
 190  552.4288
 191  451.4679
 192  517.8267
 193  547.028
 194  425.6613
 195  445.0648
 196  487.9725
 197  489.9669
 198  433.7456
 199  427.0074
 200  552.0469
 201  570.9189
 202  444.9299
 203  562.6991
 204  566.2703
 205  491.2451
 206  449.5162
 207  382.0489
 208  451.864
 209  315.3327
 210  234.0911
 211  260.2958
 212  303.5508
 213  399.7706
 214  287.3878
 215  351.6528
 216  413.2691
 217  327.4511
 218  272.3816
 219  332.0057
 220  321.8627
 221  372.8919
 222  415.6665
 223  429.5602
 224  435.0984
 225  412.4447
 226  426.1595
 227  421.6084
 228  492.2752
 229  394.3237
 230  391.4796
 231  429.2104
 232  425.2252
 233  389.5061
 234  412.0586
 235  536.4462
 236  526.8024
 237  424.2505
 238  414.1739
 239  507.2448
 240  552.3273
 241  305.0421
 242  353.8198
 243  399.683
 244  302.4511
 245  365.429
 246  374.3179
 247  426.5281
 248  368.0615
 249  293.2865
 250  299.1512
 251  357.4279
 252  407.6535
 253  468.4489
 254  596.9418
 255  581.0383
 256  522.7737
 257  348.7013
 258  337.9245
 259  380.2801
 260  474.8593
 261  484.153
 262  423.1666
 263  424.619
 264  420.2091
 265  425.8114
 266  388.5055
 267  420.7899
 268  438.6744
 269  513.4978
 270  472.4537
 271  281.6967
 272  388.0951
 273  465.4354
 274  441.2676
 275  441.5638
 276  395.6892
 277  377.1721
 278  374.7105
 279  434.3044
 280  413.8315
 281  403.0427
 282  535.4624
 283  477.7135
 284  360.3452
 285  396.615
 286  372.3434
 287  447.8562
 288  517.5905
 289  499.9945
 290  431.873
 291  497.3777
 292  433.7084
 293  451.5864
 294  482.4472
 295  356.6048
 296  447.7295
 297  597.4423
 298  432.4406
 299  422.1616
 300  365.2459
 301  368.5861
 302  406.6506
 303  458.6532
 304  488.0789
 305  426.2561
 306  563.6873
 307  510.6056
 308  505.0784
 309  483.9858
 310  397.3707
 311  276.2489
 312  356.2381
 313  428.8839
 314  479.3251
 315  424.4825
 316  505.0738
 317  378.4406
 318  380.7617
 319  450.2886
 320  514.4702
 321  527.265
 322  461.4066
 323  499.1442
 324  462.472
 325  437.7971
 326  453.9061
 327  497.1666
 328  522.1064
 329  484.71
 330  369.1868
 331  288.1537
 332  386.2459
 333  292.1238
 334  366.3309
 335  437.8276
 336  393.2921
 337  357.1691
 338  373.6404
 339  528.7198
 340  465.3064
 341  358.6516
 342  333.7651
 343  390.0485
 344  463.1578
 345  488.5118
 346  542.9662
 347  453.2369
 348  411.8453
 349  443.3008
 350  430.1964
 351  390.3472
 352  432.963
 353  496.3665
 354  527.4866
 355  412.9934
 356  365.2684
 357  378.7616
 358  372.2048
 359  497.0993
 360  433.7433
 361  347.9099
 362  405.545
 363  462.6265
 364  381.8397
 365  368.5858
 366  525.9946
 367  449.855
 368  241.4377
 369  243.6804
 370  419.0959
 371  559.1423
 372  555.5721
 373  465.9666
 374  453.8495
 375  453.4884
 376  534.9572
 377  521.7191
 378  462.3126
 379  471.0762
 380  403.334
 381  430.9231
 382  453.9774
 383  434.8958
 384  380.3026
 385  371.3472
 386  470.0632
 387  529.0653
 388  477.3201
 389  449.3887
 390  362.3785
 391  342.6206
 392  392.7436
 393  432.4083
 394  374.6181
 395  385.4719
 396  455.5689
 397  418.0069
 398  398.9059
 399  366.8506
 400  378.8895
 401  409.3434
 402  428.4427
 403  450.7102
 404  422.925
 405  440.8752
 406  320.0106
 407  363.2992
 408  413.5403
 409  435.1086
 410  272.0882
 411  279.618
 412  398.097
 413  463.1534
 414  424.6645
 415  428.7194
 416  336.6566
 417  490.9395
 418  349.485
 419  311.5201
 420  349.3489
 421  441.8768
 422  402.6819
 423  572.0916
 424  644.087
 425  636.7147
 426  373.7567
 427  379.5208
 428  469.9344
 429  498.0087
 430  459.017
 431  359.4503
 432  344.2468
 433  454.5102
 434  419.8605
 435  427.1354
 436  401.8919
 437  445.8261
 438  431.1666
 439  388.1258
 440  407.0331
 441  425.1534
 442  553.0359
 443  401.5532
 444  370.8345
 445  418.1901
 446  360.4565
 447  526.9785
 448  519.9137
 449  523.6943
 450  475.0671
 451  395.1885
 452  459.1151
 453  411.5381
 454  421.6454
 455  377.2571
 456  384.725
 457  545.1354
 458  564.1398
 459  560.5635
 460  437.9416
 461  330.9953
 462  339.2907
 463  479.495
 464  463.2132
 465  460.1057
 466  313.206
 467  189.7265
 468  302.939
 469  454.0843
 470  509.5844
 471  410.0392
 472  449.4026
 473  409.0705
 474  371.1607
 475  395.9449
 476  260.3405
 477  262.2849
 478  508.1789
 479  373.7173
 480  404.0616
 481  425.6508
 482  492.131
 483  551.749
 484  532.9982
 485  506.9728
 486  436.5624
 487  412.1854
 488  498.1436
 489  515.2734
 490  535.5272
 491  575.1582
 492  510.7909
 493  339.3453
 494  413.1743
 495  437.0122
 496  297.3917
 497  300.2328
 498  451.7329
 499  433.7861
 500  455.8936
 501  358.8766
 502  499.2809
 503  574.9419
 504  488.7748
 505  574.4538
 506  500.9525
 507  567.068
 508  645.4156
 509  773.4828
 510  844.5787
 511  904.2606
