# Input file       =  1194123649.104459_cleaned.dat
# Candidate        =  PSR_0332+5434
# Telescope        =  AR
# Epoch_topo       =  58064.875360005310
# Epoch_bary       =  N/A
# T_sample         =  0.002
# Data Folded      =  7340032
# Data Avg         =  0.034248075579026
# Data StdDev      =  1.00011092700039 
# Profile Bins     =  512
# Profile Avg      =  491.131772114532 
# Profile StdDev   =  119.746318003339 
# Reduced chi-sqr  =  0.931
# Prob(Noise)      <  0.867   (~0.0 sigma)
# P_topo (ms)      =  714.502168735829  +/- 0.00027
# P'_topo (s/s)    =  -0                +/- 1.42e-10
# P''_topo (s/s^2) =  0                 +/- 6.28e-14
# P_bary (ms)      =  N/A
# P'_bary (s/s)    =  N/A
# P''_bary (s/s^2) =  N/A
# P_orb (s)        =  N/A
# asin(i)/c (s)    =  N/A
# eccentricity     =  N/A
# w (rad)          =  N/A
# T_peri           =  N/A
######################################################
   0  1001.003
   1  936.7448
   2  881.1559
   3  737.9126
   4  495.4746
   5  388.3629
   6  499.4895
   7  489.4201
   8  450.6791
   9  534.9782
  10  467.6543
  11  347.9427
  12  416.2063
  13  452.1112
  14  398.1539
  15  498.1396
  16  590.5321
  17  531.2659
  18  407.0623
  19  455.3293
  20  433.2148
  21  401.9789
  22  476.7531
  23  513.1059
  24  469.1501
  25  504.3638
  26  433.8268
  27  409.6304
  28  397.6657
  29  370.0027
  30  352.5587
  31  483.7542
  32  484.5714
  33  482.4445
  34  408.2949
  35  493.2561
  36  634.8912
  37  511.1422
  38  444.8541
  39  415.2147
  40  434.0315
  41  426.9397
  42  410.6578
  43  438.0174
  44  409.5128
  45  402.747
  46  491.496
  47  500.9604
  48  544.4052
  49  439.3635
  50  450.0892
  51  471.1078
  52  574.2272
  53  535.933
  54  546.8062
  55  384.7822
  56  252.5208
  57  325.5365
  58  426.5181
  59  410.2439
  60  473.0714
  61  473.9669
  62  459.2783
  63  529.3471
  64  485.4458
  65  493.94
  66  433.2528
  67  481.8642
  68  479.2821
  69  504.3333
  70  448.219
  71  473.8903
  72  493.7687
  73  501.8157
  74  577.5665
  75  543.3372
  76  540.8203
  77  595.9078
  78  527.4181
  79  457.5128
  80  406.3497
  81  452.4634
  82  556.9094
  83  401.2014
  84  425.4269
  85  525.4946
  86  625.4994
  87  622.9343
  88  551.6151
  89  488.4011
  90  433.3185
  91  492.5241
  92  476.2747
  93  613.8318
  94  589.6165
  95  581.3083
  96  604.9609
  97  631.3033
  98  604.4254
  99  638.7626
 100  721.76
 101  745.4825
 102  677.503
 103  731.0495
 104  642.2715
 105  612.1389
 106  520.9998
 107  504.173
 108  602.9805
 109  560.6931
 110  486.4415
 111  423.5545
 112  566.7579
 113  535.568
 114  534.683
 115  464.1187
 116  483.4349
 117  570.5567
 118  497.3966
 119  456.3621
 120  479.5966
 121  439.2807
 122  495.3403
 123  454.1008
 124  440.0252
 125  420.1783
 126  400.0086
 127  380.9069
 128  459.9222
 129  566.3265
 130  503.6392
 131  447.4158
 132  400.8429
 133  402.0245
 134  332.0966
 135  359.7618
 136  442.0526
 137  586.8685
 138  450.1503
 139  466.9243
 140  494.9097
 141  471.5633
 142  490.3546
 143  424.8522
 144  411.7374
 145  412.0909
 146  389.1569
 147  407.4471
 148  340.6738
 149  448.4462
 150  471.8204
 151  514.0956
 152  420.0004
 153  423.9756
 154  386.1902
 155  337.9207
 156  361.9598
 157  404.1888
 158  501.5434
 159  484.2491
 160  411.4814
 161  395.4525
 162  413.6907
 163  423.67
 164  409.5386
 165  409.795
 166  383.7345
 167  408.2916
 168  408.6015
 169  373.8756
 170  499.7701
 171  494.4519
 172  499.8849
 173  502.3853
 174  534.2352
 175  516.658
 176  512.3877
 177  429.0483
 178  443.0424
 179  469.6062
 180  433.0453
 181  537.6546
 182  439.4228
 183  378.483
 184  450.2196
 185  469.4639
 186  462.2466
 187  340.1375
 188  380.1648
 189  557.9205
 190  525.5571
 191  529.2891
 192  530.0049
 193  485.738
 194  482.129
 195  524.0632
 196  545.2087
 197  574.5035
 198  537.2017
 199  544.0319
 200  449.1274
 201  505.8423
 202  648.6924
 203  625.4283
 204  587.3091
 205  500.7374
 206  476.5405
 207  508.5012
 208  572.3043
 209  439.1181
 210  454.5146
 211  564.0952
 212  563.8895
 213  472.0432
 214  459.2225
 215  501.4394
 216  486.7294
 217  484.304
 218  524.2831
 219  517.5076
 220  499.1501
 221  492.6174
 222  515.4495
 223  435.7026
 224  559.5161
 225  561.2354
 226  475.1945
 227  461.6851
 228  445.0488
 229  453.4709
 230  558.4907
 231  444.0836
 232  474.2288
 233  489.3203
 234  523.1438
 235  522.8406
 236  485.0664
 237  461.4899
 238  423.0893
 239  332.7237
 240  431.8315
 241  537.5645
 242  446.9156
 243  377.1795
 244  508.087
 245  535.8893
 246  563.2144
 247  475.6101
 248  402.4222
 249  364.6918
 250  342.4763
 251  417.2812
 252  401.5454
 253  431.6702
 254  459.6296
 255  433.7944
 256  481.407
 257  551.8524
 258  549.412
 259  537.4169
 260  439.4437
 261  483.4014
 262  577.4981
 263  502.6876
 264  537.7031
 265  619.3679
 266  592.4084
 267  437.017
 268  443.5253
 269  414.4628
 270  468.661
 271  536.8796
 272  495.8654
 273  333.2713
 274  417.6355
 275  471.5268
 276  491.5852
 277  539.4512
 278  399.8173
 279  497.8025
 280  464.7937
 281  422.74
 282  425.1204
 283  494.0663
 284  465.8426
 285  447.1323
 286  419.7738
 287  503.9171
 288  582.8743
 289  555.0292
 290  483.0902
 291  490.3341
 292  655.0383
 293  556.3321
 294  536.0704
 295  478.6495
 296  475.6813
 297  416.5856
 298  467.5574
 299  467.8858
 300  381.7757
 301  467.7132
 302  524.8472
 303  584.2875
 304  495.0869
 305  410.3188
 306  463.8042
 307  532.0676
 308  482.6368
 309  523.6336
 310  563.1121
 311  505.5715
 312  484.2595
 313  525.3351
 314  461.7409
 315  458.4809
 316  465.6143
 317  454.4115
 318  478.4126
 319  527.1271
 320  423.2961
 321  417.8643
 322  563.5234
 323  551.2731
 324  526.5182
 325  494.6557
 326  504.2897
 327  549.674
 328  590.063
 329  556.5386
 330  575.597
 331  536.6075
 332  529.7296
 333  485.2586
 334  500.7044
 335  438.1499
 336  444.0583
 337  483.627
 338  485.6704
 339  483.915
 340  583.3483
 341  546.319
 342  510.8269
 343  432.3209
 344  490.3906
 345  499.3228
 346  569.3409
 347  565.1942
 348  536.292
 349  560.8195
 350  500.1579
 351  491.8244
 352  478.8672
 353  433.6526
 354  461.8906
 355  514.982
 356  501.6902
 357  494.3163
 358  489.2331
 359  535.9931
 360  458.0824
 361  534.9838
 362  580.338
 363  373.2779
 364  340.0505
 365  311.3096
 366  405.8277
 367  461.3106
 368  456.3484
 369  417.5471
 370  548.8905
 371  584.832
 372  576.4163
 373  538.161
 374  545.7227
 375  492.1384
 376  380.2867
 377  414.7491
 378  487.0599
 379  528.835
 380  666.8696
 381  616.0591
 382  541.999
 383  593.2433
 384  585.6023
 385  600.7104
 386  600.3929
 387  603.7002
 388  559.1428
 389  462.6226
 390  470.3607
 391  416.8187
 392  403.0789
 393  437.9542
 394  526.1142
 395  484.6427
 396  506.6985
 397  486.532
 398  499.0332
 399  472.0464
 400  482.4829
 401  482.452
 402  520.2634
 403  413.8322
 404  474.1833
 405  523.1147
 406  627.4699
 407  527.581
 408  513.4979
 409  450.3095
 410  528.3605
 411  482.3438
 412  474.7466
 413  548.4426
 414  621.569
 415  462.3927
 416  412.6877
 417  380.0743
 418  365.9788
 419  375.6354
 420  485.8656
 421  528.9894
 422  548.8201
 423  582.9028
 424  523.2938
 425  410.4488
 426  440.308
 427  441.9835
 428  482.9292
 429  483.1507
 430  426.3488
 431  442.632
 432  580.1976
 433  601.1292
 434  524.5389
 435  529.7346
 436  496.7
 437  492.5806
 438  435.0406
 439  391.7962
 440  524.9413
 441  642.1887
 442  545.0925
 443  530.0164
 444  582.6235
 445  531.106
 446  493.9593
 447  587.0057
 448  509.3768
 449  460.9887
 450  485.7069
 451  539.1667
 452  494.3302
 453  361.1408
 454  306.0869
 455  390.1324
 456  467.4597
 457  565.8189
 458  531.688
 459  380.0469
 460  396.2824
 461  411.082
 462  534.9272
 463  532.2917
 464  497.8184
 465  491.346
 466  433.131
 467  423.3221
 468  550.2511
 469  488.4268
 470  424.8354
 471  491.3377
 472  477.6519
 473  461.5923
 474  573.2781
 475  463.3518
 476  409.9406
 477  446.9667
 478  542.0905
 479  578.0056
 480  570.2425
 481  569.0138
 482  512.8047
 483  389.8678
 484  500.1936
 485  486.435
 486  451.7033
 487  521.5569
 488  524.1266
 489  506.0138
 490  502.6582
 491  414.8652
 492  369.285
 493  377.9328
 494  504.6395
 495  592.0717
 496  468.1096
 497  437.3219
 498  467.8124
 499  488.8713
 500  385.4992
 501  412.1124
 502  379.116
 503  440.5381
 504  479.6381
 505  527.6925
 506  460.8015
 507  506.819
 508  599.4346
 509  683.9037
 510  862.5971
 511  979.2583
