# Input file       =  1194281335.097739_cleaned.dat
# Candidate        =  PSR_0332+5434
# Telescope        =  AR
# Epoch_topo       =  58066.700429371980
# Epoch_bary       =  N/A
# T_sample         =  0.002
# Data Folded      =  7208960
# Data Avg         =  0.0195454077648647
# Data StdDev      =  1.00016862481631 
# Profile Bins     =  512
# Profile Avg      =  275.136391784523 
# Profile StdDev   =  118.679184675252 
# Reduced chi-sqr  =  1.304
# Prob(Noise)      <  4.16e-06   (~4.5 sigma)
# P_topo (ms)      =  714.503912698083  +/- 0.000242
# P'_topo (s/s)    =  -0                +/- 1.3e-10
# P''_topo (s/s^2) =  0                 +/- 5.85e-14
# P_bary (ms)      =  N/A
# P'_bary (s/s)    =  N/A
# P''_bary (s/s^2) =  N/A
# P_orb (s)        =  N/A
# asin(i)/c (s)    =  N/A
# eccentricity     =  N/A
# w (rad)          =  N/A
# T_peri           =  N/A
######################################################
   0  899.0617
   1  877.0265
   2  730.9751
   3  537.1672
   4  420.1503
   5  404.5064
   6  356.8878
   7  311.3001
   8  253.0589
   9  285.2791
  10  295.1277
  11  279.4551
  12  287.4172
  13  307.0151
  14  313.6718
  15  325.7482
  16  375.0965
  17  348.7622
  18  347.4389
  19  241.7575
  20  276.5018
  21  314.9509
  22  196.8817
  23  240.5087
  24  182.7554
  25  166.9617
  26  142.5689
  27  51.02615
  28  306.0279
  29  385.8944
  30  308.7969
  31  289.1564
  32  340.1301
  33  317.3584
  34  283.5639
  35  205.6574
  36  22.33262
  37  67.06383
  38  156.9686
  39  256.6727
  40  346.4496
  41  313.3099
  42  246.785
  43  314.7933
  44  301.3821
  45  250.7541
  46  260.7343
  47  309.247
  48  342.6715
  49  330.1375
  50  395.2612
  51  296.0457
  52  277.7254
  53  248.1336
  54  250.0308
  55  133.655
  56  115.6755
  57  152.9941
  58  152.629
  59  207.9164
  60  220.1061
  61  249.757
  62  262.9343
  63  329.1646
  64  349.7849
  65  383.0818
  66  245.858
  67  154.3314
  68  260.8686
  69  288.2987
  70  390.5153
  71  370.3694
  72  321.3593
  73  309.5232
  74  227.3452
  75  254.0298
  76  317.6635
  77  216.6182
  78  319.7197
  79  232.5082
  80  269.9134
  81  174.6771
  82  339.8984
  83  317.6221
  84  194.9445
  85  282.8918
  86  285.4018
  87  177.4342
  88  401.3711
  89  413.1801
  90  333.845
  91  314.1486
  92  407.4482
  93  370.8211
  94  283.3427
  95  246.4859
  96  332.1181
  97  350.407
  98  276.0824
  99  264.8921
 100  313.7688
 101  243.4436
 102  268.6429
 103  304.2853
 104  316.6702
 105  342.4457
 106  384.7821
 107  328.5018
 108  307.7082
 109  355.6649
 110  369.7798
 111  291.1869
 112  332.0316
 113  271.3075
 114  168.2834
 115  250.8656
 116  255.3538
 117  216.7334
 118  139.0145
 119  247.8541
 120  288.2262
 121  284.5293
 122  246.167
 123  203.4912
 124  82.07774
 125  179.1433
 126  188.4689
 127  197.71
 128  142.751
 129  366.0999
 130  251.6175
 131  145.9619
 132  187.6164
 133  204.6193
 134  229.3824
 135  242.9684
 136  436.2843
 137  467.1361
 138  350.2856
 139  415.1093
 140  220.9596
 141  285.5645
 142  275.2176
 143  305.1563
 144  312.3821
 145  287.4789
 146  236.9445
 147  257.2505
 148  354.5967
 149  398.5167
 150  247.1828
 151  201.5479
 152  164.9854
 153  30.11733
 154  172.4954
 155  193.4552
 156  225.0131
 157  279.87
 158  306.4667
 159  219.5801
 160  236.6181
 161  324.0267
 162  389.2557
 163  280.9417
 164  322.7635
 165  333.6293
 166  217.2018
 167  255.0105
 168  259.9426
 169  244.6103
 170  178.6468
 171  192.8401
 172  312.449
 173  393.3792
 174  330.6589
 175  235.8277
 176  301.9283
 177  202.3204
 178  250.7686
 179  312.3227
 180  251.2697
 181  223.6125
 182  298.4902
 183  362.053
 184  222.8115
 185  247.3712
 186  310.9129
 187  262.9248
 188  199.2375
 189  172.3272
 190  165.8666
 191  297.8502
 192  355.3463
 193  183.1917
 194  184.2287
 195  271.6465
 196  196.0436
 197  316.3051
 198  218.2974
 199  225.1088
 200  178.4907
 201  223.1892
 202  103.44
 203  194.6306
 204  194.2747
 205  150.5067
 206  117.1918
 207  136.7878
 208  188.193
 209  251.1305
 210  111.9877
 211  144.2978
 212  117.4666
 213  250.3715
 214  236.1801
 215  197.4694
 216  190.4511
 217  245.7679
 218  195.5053
 219  288.533
 220  373.7373
 221  364.992
 222  211.7137
 223  168.4471
 224  269.151
 225  305.4261
 226  153.6816
 227  255.9631
 228  342.5103
 229  361.8928
 230  322.3015
 231  303.8216
 232  280.308
 233  193.2206
 234  92.59337
 235  226.2703
 236  230.4609
 237  218.9444
 238  259.5432
 239  419.4258
 240  362.6949
 241  209.1073
 242  278.0031
 243  352.1597
 244  335.4276
 245  276.6391
 246  182.1661
 247  219.9477
 248  378.6833
 249  385.8635
 250  269.1565
 251  275.8551
 252  307.5378
 253  333.2216
 254  326.7334
 255  297.7564
 256  363.8506
 257  268.3657
 258  268.5926
 259  275.8139
 260  271.691
 261  201.3241
 262  266.1842
 263  265.4131
 264  167.6177
 265  145.5017
 266  154.1658
 267  271.0229
 268  282.1691
 269  300.4319
 270  409.067
 271  351.1658
 272  435.9875
 273  436.8069
 274  331.7249
 275  343.3878
 276  184.3502
 277  192.0377
 278  344.9392
 279  396.2473
 280  331.2334
 281  361.9944
 282  273.4214
 283  286.4858
 284  195.5358
 285  299.8422
 286  338.8092
 287  239.7296
 288  237.3777
 289  291.6947
 290  297.0599
 291  193.8766
 292  58.02199
 293  163.5112
 294  190.7584
 295  157.6541
 296  179.0417
 297  312.8276
 298  313.1562
 299  268.0581
 300  235.6402
 301  229.0805
 302  320.4642
 303  315.8279
 304  308.7629
 305  368.1829
 306  300.6418
 307  418.1762
 308  443.9845
 309  284.245
 310  297.2572
 311  293.3084
 312  278.3875
 313  270.5341
 314  306.081
 315  295.0459
 316  219.8901
 317  115.231
 318  164.578
 319  279.5573
 320  319.5472
 321  244.6702
 322  215.4356
 323  204.6013
 324  141.5904
 325  117.915
 326  92.53508
 327  191.2225
 328  331.5716
 329  299.7172
 330  167.2026
 331  132.528
 332  245.2348
 333  108.6745
 334  161.8297
 335  280.3058
 336  367.7421
 337  371.4879
 338  344.3013
 339  136.5955
 340  287.714
 341  265.6829
 342  213.3991
 343  290.3295
 344  239.8654
 345  240.2414
 346  234.2278
 347  224.0821
 348  327.6278
 349  418.3337
 350  391.9262
 351  372.4211
 352  369.1657
 353  342.6738
 354  205.6841
 355  288.2802
 356  317.0084
 357  346.4122
 358  294.1217
 359  161.5089
 360  202.8375
 361  153.8327
 362  264.7097
 363  315.1449
 364  365.5231
 365  232.3445
 366  31.90978
 367  169.8403
 368  158.4646
 369  265.403
 370  288.8949
 371  296.2623
 372  320.5474
 373  244.609
 374  235.3721
 375  278.5517
 376  279.4051
 377  315.5568
 378  322.579
 379  319.9505
 380  261.8258
 381  324.6142
 382  294.5882
 383  295.9725
 384  336.5684
 385  330.7822
 386  337.9787
 387  410.2971
 388  250.1373
 389  284.3963
 390  370.838
 391  313.9481
 392  296.2668
 393  209.6249
 394  287.8489
 395  326.0768
 396  301.2144
 397  363.751
 398  331.9929
 399  183.6846
 400  141.2705
 401  228.3014
 402  267.1956
 403  118.1304
 404  325.9781
 405  315.5164
 406  356.1728
 407  394.5324
 408  295.6227
 409  328.7981
 410  234.6121
 411  231.9136
 412  265.0113
 413  253.1815
 414  162.9982
 415  212.647
 416  229.0621
 417  339.06
 418  347.1144
 419  343.8093
 420  342.2645
 421  317.3637
 422  296.4464
 423  341.1497
 424  384.9481
 425  419.4099
 426  414.3996
 427  297.8368
 428  457.1736
 429  379.9125
 430  318.3082
 431  242.8417
 432  234.6972
 433  311.4696
 434  237.7185
 435  230.9361
 436  289.4119
 437  216.4866
 438  234.3994
 439  217.4324
 440  219.6299
 441  288.9744
 442  150.0466
 443  159.6893
 444  159.6246
 445  157.2697
 446  211.7974
 447  265.7341
 448  270.3405
 449  254.4051
 450  235.4754
 451  162.6338
 452  171.7621
 453  95.97997
 454  53.63065
 455  145.9874
 456  217.9807
 457  189.7304
 458  262.7127
 459  292.2898
 460  237.9006
 461  336.4185
 462  221.1839
 463  312.6472
 464  266.6637
 465  326.7927
 466  344.8781
 467  338.3615
 468  287.5023
 469  279.0422
 470  233.1681
 471  285.3396
 472  298.7384
 473  371.3478
 474  307.4101
 475  220.3418
 476  371.8838
 477  359.3214
 478  425.5283
 479  275.9736
 480  308.0482
 481  279.7391
 482  140.409
 483  224.6766
 484  354.7388
 485  438.7856
 486  423.8285
 487  302.7901
 488  243.403
 489  176.0607
 490  167.3309
 491  344.6439
 492  504.5935
 493  296.2661
 494  241.2656
 495  324.7629
 496  190.8145
 497  109.8315
 498  172.5562
 499  243.6878
 500  276.405
 501  269.5868
 502  215.6768
 503  144.1074
 504  192.9218
 505  280.8231
 506  326.3706
 507  430.3712
 508  528.5762
 509  424.2405
 510  802.314
 511  816.3613
