# Input file       =  1194036851.116523_cleaned.dat
# Candidate        =  PSR_0332+5434
# Telescope        =  AR
# Epoch_topo       =  58063.870753663461
# Epoch_bary       =  N/A
# T_sample         =  0.002
# Data Folded      =  7340032
# Data Avg         =  0.0214477260830654
# Data StdDev      =  0.999972403158662
# Profile Bins     =  512
# Profile Avg      =  307.466495478826 
# Profile StdDev   =  119.729732123158 
# Reduced chi-sqr  =  1.333
# Prob(Noise)      <  6.29e-07   (~4.8 sigma)
# P_topo (ms)      =  714.501196659402  +/- 0.000169
# P'_topo (s/s)    =  -0                +/- 8.9e-11
# P''_topo (s/s^2) =  0                 +/- 3.93e-14
# P_bary (ms)      =  N/A
# P'_bary (s/s)    =  N/A
# P''_bary (s/s^2) =  N/A
# P_orb (s)        =  N/A
# asin(i)/c (s)    =  N/A
# eccentricity     =  N/A
# w (rad)          =  N/A
# T_peri           =  N/A
######################################################
   0  1055.624
   1  884.265
   2  696.6031
   3  500.2437
   4  362.0725
   5  316.3683
   6  289.2933
   7  404.8434
   8  278.9822
   9  255.9198
  10  504.0522
  11  486.8406
  12  337.4838
  13  385.8408
  14  394.0342
  15  376.8274
  16  364.8859
  17  399.9603
  18  486.8547
  19  354.0557
  20  384.838
  21  236.9756
  22  264.9381
  23  369.1527
  24  299.6015
  25  211.9978
  26  238.1012
  27  274.1945
  28  329.4985
  29  237.0766
  30  159.9726
  31  236.5388
  32  347.3224
  33  337.6122
  34  255.0223
  35  204.6077
  36  254.8102
  37  260.2025
  38  364.1252
  39  292.8083
  40  265.6323
  41  311.1373
  42  295.09
  43  219.4181
  44  347.2651
  45  304.2955
  46  281.1225
  47  341.5953
  48  316.847
  49  293.5125
  50  377.9583
  51  363.8912
  52  171.9233
  53  244.7479
  54  283.4066
  55  337.6227
  56  423.1563
  57  467.9057
  58  458.7558
  59  404.0045
  60  366.1109
  61  426.0557
  62  429.9491
  63  374.8712
  64  375.5144
  65  447.8563
  66  379.7828
  67  386.8594
  68  445.1292
  69  356.0155
  70  295.2847
  71  298.1702
  72  305.6541
  73  284.0369
  74  304.7322
  75  329.1913
  76  356.1863
  77  307.3416
  78  285.4133
  79  261.9394
  80  230.266
  81  238.4446
  82  245.8137
  83  345.7731
  84  348.7594
  85  285.5277
  86  444.0702
  87  522.4147
  88  270.1012
  89  226.0511
  90  247.4921
  91  274.0894
  92  330.7396
  93  329.5819
  94  384.464
  95  400.987
  96  336.7415
  97  287.2159
  98  285.2722
  99  207.2312
 100  220.4496
 101  315.4235
 102  355.0504
 103  246.5146
 104  235.8426
 105  264.998
 106  178.3725
 107  240.2755
 108  399.6393
 109  345.4185
 110  242.1579
 111  353.7424
 112  387.1109
 113  220.4718
 114  289.4785
 115  289.2314
 116  387.1651
 117  343.6962
 118  376.0763
 119  334.5537
 120  435.7791
 121  403.6309
 122  329.7593
 123  326.4143
 124  315.5534
 125  231.8682
 126  349.2792
 127  288.9048
 128  275.1547
 129  324.2421
 130  297.639
 131  278.648
 132  127.2229
 133  235.2491
 134  388.9632
 135  392.2781
 136  323.1991
 137  210.6108
 138  284.8191
 139  266.4839
 140  220.2666
 141  217.9301
 142  169.9905
 143  276.7925
 144  342.2861
 145  369.9759
 146  342.1522
 147  239.7854
 148  196.7425
 149  320.7579
 150  179.7718
 151  232.8729
 152  390.8672
 153  342.1224
 154  189.5252
 155  162.1325
 156  262.2149
 157  180.7068
 158  206.6057
 159  351.8099
 160  369.2297
 161  276.5885
 162  198.0551
 163  287.0424
 164  350.1411
 165  402.2121
 166  319.1208
 167  325.6729
 168  283.055
 169  209.9766
 170  247.3004
 171  312.7564
 172  377.0544
 173  354.0869
 174  291.9237
 175  307.417
 176  242.5825
 177  153.9647
 178  230.527
 179  251.0696
 180  233.2332
 181  337.649
 182  337.6503
 183  305.7668
 184  311.486
 185  313.5667
 186  297.9583
 187  278.3741
 188  236.5739
 189  183.0754
 190  237.8642
 191  343.8797
 192  390.5071
 193  313.3222
 194  238.8904
 195  151.1067
 196  142.3019
 197  235.6711
 198  277.3434
 199  237.1455
 200  318.4678
 201  333.1541
 202  332.0474
 203  297.5125
 204  202.7975
 205  200.6715
 206  272.2668
 207  294.5388
 208  228.9744
 209  144.4513
 210  270.8715
 211  434.5218
 212  374.288
 213  252.647
 214  280.7884
 215  342.9862
 216  259.6629
 217  352.3158
 218  391.9326
 219  333.5284
 220  266.1188
 221  275.9107
 222  258.752
 223  213.5572
 224  188.0586
 225  271.6383
 226  367.9654
 227  263.0298
 228  243.4329
 229  298.8276
 230  282.5547
 231  261.7602
 232  254.7068
 233  348.5156
 234  344.3442
 235  348.2562
 236  335.9705
 237  179.0374
 238  90.25661
 239  90.88089
 240  154.4019
 241  205.067
 242  312.4249
 243  309.1223
 244  304.7853
 245  292.2563
 246  256.5558
 247  195.6077
 248  125.2879
 249  204.8856
 250  332.1883
 251  265.1475
 252  296.0372
 253  206.2411
 254  356.0198
 255  446.7
 256  378.0589
 257  311.2784
 258  264.4164
 259  355.4106
 260  351.8982
 261  398.7237
 262  328.9287
 263  254.5602
 264  191.602
 265  247.7907
 266  264.0638
 267  229.4625
 268  283.7185
 269  219.6289
 270  112.7022
 271  213.8132
 272  225.3992
 273  232.2938
 274  287.632
 275  351.3009
 276  293.6743
 277  232.8282
 278  268.0658
 279  201.3054
 280  164.752
 281  211.9637
 282  268.0946
 283  237.4803
 284  253.5976
 285  241.9433
 286  223.1668
 287  255.0129
 288  356.795
 289  376.0597
 290  306.8396
 291  192.2715
 292  156.3351
 293  348.5502
 294  392.117
 295  353.1064
 296  387.7415
 297  469.612
 298  394.1694
 299  321.1018
 300  355.8217
 301  428.543
 302  336.3168
 303  300.161
 304  352.0827
 305  447.9377
 306  475.2336
 307  378.7788
 308  234.3819
 309  174.9033
 310  197.1358
 311  341.9887
 312  302.1939
 313  279.7359
 314  185.7417
 315  231.5809
 316  250.3865
 317  258.9289
 318  165.3407
 319  290.1983
 320  279.0674
 321  188.6815
 322  288.4742
 323  201.3418
 324  182.5367
 325  304.5755
 326  265.4963
 327  180.612
 328  209.2067
 329  299.7375
 330  322.1736
 331  297.8637
 332  267.8001
 333  302.9398
 334  352.1403
 335  340.1753
 336  265.8817
 337  190.1316
 338  436.5758
 339  408.5956
 340  307.5645
 341  317.0853
 342  385.2802
 343  566.0333
 344  347.4491
 345  309.3622
 346  396.3568
 347  394.0994
 348  348.8794
 349  304.383
 350  284.9576
 351  238.2828
 352  219.5722
 353  318.7483
 354  276.7968
 355  187.1776
 356  304.5883
 357  280.3118
 358  247.7064
 359  334.762
 360  419.2843
 361  434.9151
 362  455.7531
 363  319.1729
 364  331.3526
 365  124.2153
 366  304.0341
 367  200.2061
 368  270.9014
 369  410.9748
 370  391.1375
 371  253.1138
 372  284.7136
 373  410.6414
 374  284.3662
 375  245.3638
 376  271.113
 377  357.7112
 378  437.059
 379  410.4502
 380  404.5552
 381  266.7269
 382  357.0799
 383  294.8387
 384  286.0577
 385  318.8693
 386  329.2939
 387  298.5143
 388  255.451
 389  275.7912
 390  323.2892
 391  378.9572
 392  217.8818
 393  239.7138
 394  283.5717
 395  325.8337
 396  275.1844
 397  254.8082
 398  220.6017
 399  241.9223
 400  281.6158
 401  166.1993
 402  97.31828
 403  268.61
 404  288.3188
 405  162.3743
 406  126.0936
 407  170.9364
 408  129.1019
 409  195.2648
 410  224.1729
 411  296.1902
 412  263.0263
 413  294.373
 414  267.0572
 415  261.02
 416  336.9512
 417  373.6972
 418  312.2901
 419  368.8163
 420  310.3345
 421  264.2756
 422  302.3742
 423  281.9874
 424  256.9997
 425  257.7496
 426  287.1213
 427  358.4572
 428  296.4126
 429  246.3782
 430  375.6465
 431  382.424
 432  351.7627
 433  229.768
 434  256.6361
 435  397.2911
 436  406.2833
 437  345.6218
 438  349.1316
 439  310.2904
 440  369.5142
 441  403.1403
 442  329.6729
 443  313.2275
 444  319.5101
 445  416.0747
 446  387.7034
 447  306.3862
 448  313.2864
 449  291.8162
 450  311.4635
 451  227.5345
 452  237.9576
 453  332.7111
 454  333.55
 455  346.5516
 456  282.1072
 457  210.0329
 458  182.6564
 459  277.02
 460  491.9343
 461  405.0519
 462  393.3878
 463  369.7495
 464  294.3466
 465  255.8974
 466  209.0242
 467  244.7845
 468  420.1499
 469  398.3104
 470  333.2833
 471  294.5709
 472  293.436
 473  313.7975
 474  158.5633
 475  157.392
 476  191.1049
 477  285.4562
 478  206.4365
 479  303.5278
 480  347.2754
 481  304.422
 482  160.7856
 483  168.2182
 484  234.5352
 485  385.0371
 486  363.8131
 487  276.352
 488  330.785
 489  332.7578
 490  347.8159
 491  366.7811
 492  387.6091
 493  531.7403
 494  445.0662
 495  462.3721
 496  284.7187
 497  275.756
 498  260.5457
 499  152.529
 500  328.9048
 501  491.1473
 502  521.0992
 503  440.5374
 504  410.2221
 505  456.1332
 506  554.2136
 507  536.0202
 508  435.6253
 509  548.7518
 510  799.0079
 511  978.8736
