# Input file       =  1194051750.097979_cleaned.dat
# Candidate        =  PSR_0332+5434
# Telescope        =  AR
# Epoch_topo       =  58064.043195578459
# Epoch_bary       =  N/A
# T_sample         =  0.002
# Data Folded      =  7340032
# Data Avg         =  0.0247269487397063
# Data StdDev      =  1.00006694125866 
# Profile Bins     =  512
# Profile Avg      =  354.459044081885 
# Profile StdDev   =  119.741051456924 
# Reduced chi-sqr  =  1.299
# Prob(Noise)      <  5.45e-06   (~4.4 sigma)
# P_topo (ms)      =  714.501693232334  +/- 0.000235
# P'_topo (s/s)    =  -0                +/- 1.24e-10
# P''_topo (s/s^2) =  0                 +/- 5.48e-14
# P_bary (ms)      =  N/A
# P'_bary (s/s)    =  N/A
# P''_bary (s/s^2) =  N/A
# P_orb (s)        =  N/A
# asin(i)/c (s)    =  N/A
# eccentricity     =  N/A
# w (rad)          =  N/A
# T_peri           =  N/A
######################################################
   0  1041.42
   1  851.1059
   2  887.2499
   3  733.7595
   4  621.4244
   5  570.7128
   6  446.76
   7  369.6172
   8  427.5533
   9  372.3621
  10  330.5251
  11  402.9255
  12  470.7036
  13  420.1816
  14  350.3917
  15  442.0118
  16  474.7234
  17  498.5523
  18  453.7253
  19  382.4286
  20  450.0346
  21  473.0869
  22  456.9073
  23  310.4157
  24  349.8872
  25  340.4387
  26  329.1483
  27  443.4327
  28  264.1421
  29  264.8632
  30  342.2943
  31  366.9933
  32  286.3295
  33  249.9807
  34  272.7522
  35  435.8083
  36  407.0749
  37  371.6501
  38  216.9795
  39  338.6977
  40  371.063
  41  396.1765
  42  459.1696
  43  428.6593
  44  441.4422
  45  251.9542
  46  371.3364
  47  326.4583
  48  286.8395
  49  368.4874
  50  251.3897
  51  265.558
  52  274.6197
  53  302.2926
  54  500.0944
  55  573.1444
  56  341.5075
  57  257.9484
  58  270.2524
  59  338.2361
  60  318.6844
  61  388.0684
  62  356.9762
  63  329.9576
  64  411.1118
  65  341.8896
  66  253.1617
  67  255.4763
  68  345.8051
  69  371.1453
  70  316.0256
  71  259.4976
  72  425.3409
  73  460.3542
  74  409.5237
  75  497.0883
  76  383.1418
  77  371.1678
  78  361.8172
  79  335.7823
  80  258.887
  81  173.4196
  82  443.3924
  83  496.3235
  84  358.8993
  85  259.5107
  86  184.4192
  87  202.639
  88  401.4536
  89  374.2166
  90  382.9465
  91  426.5021
  92  449.6085
  93  408.4794
  94  320.0884
  95  245.1299
  96  245.6597
  97  251.443
  98  434.8042
  99  362.4265
 100  308.9012
 101  314.3069
 102  223.9364
 103  228.0616
 104  217.6757
 105  231.2473
 106  269.2818
 107  295.2917
 108  345.2179
 109  351.2164
 110  436.5208
 111  336.6451
 112  334.3825
 113  376.4315
 114  362.804
 115  303.6295
 116  315.9752
 117  300.1393
 118  243.9677
 119  341.8642
 120  305.916
 121  359.1148
 122  417.6989
 123  242.0703
 124  314.8321
 125  330.8921
 126  288.1934
 127  324.4476
 128  302.6236
 129  304.9296
 130  237.2207
 131  349.5709
 132  295.8196
 133  327.7237
 134  329.1559
 135  226.83
 136  297.3241
 137  391.2645
 138  383.5769
 139  348.2378
 140  366.4254
 141  432.4027
 142  346.6749
 143  328.0934
 144  355.4962
 145  383.4922
 146  474.5748
 147  459.3967
 148  433.8301
 149  427.7675
 150  358.1733
 151  288.5253
 152  410.8381
 153  420.7969
 154  393.8378
 155  352.6973
 156  423.4423
 157  368.7926
 158  335.269
 159  449.8337
 160  431.8393
 161  302.9152
 162  371.8888
 163  427.5659
 164  347.2879
 165  334.0551
 166  331.3959
 167  314.6737
 168  269.1246
 169  288.0337
 170  231.7857
 171  368.6158
 172  413.2522
 173  351.5174
 174  288.6726
 175  244.7525
 176  227.0061
 177  190.3829
 178  279.2586
 179  328.4873
 180  310.2472
 181  256.4733
 182  324.0603
 183  389.7329
 184  396.2276
 185  289.978
 186  450.2379
 187  406.3763
 188  271.0026
 189  281.2831
 190  340.1247
 191  146.251
 192  307.8076
 193  451.4973
 194  362.6519
 195  237.4142
 196  325.9586
 197  222.4141
 198  329.4326
 199  519.2456
 200  471.7831
 201  328.1244
 202  240.7942
 203  361.1253
 204  296.2475
 205  323.1429
 206  360.4363
 207  369.0527
 208  399.289
 209  456.9904
 210  494.8934
 211  470.3242
 212  504.7936
 213  519.1616
 214  520.485
 215  410.0621
 216  359.5553
 217  413.4877
 218  291.6677
 219  311.7118
 220  298.987
 221  480.5386
 222  437.1085
 223  389.6393
 224  360.0588
 225  424.0878
 226  335.5802
 227  320.4915
 228  302.683
 229  325.4767
 230  449.9822
 231  415.7932
 232  424.3357
 233  405.0769
 234  414.7339
 235  475.0403
 236  375.2138
 237  340.552
 238  466.1574
 239  445.2536
 240  244.688
 241  264.6806
 242  490.6446
 243  328.4042
 244  172.6622
 245  258.2864
 246  414.6265
 247  308.4202
 248  306.6287
 249  285.5862
 250  279.764
 251  378.7014
 252  351.3443
 253  368.1106
 254  445.7294
 255  313.29
 256  234.9221
 257  435.8164
 258  446.0101
 259  355.8802
 260  478.052
 261  581.0952
 262  479.5967
 263  428.7081
 264  458.9592
 265  482.3615
 266  325.3155
 267  329.1873
 268  259.1541
 269  263.8364
 270  325.8346
 271  341.4185
 272  350.1135
 273  295.2599
 274  377.3002
 275  406.3769
 276  351.6523
 277  341.2504
 278  280.6058
 279  345.5574
 280  324.0942
 281  256.33
 282  347.5849
 283  301.6591
 284  282.1399
 285  432.0608
 286  492.808
 287  337.4322
 288  396.0548
 289  350.791
 290  209.5162
 291  328.1046
 292  239.9854
 293  344.8747
 294  280.0945
 295  339.2439
 296  338.0601
 297  251.1165
 298  466.2767
 299  448.8502
 300  340.0698
 301  398.6157
 302  350.3436
 303  273.9885
 304  274.0845
 305  350.183
 306  415.8513
 307  383.3451
 308  337.8802
 309  354.3166
 310  303.7243
 311  183.1167
 312  164.1248
 313  270.3291
 314  341.2372
 315  342.2171
 316  158.4001
 317  310.4225
 318  340.2346
 319  362.2528
 320  433.6129
 321  500.7501
 322  352.8163
 323  278.2827
 324  310.9188
 325  408.5707
 326  383.6202
 327  362.5208
 328  360.0643
 329  270.0994
 330  313.2709
 331  374.2058
 332  300.0585
 333  224.6916
 334  290.9268
 335  369.6201
 336  362.841
 337  427.8296
 338  386.8525
 339  288.0958
 340  333.6556
 341  298.3889
 342  362.8269
 343  454.9427
 344  315.1397
 345  391.3558
 346  408.8127
 347  313.5157
 348  213.598
 349  341.213
 350  487.0315
 351  340.7845
 352  198.7459
 353  291.6969
 354  295.549
 355  349.5058
 356  307.8905
 357  303.2026
 358  307.5165
 359  413.0837
 360  402.9254
 361  412.0913
 362  376.941
 363  293.6313
 364  315.2742
 365  368.4999
 366  433.6566
 367  358.9409
 368  378.8427
 369  445.1343
 370  311.8178
 371  369.3508
 372  380.1638
 373  298.0164
 374  270.5629
 375  278.1296
 376  276.966
 377  250.6841
 378  348.9466
 379  425.3354
 380  328.1921
 381  279.9036
 382  259.1917
 383  269.1671
 384  310.7701
 385  359.3786
 386  371.1274
 387  301.3802
 388  210.535
 389  353.9087
 390  315.1273
 391  303.405
 392  314.8212
 393  331.0643
 394  351.2123
 395  426.999
 396  352.3105
 397  345.8933
 398  321.177
 399  274.9349
 400  368.1321
 401  313.3459
 402  396.7834
 403  321.735
 404  338.7368
 405  389.823
 406  312.3188
 407  218.0267
 408  250.3267
 409  325.6501
 410  242.1935
 411  186.4847
 412  315.0753
 413  419.6837
 414  418.5588
 415  249.2788
 416  360.6938
 417  243.1447
 418  355.1817
 419  342.9429
 420  422.7521
 421  363.4452
 422  519.1864
 423  528.5868
 424  337.8955
 425  276.7374
 426  249.1661
 427  126.5152
 428  227.1664
 429  187.5616
 430  224.1634
 431  196.7812
 432  269.144
 433  355.0804
 434  333.5146
 435  294.9746
 436  241.3764
 437  318.5265
 438  331.463
 439  298.4413
 440  392.0711
 441  405.0714
 442  444.1738
 443  507.0066
 444  464.0406
 445  337.427
 446  360.7908
 447  357.9868
 448  350.7193
 449  404.296
 450  474.943
 451  431.4062
 452  412.3788
 453  269.9202
 454  330.856
 455  225.4818
 456  199.2358
 457  283.7333
 458  263.0996
 459  265.2434
 460  288.9579
 461  320.3857
 462  328.9223
 463  291.7182
 464  241.1787
 465  232.6197
 466  281.9889
 467  403.0231
 468  484.6265
 469  494.1056
 470  529.9832
 471  506.6473
 472  319.0719
 473  488.007
 474  433.1849
 475  345.0469
 476  327.0209
 477  428.5902
 478  542.809
 479  316.0458
 480  284.7574
 481  345.0265
 482  305.4772
 483  284.2448
 484  352.0136
 485  422.2197
 486  282.3191
 487  307.8409
 488  293.3193
 489  355.607
 490  402.0525
 491  316.5035
 492  430.5966
 493  403.6923
 494  345.4793
 495  343.8217
 496  263.07
 497  243.4279
 498  295.6891
 499  196.4855
 500  233.202
 501  318.6702
 502  370.5583
 503  357.5384
 504  453.9015
 505  404.701
 506  305.5514
 507  477.526
 508  685.6714
 509  605.9294
 510  749.8236
 511  935.6508
