# Input file       =  1194381597.099506_cleaned.dat
# Candidate        =  PSR_0332+5434
# Telescope        =  AR
# Epoch_topo       =  58067.860869207245
# Epoch_bary       =  N/A
# T_sample         =  0.002
# Data Folded      =  7340032
# Data Avg         =  0.0262771642431053
# Data StdDev      =  1.0001436198535  
# Profile Bins     =  512
# Profile Avg      =  376.922863819348 
# Profile StdDev   =  119.75023241791  
# Reduced chi-sqr  =  0.917
# Prob(Noise)      <  0.911   (~0.0 sigma)
# P_topo (ms)      =  714.505066839761  +/- 0.000227
# P'_topo (s/s)    =  -0                +/- 1.2e-10
# P''_topo (s/s^2) =  0                 +/- 5.29e-14
# P_bary (ms)      =  N/A
# P'_bary (s/s)    =  N/A
# P''_bary (s/s^2) =  N/A
# P_orb (s)        =  N/A
# asin(i)/c (s)    =  N/A
# eccentricity     =  N/A
# w (rad)          =  N/A
# T_peri           =  N/A
######################################################
   0  829.5848
   1  703.6722
   2  617.4199
   3  472.3035
   4  325.4355
   5  245.0613
   6  203.7614
   7  308.964
   8  210.529
   9  216.9333
  10  315.2425
  11  335.7515
  12  356.5073
  13  358.8826
  14  381.9519
  15  384.7639
  16  426.5032
  17  419.4725
  18  294.2057
  19  323.3375
  20  421.4839
  21  333.7981
  22  311.1275
  23  341.302
  24  284.9922
  25  371.3601
  26  368.8249
  27  379.3922
  28  361.371
  29  330.7585
  30  346.6665
  31  276.7491
  32  311.6832
  33  422.1963
  34  406.48
  35  388.0753
  36  367.7478
  37  447.4294
  38  375.8361
  39  381.0156
  40  442.6172
  41  394.8368
  42  262.9566
  43  320.646
  44  397.4188
  45  365.0862
  46  281.9367
  47  378.3668
  48  304.1285
  49  253.5082
  50  431.5789
  51  342.0238
  52  206.5677
  53  208.7798
  54  267.4459
  55  247.7217
  56  332.9445
  57  272.6232
  58  295.7501
  59  297.7994
  60  216.5802
  61  172.0239
  62  221.3719
  63  326.8241
  64  372.4333
  65  340.6194
  66  448.1613
  67  320.5562
  68  362.9888
  69  381.452
  70  281.774
  71  267.1977
  72  416.5052
  73  396.3119
  74  278.3441
  75  385.719
  76  321.5346
  77  386.9512
  78  382.4542
  79  248.5575
  80  223.7848
  81  225.9465
  82  356.6455
  83  378.0512
  84  310.9295
  85  370.3651
  86  348.3817
  87  284.2151
  88  307.4346
  89  324.9519
  90  241.9038
  91  250.6011
  92  315.1859
  93  334.0119
  94  387.774
  95  367.0403
  96  427.5305
  97  472.4674
  98  323.6036
  99  298.0422
 100  453.0633
 101  450.7326
 102  401.9322
 103  427.1563
 104  569.1339
 105  443.0268
 106  302.5643
 107  334.4107
 108  302.3828
 109  275.9633
 110  348.5504
 111  286.0323
 112  421.35
 113  420.3855
 114  374.0165
 115  462.2833
 116  510.1097
 117  490.8994
 118  465.978
 119  462.6111
 120  432.3766
 121  414.0188
 122  439.8799
 123  454.3974
 124  511.0518
 125  409.0264
 126  439.708
 127  387.7543
 128  316.5335
 129  393.1805
 130  408.1026
 131  559.1095
 132  466.8193
 133  407.3438
 134  466.2246
 135  311.5579
 136  439.1068
 137  422.324
 138  341.2523
 139  310.4495
 140  350.0009
 141  439.254
 142  490.4361
 143  424.9709
 144  493.0107
 145  440.1524
 146  472.3683
 147  569.1943
 148  514.7621
 149  482.8073
 150  467.4556
 151  482.3051
 152  471.8131
 153  431.162
 154  377.7242
 155  303.1298
 156  308.9539
 157  328.5323
 158  325.3221
 159  361.2177
 160  369.8019
 161  281.7631
 162  331.5704
 163  339.221
 164  254.5229
 165  442.7841
 166  278.7821
 167  273.9785
 168  243.6406
 169  400.02
 170  321.8517
 171  381.0339
 172  393.1937
 173  349.0741
 174  387.832
 175  314.3522
 176  296.9198
 177  307.5261
 178  476.3459
 179  542.0364
 180  375.6828
 181  287.0859
 182  342.7007
 183  328.8231
 184  371.1312
 185  282.0004
 186  261.8892
 187  283.9416
 188  290.9955
 189  380.2705
 190  415.4729
 191  449.5534
 192  320.9806
 193  213.3691
 194  381.347
 195  451.7071
 196  490.4409
 197  449.226
 198  501.9521
 199  498.3464
 200  422.3011
 201  439.9103
 202  456.8783
 203  475.7042
 204  473.978
 205  398.8326
 206  417.0216
 207  474.6633
 208  450.9008
 209  431.0215
 210  428.9911
 211  492.2897
 212  430.7646
 213  328.8593
 214  414.8374
 215  519.587
 216  463.858
 217  395.8207
 218  447.6851
 219  337.9974
 220  370.6503
 221  293.2519
 222  439.3635
 223  442.5884
 224  339.6551
 225  345.6102
 226  445.5553
 227  430.9955
 228  526.4908
 229  446.1276
 230  376.2716
 231  376.8513
 232  378.4729
 233  331.9038
 234  385.449
 235  456.377
 236  412.6364
 237  410.5173
 238  342.4034
 239  330.874
 240  319.0563
 241  372.4087
 242  354.243
 243  355.6021
 244  479.4013
 245  446.6628
 246  430.3744
 247  304.8429
 248  349.5515
 249  384.0867
 250  430.5956
 251  332.9276
 252  376.5089
 253  312.1692
 254  314.0445
 255  279.9787
 256  314.2303
 257  203.1128
 258  285.7895
 259  436.6723
 260  423.1615
 261  385.5888
 262  363.597
 263  360.4097
 264  397.582
 265  399.1375
 266  373.8857
 267  346.3398
 268  389.8325
 269  497.3307
 270  453.2984
 271  367.6338
 272  272.6473
 273  418.2231
 274  366.1131
 275  426.9998
 276  410.2022
 277  440.8546
 278  444.4036
 279  408.203
 280  449.5581
 281  439.0392
 282  329.931
 283  332.3355
 284  380.4999
 285  480.8817
 286  433.2878
 287  310.9127
 288  329.2008
 289  372.2607
 290  366.0018
 291  258.075
 292  379.7313
 293  363.8259
 294  281.0645
 295  285.3104
 296  332.35
 297  433.2585
 298  362.9362
 299  419.185
 300  396.1703
 301  405.7704
 302  427.9012
 303  333.2295
 304  309.3922
 305  339.8808
 306  335.7865
 307  352.9801
 308  327.9235
 309  412.0787
 310  414.4545
 311  366.8595
 312  364.7188
 313  331.2482
 314  384.0121
 315  438.0942
 316  388.9163
 317  377.5117
 318  374.5715
 319  320.3562
 320  394.7484
 321  388.8335
 322  342.5586
 323  403.9156
 324  433.5951
 325  300.0768
 326  337.6956
 327  412.2877
 328  453.5264
 329  405.8464
 330  480.3512
 331  417.2144
 332  364.4116
 333  383.8553
 334  445.3735
 335  421.871
 336  380.6548
 337  294.9625
 338  281.6506
 339  389.978
 340  396.0516
 341  312.3779
 342  387.7079
 343  477.9124
 344  451.7981
 345  384.6048
 346  397.4287
 347  472.6265
 348  377.2883
 349  456.9603
 350  388.9102
 351  314.19
 352  369.3433
 353  351.6233
 354  324.0501
 355  379.8127
 356  326.9981
 357  411.7776
 358  384.5255
 359  512.1788
 360  427.4415
 361  278.4485
 362  430.21
 363  384.9788
 364  303.9337
 365  270.0197
 366  355.1859
 367  295.9429
 368  183.6014
 369  367.2922
 370  456.2132
 371  501.1096
 372  446.8425
 373  452.1966
 374  449.9796
 375  360.356
 376  300.9052
 377  288.1247
 378  263.6137
 379  307.14
 380  415.9534
 381  439.0867
 382  390.2371
 383  443.4465
 384  317.7469
 385  328.4247
 386  325.481
 387  341.023
 388  360.4387
 389  442.1505
 390  416.2215
 391  335.2014
 392  266.06
 393  340.7411
 394  364.3498
 395  331.4518
 396  233.825
 397  248.2047
 398  248.0332
 399  320.552
 400  405.2683
 401  365.6619
 402  439.4487
 403  373.9452
 404  406.508
 405  319.5333
 406  297.5641
 407  288.9199
 408  425.4286
 409  478.834
 410  443.3667
 411  423.5879
 412  319.6638
 413  404.1357
 414  403.9319
 415  385.5082
 416  363.0598
 417  414.0324
 418  434.9738
 419  295.1502
 420  159.8362
 421  239.8678
 422  383.5215
 423  402.1151
 424  365.1215
 425  428.5527
 426  463.5156
 427  417.0243
 428  305.1469
 429  205.986
 430  350.2881
 431  293.7071
 432  326.5466
 433  342.5318
 434  355.4821
 435  321.7166
 436  363.5212
 437  478.9702
 438  323.7055
 439  232.1009
 440  319.2249
 441  376.0363
 442  394.697
 443  296.5044
 444  357.1288
 445  328.3426
 446  311.9654
 447  388.8479
 448  284.7672
 449  312.424
 450  428.5632
 451  315.7282
 452  368.2611
 453  387.5943
 454  383.3321
 455  365.4986
 456  262.5601
 457  311.5428
 458  406.0027
 459  509.187
 460  394.7568
 461  307.0348
 462  386.7103
 463  395.8184
 464  383.0833
 465  464.7494
 466  419.9043
 467  420.6437
 468  405.5748
 469  348.7298
 470  229.7759
 471  275.9533
 472  400.0277
 473  435.1159
 474  394.5999
 475  399.4182
 476  293.4203
 477  295.1245
 478  350.998
 479  269.6326
 480  278.1835
 481  393.1718
 482  389.5137
 483  395.807
 484  368.162
 485  421.8258
 486  423.6192
 487  446.178
 488  376.9872
 489  342.7097
 490  440.3467
 491  371.4893
 492  382.1423
 493  414.2868
 494  402.5729
 495  577.6591
 496  475.05
 497  459.8348
 498  551.5081
 499  471.8227
 500  402.6704
 501  335.931
 502  446.2518
 503  441.7736
 504  406.1991
 505  392.4205
 506  342.0984
 507  370.7369
 508  532.6139
 509  608.5056
 510  749.5676
 511  977.8401
