# Input file       =  1194884445.113245_cleaned.dat
# Candidate        =  PSR_0332+5434
# Telescope        =  AR
# Epoch_topo       =  58073.680869366261
# Epoch_bary       =  N/A
# T_sample         =  0.002
# Data Folded      =  7208960
# Data Avg         =  0.0279380779633362
# Data StdDev      =  1.00009622220397 
# Profile Bins     =  512
# Profile Avg      =  393.295827030919 
# Profile StdDev   =  118.670593440947 
# Reduced chi-sqr  =  1.410
# Prob(Noise)      <  2.49e-09   (~5.8 sigma)
# P_topo (ms)      =  714.510882917242  +/- 6.48e-05
# P'_topo (s/s)    =  -0                +/- 3.48e-11
# P''_topo (s/s^2) =  0                 +/- 1.56e-14
# P_bary (ms)      =  N/A
# P'_bary (s/s)    =  N/A
# P''_bary (s/s^2) =  N/A
# P_orb (s)        =  N/A
# asin(i)/c (s)    =  N/A
# eccentricity     =  N/A
# w (rad)          =  N/A
# T_peri           =  N/A
######################################################
   0  1051.788
   1  952.9529
   2  896.0901
   3  603.887
   4  447.0807
   5  397.6284
   6  433.7464
   7  316.2635
   8  382.3068
   9  489.2939
  10  510.4404
  11  475.6084
  12  479.2982
  13  445.1591
  14  470.5614
  15  499.227
  16  441.9014
  17  494.5943
  18  457.4714
  19  332.3866
  20  296.4066
  21  436.1068
  22  424.0492
  23  447.2143
  24  452.7659
  25  444.4061
  26  314.2609
  27  419.1293
  28  348.4178
  29  318.9188
  30  426.9201
  31  469.2243
  32  525.3873
  33  526.307
  34  606.9576
  35  457.1243
  36  418.1691
  37  523.3734
  38  442.9482
  39  437.6711
  40  373.3184
  41  488.5301
  42  555.7151
  43  472.1368
  44  331.7619
  45  295.3072
  46  393.2025
  47  387.3232
  48  317.6058
  49  374.3596
  50  312.0959
  51  339.4678
  52  302.8823
  53  305.1734
  54  408.0674
  55  396.1361
  56  488.5651
  57  437.3374
  58  360.4196
  59  315.4122
  60  387.0836
  61  311.6729
  62  379.7424
  63  406.1653
  64  359.1206
  65  432.611
  66  371.3027
  67  297.1315
  68  413.5953
  69  374.4439
  70  398.0792
  71  400.5567
  72  347.2671
  73  339.2428
  74  449.8015
  75  318.9954
  76  389.4745
  77  422.8992
  78  438.0021
  79  331.9321
  80  339.0236
  81  462.7265
  82  503.7726
  83  388.6502
  84  453.7588
  85  561.1967
  86  491.2283
  87  342.9799
  88  407.17
  89  537.9628
  90  450.9988
  91  415.3937
  92  457.9935
  93  424.8853
  94  449.7635
  95  373.8472
  96  397.9458
  97  424.5411
  98  382.4774
  99  528.824
 100  352.1581
 101  283.1364
 102  306.5752
 103  321.934
 104  381.3332
 105  327.1784
 106  304.5544
 107  208.2551
 108  355.6847
 109  378.8675
 110  427.6749
 111  254.0832
 112  331.5455
 113  455.7855
 114  339.6062
 115  286.3181
 116  416.082
 117  379.2939
 118  305.6507
 119  172.0485
 120  199.913
 121  324.3139
 122  194.6518
 123  195.2071
 124  378.9645
 125  457.0779
 126  348.9654
 127  375.9312
 128  470.4051
 129  471.4785
 130  377.4549
 131  294.1788
 132  362.4377
 133  390.2623
 134  359.5217
 135  441.4667
 136  582.6022
 137  407.0247
 138  340.225
 139  418.5461
 140  289.731
 141  373.4241
 142  391.4364
 143  454.7141
 144  446.6938
 145  358.9722
 146  358.0567
 147  422.2242
 148  479.5671
 149  549.6219
 150  419.5984
 151  384.5521
 152  299.9285
 153  402.2753
 154  460.0779
 155  368.1643
 156  305.6293
 157  369.0756
 158  210.2277
 159  324.1358
 160  439.8246
 161  342.2068
 162  317.0384
 163  345.8764
 164  331.1471
 165  362.6542
 166  372.2592
 167  443.4608
 168  441.6246
 169  307.6881
 170  349.0973
 171  376.7462
 172  325.3026
 173  329.2723
 174  384.5072
 175  338.3828
 176  426.149
 177  414.3882
 178  464.2876
 179  293.6367
 180  300.6443
 181  374.1087
 182  330.7781
 183  358.6619
 184  254.4967
 185  385.2641
 186  310.8737
 187  360.4687
 188  346.8942
 189  339.5173
 190  364.7595
 191  319.2557
 192  383.0814
 193  313.7902
 194  236.3868
 195  361.4236
 196  336.7589
 197  324.1402
 198  375.2893
 199  392.3472
 200  126.6541
 201  72.11364
 202  208.445
 203  338.9665
 204  194.6534
 205  283.9823
 206  269.8784
 207  272.2185
 208  332.1543
 209  293.6203
 210  413.6589
 211  304.4736
 212  330.2315
 213  427.702
 214  367.5214
 215  309.3082
 216  323.5656
 217  326.1695
 218  301.8035
 219  277.5864
 220  441.1526
 221  458.2187
 222  395.8311
 223  331.2719
 224  442.3863
 225  401.781
 226  406.7585
 227  331.0512
 228  387.1055
 229  359.3086
 230  357.8752
 231  461.2586
 232  446.7251
 233  454.7937
 234  379.6849
 235  495.6701
 236  352.7615
 237  398.7656
 238  569.0776
 239  507.5158
 240  346.2521
 241  379.6482
 242  568.2447
 243  443.3269
 244  280.5314
 245  363.8388
 246  344.4709
 247  331.8373
 248  235.0381
 249  282.0495
 250  373.9874
 251  416.3655
 252  481.5357
 253  638.0005
 254  587.3705
 255  431.0266
 256  409.1913
 257  487.3998
 258  422.8302
 259  409.2397
 260  425.5984
 261  358.9119
 262  435.6895
 263  426.2707
 264  341.1365
 265  323.1504
 266  400.7355
 267  351.7447
 268  310.221
 269  334.3526
 270  512.7219
 271  439.8972
 272  467.3794
 273  398.1402
 274  391.3706
 275  393.8659
 276  382.0691
 277  399.3175
 278  461.9243
 279  483.9451
 280  442.9903
 281  421.0234
 282  480.5714
 283  334.7093
 284  274.127
 285  355.951
 286  429.5827
 287  356.6846
 288  353.3878
 289  322.94
 290  432.6817
 291  300.6817
 292  352.1152
 293  437.2141
 294  345.9139
 295  259.0987
 296  277.8924
 297  367.5294
 298  309.7334
 299  414.0288
 300  473.1681
 301  378.3694
 302  348.3108
 303  543.1118
 304  441.5098
 305  380.8129
 306  377.6152
 307  438.0417
 308  397.739
 309  287.9588
 310  439.387
 311  493.0906
 312  332.4043
 313  165.8572
 314  259.7939
 315  357.6991
 316  436.6883
 317  492.0592
 318  402.3277
 319  255.0193
 320  173.2917
 321  415.6551
 322  472.3693
 323  362.8274
 324  335.4552
 325  326.5539
 326  306.9884
 327  221.2126
 328  392.9518
 329  322.745
 330  370.493
 331  339.9079
 332  438.643
 333  404.3781
 334  513.6186
 335  472.8071
 336  380.8517
 337  402.7399
 338  485.4686
 339  335.7237
 340  294.7971
 341  304.8968
 342  386.3568
 343  245.4543
 344  260.6448
 345  361.5429
 346  401.274
 347  377.5176
 348  310.9258
 349  283.1674
 350  254.3682
 351  280.2609
 352  286.0858
 353  309.09
 354  363.729
 355  367.5335
 356  455.184
 357  333.9296
 358  194.1799
 359  349.0019
 360  406.126
 361  384.6047
 362  361.5382
 363  315.004
 364  323.8364
 365  379.5305
 366  165.353
 367  372.5979
 368  412.4261
 369  418.9284
 370  435.4677
 371  447.1605
 372  518.8262
 373  381.5975
 374  485.5213
 375  444.8885
 376  404.7577
 377  440.8256
 378  430.9124
 379  482.6423
 380  370.7152
 381  351.5705
 382  317.913
 383  334.9929
 384  335.8628
 385  481.1408
 386  375.336
 387  320.7009
 388  290.8817
 389  458.4802
 390  361.3076
 391  217.6402
 392  393.4673
 393  435.5911
 394  408.2737
 395  379.1179
 396  444.4826
 397  448.0074
 398  459.6171
 399  411.8127
 400  429.7889
 401  309.6143
 402  227.4544
 403  426.3798
 404  458.7282
 405  479.8665
 406  425.6482
 407  377.0244
 408  493.6447
 409  397.2608
 410  426.7965
 411  429.7125
 412  477.8535
 413  445.3281
 414  372.7601
 415  388.3884
 416  379.9196
 417  343.848
 418  400.9263
 419  403.8839
 420  293.2375
 421  254.4924
 422  410.4912
 423  380.0032
 424  391.3082
 425  355.4185
 426  310.6995
 427  310.42
 428  255.1886
 429  472.5729
 430  475.5723
 431  366.8232
 432  372.0255
 433  445.1995
 434  523.6422
 435  367.6827
 436  391.1801
 437  419.9477
 438  471.6002
 439  369.0714
 440  321.4994
 441  297.7689
 442  365.7081
 443  494.6841
 444  389.5656
 445  346.8247
 446  486.1307
 447  424.4819
 448  463.6978
 449  467.0287
 450  615.0839
 451  447.969
 452  341.1525
 453  408.1401
 454  379.5399
 455  482.894
 456  492.8078
 457  455.1727
 458  469.5777
 459  355.3758
 460  359.9098
 461  558.4485
 462  468.8214
 463  314.0595
 464  352.7776
 465  364.5161
 466  297.3906
 467  184.8728
 468  344.6783
 469  394.7806
 470  315.4181
 471  356.9285
 472  337.6074
 473  359.7616
 474  372.3734
 475  353.2433
 476  347.7314
 477  273.0682
 478  384.0033
 479  348.0122
 480  295.9908
 481  404.1551
 482  622.5107
 483  318.5066
 484  201.6164
 485  362.5702
 486  579.0485
 487  655.0912
 488  492.4826
 489  479.9954
 490  477.1548
 491  449.07
 492  424.0619
 493  546.7993
 494  445.2703
 495  277.9609
 496  431.2282
 497  399.2172
 498  307.5434
 499  440.0117
 500  437.8958
 501  422.6305
 502  497.0314
 503  486.1576
 504  417.6276
 505  481.8716
 506  625.7305
 507  699.3598
 508  668.5816
 509  797.3895
 510  889.0266
 511  957.2266
