# Input file       =  1194726807.10001_cleaned.dat
# Candidate        =  PSR_0332+5434
# Telescope        =  AR
# Epoch_topo       =  58071.856355324191
# Epoch_bary       =  N/A
# T_sample         =  0.002
# Data Folded      =  7340032
# Data Avg         =  0.0298496046330419
# Data StdDev      =  1.00029974825182 
# Profile Bins     =  512
# Profile Avg      =  427.948824098246 
# Profile StdDev   =  119.768926145105 
# Reduced chi-sqr  =  1.102
# Prob(Noise)      <  0.0555   (~1.6 sigma)
# P_topo (ms)      =  714.509058355989  +/- 0.000244
# P'_topo (s/s)    =  -0                +/- 1.29e-10
# P''_topo (s/s^2) =  0                 +/- 5.68e-14
# P_bary (ms)      =  N/A
# P'_bary (s/s)    =  N/A
# P''_bary (s/s^2) =  N/A
# P_orb (s)        =  N/A
# asin(i)/c (s)    =  N/A
# eccentricity     =  N/A
# w (rad)          =  N/A
# T_peri           =  N/A
######################################################
   0  918.2073
   1  917.8324
   2  889.0873
   3  720.5983
   4  465.306
   5  355.5336
   6  409.6236
   7  544.7463
   8  472.3457
   9  392.7098
  10  442.159
  11  450.671
  12  454.7048
  13  502.1734
  14  509.2613
  15  544.772
  16  557.1894
  17  491.7312
  18  426.1315
  19  360.6969
  20  419.1118
  21  382.1182
  22  248.0816
  23  320.6732
  24  297.0248
  25  448.4366
  26  465.55
  27  289.4812
  28  325.0541
  29  422.8621
  30  506.7353
  31  474.602
  32  478.6323
  33  511.8928
  34  499.2133
  35  490.5013
  36  352.5551
  37  294.4108
  38  320.9424
  39  455.5348
  40  503.4467
  41  497.0811
  42  338.0191
  43  319.44
  44  413.794
  45  388.959
  46  318.0814
  47  320.1061
  48  378.1303
  49  434.787
  50  430.6916
  51  332.2357
  52  363.4231
  53  527.6547
  54  427.8278
  55  531.2163
  56  532.6664
  57  476.7034
  58  261.6014
  59  284.1371
  60  345.6921
  61  373.5146
  62  350.2457
  63  424.5068
  64  461.3328
  65  375.5306
  66  412.9936
  67  552.2477
  68  497.401
  69  286.4129
  70  320.9241
  71  383.1056
  72  364.2474
  73  480.8763
  74  516.2537
  75  469.593
  76  416.0937
  77  415.1121
  78  474.0726
  79  463.1474
  80  414.7601
  81  371.6986
  82  436.6526
  83  465.79
  84  535.6707
  85  435.0724
  86  476.9218
  87  419.6503
  88  438.4608
  89  391.9
  90  378.1669
  91  222.3661
  92  313.3206
  93  436.7808
  94  398.4086
  95  408.8624
  96  417.05
  97  438.5608
  98  369.8675
  99  438.8258
 100  467.4384
 101  473.5649
 102  362.8567
 103  336.8929
 104  398.6102
 105  448.5179
 106  449.3298
 107  418.8648
 108  348.8654
 109  384.5356
 110  510.7161
 111  594.4474
 112  348.6501
 113  265.3351
 114  369.6714
 115  382.436
 116  412.9704
 117  463.759
 118  442.1616
 119  446.1271
 120  448.6313
 121  427.5683
 122  361.1038
 123  318.0926
 124  346.1283
 125  420.2263
 126  450.1279
 127  431.8921
 128  444.2619
 129  341.0049
 130  391.5417
 131  360.2766
 132  302.1093
 133  438.5384
 134  445.0109
 135  467.0968
 136  444.5182
 137  354.3972
 138  293.2741
 139  388.2368
 140  458.408
 141  418.5063
 142  551.4472
 143  382.4359
 144  419.2847
 145  454.8472
 146  483.382
 147  430.9658
 148  442.0578
 149  561.785
 150  543.4989
 151  413.7937
 152  461.014
 153  548.3872
 154  502.6683
 155  384.0079
 156  390.9515
 157  420.1845
 158  494.5356
 159  473.4234
 160  424.626
 161  290.5313
 162  317.8094
 163  425.376
 164  401.941
 165  276.2923
 166  235.2693
 167  164.5722
 168  224.8624
 169  345.8228
 170  400.3051
 171  445.8326
 172  381.5566
 173  301.7883
 174  227.0248
 175  266.3248
 176  328.5312
 177  336.0685
 178  377.829
 179  331.9232
 180  365.3083
 181  368.0573
 182  350.1072
 183  359.5335
 184  406.6684
 185  448.0724
 186  481.8067
 187  402.9456
 188  473.5497
 189  500.6111
 190  617.1104
 191  485.5388
 192  459.3386
 193  557.8686
 194  482.3207
 195  423.6567
 196  457.0573
 197  509.8134
 198  460.5077
 199  431.3167
 200  468.4435
 201  594.4745
 202  492.1097
 203  472.4028
 204  608.1616
 205  512.1227
 206  494.2923
 207  401.9753
 208  408.4061
 209  434.9911
 210  231.9747
 211  274.0321
 212  236.02
 213  383.6452
 214  331.9729
 215  304.201
 216  387.2218
 217  409.9547
 218  278.3035
 219  288.1202
 220  335.4713
 221  323.0245
 222  408.0888
 223  420.3796
 224  433.7701
 225  428.0927
 226  417.6916
 227  428.0572
 228  452.6634
 229  471.0124
 230  370.8999
 231  395.9093
 232  445.5445
 233  395.007
 234  394.0521
 235  465.1418
 236  561.9843
 237  473.8394
 238  399.2011
 239  444.8315
 240  561.5717
 241  468.0883
 242  269.6558
 243  401.7265
 244  353.0989
 245  321.951
 246  374.7776
 247  408.7618
 248  407.8517
 249  336.1642
 250  260.911
 251  336.6076
 252  360.8372
 253  445.4238
 254  515.9901
 255  622.9469
 256  546.5749
 257  459.8577
 258  314.2531
 259  358.0295
 260  432.9392
 261  481.8635
 262  468.0644
 263  402.5908
 264  441.275
 265  419.5689
 266  414.4865
 267  371.9257
 268  445.9013
 269  458.2113
 270  539.3561
 271  382.0633
 272  276.558
 273  462.6376
 274  428.1392
 275  461.1837
 276  417.8221
 277  382.8021
 278  369.9869
 279  406.2557
 280  442.7695
 281  388.2721
 282  455.7784
 283  525.864
 284  422.68
 285  361.6507
 286  402.7099
 287  389.8824
 288  495.6442
 289  509.3613
 290  478.5049
 291  449.0403
 292  487.5996
 293  412.0365
 294  478.6184
 295  440.6466
 296  357.916
 297  553.3015
 298  522.7265
 299  413.75
 300  397.7664
 301  360.713
 302  393.6535
 303  415.2163
 304  497.7012
 305  441.866
 306  485.6624
 307  543.3289
 308  504.4004
 309  495.6581
 310  474.1191
 311  321.1713
 312  304.5677
 313  381.4678
 314  478.2052
 315  439.9224
 316  475.0457
 317  455.7564
 318  356.1562
 319  407.3683
 320  487.5119
 321  518.4584
 322  502.2998
 323  462.7892
 324  508.5587
 325  440.1747
 326  442.8705
 327  468.2285
 328  512.0312
 329  506.9063
 330  465.7998
 331  282.0007
 332  360.2057
 333  339.4369
 334  301.6622
 335  425.0451
 336  413.5096
 337  385.1921
 338  342.9313
 339  437.3844
 340  529.6468
 341  401.637
 342  341.0537
 343  353.0216
 344  433.1728
 345  460.9308
 346  524.2289
 347  518.1757
 348  412.7336
 349  438.7504
 350  433.7007
 351  427.8809
 352  381.2747
 353  467.0202
 354  530.7035
 355  478.671
 356  371.1517
 357  380.062
 358  356.3622
 359  439.0037
 360  489.1328
 361  392.826
 362  351.6743
 363  447.3043
 364  441.7059
 365  338.6745
 366  447.3972
 367  512.1773
 368  368.7062
 369  196.9526
 370  325.8633
 371  492.0859
 372  567.2086
 373  516.8558
 374  443.4745
 375  472.3997
 376  462.9751
 377  570.7361
 378  468.2885
 379  486.1267
 380  428.2502
 381  408.6078
 382  435.5703
 383  462.1465
 384  410.4067
 385  379.0539
 386  387.7917
 387  523.3182
 388  500.0823
 389  471.076
 390  413.0328
 391  349.5394
 392  362.2625
 393  416.1928
 394  409.2856
 395  359.2041
 396  428.1733
 397  447.4698
 398  401.8875
 399  384.1595
 400  363.474
 401  405.3649
 402  414.8026
 403  437.7607
 404  436.0591
 405  445.7963
 406  381.6752
 407  314.6935
 408  384.7775
 409  455.2586
 410  357.5973
 411  258.9942
 412  316.1213
 413  460.1345
 414  435.7126
 415  439.3914
 416  365.0137
 417  399.1488
 418  466.4818
 419  299.3403
 420  328.5761
 421  391.3187
 422  422.7507
 423  458.1788
 424  623.6059
 425  663.191
 426  528.3597
 427  330.8018
 428  424.6808
 429  497.2968
 430  493.4515
 431  422.8463
 432  323.3807
 433  398.9763
 434  457.5597
 435  402.3156
 436  433.3672
 437  396.0434
 438  474.2813
 439  392.3937
 440  421.7272
 441  380.6461
 442  508.9295
 443  487.5812
 444  365.4229
 445  390.8798
 446  400.0179
 447  415.1793
 448  556.4013
 449  506.6552
 450  513.9999
 451  429.4926
 452  410.0985
 453  455.395
 454  395.1049
 455  432.3521
 456  342.4132
 457  469.9098
 458  559.0262
 459  578.3033
 460  512.7061
 461  378.4978
 462  318.4792
 463  392.3375
 464  492.4825
 465  470.3727
 466  419.453
 467  226.8432
 468  209.9776
 469  374.8324
 470  506.7178
 471  461.2296
 472  410.3669
 473  463.802
 474  375.0475
 475  386.8216
 476  352.5678
 477  204.4541
 478  404.9145
 479  466.9581
 480  369.045
 481  418.0004
 482  452.5463
 483  516.6027
 484  551.4381
 485  515.5569
 486  498.2896
 487  390.3651
 488  476.3567
 489  490.6588
 490  526.6695
 491  548.1323
 492  576.9681
 493  417.8151
 494  344.228
 495  446.9358
 496  389.4059
 497  260.6957
 498  371.7704
 499  455.2237
 500  458.8915
 501  402.6725
 502  389.9305
 503  558.8167
 504  532.9202
 505  534.2084
 506  547.4561
 507  522.0787
 508  591.1145
 509  702.6235
 510  801.7233
 511  882.4975
