# Input file       =  1194194576.102522_cleaned.dat
# Candidate        =  PSR_0332+5434
# Telescope        =  AR
# Epoch_topo       =  58065.696274334747
# Epoch_bary       =  N/A
# T_sample         =  0.002
# Data Folded      =  7143424
# Data Avg         =  0.0282808690525338
# Data StdDev      =  1.00000429391405 
# Profile Bins     =  512
# Profile Avg      =  394.632708485415 
# Profile StdDev   =  118.119091672917 
# Reduced chi-sqr  =  1.157
# Prob(Noise)      <  0.00809   (~2.4 sigma)
# P_topo (ms)      =  714.502943773863  +/- 0.000143
# P'_topo (s/s)    =  -0                +/- 7.73e-11
# P''_topo (s/s^2) =  0                 +/- 3.51e-14
# P_bary (ms)      =  N/A
# P'_bary (s/s)    =  N/A
# P''_bary (s/s^2) =  N/A
# P_orb (s)        =  N/A
# asin(i)/c (s)    =  N/A
# eccentricity     =  N/A
# w (rad)          =  N/A
# T_peri           =  N/A
######################################################
   0  839.8284
   1  876.5916
   2  775.5331
   3  592.8621
   4  493.318
   5  474.4792
   6  560.0961
   7  554.551
   8  419.6461
   9  308.6515
  10  344.8568
  11  312.9213
  12  322.7248
  13  435.4331
  14  365.4125
  15  507.578
  16  551.0419
  17  508.9143
  18  357.6046
  19  271.1315
  20  395.0286
  21  515.6539
  22  417.9408
  23  346.573
  24  403.2378
  25  436.215
  26  462.0476
  27  445.2891
  28  495.5445
  29  493.5342
  30  361.0145
  31  365.8186
  32  372.4147
  33  347.868
  34  263.0378
  35  350.2118
  36  401.5792
  37  364.4587
  38  401.2999
  39  293.364
  40  312.3756
  41  327.6056
  42  386.2015
  43  405.3842
  44  352.9209
  45  405.8572
  46  414.5588
  47  314.4438
  48  292.6505
  49  273.991
  50  250.8097
  51  263.0591
  52  253.5653
  53  344.1426
  54  322.7193
  55  329.9374
  56  283.9819
  57  274.8417
  58  303.5531
  59  404.494
  60  340.7964
  61  399.5427
  62  186.9253
  63  195.9528
  64  347.3338
  65  359.4276
  66  382.1352
  67  341.6548
  68  311.7435
  69  292.5482
  70  405.7074
  71  540.6195
  72  350.4909
  73  368.0699
  74  263.2355
  75  194.5223
  76  301.5584
  77  340.681
  78  324.1777
  79  483.5234
  80  563.9818
  81  429.9094
  82  360.9281
  83  356.6078
  84  251.4224
  85  401.5956
  86  527.5322
  87  576.5092
  88  411.939
  89  290.2369
  90  297.0362
  91  390.9926
  92  406.9877
  93  509.6546
  94  458.5732
  95  469.9497
  96  504.2628
  97  453.1677
  98  416.9496
  99  298.2776
 100  388.9616
 101  508.4033
 102  498.5646
 103  479.2993
 104  481.9082
 105  362.5186
 106  432.3397
 107  394.6908
 108  331.7477
 109  405.4221
 110  550.8653
 111  541.4493
 112  450.4833
 113  394.9729
 114  413.3282
 115  418.9069
 116  443.5264
 117  265.0001
 118  249.1863
 119  361.8316
 120  295.5191
 121  244.7464
 122  253.6494
 123  239.4027
 124  215.2951
 125  343.1595
 126  346.6789
 127  279.1732
 128  121.8654
 129  303.8167
 130  231.5395
 131  378.5509
 132  360.1616
 133  389.2807
 134  313.833
 135  451.6247
 136  481.8116
 137  473.5906
 138  423.3946
 139  426.1408
 140  341.5128
 141  383.3194
 142  392.0797
 143  453.6399
 144  487.8355
 145  402.013
 146  403.5357
 147  377.4026
 148  356.3019
 149  389.1346
 150  363.9832
 151  356.2665
 152  362.531
 153  431.3963
 154  539.6386
 155  394.929
 156  317.7616
 157  300.9902
 158  516.3774
 159  414.497
 160  398.7363
 161  439.1337
 162  565.5533
 163  476.1898
 164  498.9127
 165  375.14
 166  417.7128
 167  415.3097
 168  321.4392
 169  458.0767
 170  480.8833
 171  409.4182
 172  341.0484
 173  333.0781
 174  339.0598
 175  425.8371
 176  580.9776
 177  406.4268
 178  414.4554
 179  372.9868
 180  327.1163
 181  283.7383
 182  346.8136
 183  464.2245
 184  357.9314
 185  332.2022
 186  328.5724
 187  409.6405
 188  437.6678
 189  447.835
 190  444.9481
 191  537.761
 192  550.1476
 193  405.6305
 194  301.2071
 195  445.8135
 196  369.7832
 197  307.4214
 198  346.656
 199  415.3549
 200  548.4923
 201  466.7436
 202  444.8639
 203  413.3845
 204  544.2128
 205  305.9729
 206  268.8981
 207  379.8407
 208  556.3911
 209  458.4018
 210  502.2755
 211  406.35
 212  259.6276
 213  453.1001
 214  417.3545
 215  365.2952
 216  322.6399
 217  333.7711
 218  449.1096
 219  511.0982
 220  491.0346
 221  452.5344
 222  549.6516
 223  529.5989
 224  360.5124
 225  275.7029
 226  311.6369
 227  438.2204
 228  326.744
 229  276.8078
 230  312.6889
 231  354.8224
 232  250.9184
 233  312.3146
 234  479.8316
 235  360.8203
 236  379.2029
 237  342.8118
 238  396.6851
 239  375.0963
 240  270.3235
 241  390.6985
 242  459.0589
 243  567.3832
 244  549.7943
 245  457.1086
 246  415.7938
 247  471.8676
 248  435.964
 249  369.345
 250  487.324
 251  471.6165
 252  336.6288
 253  322.9118
 254  384.0292
 255  335.3681
 256  338.2052
 257  380.1008
 258  397.5177
 259  450.745
 260  424.8585
 261  444.5419
 262  433.338
 263  356.2013
 264  510.2558
 265  514.4761
 266  407.4689
 267  301.9182
 268  344.9225
 269  399.8346
 270  349.5366
 271  319.2119
 272  365.8331
 273  370.2233
 274  324.5251
 275  343.3252
 276  471.9604
 277  544.2862
 278  404.597
 279  311.0762
 280  306.1832
 281  318.0147
 282  332.2285
 283  238.2403
 284  306.276
 285  441.7828
 286  480.0022
 287  307.788
 288  326.0745
 289  229.555
 290  301.2348
 291  395.0141
 292  450.7411
 293  446.8329
 294  427.8732
 295  285.9236
 296  345.143
 297  385.061
 298  518.5068
 299  435.6648
 300  424.847
 301  516.3109
 302  433.6209
 303  385.5507
 304  387.0551
 305  424.1624
 306  339.1828
 307  437.3994
 308  514.4023
 309  476.4415
 310  515.0275
 311  450.2671
 312  463.1785
 313  544.7002
 314  471.3538
 315  412.36
 316  456.0266
 317  540.1174
 318  383.5495
 319  302.2744
 320  315.241
 321  545.8456
 322  518.8616
 323  350.5938
 324  453.1818
 325  464.8216
 326  469.7823
 327  364.5023
 328  351.556
 329  355.4312
 330  411.1985
 331  395.455
 332  417.4817
 333  443.0981
 334  396.8142
 335  362.799
 336  404.7282
 337  374.3422
 338  362.1206
 339  316.2217
 340  335.8042
 341  362.2342
 342  382.8732
 343  361.2365
 344  348.0175
 345  288.3502
 346  282.6889
 347  352.1488
 348  436.9427
 349  466.4651
 350  380.833
 351  388.1863
 352  417.6994
 353  316.4626
 354  374.424
 355  342.4743
 356  309.3624
 357  313.5776
 358  411.5877
 359  432.5441
 360  374.9517
 361  241.2811
 362  219.1193
 363  249.0694
 364  350.7766
 365  354.6946
 366  412.903
 367  487.8445
 368  524.1826
 369  360.6774
 370  483.53
 371  482.9365
 372  316.364
 373  425.0099
 374  420.7157
 375  368.9778
 376  363.0894
 377  427.4837
 378  392.2403
 379  344.6937
 380  350.9942
 381  423.3691
 382  497.9844
 383  479.8996
 384  443.7443
 385  319.2748
 386  370.19
 387  494.3708
 388  380.7772
 389  497.2505
 390  490.2465
 391  499.4335
 392  438.0019
 393  380.3667
 394  449.9013
 395  480.5053
 396  524.0978
 397  374.8868
 398  495.6459
 399  423.1384
 400  397.5072
 401  444.0122
 402  443.3158
 403  421.2226
 404  360.8965
 405  350.5763
 406  394.8096
 407  429.9472
 408  394.8565
 409  338.5028
 410  425.6226
 411  400.3065
 412  388.9749
 413  260.5899
 414  238.9191
 415  267.7524
 416  427.1791
 417  378.787
 418  279.3952
 419  397.7955
 420  393.8001
 421  349.887
 422  351.2855
 423  358.011
 424  380.0124
 425  433.3456
 426  447.0884
 427  383.4871
 428  400.7594
 429  381.8211
 430  446.4597
 431  411.2098
 432  442.5413
 433  421.7744
 434  457.8364
 435  322.7085
 436  403.2762
 437  384.6631
 438  354.0804
 439  365.8112
 440  358.6149
 441  305.5209
 442  293.3145
 443  200.3953
 444  378.0093
 445  405.6665
 446  378.2942
 447  367.1835
 448  414.0273
 449  498.1748
 450  489.1566
 451  470.6557
 452  378.3268
 453  254.4632
 454  257.5714
 455  321.7966
 456  328.8484
 457  316.7343
 458  288.6299
 459  417.2125
 460  382.6373
 461  286.6009
 462  342.696
 463  475.8681
 464  410.0709
 465  400.1109
 466  317.3257
 467  454.8777
 468  467.4945
 469  457.4798
 470  469.7689
 471  370.71
 472  432.8874
 473  465.2843
 474  415.9838
 475  406.9911
 476  440.6005
 477  518.806
 478  410.6705
 479  321.6342
 480  317.8384
 481  322.5432
 482  251.645
 483  377.7607
 484  419.9951
 485  401.3615
 486  234.2553
 487  188.751
 488  278.3931
 489  234.5202
 490  253.4611
 491  106.9933
 492  245.2423
 493  375.4348
 494  430.8256
 495  510.7406
 496  435.7966
 497  440.7012
 498  283.5002
 499  296.3293
 500  400.1656
 501  465.6244
 502  465.684
 503  344.0201
 504  381.5408
 505  338.8734
 506  426.3859
 507  436.3046
 508  556.5939
 509  704.5306
 510  726.4149
 511  837.3967
