# Input file       =  1195416006.108325_cleaned.dat
# Candidate        =  PSR_0332+5434
# Telescope        =  AR
# Epoch_topo       =  58079.833195698207
# Epoch_bary       =  N/A
# T_sample         =  0.002
# Data Folded      =  7340032
# Data Avg         =  0.112581910932039
# Data StdDev      =  1.00030286633317 
# Profile Bins     =  512
# Profile Avg      =  1613.95656138584 
# Profile StdDev   =  119.769299482452 
# Reduced chi-sqr  =  0.580
# Prob(Noise)      <  1   (~0.0 sigma)
# P_topo (ms)      =  714.517230513188  +/- 6.26e-05
# P'_topo (s/s)    =  -0                +/- 3.31e-11
# P''_topo (s/s^2) =  0                 +/- 1.46e-14
# P_bary (ms)      =  N/A
# P'_bary (s/s)    =  N/A
# P''_bary (s/s^2) =  N/A
# P_orb (s)        =  N/A
# asin(i)/c (s)    =  N/A
# eccentricity     =  N/A
# w (rad)          =  N/A
# T_peri           =  N/A
######################################################
   0  1853.346
   1  1788.001
   2  1738.208
   3  1647.402
   4  1638.807
   5  1598.172
   6  1533.792
   7  1538.848
   8  1555.482
   9  1554.942
  10  1537.187
  11  1564.596
  12  1559.026
  13  1637.78
  14  1604.469
  15  1634.263
  16  1611.853
  17  1711.721
  18  1756.274
  19  1679.531
  20  1628.51
  21  1497.08
  22  1533.11
  23  1608.508
  24  1661.781
  25  1580.246
  26  1584.34
  27  1625.941
  28  1636.204
  29  1560.363
  30  1596.845
  31  1646.119
  32  1681.932
  33  1681.035
  34  1650.557
  35  1615.497
  36  1551.631
  37  1606.527
  38  1689.947
  39  1689.726
  40  1704.812
  41  1737.488
  42  1690.937
  43  1722.035
  44  1702.607
  45  1689.106
  46  1668.53
  47  1728.084
  48  1721.368
  49  1683.266
  50  1675.907
  51  1680.632
  52  1616.577
  53  1651.206
  54  1576.299
  55  1549.67
  56  1582.078
  57  1634.584
  58  1536.125
  59  1517.683
  60  1597.047
  61  1592.275
  62  1525.337
  63  1536.216
  64  1560.758
  65  1590.477
  66  1611.159
  67  1617.194
  68  1636.34
  69  1602.816
  70  1677.971
  71  1683.624
  72  1606.615
  73  1580.673
  74  1645.746
  75  1675.88
  76  1641.322
  77  1689.913
  78  1661.597
  79  1562.124
  80  1520.767
  81  1549.11
  82  1601.231
  83  1587.16
  84  1687.999
  85  1695.061
  86  1633.185
  87  1596.021
  88  1572.83
  89  1589.435
  90  1560.773
  91  1506.022
  92  1613.503
  93  1621.556
  94  1586.331
  95  1587.386
  96  1526.843
  97  1589.707
  98  1620.783
  99  1670.078
 100  1735.24
 101  1666.035
 102  1663.898
 103  1608.816
 104  1605.527
 105  1593.987
 106  1687.957
 107  1630.531
 108  1589.413
 109  1625.728
 110  1614.74
 111  1604.484
 112  1698.424
 113  1662.915
 114  1654.867
 115  1596.975
 116  1523.8
 117  1631.793
 118  1685.143
 119  1729.88
 120  1651.691
 121  1626.455
 122  1620.263
 123  1552.528
 124  1600.123
 125  1566.943
 126  1624.19
 127  1598.491
 128  1681.472
 129  1622.843
 130  1571.816
 131  1527.385
 132  1525.897
 133  1594.693
 134  1589.149
 135  1554.643
 136  1612.482
 137  1596.372
 138  1630.672
 139  1612.145
 140  1548.255
 141  1563.545
 142  1650.616
 143  1642.172
 144  1572.362
 145  1525.135
 146  1554.331
 147  1582.485
 148  1594.845
 149  1607.477
 150  1522.058
 151  1544.152
 152  1620.156
 153  1710.467
 154  1586.077
 155  1638.625
 156  1673.166
 157  1730.754
 158  1704.206
 159  1666.333
 160  1692.965
 161  1646.903
 162  1630.361
 163  1680.327
 164  1662.495
 165  1537.457
 166  1545.449
 167  1651.083
 168  1643.37
 169  1608.608
 170  1635.268
 171  1735.256
 172  1643.083
 173  1484.063
 174  1478.164
 175  1598.036
 176  1630.603
 177  1639.685
 178  1667.774
 179  1665.388
 180  1579.007
 181  1621.333
 182  1659.234
 183  1596.79
 184  1633.7
 185  1651.504
 186  1621.838
 187  1536.292
 188  1602.233
 189  1594.092
 190  1623.412
 191  1640.822
 192  1651.208
 193  1653.317
 194  1706.031
 195  1662.97
 196  1682.299
 197  1669.104
 198  1582.119
 199  1709.402
 200  1760.913
 201  1622.404
 202  1557.373
 203  1602.505
 204  1710.41
 205  1654.631
 206  1646.087
 207  1683.916
 208  1569.298
 209  1549.821
 210  1615.129
 211  1631.764
 212  1628.875
 213  1654.254
 214  1681.184
 215  1614.602
 216  1547.805
 217  1573.012
 218  1551.776
 219  1660.546
 220  1607.408
 221  1517.258
 222  1452.438
 223  1434.12
 224  1505.569
 225  1427.331
 226  1522.324
 227  1664.473
 228  1677.858
 229  1654.036
 230  1556.044
 231  1502.675
 232  1460.532
 233  1544.558
 234  1467.836
 235  1484.586
 236  1511.109
 237  1621.665
 238  1652.314
 239  1633.69
 240  1560.47
 241  1564.308
 242  1655.24
 243  1602.088
 244  1521.147
 245  1524.912
 246  1602.458
 247  1620.737
 248  1568.146
 249  1577.164
 250  1614.359
 251  1605.555
 252  1565.966
 253  1653.258
 254  1672.064
 255  1589.417
 256  1624.883
 257  1660.578
 258  1678.756
 259  1656.964
 260  1610.017
 261  1563.655
 262  1609.049
 263  1676.048
 264  1677.166
 265  1680.825
 266  1650.91
 267  1696.234
 268  1607.313
 269  1614.377
 270  1639.189
 271  1653.63
 272  1638.999
 273  1672.827
 274  1605.55
 275  1634.844
 276  1628.242
 277  1678.053
 278  1598.309
 279  1520.175
 280  1613.319
 281  1649.937
 282  1640.977
 283  1615.907
 284  1585.506
 285  1707.347
 286  1738.024
 287  1649.156
 288  1537.6
 289  1547.27
 290  1613.587
 291  1507.832
 292  1475.615
 293  1512.705
 294  1589.334
 295  1667.812
 296  1715.995
 297  1612.876
 298  1665.862
 299  1634.531
 300  1749.15
 301  1738.503
 302  1607.083
 303  1630.792
 304  1499.806
 305  1529.6
 306  1563.627
 307  1711.618
 308  1669.263
 309  1599.668
 310  1686.155
 311  1672.867
 312  1687.708
 313  1626.206
 314  1686.282
 315  1696.165
 316  1606.538
 317  1602.979
 318  1554.849
 319  1542.802
 320  1618.743
 321  1629.384
 322  1590.488
 323  1563.605
 324  1732.351
 325  1755.363
 326  1565.281
 327  1651.443
 328  1676.019
 329  1676.684
 330  1612.744
 331  1578.417
 332  1616.965
 333  1616.976
 334  1634.18
 335  1603.901
 336  1565.667
 337  1526.559
 338  1615.201
 339  1665.299
 340  1575.927
 341  1545.625
 342  1706.255
 343  1710.032
 344  1639.767
 345  1602.12
 346  1659.886
 347  1675.124
 348  1569.018
 349  1536.589
 350  1580.189
 351  1551.393
 352  1559.346
 353  1618.184
 354  1599.12
 355  1591.847
 356  1499.093
 357  1572.85
 358  1715.589
 359  1596.413
 360  1574.383
 361  1554.876
 362  1538.348
 363  1542.08
 364  1567.225
 365  1592.212
 366  1553.912
 367  1549.58
 368  1638.322
 369  1527.286
 370  1450.281
 371  1594.736
 372  1665.86
 373  1554.087
 374  1475.499
 375  1509.262
 376  1559.764
 377  1561.609
 378  1581.178
 379  1568.755
 380  1529.224
 381  1544.424
 382  1675.004
 383  1706.685
 384  1675.483
 385  1741.025
 386  1768.032
 387  1639.903
 388  1520.191
 389  1517.496
 390  1546.405
 391  1560.488
 392  1618.439
 393  1644.9
 394  1624.18
 395  1577.34
 396  1559.802
 397  1519.478
 398  1520.489
 399  1468.6
 400  1618.963
 401  1722.932
 402  1684.834
 403  1668.186
 404  1648.733
 405  1606.703
 406  1575.988
 407  1577.189
 408  1534.397
 409  1585.05
 410  1610.2
 411  1650.488
 412  1465.772
 413  1360.3
 414  1557.293
 415  1612.619
 416  1534.536
 417  1610.834
 418  1610.805
 419  1618.12
 420  1549.495
 421  1618.504
 422  1684.62
 423  1694.619
 424  1711.974
 425  1773.55
 426  1655.513
 427  1581.506
 428  1630.397
 429  1654.849
 430  1707.689
 431  1642.635
 432  1668.789
 433  1714.459
 434  1727.696
 435  1696.141
 436  1605.501
 437  1556.915
 438  1539.443
 439  1654.198
 440  1586.81
 441  1554.131
 442  1555.208
 443  1596.85
 444  1504.906
 445  1522.622
 446  1583.205
 447  1655.123
 448  1677.23
 449  1582.114
 450  1636.512
 451  1626.298
 452  1685.308
 453  1663.944
 454  1606.256
 455  1547.669
 456  1564.545
 457  1642.983
 458  1716.473
 459  1560.931
 460  1546.738
 461  1489.089
 462  1641.784
 463  1577.841
 464  1663.222
 465  1696.678
 466  1620.45
 467  1621.729
 468  1615.592
 469  1578.32
 470  1545.001
 471  1522.56
 472  1651.31
 473  1645.217
 474  1592.509
 475  1639.379
 476  1636.248
 477  1561.165
 478  1596.105
 479  1599.055
 480  1659.54
 481  1574.839
 482  1613.414
 483  1681.16
 484  1662.562
 485  1663.762
 486  1654.911
 487  1738.966
 488  1613.073
 489  1580.205
 490  1620.873
 491  1606.884
 492  1618.312
 493  1597.343
 494  1570.09
 495  1593.87
 496  1527.772
 497  1566.024
 498  1591.211
 499  1606.046
 500  1641.062
 501  1612.771
 502  1569.076
 503  1506.423
 504  1494.468
 505  1619.374
 506  1631.729
 507  1574.198
 508  1602.511
 509  1674.162
 510  1808.905
 511  1881.206
