# Input file       =  1195258620.102966_cleaned.dat
# Candidate        =  PSR_0332+5434
# Telescope        =  AR
# Epoch_topo       =  58078.011598413956
# Epoch_bary       =  N/A
# T_sample         =  0.002
# Data Folded      =  7340032
# Data Avg         =  0.0179217110361209
# Data StdDev      =  1.00023646339268 
# Profile Bins     =  512
# Profile Avg      =  256.955022367595 
# Profile StdDev   =  119.761348856764 
# Reduced chi-sqr  =  0.519
# Prob(Noise)      <  1   (~0.0 sigma)
# P_topo (ms)      =  714.515687157592  +/- 0.000544
# P'_topo (s/s)    =  -0                +/- 2.87e-10
# P''_topo (s/s^2) =  0                 +/- 1.27e-13
# P_bary (ms)      =  N/A
# P'_bary (s/s)    =  N/A
# P''_bary (s/s^2) =  N/A
# P_orb (s)        =  N/A
# asin(i)/c (s)    =  N/A
# eccentricity     =  N/A
# w (rad)          =  N/A
# T_peri           =  N/A
######################################################
   0  371.8825
   1  418.6891
   2  407.4473
   3  326.9019
   4  233.4644
   5  223.6789
   6  206.9657
   7  179.6196
   8  171.6471
   9  259.1895
  10  157.1582
  11  145.7017
  12  197.3029
  13  201.1249
  14  181.975
  15  207.2069
  16  230.9458
  17  169.8633
  18  157.6777
  19  409.5704
  20  253.2014
  21  203.648
  22  171.0993
  23  197.5947
  24  217.9511
  25  206.164
  26  291.5555
  27  258.0497
  28  289.2015
  29  210.4096
  30  166.2225
  31  246.0395
  32  208.6567
  33  264.2524
  34  302.3521
  35  209.3483
  36  262.4755
  37  260.3884
  38  238.8551
  39  248.0939
  40  325.3455
  41  291.7958
  42  262.9899
  43  357.5575
  44  312.9345
  45  346.6391
  46  348.1517
  47  314.179
  48  433.866
  49  353.2636
  50  286.649
  51  230.7436
  52  212.7512
  53  250.372
  54  284.8051
  55  396.9346
  56  389.2851
  57  258.6105
  58  356.3677
  59  363.2962
  60  306.4395
  61  327.0803
  62  371.9729
  63  350.7736
  64  214.4365
  65  257.6956
  66  243.1926
  67  184.0182
  68  197.1288
  69  283.7612
  70  228.5082
  71  209.0863
  72  237.519
  73  241.6807
  74  241.7908
  75  349.5518
  76  301.8891
  77  295.15
  78  313.8142
  79  278.3994
  80  253.2532
  81  253.9141
  82  157.507
  83  183.8454
  84  246.4711
  85  146.2542
  86  121.9738
  87  172.6835
  88  257.1498
  89  189.4373
  90  229.5685
  91  293.2219
  92  204.4798
  93  230.506
  94  199.1891
  95  205.584
  96  237.7938
  97  272.9467
  98  225.6087
  99  247.6607
 100  173.8771
 101  270.0656
 102  285.5335
 103  356.2867
 104  282.4045
 105  327.6826
 106  279.9289
 107  249.0099
 108  248.2499
 109  230.8181
 110  233.2229
 111  318.9865
 112  350.6036
 113  342.3056
 114  292.1556
 115  276.4955
 116  235.6743
 117  295.0261
 118  276.9439
 119  246.6658
 120  293.5037
 121  307.8005
 122  362.8255
 123  327.597
 124  340.2495
 125  263.3779
 126  232.9303
 127  303.6956
 128  249.1667
 129  289.373
 130  280.9518
 131  207.1807
 132  232.8237
 133  246.4528
 134  273.8908
 135  200.3899
 136  124.8788
 137  193.5431
 138  215.3595
 139  192.3031
 140  296.0696
 141  304.2134
 142  324.0562
 143  219.4492
 144  301.8911
 145  277.0754
 146  308.5741
 147  263.8183
 148  256.726
 149  205.9142
 150  188.0031
 151  270.4625
 152  206.8168
 153  275.2569
 154  260.9317
 155  299.5124
 156  222.1289
 157  160.51
 158  228.9849
 159  298.2556
 160  350.8678
 161  305.1813
 162  326.2041
 163  341.6085
 164  318.8632
 165  286.5366
 166  273.0332
 167  213.4893
 168  179.5683
 169  189.8857
 170  205.25
 171  207.4121
 172  259.381
 173  218.8559
 174  196.8885
 175  203.0019
 176  289.9044
 177  307.258
 178  289.8729
 179  282.1496
 180  369.2657
 181  379.6834
 182  389.2707
 183  301.3714
 184  273.6291
 185  314.4076
 186  312.9202
 187  258.0641
 188  278.1564
 189  349.1994
 190  335.5277
 191  374.9303
 192  376.5629
 193  268.2481
 194  226.89
 195  140.4875
 196  215.163
 197  227.213
 198  367.5581
 199  320.5474
 200  303.6249
 201  378.3259
 202  322.291
 203  310.5719
 204  296.6298
 205  286.8532
 206  315.8062
 207  345.8391
 208  332.4078
 209  266.5818
 210  266.3348
 211  306.855
 212  314.1062
 213  294.7403
 214  228.241
 215  263.6288
 216  237.908
 217  171.9183
 218  231.2382
 219  188.1629
 220  156.8868
 221  150.1886
 222  186.9086
 223  241.536
 224  282.2142
 225  253.0704
 226  195.6979
 227  277.5836
 228  233.9247
 229  142.2432
 230  201.864
 231  163.2022
 232  146.6575
 233  98.21191
 234  209.2937
 235  270.1785
 236  233.9159
 237  225.4528
 238  226.5337
 239  286.4466
 240  310.9671
 241  363.7704
 242  290.3572
 243  276.5575
 244  304.9102
 245  274.3945
 246  237.0421
 247  248.7814
 248  321.9474
 249  321.1381
 250  254.7219
 251  306.6546
 252  221.5881
 253  239.9487
 254  285.9233
 255  357.9985
 256  358.2766
 257  230.7893
 258  228.0508
 259  313.6566
 260  290.1047
 261  217.0744
 262  140.7802
 263  225.6482
 264  178.8987
 265  215.0598
 266  267.9938
 267  309.5768
 268  209.0329
 269  222.315
 270  251.6743
 271  212.5634
 272  240.5841
 273  313.3169
 274  232.5887
 275  262.9463
 276  242.1182
 277  297.0631
 278  234.0372
 279  120.9722
 280  184.026
 281  162.2467
 282  214.8048
 283  239.0712
 284  243.112
 285  183.2125
 286  175.6988
 287  234.6439
 288  244.1464
 289  237.2086
 290  193.3748
 291  289.5774
 292  316.4584
 293  248.1792
 294  230.0106
 295  262.7263
 296  215.3669
 297  203.8857
 298  229.3172
 299  271.9674
 300  192.2656
 301  208.2251
 302  194.9087
 303  157.9863
 304  219.4468
 305  255.5692
 306  252.8391
 307  230.9447
 308  254.4288
 309  245.6851
 310  173.2294
 311  237.9561
 312  310.9267
 313  346.3781
 314  250.5343
 315  258.2763
 316  402.4157
 317  389.2719
 318  342.8413
 319  297.2702
 320  332.7278
 321  315.1216
 322  287.2884
 323  354.0274
 324  330.958
 325  284.0243
 326  251.6875
 327  258.8426
 328  234.1872
 329  229.2267
 330  211.5266
 331  233.036
 332  219.1022
 333  298.9721
 334  258.988
 335  345.9485
 336  347.4844
 337  372.8611
 338  315.6448
 339  329.3276
 340  385.1562
 341  389.2969
 342  338.2332
 343  320.1392
 344  339.0113
 345  348.279
 346  280.6146
 347  332.2824
 348  280.3233
 349  269.0106
 350  226.729
 351  204.2425
 352  234.0845
 353  175.4371
 354  160.9908
 355  204.0276
 356  202.844
 357  125.7552
 358  181.7358
 359  350.85
 360  218.233
 361  185.7444
 362  217.471
 363  221.8743
 364  204.8846
 365  203.731
 366  287.2232
 367  237.5711
 368  241.022
 369  295.2902
 370  274.3822
 371  281.7336
 372  267.5665
 373  251.1831
 374  241.4165
 375  252.9801
 376  231.8332
 377  308.5702
 378  299.3314
 379  191.1872
 380  146.0243
 381  263.3194
 382  206.8506
 383  165.2684
 384  156.8965
 385  174.399
 386  152.3934
 387  141.2381
 388  205.9267
 389  191.9683
 390  189.6693
 391  167.4584
 392  287.9271
 393  186.5241
 394  187.0754
 395  223.7154
 396  212.503
 397  253.2632
 398  321.1089
 399  318.4233
 400  289.6295
 401  267.3786
 402  324.0708
 403  230.9063
 404  180.3133
 405  214.5791
 406  238.0666
 407  294.9698
 408  281.5891
 409  378.8741
 410  333.8194
 411  343.1448
 412  339.1272
 413  276.9334
 414  219.9847
 415  294.2685
 416  376.587
 417  295.4409
 418  291.6413
 419  266.6586
 420  183.4414
 421  186.2206
 422  312.384
 423  217.4993
 424  284.2286
 425  352.3579
 426  287.7964
 427  329.554
 428  342.9051
 429  303.4115
 430  337.9651
 431  319.8038
 432  294.0013
 433  330.7769
 434  302.177
 435  403.512
 436  256.6631
 437  216.4068
 438  202.1914
 439  139.654
 440  135.8206
 441  141.2532
 442  197.9266
 443  213.4277
 444  139.7966
 445  212.234
 446  223.8881
 447  230.1839
 448  190.1134
 449  161.8709
 450  218.7225
 451  239.9243
 452  299.6606
 453  233.8342
 454  176.0777
 455  263.6143
 456  213.63
 457  246.0656
 458  158.2807
 459  185.9947
 460  212.1856
 461  97.91467
 462  142.359
 463  180.6501
 464  266.5353
 465  168.1181
 466  220.0119
 467  287.5729
 468  213.3655
 469  291.8245
 470  300.9991
 471  390.7785
 472  345.4518
 473  209.8209
 474  266.3029
 475  253.646
 476  278.8142
 477  235.6367
 478  291.8094
 479  289.8182
 480  276.533
 481  182.0605
 482  172.264
 483  182.2612
 484  244.1351
 485  267.4793
 486  269.4237
 487  178.8595
 488  238.6161
 489  241.8777
 490  208.8305
 491  227.1225
 492  269.5004
 493  278.1024
 494  223.4509
 495  258.6346
 496  278.2935
 497  250.4135
 498  184.9849
 499  213.7767
 500  225.5598
 501  296.9344
 502  316.1077
 503  241.3199
 504  257.5049
 505  215.0748
 506  162.8902
 507  224.3616
 508  266.6815
 509  333.2283
 510  393.5107
 511  406.5327
