# Input file       =  1195401358.114898_cleaned.dat
# Candidate        =  PSR_0332+5434
# Telescope        =  AR
# Epoch_topo       =  58079.663658737241
# Epoch_bary       =  N/A
# T_sample         =  0.002
# Data Folded      =  7208960
# Data Avg         =  0.119127820564212
# Data StdDev      =  1.00042990169626 
# Profile Bins     =  512
# Profile Avg      =  1677.28763044203 
# Profile StdDev   =  118.710187574482 
# Reduced chi-sqr  =  0.461
# Prob(Noise)      <  1   (~0.0 sigma)
# P_topo (ms)      =  714.51703297061   +/- 0.00505
# P'_topo (s/s)    =  -0                +/- 2.71e-09
# P''_topo (s/s^2) =  0                 +/- 1.22e-12
# P_bary (ms)      =  N/A
# P'_bary (s/s)    =  N/A
# P''_bary (s/s^2) =  N/A
# P_orb (s)        =  N/A
# asin(i)/c (s)    =  N/A
# eccentricity     =  N/A
# w (rad)          =  N/A
# T_peri           =  N/A
######################################################
   0  1881.386
   1  1907.238
   2  1883.788
   3  1869.225
   4  1843.191
   5  1770.531
   6  1740.259
   7  1763.962
   8  1719.902
   9  1706.945
  10  1668.299
  11  1682.556
  12  1699.671
  13  1669.031
  14  1635.017
  15  1616.06
  16  1676.774
  17  1643.246
  18  1627.626
  19  1631.997
  20  1733.791
  21  1779.062
  22  1765.659
  23  1677.064
  24  1597.962
  25  1619.426
  26  1717.973
  27  1589.271
  28  1591.846
  29  1713.659
  30  1708.541
  31  1756.827
  32  1734.677
  33  1706.176
  34  1651.299
  35  1686.557
  36  1645.121
  37  1619.161
  38  1607.647
  39  1607.624
  40  1669.55
  41  1680.286
  42  1704.677
  43  1662.998
  44  1641.159
  45  1687.117
  46  1640.743
  47  1654.707
  48  1641.439
  49  1736.866
  50  1752.222
  51  1700.63
  52  1647.821
  53  1650.858
  54  1667.069
  55  1694.296
  56  1718.877
  57  1661.729
  58  1656.43
  59  1664.649
  60  1752.11
  61  1699.151
  62  1651.227
  63  1657.96
  64  1661.267
  65  1646.493
  66  1703.258
  67  1668.131
  68  1660.715
  69  1654.662
  70  1647.723
  71  1670.583
  72  1626.001
  73  1609.692
  74  1669.533
  75  1694.865
  76  1642.45
  77  1545.747
  78  1627.844
  79  1624.462
  80  1679.81
  81  1651.132
  82  1695.251
  83  1707.299
  84  1647.976
  85  1636.871
  86  1648.369
  87  1617.122
  88  1701.664
  89  1696.848
  90  1828.603
  91  1738.105
  92  1757.903
  93  1771.793
  94  1683.532
  95  1583.899
  96  1588.757
  97  1633.417
  98  1699.278
  99  1707.543
 100  1694.146
 101  1645.182
 102  1603.057
 103  1607.21
 104  1608.847
 105  1656.367
 106  1638.936
 107  1679.152
 108  1669.209
 109  1696.672
 110  1671.618
 111  1696.352
 112  1673.334
 113  1679.12
 114  1630.933
 115  1669.045
 116  1677.003
 117  1733.406
 118  1711.276
 119  1765.135
 120  1717.298
 121  1672.072
 122  1680.188
 123  1661.147
 124  1659.546
 125  1658.844
 126  1654.077
 127  1672.424
 128  1670.949
 129  1651.609
 130  1652.734
 131  1689.394
 132  1653.478
 133  1662.897
 134  1724.23
 135  1707.459
 136  1683.845
 137  1684.812
 138  1724.149
 139  1704.825
 140  1650.336
 141  1786.743
 142  1705.98
 143  1676.699
 144  1618.837
 145  1743.318
 146  1751.039
 147  1757.532
 148  1667.182
 149  1693.248
 150  1709.798
 151  1628.518
 152  1690.073
 153  1634.92
 154  1559.851
 155  1623.671
 156  1688.251
 157  1656.603
 158  1563.752
 159  1625.36
 160  1702.783
 161  1600.271
 162  1718.859
 163  1697.534
 164  1639.802
 165  1679.469
 166  1655.459
 167  1754.46
 168  1765.544
 169  1742.717
 170  1848.082
 171  1758.901
 172  1657.538
 173  1673.58
 174  1659.214
 175  1644.148
 176  1665.378
 177  1632.191
 178  1685.121
 179  1651.747
 180  1608.195
 181  1636.063
 182  1598.109
 183  1612.143
 184  1738.474
 185  1680.458
 186  1628.349
 187  1569.294
 188  1569.91
 189  1595.294
 190  1574.939
 191  1689.714
 192  1631.286
 193  1690.419
 194  1644.391
 195  1657.885
 196  1681.474
 197  1636.901
 198  1679.262
 199  1676.99
 200  1657.229
 201  1617.352
 202  1612.184
 203  1731.289
 204  1607.27
 205  1629.316
 206  1720.934
 207  1649.452
 208  1636.249
 209  1563.543
 210  1597.719
 211  1605.985
 212  1632.089
 213  1687.718
 214  1636.686
 215  1629.148
 216  1658.994
 217  1727.296
 218  1635.257
 219  1644.583
 220  1668.472
 221  1632.704
 222  1579.373
 223  1595.153
 224  1709.776
 225  1655.231
 226  1570.472
 227  1660.893
 228  1678.125
 229  1761.692
 230  1659.027
 231  1705.461
 232  1683.75
 233  1584.949
 234  1618.903
 235  1606.501
 236  1661.109
 237  1663.495
 238  1705.601
 239  1699.606
 240  1688.723
 241  1668.955
 242  1716.52
 243  1732.248
 244  1597.054
 245  1641.067
 246  1665.665
 247  1664.159
 248  1610.477
 249  1714.692
 250  1713.483
 251  1666.221
 252  1693.309
 253  1698.095
 254  1639.825
 255  1640.503
 256  1689.815
 257  1616.24
 258  1648.394
 259  1625.544
 260  1623.412
 261  1628.445
 262  1648.817
 263  1598.227
 264  1591.875
 265  1611.596
 266  1578.177
 267  1553.957
 268  1533.239
 269  1633.026
 270  1669.779
 271  1627.181
 272  1581.051
 273  1550.316
 274  1622.32
 275  1734.768
 276  1726.393
 277  1721.776
 278  1706.89
 279  1668.945
 280  1669.08
 281  1732.585
 282  1635.041
 283  1585.852
 284  1650.384
 285  1639.803
 286  1661.472
 287  1657.188
 288  1635.713
 289  1685.244
 290  1747.599
 291  1746.407
 292  1667.192
 293  1576.25
 294  1559.909
 295  1678.957
 296  1675.014
 297  1551.44
 298  1631.974
 299  1662.259
 300  1536.668
 301  1559.968
 302  1605.373
 303  1658.181
 304  1604.684
 305  1648.921
 306  1724.409
 307  1776.826
 308  1752.159
 309  1698.114
 310  1639.297
 311  1581.611
 312  1637.045
 313  1620.074
 314  1628.961
 315  1662.427
 316  1586.732
 317  1633.226
 318  1676.159
 319  1640.101
 320  1655.166
 321  1639.357
 322  1616.483
 323  1661.279
 324  1694.874
 325  1727.76
 326  1640.958
 327  1685.262
 328  1704.983
 329  1617.787
 330  1611.76
 331  1632.927
 332  1687.514
 333  1688.276
 334  1644.463
 335  1647.882
 336  1600.935
 337  1686.399
 338  1678.139
 339  1701.275
 340  1689.924
 341  1627.523
 342  1598.523
 343  1622.805
 344  1623.269
 345  1606.614
 346  1652.258
 347  1548.855
 348  1637.341
 349  1706.957
 350  1676.01
 351  1694.481
 352  1688.743
 353  1716.608
 354  1627.995
 355  1569.783
 356  1714.511
 357  1658.629
 358  1620.461
 359  1678.332
 360  1683.444
 361  1682.104
 362  1757.58
 363  1801.576
 364  1746.084
 365  1626.064
 366  1664.886
 367  1741.855
 368  1694.633
 369  1741.933
 370  1655.886
 371  1651.097
 372  1642.453
 373  1667.231
 374  1666.581
 375  1671.668
 376  1746.452
 377  1650.82
 378  1705.534
 379  1737.312
 380  1805.761
 381  1768.139
 382  1746.588
 383  1715.483
 384  1781.156
 385  1729.129
 386  1695.647
 387  1720.35
 388  1737.552
 389  1773.905
 390  1807.553
 391  1718.748
 392  1686.793
 393  1697.201
 394  1719.59
 395  1757.495
 396  1710.635
 397  1705.655
 398  1671.225
 399  1687.558
 400  1719.724
 401  1711.211
 402  1633.685
 403  1658.395
 404  1732.566
 405  1685.56
 406  1688.49
 407  1615.551
 408  1618.443
 409  1657.492
 410  1668.623
 411  1678.972
 412  1681.919
 413  1751.311
 414  1774.776
 415  1794.306
 416  1741.947
 417  1706.399
 418  1725.982
 419  1660.682
 420  1700.548
 421  1628.206
 422  1692.191
 423  1737.146
 424  1725.717
 425  1649.437
 426  1634.384
 427  1739.497
 428  1761.882
 429  1773.047
 430  1751.632
 431  1742.818
 432  1737.932
 433  1670.403
 434  1721.504
 435  1697.518
 436  1755.665
 437  1715.783
 438  1739.58
 439  1706.067
 440  1693.717
 441  1711.293
 442  1638.338
 443  1646.865
 444  1687.347
 445  1618.421
 446  1721.271
 447  1795.413
 448  1711.019
 449  1671.401
 450  1719.375
 451  1787.246
 452  1737.438
 453  1755.665
 454  1677.127
 455  1667.773
 456  1685.743
 457  1680.24
 458  1652.02
 459  1708.05
 460  1693.645
 461  1672.262
 462  1677.533
 463  1745.535
 464  1739.358
 465  1681.201
 466  1711.936
 467  1769.427
 468  1654.772
 469  1669.472
 470  1627.121
 471  1768.177
 472  1837.179
 473  1748.475
 474  1678.966
 475  1712.32
 476  1708.016
 477  1711.042
 478  1582.088
 479  1625.361
 480  1706.532
 481  1706.29
 482  1671.36
 483  1693.808
 484  1661.472
 485  1708.452
 486  1802.199
 487  1791.466
 488  1678.792
 489  1615.859
 490  1680.443
 491  1681.834
 492  1724.478
 493  1714.362
 494  1645.503
 495  1664.254
 496  1663.699
 497  1618.343
 498  1650.856
 499  1645.312
 500  1634.046
 501  1582.321
 502  1700.046
 503  1682.408
 504  1728.251
 505  1752.771
 506  1734.313
 507  1729.768
 508  1651.125
 509  1797.055
 510  1870.923
 511  1894.503
