# Input file       =  1195674484.107206_cleaned.dat
# Candidate        =  PSR_0332+5434
# Telescope        =  AR
# Epoch_topo       =  58082.824839203771
# Epoch_bary       =  N/A
# T_sample         =  0.002
# Data Folded      =  7340032
# Data Avg         =  0.114536878845331
# Data StdDev      =  1.00032925537891 
# Profile Bins     =  512
# Profile Avg      =  1642.00728564216 
# Profile StdDev   =  119.772459123026 
# Reduced chi-sqr  =  0.775
# Prob(Noise)      <  1   (~0.0 sigma)
# P_topo (ms)      =  714.520330529568  +/- 7.22e-05
# P'_topo (s/s)    =  -0                +/- 3.81e-11
# P''_topo (s/s^2) =  0                 +/- 1.68e-14
# P_bary (ms)      =  N/A
# P'_bary (s/s)    =  N/A
# P''_bary (s/s^2) =  N/A
# P_orb (s)        =  N/A
# asin(i)/c (s)    =  N/A
# eccentricity     =  N/A
# w (rad)          =  N/A
# T_peri           =  N/A
######################################################
   0  2029.623
   1  1989.865
   2  1850.776
   3  1783.479
   4  1761.587
   5  1746.587
   6  1700.519
   7  1722.353
   8  1722.488
   9  1634.531
  10  1664.841
  11  1665.875
  12  1630.006
  13  1596.308
  14  1554.736
  15  1614.65
  16  1497.187
  17  1593.756
  18  1591.753
  19  1626.907
  20  1556.032
  21  1534.237
  22  1703.27
  23  1726.537
  24  1644.814
  25  1676.79
  26  1726.767
  27  1589.531
  28  1564.429
  29  1607.294
  30  1600.528
  31  1459.79
  32  1440.713
  33  1662.071
  34  1610.306
  35  1517.078
  36  1578.561
  37  1662.083
  38  1700.114
  39  1660.217
  40  1738.354
  41  1750.09
  42  1686.443
  43  1705.387
  44  1702.63
  45  1615.184
  46  1639.76
  47  1622.374
  48  1613.254
  49  1620.976
  50  1609.874
  51  1628.983
  52  1576.374
  53  1630.145
  54  1688.366
  55  1565.257
  56  1635.914
  57  1701.917
  58  1661.542
  59  1605.341
  60  1645.817
  61  1608.497
  62  1725.539
  63  1735.291
  64  1699.668
  65  1623.699
  66  1697.74
  67  1650.162
  68  1567.781
  69  1625.474
  70  1698.95
  71  1651.452
  72  1709.519
  73  1740.181
  74  1686.518
  75  1591.207
  76  1669.529
  77  1682.49
  78  1563.521
  79  1559.331
  80  1726.555
  81  1780.577
  82  1675.822
  83  1602.477
  84  1634.953
  85  1680.965
  86  1651.595
  87  1709.106
  88  1673.186
  89  1592.526
  90  1619.098
  91  1692.737
  92  1663.473
  93  1609.479
  94  1628.724
  95  1603.899
  96  1719.383
  97  1756.322
  98  1775.991
  99  1686.337
 100  1635.176
 101  1619.296
 102  1482.34
 103  1634.303
 104  1713.951
 105  1632.84
 106  1641.979
 107  1627.177
 108  1681.012
 109  1720.81
 110  1694.909
 111  1651.99
 112  1626.237
 113  1613.033
 114  1540.506
 115  1581.636
 116  1570.696
 117  1560.442
 118  1563.727
 119  1655.578
 120  1656.533
 121  1510.601
 122  1562.145
 123  1654.144
 124  1587.334
 125  1556.149
 126  1668.592
 127  1588.263
 128  1539.154
 129  1539.107
 130  1568.753
 131  1483.649
 132  1561.464
 133  1659.933
 134  1675.385
 135  1533.41
 136  1591.598
 137  1692.081
 138  1674.278
 139  1517.532
 140  1538.966
 141  1630.277
 142  1622.016
 143  1583.664
 144  1552.78
 145  1550.358
 146  1576.622
 147  1588.048
 148  1577.625
 149  1617.352
 150  1587.426
 151  1635.531
 152  1575.483
 153  1475.687
 154  1611.611
 155  1632.712
 156  1576.512
 157  1506.003
 158  1504.599
 159  1517.225
 160  1469.074
 161  1538.432
 162  1571.71
 163  1556.993
 164  1653.573
 165  1648.369
 166  1654.735
 167  1623.266
 168  1585.952
 169  1675.137
 170  1541.713
 171  1482.939
 172  1467.808
 173  1607.627
 174  1617.565
 175  1610.279
 176  1671.244
 177  1665.954
 178  1687.347
 179  1612.64
 180  1662.496
 181  1711.061
 182  1726.291
 183  1652.398
 184  1530.459
 185  1534.831
 186  1569.463
 187  1594.796
 188  1560.163
 189  1644.955
 190  1644.165
 191  1618.669
 192  1694.277
 193  1753.06
 194  1745.648
 195  1721.177
 196  1675.718
 197  1663.801
 198  1668.251
 199  1613.883
 200  1617.112
 201  1699.702
 202  1627.048
 203  1592.792
 204  1620.287
 205  1603.916
 206  1564.505
 207  1585.99
 208  1588.556
 209  1639.95
 210  1631.107
 211  1637.335
 212  1689.093
 213  1696.702
 214  1747.834
 215  1782.346
 216  1719.335
 217  1603.534
 218  1579.485
 219  1609.054
 220  1674.305
 221  1608.19
 222  1492.14
 223  1526.874
 224  1595.186
 225  1616.318
 226  1557.671
 227  1514.863
 228  1510.005
 229  1548.135
 230  1591.118
 231  1548.839
 232  1548.323
 233  1786.052
 234  1682.582
 235  1617.221
 236  1597.226
 237  1664.642
 238  1739.478
 239  1611.598
 240  1608.291
 241  1670.104
 242  1603.512
 243  1590.208
 244  1610.313
 245  1556.528
 246  1533.893
 247  1553.506
 248  1641.93
 249  1654.968
 250  1638.761
 251  1577.209
 252  1604.383
 253  1663.219
 254  1641.85
 255  1648.976
 256  1596.009
 257  1596.181
 258  1663.937
 259  1625.844
 260  1566.569
 261  1610.762
 262  1666.574
 263  1617.595
 264  1571.326
 265  1637.67
 266  1671.059
 267  1621.5
 268  1646.903
 269  1685.486
 270  1649.192
 271  1620.405
 272  1589.888
 273  1655.966
 274  1600.538
 275  1576.488
 276  1556.922
 277  1648.162
 278  1717.476
 279  1585.113
 280  1582.202
 281  1631.243
 282  1734.143
 283  1717.217
 284  1657.246
 285  1615.257
 286  1696.592
 287  1663.78
 288  1592.382
 289  1620.256
 290  1535.156
 291  1575.746
 292  1557.33
 293  1510.613
 294  1624.107
 295  1661.387
 296  1604.169
 297  1624.838
 298  1702.875
 299  1620.729
 300  1553.643
 301  1608.02
 302  1606.874
 303  1605.575
 304  1624.572
 305  1655.825
 306  1702.233
 307  1710.79
 308  1733.894
 309  1746.633
 310  1679.734
 311  1546.587
 312  1555.984
 313  1594.846
 314  1660.326
 315  1612.713
 316  1601.771
 317  1668.077
 318  1624.188
 319  1603.032
 320  1593.416
 321  1556.18
 322  1578.362
 323  1599.561
 324  1721.045
 325  1701.934
 326  1734.229
 327  1565.478
 328  1471.55
 329  1535.58
 330  1598.051
 331  1602.619
 332  1443.257
 333  1586.372
 334  1627.886
 335  1601.213
 336  1618.267
 337  1612.908
 338  1667.389
 339  1645.868
 340  1579.196
 341  1645.901
 342  1652.727
 343  1643.216
 344  1657.964
 345  1748.495
 346  1703.977
 347  1665.697
 348  1619.922
 349  1611.582
 350  1620.011
 351  1652.517
 352  1684.646
 353  1702.446
 354  1652.66
 355  1605.863
 356  1624.751
 357  1590.162
 358  1576.357
 359  1611.382
 360  1542.795
 361  1564.798
 362  1623.83
 363  1667.872
 364  1624.429
 365  1621.761
 366  1675.438
 367  1551.998
 368  1649.141
 369  1714.197
 370  1631.109
 371  1505.474
 372  1652.035
 373  1762.377
 374  1685.881
 375  1712.5
 376  1741.677
 377  1701.711
 378  1659.114
 379  1760.438
 380  1789.039
 381  1759.748
 382  1750.402
 383  1671.29
 384  1675.573
 385  1607.756
 386  1599.658
 387  1645.068
 388  1714.455
 389  1667.67
 390  1684.147
 391  1715.885
 392  1675.52
 393  1618.7
 394  1613.941
 395  1659.618
 396  1650.11
 397  1607.093
 398  1739.666
 399  1693.323
 400  1656.714
 401  1707.189
 402  1685.025
 403  1588.03
 404  1580.889
 405  1669.622
 406  1615.74
 407  1605.959
 408  1571.482
 409  1582.334
 410  1657.468
 411  1701.276
 412  1699.993
 413  1667.53
 414  1682.641
 415  1669.873
 416  1672.726
 417  1623.947
 418  1575.632
 419  1614.559
 420  1665.727
 421  1720.379
 422  1662.003
 423  1654.383
 424  1698.183
 425  1694.466
 426  1593.622
 427  1567.718
 428  1499.248
 429  1523.433
 430  1592.739
 431  1527.568
 432  1559.494
 433  1646.505
 434  1663.392
 435  1698.359
 436  1646.192
 437  1621.784
 438  1701.367
 439  1651.858
 440  1667.17
 441  1753.219
 442  1670.388
 443  1649.621
 444  1568.873
 445  1677.785
 446  1679.513
 447  1657.165
 448  1752.762
 449  1695.826
 450  1690.605
 451  1730.797
 452  1748.219
 453  1659.122
 454  1530.729
 455  1654.539
 456  1660.129
 457  1638.445
 458  1642.303
 459  1738.625
 460  1737.843
 461  1681.33
 462  1642.159
 463  1667.986
 464  1662.119
 465  1701.148
 466  1805.754
 467  1781.37
 468  1752.145
 469  1716.278
 470  1777.094
 471  1657.176
 472  1522.095
 473  1681.166
 474  1735.568
 475  1634.858
 476  1577.664
 477  1663.68
 478  1742.291
 479  1718.624
 480  1667.228
 481  1729.483
 482  1659.085
 483  1545.407
 484  1588.639
 485  1547.586
 486  1561.677
 487  1538.995
 488  1594.578
 489  1694.57
 490  1699.36
 491  1720.133
 492  1640.737
 493  1689.822
 494  1732.435
 495  1801.346
 496  1765.996
 497  1777.783
 498  1804.068
 499  1745.304
 500  1731.328
 501  1752.888
 502  1801.797
 503  1804.295
 504  1708.481
 505  1775.301
 506  1822.113
 507  1813.09
 508  1695.999
 509  1835.904
 510  1911.545
 511  1978.521
