# Input file       =  1195086376.112684_cleaned.dat
# Candidate        =  PSR_0332+5434
# Telescope        =  AR
# Epoch_topo       =  58076.018033711618
# Epoch_bary       =  N/A
# T_sample         =  0.002
# Data Folded      =  7340032
# Data Avg         =  0.161265091975792
# Data StdDev      =  1.00015870801585 
# Profile Bins     =  512
# Profile Avg      =  2311.85266728193 
# Profile StdDev   =  119.752038969401 
# Reduced chi-sqr  =  0.558
# Prob(Noise)      <  1   (~0.0 sigma)
# P_topo (ms)      =  714.513637138811  +/- 4.95e-05
# P'_topo (s/s)    =  -0                +/- 2.61e-11
# P''_topo (s/s^2) =  0                 +/- 1.15e-14
# P_bary (ms)      =  N/A
# P'_bary (s/s)    =  N/A
# P''_bary (s/s^2) =  N/A
# P_orb (s)        =  N/A
# asin(i)/c (s)    =  N/A
# eccentricity     =  N/A
# w (rad)          =  N/A
# T_peri           =  N/A
######################################################
   0  2451.292
   1  2530.773
   2  2378.825
   3  2351.939
   4  2365.713
   5  2370.693
   6  2320.478
   7  2281.888
   8  2288.409
   9  2341.677
  10  2426.029
  11  2411.235
  12  2475.404
  13  2362.099
  14  2360.615
  15  2377.565
  16  2352.495
  17  2330.587
  18  2423.029
  19  2402.569
  20  2384.926
  21  2371.409
  22  2469.757
  23  2481.136
  24  2480.842
  25  2433.385
  26  2424.271
  27  2263.191
  28  2141.806
  29  2326.881
  30  2426.996
  31  2396.416
  32  2391.552
  33  2395.732
  34  2381.487
  35  2340.231
  36  2322.18
  37  2415.517
  38  2298.149
  39  2303.962
  40  2364.727
  41  2283.13
  42  2254.712
  43  2204.835
  44  2249.977
  45  2253.341
  46  2230.88
  47  2314.376
  48  2406.151
  49  2341.532
  50  2245.299
  51  2254.6
  52  2290.875
  53  2330.456
  54  2342.947
  55  2371.936
  56  2329.013
  57  2352.343
  58  2303.299
  59  2334.88
  60  2308.619
  61  2354.344
  62  2426.982
  63  2337.537
  64  2317.719
  65  2235.549
  66  2230.768
  67  2225.058
  68  2287.472
  69  2358.489
  70  2313.935
  71  2313.149
  72  2380.389
  73  2400.216
  74  2350.7
  75  2340.878
  76  2368.658
  77  2366.231
  78  2300.058
  79  2267.949
  80  2275.582
  81  2246.663
  82  2317.975
  83  2356.327
  84  2305.366
  85  2206.61
  86  2241.164
  87  2284.614
  88  2274.815
  89  2193.033
  90  2286.23
  91  2322.954
  92  2304.508
  93  2289.737
  94  2340.238
  95  2282.161
  96  2305.17
  97  2312.543
  98  2342.74
  99  2312.286
 100  2264.515
 101  2318.771
 102  2315.382
 103  2239.908
 104  2242.694
 105  2255.51
 106  2225.319
 107  2251.305
 108  2393.741
 109  2372.233
 110  2299.685
 111  2332.255
 112  2356.615
 113  2301.781
 114  2209.665
 115  2215.894
 116  2217.26
 117  2208.567
 118  2259.491
 119  2359.311
 120  2375.79
 121  2303.712
 122  2195.947
 123  2244.254
 124  2305.521
 125  2405.773
 126  2420.75
 127  2356.575
 128  2289.476
 129  2355.607
 130  2395.783
 131  2316.315
 132  2311.326
 133  2373.888
 134  2366.269
 135  2359.301
 136  2418.42
 137  2430.417
 138  2427.215
 139  2450.637
 140  2382.312
 141  2376.762
 142  2297.228
 143  2351.56
 144  2417.357
 145  2346.443
 146  2299.418
 147  2300.065
 148  2385.713
 149  2396.938
 150  2359.393
 151  2423.659
 152  2386.609
 153  2289.473
 154  2257.358
 155  2308.874
 156  2262.667
 157  2178.495
 158  2214.571
 159  2355.23
 160  2297.165
 161  2276.661
 162  2264.648
 163  2246.813
 164  2266.476
 165  2305.115
 166  2256.158
 167  2196.818
 168  2263.351
 169  2379.778
 170  2314.203
 171  2244.215
 172  2335.433
 173  2328.383
 174  2315.797
 175  2151.943
 176  2259.779
 177  2337.083
 178  2226.908
 179  2236.491
 180  2233.578
 181  2195.722
 182  2233.315
 183  2305.754
 184  2346.773
 185  2383.686
 186  2326.502
 187  2292.533
 188  2249.635
 189  2302.746
 190  2349.026
 191  2302.164
 192  2301.479
 193  2342.68
 194  2305.363
 195  2271.655
 196  2243.022
 197  2276.378
 198  2360.146
 199  2285.557
 200  2248.022
 201  2311.369
 202  2313.755
 203  2321.195
 204  2265.149
 205  2262.493
 206  2288.887
 207  2308.923
 208  2227.028
 209  2221.939
 210  2222.581
 211  2313.947
 212  2390.246
 213  2390.727
 214  2358.263
 215  2337.489
 216  2255.933
 217  2166.937
 218  2178.326
 219  2154.642
 220  2174.371
 221  2214.005
 222  2185.994
 223  2172.958
 224  2169.646
 225  2217.832
 226  2233.01
 227  2255.771
 228  2222
 229  2174.84
 230  2243.35
 231  2270.17
 232  2243.642
 233  2197.686
 234  2230.022
 235  2239.477
 236  2210.53
 237  2279.298
 238  2232.243
 239  2165.719
 240  2290.483
 241  2321.994
 242  2239.689
 243  2335.831
 244  2380.716
 245  2356.092
 246  2282.281
 247  2215.852
 248  2207.256
 249  2272.858
 250  2318.945
 251  2305.891
 252  2296.186
 253  2229.285
 254  2236.652
 255  2291.657
 256  2259.064
 257  2206.974
 258  2204.358
 259  2322.409
 260  2348.041
 261  2290.949
 262  2354.521
 263  2358.273
 264  2326.376
 265  2305.014
 266  2334.218
 267  2296.48
 268  2327.125
 269  2403.031
 270  2384.534
 271  2275.183
 272  2359.665
 273  2350.062
 274  2316.082
 275  2297.189
 276  2328.239
 277  2346.318
 278  2310.344
 279  2321.575
 280  2332.129
 281  2271.87
 282  2245.806
 283  2354.008
 284  2398.034
 285  2310.241
 286  2280.508
 287  2306.673
 288  2261.765
 289  2252.696
 290  2252.35
 291  2281.364
 292  2281.28
 293  2270.397
 294  2306.043
 295  2274.969
 296  2199.107
 297  2308.046
 298  2385.229
 299  2360.292
 300  2336.687
 301  2346.575
 302  2358.279
 303  2259.529
 304  2251.208
 305  2308.01
 306  2339.886
 307  2289.006
 308  2352.998
 309  2411.906
 310  2305.604
 311  2309.974
 312  2380.771
 313  2459.606
 314  2334.477
 315  2292.775
 316  2330.542
 317  2339.056
 318  2340.079
 319  2360.133
 320  2403.976
 321  2327.606
 322  2358.974
 323  2357.6
 324  2332.967
 325  2357.542
 326  2351.976
 327  2312.525
 328  2317.591
 329  2377.058
 330  2390.317
 331  2328.362
 332  2302.915
 333  2337.365
 334  2304.596
 335  2250.94
 336  2310.483
 337  2394.278
 338  2316.497
 339  2189.297
 340  2337.49
 341  2437.737
 342  2417.947
 343  2352.808
 344  2404.281
 345  2359.356
 346  2370.192
 347  2314.614
 348  2338.838
 349  2337.469
 350  2421.736
 351  2323.457
 352  2310.572
 353  2302.497
 354  2272.265
 355  2364.605
 356  2439.559
 357  2382.199
 358  2328.895
 359  2373.956
 360  2315.99
 361  2318.96
 362  2332.796
 363  2328.944
 364  2321.821
 365  2347.679
 366  2358.757
 367  2291.628
 368  2232.403
 369  2295.161
 370  2388.303
 371  2355.991
 372  2322.718
 373  2367.458
 374  2395.074
 375  2346.032
 376  2279.568
 377  2305.059
 378  2302.077
 379  2337.786
 380  2270.049
 381  2241.804
 382  2191.895
 383  2288.917
 384  2396.888
 385  2355.002
 386  2305.596
 387  2314.823
 388  2331.737
 389  2267.049
 390  2196.275
 391  2234.293
 392  2318.31
 393  2376.43
 394  2332.719
 395  2334.522
 396  2268.873
 397  2293.246
 398  2277.27
 399  2275.328
 400  2234.456
 401  2271.162
 402  2368.633
 403  2312.908
 404  2262.072
 405  2270.289
 406  2297.488
 407  2268.14
 408  2272.007
 409  2306.776
 410  2260.185
 411  2212.906
 412  2214.003
 413  2402.38
 414  2386.656
 415  2291.475
 416  2337.915
 417  2407.714
 418  2341.64
 419  2344.275
 420  2264.467
 421  2233.096
 422  2231.872
 423  2265.298
 424  2149.514
 425  2088.827
 426  2258.675
 427  2282.481
 428  2344.598
 429  2340.731
 430  2339.326
 431  2341.45
 432  2348.573
 433  2268.269
 434  2326.527
 435  2337.523
 436  2393.335
 437  2333.672
 438  2265.447
 439  2166.489
 440  2118.136
 441  2239.656
 442  2320.152
 443  2294.996
 444  2361.215
 445  2437.281
 446  2299.236
 447  2257.286
 448  2347.001
 449  2343.046
 450  2291.737
 451  2250.362
 452  2277.439
 453  2226.464
 454  2237.038
 455  2331.202
 456  2355.767
 457  2307.791
 458  2274.23
 459  2317.451
 460  2387.049
 461  2334.757
 462  2359.336
 463  2375.753
 464  2342.748
 465  2353.505
 466  2360.712
 467  2255.51
 468  2218.098
 469  2283.363
 470  2412.7
 471  2347.076
 472  2286.48
 473  2296.324
 474  2273.833
 475  2228.859
 476  2234.111
 477  2279.369
 478  2343.933
 479  2349.168
 480  2315.237
 481  2253.224
 482  2226.459
 483  2304.668
 484  2391.887
 485  2391.712
 486  2307.581
 487  2295.386
 488  2379.803
 489  2384.316
 490  2288.016
 491  2285.39
 492  2281.907
 493  2239.646
 494  2329.713
 495  2391.582
 496  2362.175
 497  2252.223
 498  2340.653
 499  2372.586
 500  2295.347
 501  2322.043
 502  2382.242
 503  2407.57
 504  2362.588
 505  2376.198
 506  2385.356
 507  2300.486
 508  2350.7
 509  2386.47
 510  2405.221
 511  2358.369
