# Input file       =  1195258620.102966_cleaned.dat
# Candidate        =  PSR_0332+5434
# Telescope        =  AR
# Epoch_topo       =  58078.011598413956
# Epoch_bary       =  N/A
# T_sample         =  0.002
# Data Folded      =  7340032
# Data Avg         =  0.0179217110361209
# Data StdDev      =  1.00023646339268 
# Profile Bins     =  512
# Profile Avg      =  256.955022300921 
# Profile StdDev   =  119.761348856764 
# Reduced chi-sqr  =  0.529
# Prob(Noise)      <  1   (~0.0 sigma)
# P_topo (ms)      =  714.515687050461  +/- 0.000545
# P'_topo (s/s)    =  -0                +/- 2.87e-10
# P''_topo (s/s^2) =  0                 +/- 1.27e-13
# P_bary (ms)      =  N/A
# P'_bary (s/s)    =  N/A
# P''_bary (s/s^2) =  N/A
# P_orb (s)        =  N/A
# asin(i)/c (s)    =  N/A
# eccentricity     =  N/A
# w (rad)          =  N/A
# T_peri           =  N/A
######################################################
   0  390.1717
   1  426.0153
   2  371.334
   3  266.0385
   4  213.1815
   5  225.5695
   6  189.6401
   7  175.0309
   8  201.1658
   9  237.1479
  10  106.0358
  11  195.7276
  12  194.6333
  13  210.8774
  14  182.0376
  15  231.6788
  16  204.2172
  17  120.5228
  18  325.1593
  19  343.5208
  20  199.474
  21  203.5348
  22  168.0838
  23  222.4427
  24  191.6107
  25  260.8476
  26  280.2683
  27  263.7576
  28  267.5091
  29  165.4303
  30  215.6603
  31  229.4529
  32  202.8089
  33  341.0227
  34  225.5828
  35  248.2193
  36  254.8464
  37  260.778
  38  228.751
  39  280.1748
  40  326.4025
  41  267.4635
  42  309.314
  43  351.5049
  44  299.0246
  45  391.7704
  46  287.9243
  47  404.4633
  48  388.6946
  49  333.9128
  50  244.5484
  51  198.2546
  52  245.5902
  53  254.1257
  54  360.922
  55  412.8448
  56  311.5538
  57  293.8423
  58  377.6183
  59  326.3805
  60  307.7683
  61  367.1574
  62  356.6366
  63  270.8614
  64  223.5674
  65  277.3404
  66  202.8428
  67  173.9028
  68  254.2449
  69  271.5125
  70  194.1635
  71  229.6755
  72  244.9588
  73  230.3291
  74  292.6956
  75  348.9626
  76  277.6614
  77  320.2708
  78  283.4503
  79  263.7435
  80  269.4846
  81  208.3517
  82  134.5958
  83  235.3323
  84  210.2043
  85  121.0698
  86  136.5099
  87  223.5098
  88  240.6431
  89  173.4571
  90  297.321
  91  238.5614
  92  225.2722
  93  220.4472
  94  184.3987
  95  220.7832
  96  270.8173
  97  236.8159
  98  255.707
  99  181.3634
 100  234.9765
 101  272.9458
 102  337.9939
 103  332.0204
 104  293.9179
 105  309.5349
 106  241.1128
 107  257.3912
 108  240.3731
 109  213.4587
 110  279.293
 111  343.9142
 112  375.1028
 113  287.154
 114  295.8542
 115  229.9973
 116  285.2025
 117  282.8581
 118  255.5695
 119  278.0989
 120  304.1179
 121  321.3549
 122  366.2512
 123  311.8882
 124  347.8293
 125  194.4994
 126  286.23
 127  278.6726
 128  260.6619
 129  301.5065
 130  235.1371
 131  215.4852
 132  244.0717
 133  260.2227
 134  244.9742
 135  149.5608
 136  158.9778
 137  213.9968
 138  191.873
 139  243.954
 140  299.7768
 141  332.3365
 142  259.1794
 143  273.0746
 144  293.2974
 145  283.4576
 146  301.8225
 147  245.6972
 148  230.1068
 149  174.4248
 150  242.8573
 151  245.1275
 152  213.0055
 153  293.0562
 154  282.7923
 155  284.615
 156  156.2576
 157  180.3467
 158  282.6154
 159  326.1601
 160  337.6891
 161  292.3602
 162  361.796
 163  325.8045
 164  291.2385
 165  287.7324
 166  245.5383
 167  187.9068
 168  174.7168
 169  189.1784
 170  215.4006
 171  245.6417
 172  244.6096
 173  199.2133
 174  199.5845
 175  244.4685
 176  312.6966
 177  291.1393
 178  285.4054
 179  333.0529
 180  374.6024
 181  388.1283
 182  347.1477
 183  270.9864
 184  289.0286
 185  330.7278
 186  285.8974
 187  248.7252
 188  328.3059
 189  345.1382
 190  353.125
 191  387.6245
 192  303.964
 193  254.4783
 194  173.7993
 195  166.6942
 196  226.7034
 197  297.0363
 198  379.5361
 199  277.3467
 200  346.8016
 201  371.3738
 202  288.674
 203  320.8745
 204  270.7363
 205  315.5342
 206  335.4587
 207  333.2324
 208  308.9027
 209  252.6927
 210  299.0994
 211  300.9574
 212  306.6528
 213  275.1801
 214  232.1852
 215  258.9716
 216  186.6621
 217  197.7068
 218  240.1033
 219  151.0392
 220  148.8352
 221  166.4022
 222  226.7982
 223  255.0073
 224  300.5834
 225  189.9543
 226  241.2753
 227  279.241
 228  173.668
 229  160.6841
 230  202.4738
 231  137.7899
 232  124.044
 233  145.4127
 234  251.3049
 235  241.3027
 236  238.9834
 237  215.5379
 238  259.983
 239  294.9327
 240  353.798
 241  335.1629
 242  259.7433
 243  298.3053
 244  301.6048
 245  246.2229
 246  220.1585
 247  288.3577
 248  353.7296
 249  267.5153
 250  282.4496
 251  265.8699
 252  226.423
 253  265.1383
 254  319.0973
 255  366.7561
 256  309.2154
 257  188.9862
 258  290.4062
 259  304.9351
 260  271.5776
 261  154.8408
 262  188.2664
 263  202.6087
 264  185.3036
 265  243.9116
 266  303.2948
 267  271.8524
 268  195.466
 269  250.4613
 270  219.5387
 271  217.6869
 272  297.0832
 273  272.2714
 274  235.8165
 275  261.4453
 276  264.8204
 277  284.0441
 278  140.8887
 279  171.8308
 280  176.9837
 281  162.8699
 282  240.6759
 283  245.6982
 284  229.9778
 285  147.2899
 286  218.8362
 287  242.2711
 288  259.1148
 289  186.2715
 290  238.5118
 291  337.5392
 292  283.1585
 293  216.5207
 294  231.943
 295  260.4207
 296  197.2645
 297  220.7616
 298  255.713
 299  235.7028
 300  183.5496
 301  210.3681
 302  159.312
 303  206.1602
 304  245.492
 305  257.8811
 306  230.066
 307  243.48
 308  259.1369
 309  194.3144
 310  201.7298
 311  284.8697
 312  340.4778
 313  296.6914
 314  230.6755
 315  346.1328
 316  416.6558
 317  344.972
 318  333.8668
 319  299.8083
 320  340.8112
 321  282.7161
 322  335.1108
 323  358.8872
 324  283.1866
 325  263.4482
 326  260.7923
 327  247.5582
 328  232.2322
 329  199.7669
 330  236.351
 331  216.7173
 332  265.1541
 333  271.3009
 334  303.1654
 335  362.1372
 336  352.6319
 337  352.2578
 338  317.9522
 339  357.8363
 340  408.5898
 341  340.8172
 342  358.7129
 343  293.1646
 344  383.3904
 345  262.6881
 346  344.3147
 347  294.0699
 348  269.9679
 349  257.5992
 350  191.5578
 351  255.892
 352  178.7954
 353  187.7128
 354  161.3367
 355  222.0327
 356  145.2797
 357  141.6157
 358  288.2016
 359  311.1474
 360  157.1526
 361  220.4618
 362  210.2657
 363  221.0342
 364  175.9434
 365  275.2399
 366  266.9309
 367  217.0444
 368  283.119
 369  272.9141
 370  292.8584
 371  261.7254
 372  268.6431
 373  239.1366
 374  260.6463
 375  226.8306
 376  273.2579
 377  311.9217
 378  262.9861
 379  115.1467
 380  242.4989
 381  239.1756
 382  182.4881
 383  144.7706
 384  163.7211
 385  181.9066
 386  127.9193
 387  178.4005
 388  202.6714
 389  189.4498
 390  181.5779
 391  226.2683
 392  262.4336
 393  150.7509
 394  219.2118
 395  210.7727
 396  236.7648
 397  295.3354
 398  322.8411
 399  302.0095
 400  272.8139
 401  311.9268
 402  270.2274
 403  193.5504
 404  188.4124
 405  239.8139
 406  260.0744
 407  280.3081
 408  350.9855
 409  357.4843
 410  320.8622
 411  354.3526
 412  322.8905
 413  233.9348
 414  233.9931
 415  350.8875
 416  356.6864
 417  278.4743
 418  284.9927
 419  214.5733
 420  165.8503
 421  274.8549
 422  268.7046
 423  209.7944
 424  367.7805
 425  299.0813
 426  322.8893
 427  322.2098
 428  339.9124
 429  288.0979
 430  366.093
 431  281.5761
 432  335.6533
 433  303.5933
 434  360.4035
 435  352.8294
 436  206.1596
 437  222.398
 438  158.6064
 439  134.1383
 440  136.2877
 441  159.621
 442  219.5139
 443  178.638
 444  175.7902
 445  232.2386
 446  210.7431
 447  216.297
 448  167.97
 449  177.9529
 450  235.8338
 451  272.7053
 452  295.3104
 453  162.5219
 454  232.5734
 455  249.6527
 456  227.8896
 457  213.807
 458  126.4869
 459  251.5777
 460  121.5229
 461  115.3189
 462  156.7335
 463  236.2289
 464  238.4069
 465  144.0004
 466  296.3723
 467  238.9637
 468  257.9911
 469  301.0338
 470  342.5952
 471  403.7674
 472  241.932
 473  233.3638
 474  254.4149
 475  286.1209
 476  250.7579
 477  260.2788
 478  295.6564
 479  293.1574
 480  222.0118
 481  169.7753
 482  169.8104
 483  217.6692
 484  248.6049
 485  278.907
 486  225.1377
 487  197.3963
 488  257.9266
 489  211.3066
 490  223.0926
 491  250.4351
 492  272.8705
 493  249.3976
 494  236.3084
 495  289.7789
 496  250.4149
 497  216.2542
 498  187.2975
 499  236.8558
 500  240.1504
 501  336.8624
 502  266.4355
 503  253.1224
 504  234.6022
 505  172.4527
 506  195.0149
 507  255.8997
 508  294.8416
 509  371.1326
 510  413.8818
 511  382.4754
