# Input file       =  1195071474.114979_cleaned.dat
# Candidate        =  PSR_0332+5434
# Telescope        =  AR
# Epoch_topo       =  58075.845556886328
# Epoch_bary       =  N/A
# T_sample         =  0.002
# Data Folded      =  7340032
# Data Avg         =  0.152595889015088
# Data StdDev      =  1.00015542530666 
# Profile Bins     =  512
# Profile Avg      =  2187.69944939236 
# Profile StdDev   =  119.751645920662 
# Reduced chi-sqr  =  0.429
# Prob(Noise)      <  1   (~0.0 sigma)
# P_topo (ms)      =  714.513120337434  +/- 0.0174
# P'_topo (s/s)    =  -0                +/- 1.85e-08
# P''_topo (s/s^2) =  0                 +/- 8.1e-12
# P_bary (ms)      =  N/A
# P'_bary (s/s)    =  N/A
# P''_bary (s/s^2) =  N/A
# P_orb (s)        =  N/A
# asin(i)/c (s)    =  N/A
# eccentricity     =  N/A
# w (rad)          =  N/A
# T_peri           =  N/A
######################################################
   0  2463.339
   1  2483.412
   2  2301.689
   3  2131.117
   4  2162.967
   5  2180.949
   6  2151.806
   7  2248.021
   8  2176.701
   9  2257.488
  10  2287.016
  11  2229.349
  12  2125.192
  13  2112.834
  14  2182.573
  15  2246.474
  16  2118.293
  17  2200.789
  18  2168.52
  19  2190.901
  20  2113.401
  21  2176.164
  22  2214.661
  23  2203.21
  24  2188.764
  25  2172.512
  26  2058.216
  27  2076.525
  28  2236.28
  29  2245.282
  30  2221.53
  31  2236.579
  32  2257.619
  33  2187.201
  34  2219.699
  35  2178.184
  36  2243.25
  37  2284.02
  38  2266.656
  39  2235.943
  40  2243.489
  41  2232.025
  42  2190.371
  43  2205.038
  44  2217.497
  45  2158.144
  46  2155
  47  2187.125
  48  2282.816
  49  2169.224
  50  2225.882
  51  2226.867
  52  2280.544
  53  2224.695
  54  2247.077
  55  2221.438
  56  2171.151
  57  2256.312
  58  2287.087
  59  2197.717
  60  2216.617
  61  2187.657
  62  2239.462
  63  2188.268
  64  2158.459
  65  2218.936
  66  2133.541
  67  2086.906
  68  2205.806
  69  2209.213
  70  2135.095
  71  2194.293
  72  2244.409
  73  2190.553
  74  2129.381
  75  2182.504
  76  2216.595
  77  2179.21
  78  2112.284
  79  2171.435
  80  2117.149
  81  2131.753
  82  2175.373
  83  2260.185
  84  2185.965
  85  2178.69
  86  2145.694
  87  2207.625
  88  2203.162
  89  2212.648
  90  2275.23
  91  2298.793
  92  2301.475
  93  2207.734
  94  2084.98
  95  2065.373
  96  2099.528
  97  2129.412
  98  2038.559
  99  2113.436
 100  2154.024
 101  2097.783
 102  2132.767
 103  2104.876
 104  2096.244
 105  2111.043
 106  2202.742
 107  2223.252
 108  2241.298
 109  2208.364
 110  2137.47
 111  2156.827
 112  2165.414
 113  2138.292
 114  2175.733
 115  2171.78
 116  2208.679
 117  2145.692
 118  2093.764
 119  2064.815
 120  2134.942
 121  2250.835
 122  2259.522
 123  2174.869
 124  2205.06
 125  2215.306
 126  2187.663
 127  2152.653
 128  2170.025
 129  2126.831
 130  2156.334
 131  2159.165
 132  2156.985
 133  2172.505
 134  2254.393
 135  2154.2
 136  2207.673
 137  2218.885
 138  2242.519
 139  2259.145
 140  2307.078
 141  2283.068
 142  2160.689
 143  2151.11
 144  2218.083
 145  2194.255
 146  2256.992
 147  2213.099
 148  2170.156
 149  2120.292
 150  2179.17
 151  2160.263
 152  2165.991
 153  2192.867
 154  2190.959
 155  2123.147
 156  2155.732
 157  2128.299
 158  2196.502
 159  2176.177
 160  2128.653
 161  2171.723
 162  2181.93
 163  2116.456
 164  2043.333
 165  2124.049
 166  2114.073
 167  2105.601
 168  2194.175
 169  2308.601
 170  2193.312
 171  2117.997
 172  2166.42
 173  2183.536
 174  2180.312
 175  2144.151
 176  2168.89
 177  2233.265
 178  2208.264
 179  2212.919
 180  2121.194
 181  2166.107
 182  2239.466
 183  2237.55
 184  2128.552
 185  2145.103
 186  2201.149
 187  2249.992
 188  2156.302
 189  2135.353
 190  2183.62
 191  2226.664
 192  2202.566
 193  2234.624
 194  2174.548
 195  2196.271
 196  2244.375
 197  2285.481
 198  2200.883
 199  2188.945
 200  2181.304
 201  2205.945
 202  2170.562
 203  2219.632
 204  2241.579
 205  2252.064
 206  2275.896
 207  2229.9
 208  2217.395
 209  2202.368
 210  2205.475
 211  2205.808
 212  2187.837
 213  2130.785
 214  2052.972
 215  2135.7
 216  2200.677
 217  2153.305
 218  2145.577
 219  2130.218
 220  2194.656
 221  2196.927
 222  2152.556
 223  2135.33
 224  2140.843
 225  2162.972
 226  2262.938
 227  2146.603
 228  2131.53
 229  2187.587
 230  2237.503
 231  2189.872
 232  2169.886
 233  2190.785
 234  2201.136
 235  2185.074
 236  2191.444
 237  2157.8
 238  2148.525
 239  2225.601
 240  2296.191
 241  2293.56
 242  2221.38
 243  2189.539
 244  2153.706
 245  2233.784
 246  2186.556
 247  2276.004
 248  2261.259
 249  2219.494
 250  2220.063
 251  2229.25
 252  2220.047
 253  2231.863
 254  2248.303
 255  2300.181
 256  2209.226
 257  2143.139
 258  2120.625
 259  2168.464
 260  2112.637
 261  2168.406
 262  2124.811
 263  2118.44
 264  2162.133
 265  2134.071
 266  2164.737
 267  2174.007
 268  2235.613
 269  2280.692
 270  2171.361
 271  2253.171
 272  2236.865
 273  2223.139
 274  2229.519
 275  2238.251
 276  2217.911
 277  2152.461
 278  2094.302
 279  2236.299
 280  2277.152
 281  2187.742
 282  2113.807
 283  2272.89
 284  2251.477
 285  2114.823
 286  2126.741
 287  2136.68
 288  2131.613
 289  2086.904
 290  2117.251
 291  2133.817
 292  2109.075
 293  2104.252
 294  2171.18
 295  2104.541
 296  2179.337
 297  2140.127
 298  2142.028
 299  2092.013
 300  2068.212
 301  2155.523
 302  2209.724
 303  2210.559
 304  2120.897
 305  2091.997
 306  2147.885
 307  2096.888
 308  2090.324
 309  2108.35
 310  2194.929
 311  2123.889
 312  2268.292
 313  2187.351
 314  2121.08
 315  2191.652
 316  2211.69
 317  2216.515
 318  2281.926
 319  2268.168
 320  2195.524
 321  2199.705
 322  2169.606
 323  2212.431
 324  2247.28
 325  2176.847
 326  2212.992
 327  2229.423
 328  2107.137
 329  2098.93
 330  2107.938
 331  2158.427
 332  2202.97
 333  2199.046
 334  2154.636
 335  2126.566
 336  2169.793
 337  2227.143
 338  2216.556
 339  2211.191
 340  2149.714
 341  2258.812
 342  2219.877
 343  2145.007
 344  2188.498
 345  2166.289
 346  2098.413
 347  2095.368
 348  2102.468
 349  2128.478
 350  2146.972
 351  2251.701
 352  2238.844
 353  2182.381
 354  2227.183
 355  2273.169
 356  2206.291
 357  2146.29
 358  2187.073
 359  2197.071
 360  2223.511
 361  2237.28
 362  2254.465
 363  2202.52
 364  2124.586
 365  2197.627
 366  2152.402
 367  2140.285
 368  2193.845
 369  2218.604
 370  2246.904
 371  2108.973
 372  2115.87
 373  2123.862
 374  2174.043
 375  2149.083
 376  2096.617
 377  2169.449
 378  2202.483
 379  2243.819
 380  2253.509
 381  2226.284
 382  2221.156
 383  2246.799
 384  2242.958
 385  2239.507
 386  2218.321
 387  2214.561
 388  2177.032
 389  2201.33
 390  2211.152
 391  2112.635
 392  2134.705
 393  2193.448
 394  2208.439
 395  2175.743
 396  2234.936
 397  2148.298
 398  2137.191
 399  2120.213
 400  2133.08
 401  2117.186
 402  2171.202
 403  2092.658
 404  2179.246
 405  2253.815
 406  2304.04
 407  2220.961
 408  2161.744
 409  2139.733
 410  2125.347
 411  2181.083
 412  2236.526
 413  2218.492
 414  2174.001
 415  2160.573
 416  2121.186
 417  2186.097
 418  2254.968
 419  2175.741
 420  2154.925
 421  2258.625
 422  2208.821
 423  2222.529
 424  2161.215
 425  2128.314
 426  2145.476
 427  2264.502
 428  2188.989
 429  2157.584
 430  2216.747
 431  2152.475
 432  2170.117
 433  2296.605
 434  2358.678
 435  2274.165
 436  2186.519
 437  2152.284
 438  2146.679
 439  2144.345
 440  2189.265
 441  2279.566
 442  2252.734
 443  2208.025
 444  2092.564
 445  2160.354
 446  2130.894
 447  2122.348
 448  2170.538
 449  2226.068
 450  2220.841
 451  2286.218
 452  2241.954
 453  2182.389
 454  2153.751
 455  2183.502
 456  2194.052
 457  2241.301
 458  2194.549
 459  2173.569
 460  2173.704
 461  2162.745
 462  2164.366
 463  2197.204
 464  2202.16
 465  2192.585
 466  2205.876
 467  2102.391
 468  2120.253
 469  2200.831
 470  2200.685
 471  2203.892
 472  2222.208
 473  2208.365
 474  2217.272
 475  2180.503
 476  2188.855
 477  2222.057
 478  2240.59
 479  2298.628
 480  2242.06
 481  2143.607
 482  2122.063
 483  2224.321
 484  2309.242
 485  2197.209
 486  2235.175
 487  2165.126
 488  2193.304
 489  2116.767
 490  2220.874
 491  2208.304
 492  2251.331
 493  2240.551
 494  2195.51
 495  2195.694
 496  2110.485
 497  2224.605
 498  2216.939
 499  2200.602
 500  2098.465
 501  2091.669
 502  2148.622
 503  2171.36
 504  2124.906
 505  2224.029
 506  2188.268
 507  2187.228
 508  2248.137
 509  2237.026
 510  2277.243
 511  2391.938
