# Input file       =  1195416006.108325_cleaned.dat
# Candidate        =  PSR_0332+5434
# Telescope        =  AR
# Epoch_topo       =  58079.833195698207
# Epoch_bary       =  N/A
# T_sample         =  0.002
# Data Folded      =  7340032
# Data Avg         =  0.112581910932039
# Data StdDev      =  1.00030286633317 
# Profile Bins     =  512
# Profile Avg      =  1613.95656133998 
# Profile StdDev   =  119.769299482452 
# Reduced chi-sqr  =  0.575
# Prob(Noise)      <  1   (~0.0 sigma)
# P_topo (ms)      =  714.517230621331  +/- 6.23e-05
# P'_topo (s/s)    =  -0                +/- 3.29e-11
# P''_topo (s/s^2) =  0                 +/- 1.45e-14
# P_bary (ms)      =  N/A
# P'_bary (s/s)    =  N/A
# P''_bary (s/s^2) =  N/A
# P_orb (s)        =  N/A
# asin(i)/c (s)    =  N/A
# eccentricity     =  N/A
# w (rad)          =  N/A
# T_peri           =  N/A
######################################################
   0  1813.795
   1  1759.792
   2  1691.535
   3  1636.01
   4  1613.296
   5  1563.807
   6  1527.716
   7  1554.974
   8  1558.113
   9  1539.397
  10  1567.325
  11  1529.179
  12  1620.369
  13  1616.105
  14  1642.946
  15  1592.54
  16  1674.482
  17  1740.457
  18  1730.107
  19  1632.539
  20  1566.408
  21  1495.422
  22  1569.817
  23  1653.886
  24  1623.94
  25  1581.533
  26  1580.59
  27  1655.9
  28  1580.155
  29  1603.195
  30  1602.266
  31  1669.752
  32  1678.592
  33  1685.104
  34  1621.993
  35  1560.86
  36  1576.472
  37  1675.436
  38  1693.502
  39  1680.718
  40  1736.685
  41  1727.645
  42  1694.666
  43  1709.348
  44  1695.4
  45  1675.18
  46  1697.184
  47  1731.231
  48  1712.594
  49  1664.569
  50  1697.773
  51  1621.413
  52  1640.152
  53  1619.754
  54  1549.102
  55  1572.708
  56  1618.68
  57  1595.959
  58  1482.26
  59  1582.001
  60  1608.049
  61  1540.846
  62  1516.015
  63  1553.104
  64  1594.256
  65  1587.089
  66  1617.944
  67  1620.014
  68  1644.125
  69  1608.987
  70  1704.305
  71  1645.846
  72  1592.223
  73  1606.283
  74  1662.816
  75  1667.314
  76  1663.781
  77  1695.64
  78  1576.158
  79  1554.995
  80  1527.127
  81  1578.785
  82  1586.866
  83  1637.209
  84  1732.487
  85  1649.022
  86  1598.739
  87  1580.326
  88  1588.182
  89  1577.671
  90  1508.352
  91  1568.755
  92  1630.039
  93  1600.378
  94  1571.859
  95  1582.608
  96  1541.027
  97  1623.222
  98  1609.581
  99  1736.158
 100  1689.463
 101  1662.757
 102  1641.706
 103  1615.453
 104  1582.991
 105  1639.859
 106  1675.653
 107  1611.811
 108  1593.836
 109  1628.53
 110  1582.157
 111  1688.434
 112  1659.386
 113  1656.288
 114  1640.291
 115  1556.309
 116  1576.635
 117  1647.14
 118  1734.872
 119  1696.676
 120  1619.88
 121  1628.107
 122  1578.206
 123  1587.812
 124  1569.438
 125  1589.294
 126  1610.576
 127  1668.267
 128  1638.913
 129  1602.822
 130  1538.065
 131  1531.171
 132  1557.397
 133  1593.877
 134  1567.694
 135  1585.644
 136  1608.132
 137  1601.412
 138  1638.929
 139  1577.848
 140  1523.431
 141  1626.805
 142  1653.616
 143  1614.253
 144  1528.693
 145  1540.15
 146  1583.235
 147  1579.712
 148  1607.717
 149  1558.144
 150  1546.719
 151  1550.298
 152  1710.218
 153  1616.592
 154  1626.261
 155  1646.001
 156  1706.825
 157  1744.654
 158  1665.954
 159  1689.133
 160  1649.654
 161  1637.04
 162  1667.616
 163  1678.782
 164  1583.787
 165  1524.813
 166  1621.515
 167  1648.772
 168  1627.528
 169  1600.587
 170  1718.716
 171  1693.014
 172  1546.277
 173  1456.523
 174  1558.038
 175  1617.003
 176  1636.298
 177  1654.173
 178  1675.208
 179  1622.084
 180  1566.983
 181  1688.725
 182  1598.626
 183  1617.762
 184  1647.528
 185  1649.411
 186  1561.364
 187  1554.443
 188  1612.169
 189  1611.617
 190  1618.22
 191  1647.232
 192  1650.031
 193  1704.727
 194  1682.065
 195  1658.356
 196  1693.271
 197  1604.518
 198  1631.496
 199  1761.939
 200  1720.241
 201  1566.242
 202  1559.279
 203  1648.788
 204  1721.388
 205  1634.399
 206  1684.84
 207  1597.645
 208  1559.627
 209  1586.412
 210  1638.109
 211  1605.057
 212  1658.997
 213  1675.998
 214  1654.837
 215  1545.469
 216  1576.311
 217  1558.226
 218  1614.685
 219  1633.357
 220  1561.112
 221  1481.849
 222  1424.23
 223  1479.672
 224  1474.011
 225  1447.351
 226  1615.751
 227  1680.691
 228  1676.615
 229  1609.065
 230  1492.825
 231  1499.256
 232  1499.326
 233  1523.419
 234  1443.038
 235  1505.966
 236  1581.543
 237  1632.503
 238  1646.568
 239  1595.017
 240  1551.217
 241  1613.539
 242  1619.302
 243  1588.514
 244  1506.344
 245  1581.291
 246  1587.262
 247  1618.12
 248  1552.965
 249  1613.869
 250  1602.598
 251  1580.471
 252  1624.691
 253  1664.56
 254  1619.63
 255  1583.657
 256  1671.657
 257  1651.692
 258  1681.295
 259  1624.455
 260  1592.957
 261  1574.406
 262  1644.473
 263  1698.2
 264  1676.793
 265  1656.086
 266  1672.157
 267  1664.807
 268  1596.937
 269  1627.963
 270  1653.089
 271  1631.733
 272  1667.6
 273  1619.063
 274  1632.788
 275  1636.856
 276  1648.318
 277  1651.735
 278  1531.644
 279  1582.242
 280  1640.114
 281  1632.627
 282  1636.218
 283  1600.778
 284  1629.449
 285  1750.358
 286  1693.854
 287  1605.062
 288  1508.266
 289  1590.204
 290  1564.26
 291  1478.026
 292  1493.976
 293  1541.366
 294  1640.857
 295  1723.026
 296  1636.635
 297  1644.789
 298  1646.293
 299  1703.416
 300  1768.822
 301  1631.251
 302  1635.231
 303  1567.54
 304  1508.291
 305  1527.003
 306  1660.064
 307  1698.193
 308  1611.418
 309  1631.883
 310  1704.45
 311  1680.166
 312  1658.022
 313  1634.615
 314  1721.746
 315  1638.127
 316  1589.099
 317  1599.676
 318  1535.937
 319  1583.539
 320  1615.703
 321  1628.447
 322  1564.006
 323  1640.646
 324  1787.445
 325  1627.244
 326  1614.707
 327  1664.302
 328  1672.503
 329  1652.477
 330  1590.339
 331  1600.07
 332  1598.946
 333  1644.475
 334  1616.741
 335  1602.529
 336  1514.812
 337  1570.594
 338  1665.859
 339  1617.477
 340  1534.403
 341  1631.073
 342  1756.229
 343  1637.583
 344  1622.908
 345  1606.943
 346  1711.12
 347  1610.57
 348  1531.933
 349  1568.627
 350  1558.169
 351  1548.389
 352  1592.642
 353  1622.565
 354  1603.184
 355  1540.386
 356  1504.189
 357  1683.563
 358  1654.97
 359  1558.712
 360  1566.38
 361  1561.521
 362  1517.537
 363  1570.797
 364  1565.182
 365  1619.08
 366  1491.319
 367  1629.802
 368  1579.988
 369  1486.602
 370  1493.754
 371  1660.948
 372  1616.479
 373  1510.765
 374  1481.09
 375  1525.834
 376  1584.485
 377  1573.773
 378  1583.819
 379  1523.099
 380  1527.193
 381  1623.651
 382  1706.005
 383  1672.976
 384  1706.27
 385  1793.045
 386  1698.479
 387  1555.7
 388  1509.474
 389  1551.633
 390  1540.897
 391  1590.635
 392  1637.124
 393  1639.926
 394  1580.293
 395  1567.911
 396  1545.728
 397  1527.016
 398  1464.201
 399  1548.098
 400  1704.471
 401  1714.164
 402  1650.646
 403  1664.394
 404  1651.079
 405  1554.542
 406  1599.69
 407  1520.507
 408  1603.738
 409  1560.884
 410  1657.162
 411  1571.715
 412  1375.658
 413  1452.807
 414  1603.397
 415  1579.862
 416  1568.009
 417  1624.09
 418  1586.206
 419  1601.958
 420  1573.339
 421  1661.156
 422  1685.333
 423  1700.527
 424  1781.346
 425  1704.05
 426  1592.916
 427  1600.241
 428  1668.512
 429  1676.568
 430  1672.352
 431  1647.451
 432  1692.275
 433  1729.825
 434  1703.38
 435  1665.249
 436  1570.255
 437  1532.214
 438  1597.243
 439  1653.304
 440  1546.445
 441  1545.886
 442  1587.254
 443  1551.955
 444  1491.929
 445  1565.625
 446  1617.39
 447  1699.843
 448  1592.69
 449  1605.721
 450  1635.121
 451  1677.192
 452  1675.292
 453  1630.441
 454  1565.011
 455  1562.457
 456  1592.999
 457  1698.602
 458  1649.132
 459  1546.647
 460  1492.109
 461  1555.885
 462  1629.302
 463  1616.594
 464  1700.21
 465  1662.054
 466  1598.973
 467  1640.386
 468  1572.961
 469  1570.193
 470  1515.951
 471  1607.657
 472  1662.161
 473  1604.785
 474  1612.188
 475  1656.339
 476  1584.392
 477  1574.239
 478  1599.757
 479  1632.394
 480  1624.772
 481  1556.326
 482  1690.521
 483  1658.204
 484  1671.843
 485  1644.405
 486  1717.593
 487  1669.228
 488  1568.714
 489  1615.312
 490  1631.611
 491  1596.554
 492  1605.003
 493  1577.738
 494  1601.384
 495  1548.216
 496  1536.861
 497  1589.021
 498  1606.183
 499  1621.885
 500  1613.892
 501  1607.046
 502  1536.401
 503  1485.232
 504  1553.518
 505  1647.178
 506  1605.697
 507  1580.626
 508  1626.169
 509  1748.689
 510  1870.848
 511  1870.527
