# Input file       =  1195401358.114898_cleaned.dat
# Candidate        =  PSR_0332+5434
# Telescope        =  AR
# Epoch_topo       =  58079.663658737241
# Epoch_bary       =  N/A
# T_sample         =  0.002
# Data Folded      =  7208960
# Data Avg         =  0.119127820564212
# Data StdDev      =  1.00042990169626 
# Profile Bins     =  512
# Profile Avg      =  1677.28763043706 
# Profile StdDev   =  118.710187574482 
# Reduced chi-sqr  =  0.470
# Prob(Noise)      <  1   (~0.0 sigma)
# P_topo (ms)      =  714.51703316044   +/- 0.00505
# P'_topo (s/s)    =  -0                +/- 2.71e-09
# P''_topo (s/s^2) =  0                 +/- 1.22e-12
# P_bary (ms)      =  N/A
# P'_bary (s/s)    =  N/A
# P''_bary (s/s^2) =  N/A
# P_orb (s)        =  N/A
# asin(i)/c (s)    =  N/A
# eccentricity     =  N/A
# w (rad)          =  N/A
# T_peri           =  N/A
######################################################
   0  1885.09
   1  1923.096
   2  1864.352
   3  1863.279
   4  1802.911
   5  1742.495
   6  1774.019
   7  1716.337
   8  1719.674
   9  1677.769
  10  1691.421
  11  1674.624
  12  1698.951
  13  1635.592
  14  1637.165
  15  1623.486
  16  1691.5
  17  1613.064
  18  1643.616
  19  1661.553
  20  1767.026
  21  1796.928
  22  1709.738
  23  1644.451
  24  1561.601
  25  1715.928
  26  1643.976
  27  1561.655
  28  1667.193
  29  1719.356
  30  1729.613
  31  1754.878
  32  1725.22
  33  1669.973
  34  1666.597
  35  1661.946
  36  1625.941
  37  1623.966
  38  1592.674
  39  1660.498
  40  1670.186
  41  1706.233
  42  1673.195
  43  1649.978
  44  1661.387
  45  1678.485
  46  1625.879
  47  1653.172
  48  1696.959
  49  1761.854
  50  1719.641
  51  1649.906
  52  1664.825
  53  1651.023
  54  1675.359
  55  1723.445
  56  1683.52
  57  1670.884
  58  1615.084
  59  1748.255
  60  1719.465
  61  1687.842
  62  1621.96
  63  1674.018
  64  1654.803
  65  1684.633
  66  1678.955
  67  1656.652
  68  1660.184
  69  1650.245
  70  1662.555
  71  1658.436
  72  1601.907
  73  1637.557
  74  1674.15
  75  1699.256
  76  1567.105
  77  1607.948
  78  1607.443
  79  1669.628
  80  1660.02
  81  1669.36
  82  1699.694
  83  1693.832
  84  1622.845
  85  1652.256
  86  1622.205
  87  1658.135
  88  1711.858
  89  1750.117
  90  1809.605
  91  1729.499
  92  1779.475
  93  1729.619
  94  1604.196
  95  1603.95
  96  1603.53
  97  1665.657
  98  1716.928
  99  1691.987
 100  1688.453
 101  1590.862
 102  1621.724
 103  1590.967
 104  1653.357
 105  1631.091
 106  1675.807
 107  1668.398
 108  1686.49
 109  1674.527
 110  1680.322
 111  1696.585
 112  1670.113
 113  1664.854
 114  1633.286
 115  1687.408
 116  1698.551
 117  1718.687
 118  1742.619
 119  1739.742
 120  1699.512
 121  1654.883
 122  1695.659
 123  1658.994
 124  1658.536
 125  1655.424
 126  1660.075
 127  1682.698
 128  1651.817
 129  1651.207
 130  1671.248
 131  1675.528
 132  1633.879
 133  1709.387
 134  1733.449
 135  1692.021
 136  1678.132
 137  1695.746
 138  1737.503
 139  1651.568
 140  1721.858
 141  1767.968
 142  1670.173
 143  1660.667
 144  1643.141
 145  1798.323
 146  1729.833
 147  1740.065
 148  1635.294
 149  1732.708
 150  1663.409
 151  1647.026
 152  1684.655
 153  1564.239
 154  1604.644
 155  1656.869
 156  1680.743
 157  1605.616
 158  1560.708
 159  1718.599
 160  1618.22
 161  1662.18
 162  1737.574
 163  1641.116
 164  1665.108
 165  1670.744
 166  1704.983
 167  1780.238
 168  1725.062
 169  1816.614
 170  1814.124
 171  1690.224
 172  1652.594
 173  1682.836
 174  1644.808
 175  1645.025
 176  1647.045
 177  1658.258
 178  1697.014
 179  1608.649
 180  1615.396
 181  1636.639
 182  1577.079
 183  1699.207
 184  1718.117
 185  1649.13
 186  1596.481
 187  1542.777
 188  1612.586
 189  1557.604
 190  1665.556
 191  1641.27
 192  1663.645
 193  1679.084
 194  1631.995
 195  1678.509
 196  1655.427
 197  1652.468
 198  1689.795
 199  1657.55
 200  1640.523
 201  1608.324
 202  1686.634
 203  1685.38
 204  1579.518
 205  1700.083
 206  1673.801
 207  1642.005
 208  1602.346
 209  1582.411
 210  1604.264
 211  1604.737
 212  1678.931
 213  1662.751
 214  1628.464
 215  1623.829
 216  1727.983
 217  1680.226
 218  1614.606
 219  1667.124
 220  1664.409
 221  1607.391
 222  1564.023
 223  1651.209
 224  1720.737
 225  1576.882
 226  1617.485
 227  1664.333
 228  1729.103
 229  1720.676
 230  1657.251
 231  1720.984
 232  1622.096
 233  1594.388
 234  1616.032
 235  1624.56
 236  1690.328
 237  1664.529
 238  1712.535
 239  1686.078
 240  1684.874
 241  1692.328
 242  1729.539
 243  1673.571
 244  1577.228
 245  1687.407
 246  1648.811
 247  1651.489
 248  1644.272
 249  1733.624
 250  1674.77
 251  1683.898
 252  1712.065
 253  1646.888
 254  1636.465
 255  1686.424
 256  1653.75
 257  1625.671
 258  1628.338
 259  1638.826
 260  1611.338
 261  1649.964
 262  1617.183
 263  1597.102
 264  1603.687
 265  1587.014
 266  1564.126
 267  1526.426
 268  1598.255
 269  1650.716
 270  1673.91
 271  1582.574
 272  1587.92
 273  1553.401
 274  1705.89
 275  1732.469
 276  1724.408
 277  1705.825
 278  1685.56
 279  1666.221
 280  1700.911
 281  1706.661
 282  1567.536
 283  1642.871
 284  1637.949
 285  1639.966
 286  1676.202
 287  1641.557
 288  1658.094
 289  1712.679
 290  1769.878
 291  1703.693
 292  1617.271
 293  1544.813
 294  1616.625
 295  1719.972
 296  1582.007
 297  1587.402
 298  1673.715
 299  1592.72
 300  1520.142
 301  1585.608
 302  1653.373
 303  1626.106
 304  1620.803
 305  1679.965
 306  1765.261
 307  1778.531
 308  1715.528
 309  1665.68
 310  1602.011
 311  1605.538
 312  1645.141
 313  1595.869
 314  1671.327
 315  1625.007
 316  1592.962
 317  1668.722
 318  1651.16
 319  1658.051
 320  1643.328
 321  1627.824
 322  1626.169
 323  1690.022
 324  1716.606
 325  1680.942
 326  1666.244
 327  1704.004
 328  1661.887
 329  1577.515
 330  1640.532
 331  1654.585
 332  1701.15
 333  1663.604
 334  1652.402
 335  1609.311
 336  1635.758
 337  1698.341
 338  1691.087
 339  1694.018
 340  1654.269
 341  1616.287
 342  1605.413
 343  1626.684
 344  1610.069
 345  1641.258
 346  1610.736
 347  1553.941
 348  1698.526
 349  1688.53
 350  1693.767
 351  1679.405
 352  1717.69
 353  1689.563
 354  1562.64
 355  1640.19
 356  1708.32
 357  1616.351
 358  1662.214
 359  1678.766
 360  1673.958
 361  1728.605
 362  1788.471
 363  1787.902
 364  1657.08
 365  1636.748
 366  1725.953
 367  1711.667
 368  1726.587
 369  1703.954
 370  1637.469
 371  1645.216
 372  1654.41
 373  1669.745
 374  1668.655
 375  1710.51
 376  1714.821
 377  1644.84
 378  1747.168
 379  1753.075
 380  1811.232
 381  1748.014
 382  1727.8
 383  1743.388
 384  1773.117
 385  1696.629
 386  1701.803
 387  1748.83
 388  1740.521
 389  1820.189
 390  1752.012
 391  1682.461
 392  1703.381
 393  1700.115
 394  1749.642
 395  1736.653
 396  1710.923
 397  1687.783
 398  1652.552
 399  1723.341
 400  1719.376
 401  1687.861
 402  1590.461
 403  1738.237
 404  1692.115
 405  1708.29
 406  1633.894
 407  1600.52
 408  1660.789
 409  1647.734
 410  1687.127
 411  1667.089
 412  1727.729
 413  1776.396
 414  1777.568
 415  1783.236
 416  1696.413
 417  1733.97
 418  1673.98
 419  1699.587
 420  1651.344
 421  1643.334
 422  1729.584
 423  1744.015
 424  1698.92
 425  1611.67
 426  1689.976
 427  1773.44
 428  1759.037
 429  1763.854
 430  1740.642
 431  1750.947
 432  1703.963
 433  1685.043
 434  1709.564
 435  1724.685
 436  1739.332
 437  1716.15
 438  1731.312
 439  1698.428
 440  1724.477
 441  1671.088
 442  1624.668
 443  1666.99
 444  1660.889
 445  1630.971
 446  1804.733
 447  1747.295
 448  1681.406
 449  1689.84
 450  1766.219
 451  1772.9
 452  1739.613
 453  1714.61
 454  1657.075
 455  1682.624
 456  1683.855
 457  1665.42
 458  1673.768
 459  1723.367
 460  1676.176
 461  1663.316
 462  1718.391
 463  1761.821
 464  1692.754
 465  1678.06
 466  1769.114
 467  1706.539
 468  1662.65
 469  1630.177
 470  1692.578
 471  1824.137
 472  1805.936
 473  1688.963
 474  1712.264
 475  1712.116
 476  1706.07
 477  1634.374
 478  1583.022
 479  1696.416
 480  1704.943
 481  1686.259
 482  1686.33
 483  1674.517
 484  1667.404
 485  1763.676
 486  1824.261
 487  1728.236
 488  1635.349
 489  1630.713
 490  1706.033
 491  1680.694
 492  1739.881
 493  1669.584
 494  1659.234
 495  1671.479
 496  1620.883
 497  1636.753
 498  1648.138
 499  1661.988
 500  1570.303
 501  1664.202
 502  1688.994
 503  1701.27
 504  1740.871
 505  1758.814
 506  1739.852
 507  1681.956
 508  1686.634
 509  1874.43
 510  1871.254
 511  1894.062
