# Input file       =  1195947911.114979_cleaned.dat
# Candidate        =  PSR_0332+5434
# Telescope        =  AR
# Epoch_topo       =  58085.989503645593
# Epoch_bary       =  N/A
# T_sample         =  0.002
# Data Folded      =  7340032
# Data Avg         =  0.0269919066839436
# Data StdDev      =  1.00015765790638 
# Profile Bins     =  512
# Profile Avg      =  386.957691613669 
# Profile StdDev   =  119.751913236606 
# Reduced chi-sqr  =  0.732
# Prob(Noise)      <  1   (~0.0 sigma)
# P_topo (ms)      =  714.523948174952  +/- 0.000297
# P'_topo (s/s)    =  -0                +/- 1.57e-10
# P''_topo (s/s^2) =  0                 +/- 6.92e-14
# P_bary (ms)      =  N/A
# P'_bary (s/s)    =  N/A
# P''_bary (s/s^2) =  N/A
# P_orb (s)        =  N/A
# asin(i)/c (s)    =  N/A
# eccentricity     =  N/A
# w (rad)          =  N/A
# T_peri           =  N/A
######################################################
   0  562.1697
   1  666.1242
   2  586.7708
   3  472.6973
   4  472.2251
   5  327.8388
   6  331.2717
   7  281.8108
   8  294.4881
   9  320.6213
  10  300.5707
  11  443.9276
  12  391.0329
  13  414.7554
  14  418.0486
  15  426.0226
  16  367.3922
  17  408.3995
  18  384.1015
  19  362.3019
  20  298.6819
  21  307.8447
  22  335.9384
  23  327.581
  24  329.3602
  25  389.7879
  26  388.7159
  27  407.6923
  28  411.9558
  29  316.1572
  30  275.7031
  31  295.5674
  32  322.4398
  33  399.2944
  34  341.2078
  35  357.9909
  36  268.9364
  37  344.1122
  38  361.9326
  39  402.2302
  40  398.9071
  41  442.0543
  42  477.7227
  43  431.0879
  44  358.8719
  45  378.9116
  46  386.0566
  47  416.8883
  48  465.487
  49  406.9202
  50  331.4209
  51  489.4316
  52  451.4836
  53  242.0658
  54  338.5757
  55  352.5182
  56  453.537
  57  351.1559
  58  392.8557
  59  379.0761
  60  395.9543
  61  382.0963
  62  412.049
  63  445.994
  64  375.6492
  65  347.9628
  66  372.931
  67  294.3554
  68  347.6882
  69  436.0824
  70  313.8831
  71  276.9268
  72  423.1773
  73  395.3952
  74  360.6129
  75  340.5256
  76  406.7664
  77  373.9148
  78  438.2174
  79  497.3763
  80  442.3142
  81  382.7521
  82  368.6117
  83  365.825
  84  317.7899
  85  373.4086
  86  347.5495
  87  371.5966
  88  408.1826
  89  332.4954
  90  335.6332
  91  296.9076
  92  364.7657
  93  346.0826
  94  306.3377
  95  229.8719
  96  288.3126
  97  383.6406
  98  344.6052
  99  340.5317
 100  288.5431
 101  350.7362
 102  400.2256
 103  400.0468
 104  387.8635
 105  288.345
 106  343.4529
 107  365.6943
 108  430.3127
 109  369.9425
 110  424.488
 111  498.342
 112  377.0363
 113  454.8048
 114  453.5404
 115  394.0076
 116  382.7947
 117  337.9066
 118  404.0261
 119  424.7061
 120  409.6284
 121  392.7155
 122  283.4056
 123  385.818
 124  431.4759
 125  383.985
 126  367.969
 127  343.3134
 128  250.4383
 129  259.9565
 130  293.7399
 131  318.7663
 132  325.0175
 133  371.3767
 134  324.9779
 135  283.3604
 136  232.8272
 137  305.2384
 138  425.701
 139  351.549
 140  250.2315
 141  298.4957
 142  455.8954
 143  381.8942
 144  346.9562
 145  286.6187
 146  235.0827
 147  281.0187
 148  264.7453
 149  205.04
 150  227.9081
 151  272.2202
 152  268.0927
 153  116.7455
 154  202.0598
 155  259.2183
 156  328.0979
 157  291.666
 158  343.4724
 159  471.0079
 160  475.8794
 161  485.5395
 162  451.646
 163  323.0323
 164  253.6612
 165  340.4106
 166  385.5387
 167  405.8522
 168  237.7398
 169  164.4672
 170  209.4313
 171  397.7192
 172  459.0452
 173  374.1929
 174  409.2849
 175  344.2189
 176  321.1636
 177  320.2636
 178  374.0019
 179  367.765
 180  378.2241
 181  403.2656
 182  364.2642
 183  323.255
 184  347.6294
 185  410.787
 186  376.1508
 187  465.6667
 188  399.3423
 189  461.3334
 190  373.5885
 191  388.1237
 192  503.3673
 193  523.0228
 194  579.6831
 195  573.7739
 196  362.6203
 197  398.6326
 198  347.0297
 199  376.3822
 200  489.925
 201  618.3991
 202  614.918
 203  557.3337
 204  372.3867
 205  451.6636
 206  466.8179
 207  472.9145
 208  412.6069
 209  430.4745
 210  416.2439
 211  336.97
 212  346.9518
 213  307.2629
 214  355.5396
 215  446.2045
 216  468.6355
 217  445.8305
 218  369.3246
 219  433.6741
 220  422.5769
 221  390.7489
 222  376.5465
 223  386.8522
 224  388.6986
 225  423.1132
 226  395.0319
 227  439.6736
 228  524.4603
 229  531.4155
 230  476.3864
 231  437.1385
 232  482.1614
 233  446.3658
 234  427.0103
 235  389.4358
 236  428.2893
 237  501.6437
 238  602.7544
 239  489.2332
 240  399.3729
 241  496.7999
 242  466.091
 243  459.0038
 244  476.5994
 245  466.8178
 246  444.3386
 247  388.2414
 248  419.3428
 249  432.2395
 250  294.0617
 251  286.7031
 252  451.1828
 253  410.5464
 254  341.7744
 255  449.9291
 256  352.908
 257  361.5276
 258  350.6091
 259  420.0846
 260  339.9597
 261  303.7461
 262  314.1067
 263  433.5535
 264  402.0167
 265  354.1042
 266  404.1833
 267  412.8074
 268  333.0627
 269  370.5229
 270  348.1654
 271  372.3407
 272  449.1466
 273  549.3623
 274  509.2679
 275  357.3613
 276  442.8384
 277  441.572
 278  403.2266
 279  452.8115
 280  402.7473
 281  368.6447
 282  428.9106
 283  484.0924
 284  361.6932
 285  286.0459
 286  349.5619
 287  446.1292
 288  499.079
 289  436.4385
 290  445.6577
 291  531.2294
 292  415.9675
 293  398.105
 294  415.7219
 295  473.2924
 296  428.3501
 297  361.1712
 298  369.3257
 299  354.4492
 300  417.42
 301  440.1841
 302  345.9115
 303  398.8426
 304  325.8372
 305  360.8415
 306  335.5296
 307  367.7585
 308  437.3632
 309  380.7327
 310  454.7528
 311  466.9422
 312  548.1467
 313  508.4909
 314  498.7787
 315  555.7168
 316  423.3969
 317  385.2383
 318  389.8286
 319  445.0806
 320  418.4745
 321  346.584
 322  351.0074
 323  405.1497
 324  427.6679
 325  386.0122
 326  337.5799
 327  391.2301
 328  337.2545
 329  328.0548
 330  481.9331
 331  487.4027
 332  576.8948
 333  580.4293
 334  493.075
 335  394.25
 336  353.2686
 337  412.9607
 338  394.9124
 339  349.0111
 340  325.9886
 341  317.0186
 342  242.2491
 343  300.2133
 344  393.5255
 345  463.105
 346  448.174
 347  425.5889
 348  402.3794
 349  365.9345
 350  187.9353
 351  344.1129
 352  440.7967
 353  406.9307
 354  363.6489
 355  420.157
 356  448.4908
 357  332.6748
 358  371.8526
 359  508.316
 360  413.1008
 361  380.4539
 362  395.9506
 363  397.9116
 364  271.3763
 365  251.0904
 366  266.4566
 367  282.5634
 368  318.268
 369  308.9581
 370  353.1001
 371  349.0334
 372  320.8951
 373  426.9979
 374  455.6003
 375  342.6361
 376  328.0815
 377  319.5711
 378  273.2926
 379  341.4951
 380  421.6735
 381  386.818
 382  431.3936
 383  477.667
 384  417.4153
 385  356.5391
 386  443.1039
 387  504.6068
 388  432.1743
 389  422.0779
 390  350.4669
 391  349.4015
 392  414.9219
 393  421.9981
 394  420.7776
 395  361.5797
 396  399.0457
 397  390.182
 398  421.0446
 399  361.2687
 400  351.7159
 401  464.9568
 402  362.007
 403  462.2082
 404  499.5539
 405  462.6026
 406  471.5996
 407  452.1168
 408  507.4864
 409  455.6977
 410  400.203
 411  418.6099
 412  451.6858
 413  495.9084
 414  443.264
 415  502.0699
 416  417.6027
 417  413.1993
 418  445.1246
 419  436.6365
 420  435.0287
 421  384.4778
 422  395.9476
 423  499.2703
 424  537.2354
 425  448.082
 426  349.7415
 427  444.2943
 428  425.9321
 429  348.5478
 430  335.7034
 431  447.9641
 432  427.3631
 433  349.6462
 434  298.4394
 435  250.934
 436  369.705
 437  347.9298
 438  346.6824
 439  422.4615
 440  466.5226
 441  428.1345
 442  433.5461
 443  403.7244
 444  486.8617
 445  463.7871
 446  377.9233
 447  429.7395
 448  482.006
 449  356.4322
 450  375.2989
 451  297.5716
 452  313.2037
 453  413.8271
 454  378.238
 455  364.6996
 456  440.2522
 457  394.3163
 458  367.4699
 459  443.0406
 460  345.7232
 461  251.2605
 462  350.497
 463  426.2775
 464  314.2189
 465  286.4275
 466  342.5297
 467  361.391
 468  319.7334
 469  340.6475
 470  295.2594
 471  375.6321
 472  453.3477
 473  408.6979
 474  318.4924
 475  359.9015
 476  354.1248
 477  339.4359
 478  367.4172
 479  335.2823
 480  362.2292
 481  467.7636
 482  367.0496
 483  307.9377
 484  426.9371
 485  342.1864
 486  225.2148
 487  246.5035
 488  319.9569
 489  302.0485
 490  439.2458
 491  405.3118
 492  365.5338
 493  327.5688
 494  318.7411
 495  277.1745
 496  237.2475
 497  256.0656
 498  319.9624
 499  315.1827
 500  372.1403
 501  438.6358
 502  427.5105
 503  334.8508
 504  356.1941
 505  315.825
 506  397.7928
 507  431.0255
 508  418.9959
 509  372.283
 510  446.9542
 511  508.118
