# Input file       =  1195947911.114979_cleaned.dat
# Candidate        =  PSR_0332+5434
# Telescope        =  AR
# Epoch_topo       =  58085.989503645593
# Epoch_bary       =  N/A
# T_sample         =  0.002
# Data Folded      =  7340032
# Data Avg         =  0.0269919066839436
# Data StdDev      =  1.00015765790638 
# Profile Bins     =  512
# Profile Avg      =  386.95769151787  
# Profile StdDev   =  119.751913236606 
# Reduced chi-sqr  =  0.733
# Prob(Noise)      <  1   (~0.0 sigma)
# P_topo (ms)      =  714.523948195912  +/- 0.000287
# P'_topo (s/s)    =  -0                +/- 1.52e-10
# P''_topo (s/s^2) =  0                 +/- 6.69e-14
# P_bary (ms)      =  N/A
# P'_bary (s/s)    =  N/A
# P''_bary (s/s^2) =  N/A
# P_orb (s)        =  N/A
# asin(i)/c (s)    =  N/A
# eccentricity     =  N/A
# w (rad)          =  N/A
# T_peri           =  N/A
######################################################
   0  636.0449
   1  667.7263
   2  482.9122
   3  501.4191
   4  368.398
   5  327.9652
   6  301.3069
   7  284.463
   8  323.908
   9  286.3462
  10  384.8645
  11  429.9165
  12  393.0517
  13  415.5643
  14  426.9648
  15  401.5489
  16  384.1778
  17  392.0593
  18  372.3835
  19  333.8822
  20  305.4442
  21  313.529
  22  330.4649
  23  331.0915
  24  363.2086
  25  397.9873
  26  381.683
  27  433.8251
  28  364.2398
  29  268.9164
  30  283.3983
  31  309.7687
  32  375.3836
  33  367.6899
  34  354.473
  35  303.9855
  36  308.9297
  37  358.3412
  38  364.5328
  39  422.43
  40  401.8092
  41  480.102
  42  458.4309
  43  376.7933
  44  383.6772
  45  371.2004
  46  410.6729
  47  428.4693
  48  461.4487
  49  326.7249
  50  420.8672
  51  510.2948
  52  318.4559
  53  269.9827
  54  361.0576
  55  421.6496
  56  395.4018
  57  360.066
  58  394.6397
  59  381.9307
  60  384.0254
  61  400.994
  62  435.4581
  63  428.0279
  64  321.8658
  65  384.9977
  66  335.3956
  67  304.985
  68  399.4858
  69  387.1182
  70  262.4709
  71  371.7777
  72  406.3624
  73  386.3303
  74  331.9503
  75  395.4
  76  384.2817
  77  386.8456
  78  505.9925
  79  457.1414
  80  415.5831
  81  352.5169
  82  395.7161
  83  320.5449
  84  349.0465
  85  367.6831
  86  335.0105
  87  418.6171
  88  359.7202
  89  342.8277
  90  311.1055
  91  313.7496
  92  364.6243
  93  329.0906
  94  262.7009
  95  237.5371
  96  363.5077
  97  362.9633
  98  361.0792
  99  276.3063
 100  329.5588
 101  380.667
 102  421.4456
 103  382.2949
 104  334.6193
 105  307.2236
 106  369.4841
 107  398.5372
 108  397.2973
 109  393.4387
 110  477.5725
 111  436.0521
 112  380.1431
 113  498.9605
 114  412.0309
 115  369.3389
 116  364.0849
 117  357.6418
 118  441.3513
 119  411.0078
 120  404.1671
 121  332.1718
 122  310.343
 123  438.9399
 124  400.9941
 125  379.4598
 126  347.5966
 127  285.5311
 128  250.5489
 129  294.6277
 130  308.5044
 131  308.0146
 132  354.1079
 133  351.8869
 134  313.9795
 135  249.3984
 136  252.6042
 137  388.7077
 138  388.1466
 139  292.7052
 140  253.4
 141  411.6143
 142  426.8264
 143  349.9353
 144  316.9257
 145  256.9137
 146  232.2244
 147  303.8268
 148  228.1325
 149  223.7213
 150  225.8061
 151  298.1818
 152  172.3996
 153  143.8693
 154  237.8343
 155  292.9794
 156  337.1052
 157  291.317
 158  424.6134
 159  487.8313
 160  475.2046
 161  496.3016
 162  362.0198
 163  270.7239
 164  292.8507
 165  366.1754
 166  402.9394
 167  339.72
 168  179.6732
 169  177.8587
 170  287.6797
 171  469.437
 172  409.2193
 173  397.0391
 174  381.1971
 175  324.7302
 176  312.0567
 177  349.3689
 178  377.1303
 179  370.6254
 180  399.5719
 181  376.2165
 182  335.247
 183  328.8404
 184  407.4804
 185  359.2132
 186  448.7921
 187  426.3281
 188  440.2483
 189  419.7373
 190  352.0634
 191  460.7544
 192  536.0292
 193  517.8918
 194  630.6454
 195  434.4147
 196  379.0088
 197  369.7865
 198  333.5504
 199  446.9254
 200  576.5971
 201  621.7383
 202  613.843
 203  422.752
 204  413.3621
 205  460.6702
 206  486.4804
 207  429.6911
 208  413.0869
 209  424.0896
 210  372.7064
 211  341.4228
 212  324.6846
 213  324.052
 214  400.8911
 215  474.7226
 216  463.4525
 217  400.9771
 218  395.6204
 219  445.0432
 220  393.6523
 221  369.2095
 222  391.1165
 223  382.7846
 224  407.1471
 225  419.7042
 226  392.993
 227  518.9014
 228  526.0698
 229  504.8245
 230  432.1825
 231  475.5808
 232  457.3108
 233  447.1291
 234  395.7178
 235  409.8634
 236  449.2581
 237  570.7313
 238  574.6508
 239  399.9496
 240  462.9362
 241  485.3612
 242  463.45
 243  472.8509
 244  461.0735
 245  466.2937
 246  407.3846
 247  401.7586
 248  432.9938
 249  365.125
 250  257.5607
 251  377.1346
 252  470.7408
 253  337.4725
 254  422.4931
 255  386.7893
 256  354.1851
 257  347.1355
 258  399.0353
 259  397.738
 260  289.323
 261  329.1243
 262  349.8927
 263  457.4648
 264  345.1978
 265  388.6606
 266  421.5489
 267  358.433
 268  356.8932
 269  362.2936
 270  358.0282
 271  403.71
 272  503.808
 273  558.8904
 274  400.305
 275  389.0833
 276  469.3313
 277  419.6517
 278  423.6011
 279  435.8201
 280  362.2081
 281  400.453
 282  476.4748
 283  433.0709
 284  286.7267
 285  331.9513
 286  392.1064
 287  483.716
 288  482.6916
 289  406.3318
 290  537.0826
 291  454.0355
 292  405.1065
 293  403.6765
 294  453.1734
 295  445.2281
 296  377.2498
 297  366.0147
 298  354.812
 299  385.5598
 300  444.3472
 301  390.7831
 302  372.3976
 303  362.6731
 304  335.9108
 305  358.8655
 306  339.751
 307  418.0156
 308  399.9355
 309  418.7828
 310  461.0135
 311  511.7666
 312  540.9974
 313  488.7966
 314  535.4828
 315  504.04
 316  369.9277
 317  399.8683
 318  403.033
 319  464.7165
 320  360.0024
 321  350.7066
 322  363.427
 323  435.2311
 324  415.9272
 325  342.5021
 326  364.475
 327  382.4061
 328  308.261
 329  423.0392
 330  482.2464
 331  525.472
 332  609.8184
 333  529.4122
 334  436.2376
 335  350.3884
 336  382.7975
 337  424.5927
 338  360.6729
 339  338.3734
 340  331.7609
 341  267.2346
 342  255.0522
 343  356.2697
 344  436.7228
 345  467.4612
 346  419.5678
 347  418.8012
 348  415.7062
 349  243.2392
 350  245.0357
 351  430.6229
 352  421.8312
 353  371.3645
 354  379.7406
 355  463.4636
 356  387.9724
 357  310.4506
 358  469.8917
 359  473.8236
 360  379.5843
 361  380.4042
 362  406.1714
 363  342.5749
 364  245.0596
 365  261.4507
 366  268.2797
 367  318.6408
 368  314.1059
 369  326.6017
 370  345.6212
 371  340.799
 372  357.8211
 373  476.8516
 374  389.8048
 375  311.3628
 376  346.6979
 377  273.162
 378  303.7799
 379  398.8064
 380  407.9495
 381  390.9842
 382  479.0074
 383  450.7268
 384  382.1541
 385  373.6993
 386  515.5662
 387  452.8843
 388  418.3395
 389  390.134
 390  340.2974
 391  380.236
 392  424.4856
 393  429.7397
 394  394.8342
 395  382.2863
 396  371.2485
 397  418.705
 398  403.0383
 399  334.2235
 400  421.4187
 401  406.7572
 402  406.2035
 403  498.3844
 404  471.9858
 405  465.746
 406  458.2925
 407  493.4034
 408  481.0282
 409  419.7299
 410  421.9026
 411  407.9748
 412  501.6607
 413  446.9671
 414  489.355
 415  482.2253
 416  369.2261
 417  463.1377
 418  420.2284
 419  464.1823
 420  382.2285
 421  381.5087
 422  451.4162
 423  547.5128
 424  484.8382
 425  386.7204
 426  392.893
 427  456.9401
 428  385.148
 429  305.0863
 430  417.4823
 431  440.8349
 432  384.0139
 433  324.9523
 434  249.8755
 435  316.6527
 436  367.5426
 437  347.8281
 438  373.771
 439  462.5326
 440  430.8108
 441  443.6611
 442  416.2141
 443  429.6559
 444  510.8465
 445  409.3495
 446  389.2776
 447  477.424
 448  407.3936
 449  374.1888
 450  334.1323
 451  274.8461
 452  370.3301
 453  431.0893
 454  338.4806
 455  409.1032
 456  432.0782
 457  363.2361
 458  427.4727
 459  391.1824
 460  273.4779
 461  283.8561
 462  431.9027
 463  373.8392
 464  275.2584
 465  331.5462
 466  355.3052
 467  332.3938
 468  341.1693
 469  297.171
 470  342.3151
 471  405.5631
 472  471.9183
 473  318.0625
 474  354.4809
 475  349.3764
 476  356.369
 477  350.3916
 478  361.7837
 479  327.3527
 480  432.7368
 481  432.6415
 482  293.381
 483  382.3284
 484  416.3369
 485  264.2592
 486  200.7749
 487  314.6847
 488  293.9029
 489  390.3713
 490  418.7051
 491  381.1496
 492  348.6373
 493  327.856
 494  296.0415
 495  242.627
 496  250.6638
 497  289.3888
 498  320.2247
 499  340.7075
 500  407.1969
 501  473.3688
 502  336.5656
 503  379.4514
 504  303.3491
 505  371.2807
 506  407.2239
 507  428.9809
 508  398.8815
 509  380.576
 510  501.834
 511  524.1089
