# Input file       =  1196621800.117551_cleaned.dat
# Candidate        =  PSR_0332+5434
# Telescope        =  AR
# Epoch_topo       =  58093.789144879061
# Epoch_bary       =  N/A
# T_sample         =  0.002
# Data Folded      =  7340032
# Data Avg         =  0.0381894866976501
# Data StdDev      =  1.00001339790657 
# Profile Bins     =  512
# Profile Avg      =  547.476851864668 
# Profile StdDev   =  119.734640548801 
# Reduced chi-sqr  =  0.731
# Prob(Noise)      <  1   (~0.0 sigma)
# P_topo (ms)      =  714.531622482967  +/- 0.00015
# P'_topo (s/s)    =  -0                +/- 7.92e-11
# P''_topo (s/s^2) =  0                 +/- 3.5e-14
# P_bary (ms)      =  N/A
# P'_bary (s/s)    =  N/A
# P''_bary (s/s^2) =  N/A
# P_orb (s)        =  N/A
# asin(i)/c (s)    =  N/A
# eccentricity     =  N/A
# w (rad)          =  N/A
# T_peri           =  N/A
######################################################
   0  757.6458
   1  913.4232
   2  841.179
   3  706.4466
   4  568.1541
   5  432.3482
   6  459.0158
   7  481.5137
   8  561.3522
   9  541.2945
  10  520.9006
  11  647.0219
  12  664.4556
  13  576.282
  14  615.5457
  15  527.5028
  16  639.6954
  17  584.8948
  18  545.8156
  19  622.6652
  20  569.0845
  21  612.4421
  22  584.4735
  23  542.756
  24  478.8566
  25  358.7158
  26  398.1411
  27  577.9984
  28  558.3967
  29  546.8513
  30  593.807
  31  585.8693
  32  586.8013
  33  552.6929
  34  589.8054
  35  669.551
  36  544.5885
  37  456.0818
  38  453.0501
  39  531.515
  40  605.7939
  41  662.8023
  42  701.7422
  43  624.9147
  44  600.4191
  45  575.243
  46  576.9189
  47  551.9796
  48  720.3121
  49  693.5054
  50  522.4622
  51  392.1331
  52  522.9583
  53  661.1669
  54  604.9328
  55  608.7542
  56  617.8348
  57  613.4989
  58  464.1665
  59  566.6517
  60  574.5643
  61  572.4433
  62  613.0939
  63  615.8618
  64  588.6217
  65  521.6664
  66  552.9151
  67  611.1735
  68  587.6525
  69  637.6313
  70  492.4312
  71  477.2009
  72  573.4806
  73  530.7419
  74  523.8105
  75  474.6156
  76  516.8062
  77  634.9067
  78  475.1053
  79  462.1268
  80  515.4681
  81  651.5179
  82  662.7235
  83  589.5057
  84  482.969
  85  587.8687
  86  457.2058
  87  529.252
  88  566.4116
  89  509.9664
  90  472.6997
  91  504.0518
  92  516.9323
  93  494.0923
  94  479.1344
  95  545.7626
  96  539.2329
  97  535.7106
  98  550.1628
  99  449.0584
 100  475.0963
 101  507.9344
 102  407.7363
 103  417.0803
 104  394.6245
 105  395.9137
 106  471.0583
 107  357.2621
 108  464.0558
 109  648.6569
 110  631.4039
 111  620.4833
 112  444.6988
 113  489.2941
 114  516.1824
 115  576.6239
 116  579.4703
 117  528.2121
 118  408.6061
 119  425.5325
 120  549.0732
 121  450.2443
 122  378.815
 123  459.1509
 124  529.9288
 125  516.7656
 126  496.6272
 127  549.2166
 128  593.9571
 129  563.6457
 130  505.4136
 131  578.6815
 132  578.6107
 133  513.6395
 134  491.2742
 135  468.9101
 136  498.7712
 137  540.3168
 138  524.4529
 139  516.3871
 140  575.0303
 141  652.442
 142  649.5446
 143  543.7607
 144  544.4618
 145  572.1307
 146  607.2562
 147  563.8459
 148  523.6779
 149  484.1765
 150  470.9679
 151  535.8752
 152  540.0192
 153  540.1146
 154  516.0618
 155  556.834
 156  534.7402
 157  458.4817
 158  606.6005
 159  598.6264
 160  542.707
 161  558.98
 162  411.068
 163  413.6485
 164  505.1475
 165  484.2741
 166  547.124
 167  616.424
 168  574.061
 169  595.2518
 170  536.9836
 171  520.6692
 172  582.5543
 173  481.1852
 174  495.7795
 175  574.2133
 176  568.8545
 177  659.6945
 178  460.9206
 179  430.5952
 180  372.7482
 181  438.4432
 182  544.1386
 183  548.6978
 184  540.1563
 185  484.7699
 186  513.6557
 187  551.6703
 188  557.0076
 189  464.4168
 190  419.3051
 191  458.0591
 192  523.1014
 193  471.9699
 194  513.3942
 195  460.0846
 196  489.7673
 197  561.0392
 198  582.5916
 199  497.819
 200  427.8157
 201  497.0768
 202  499.6994
 203  490.579
 204  440.3046
 205  478.5945
 206  560.7213
 207  477.6029
 208  499.692
 209  565.3043
 210  594.9388
 211  610.4966
 212  588.7161
 213  518.2222
 214  555.9486
 215  576.2597
 216  609.0807
 217  612.8635
 218  524.297
 219  514.3306
 220  561.5636
 221  613.8086
 222  626.4138
 223  569.9009
 224  546.1365
 225  519.5733
 226  531.1762
 227  525.0751
 228  508.2202
 229  484.4821
 230  477.1725
 231  561.6951
 232  559.3925
 233  521.381
 234  570.6794
 235  636.8551
 236  657.3762
 237  604.1464
 238  569.8624
 239  615.2982
 240  574.9969
 241  601.886
 242  644.3453
 243  620.7205
 244  568.1548
 245  509.5965
 246  531.5028
 247  577.8965
 248  621.3856
 249  558.8669
 250  506.4377
 251  509.1544
 252  551.2721
 253  558.4131
 254  501.4417
 255  411.2177
 256  511.9889
 257  601.6971
 258  654.0345
 259  618.2247
 260  570.515
 261  529.5179
 262  459.5392
 263  475.2882
 264  620.9729
 265  658.2724
 266  535.1928
 267  540.1396
 268  610.5773
 269  636.4146
 270  575.1228
 271  572.5177
 272  610.3615
 273  628.774
 274  697.418
 275  627.7809
 276  644.2943
 277  588.4683
 278  616.9457
 279  673.1805
 280  613.7682
 281  544.2065
 282  482.6396
 283  527.4435
 284  517.0503
 285  543.6677
 286  487.8667
 287  581.9861
 288  540.0908
 289  556.5753
 290  502.7784
 291  463.9308
 292  534.0509
 293  515.0005
 294  464.4509
 295  500.2776
 296  547.0266
 297  546.9691
 298  453.8055
 299  552.3604
 300  630.6119
 301  570.2867
 302  563.7764
 303  513.4801
 304  460.4879
 305  506.1244
 306  537.1014
 307  573.5677
 308  566.8682
 309  547.3082
 310  585.2294
 311  577.0165
 312  577.3834
 313  580.9324
 314  640.4534
 315  628.7651
 316  692.497
 317  706.1929
 318  596.9852
 319  509.5248
 320  569.9044
 321  591.8894
 322  525.0895
 323  452.1687
 324  445.0207
 325  552.8113
 326  499.6155
 327  528.3593
 328  494.2773
 329  524.5533
 330  497.7705
 331  448.4463
 332  451.5936
 333  545.0867
 334  558.2383
 335  522.9433
 336  443.9532
 337  494.0535
 338  620.6901
 339  480.6495
 340  461.6612
 341  534.4819
 342  610.8578
 343  368.2945
 344  529.0132
 345  590.1019
 346  602.0641
 347  553.7762
 348  524.5578
 349  514.2746
 350  581.832
 351  590.9163
 352  631.8207
 353  646.5732
 354  504.0913
 355  496.7998
 356  590.8775
 357  583.9518
 358  538.5042
 359  418.0593
 360  483.0843
 361  454.507
 362  523.1981
 363  550.6183
 364  590.3395
 365  631.9068
 366  629.3997
 367  540.0845
 368  495.6884
 369  531.751
 370  612.9217
 371  573.2989
 372  498.8067
 373  489.6073
 374  576.0143
 375  582.1661
 376  554.2379
 377  481.1249
 378  593.0304
 379  521.4565
 380  468.9087
 381  422.7319
 382  446.5045
 383  477.011
 384  499.0284
 385  552.4868
 386  480.9248
 387  473.2071
 388  569.5616
 389  653.9761
 390  602.2806
 391  535.7463
 392  546.8258
 393  432.7426
 394  476.9023
 395  530.8544
 396  468.047
 397  604.1837
 398  623.7557
 399  523.4688
 400  567.1602
 401  425.1564
 402  287.672
 403  393.8083
 404  472.0279
 405  493.5482
 406  457.7577
 407  544.7601
 408  568.6634
 409  453.6281
 410  425.8042
 411  517.6319
 412  634.69
 413  675.2177
 414  601.3003
 415  491.5577
 416  457.4568
 417  537.66
 418  621.871
 419  610.6512
 420  618.51
 421  636.8273
 422  558.4122
 423  647.8651
 424  678.6757
 425  593.1559
 426  736.4976
 427  702.5947
 428  633.9534
 429  498.1545
 430  560.056
 431  624.9119
 432  682.6163
 433  689.6422
 434  639.2793
 435  606.4519
 436  580.8738
 437  663.5801
 438  615.648
 439  580.4558
 440  591.4165
 441  535.7645
 442  492.941
 443  517.9987
 444  541.0685
 445  519.4546
 446  488.9159
 447  455.8049
 448  440.4904
 449  508.1985
 450  535.4554
 451  546.2692
 452  558.4484
 453  659.4442
 454  531.1165
 455  452.0458
 456  450.6967
 457  518.8466
 458  606.1419
 459  627.8389
 460  602.9949
 461  593.4421
 462  564.285
 463  587.4434
 464  589.3254
 465  458.0069
 466  537.15
 467  538.3413
 468  568.8417
 469  451.0521
 470  366.6315
 471  473.9095
 472  498.2397
 473  524.9687
 474  484.8714
 475  481.2453
 476  487.783
 477  479.441
 478  510.9343
 479  606.4824
 480  721.1729
 481  599.6224
 482  559.9868
 483  617.7786
 484  586.9197
 485  507.7054
 486  544.702
 487  522.0433
 488  557.618
 489  520.2524
 490  530.9775
 491  574.687
 492  599.9175
 493  618.9689
 494  571.8216
 495  569.6894
 496  622.0825
 497  547.6711
 498  507.6841
 499  511.9619
 500  502.4293
 501  503.9868
 502  569.9315
 503  700.8106
 504  628.9102
 505  529.1739
 506  576.9689
 507  610.3213
 508  591.8149
 509  608.962
 510  737.1869
 511  859.798
