# Input file       =  1196536233.113593_cleaned.dat
# Candidate        =  PSR_0332+5434
# Telescope        =  AR
# Epoch_topo       =  58092.798786036954
# Epoch_bary       =  N/A
# T_sample         =  0.002
# Data Folded      =  7340032
# Data Avg         =  0.0318149628461818
# Data StdDev      =  1.00005022415676 
# Profile Bins     =  512
# Profile Avg      =  456.100965585362 
# Profile StdDev   =  119.739049867555 
# Reduced chi-sqr  =  0.842
# Prob(Noise)      <  0.996   (~0.0 sigma)
# P_topo (ms)      =  714.530617794923  +/- 0.000649
# P'_topo (s/s)    =  -0                +/- 3.43e-10
# P''_topo (s/s^2) =  0                 +/- 1.51e-13
# P_bary (ms)      =  N/A
# P'_bary (s/s)    =  N/A
# P''_bary (s/s^2) =  N/A
# P_orb (s)        =  N/A
# asin(i)/c (s)    =  N/A
# eccentricity     =  N/A
# w (rad)          =  N/A
# T_peri           =  N/A
######################################################
   0  758.9534
   1  596.5991
   2  573.3045
   3  568.9794
   4  504.3813
   5  438.7859
   6  431.3872
   7  420.2754
   8  431.4475
   9  486.862
  10  497.4255
  11  491.5869
  12  374.3048
  13  435.9663
  14  401.757
  15  347.0255
  16  397.6706
  17  365.171
  18  357.4929
  19  528.5182
  20  531.7553
  21  411.4178
  22  478.0854
  23  455.6245
  24  342.6129
  25  417.9162
  26  497.6154
  27  528.0424
  28  477.5453
  29  395.6905
  30  332.5811
  31  505.2701
  32  611.3342
  33  466.3478
  34  501.3628
  35  653.1423
  36  563.7452
  37  529.4926
  38  606.8362
  39  510.0201
  40  622.9094
  41  478.3042
  42  423.3933
  43  527.1622
  44  591.4885
  45  516.121
  46  461.4772
  47  459.1207
  48  474.0959
  49  505.3299
  50  555.076
  51  528.9178
  52  478.8555
  53  566.6789
  54  602.9165
  55  557.1262
  56  535.3475
  57  430.607
  58  407.0533
  59  428.9256
  60  485.8689
  61  453.6432
  62  495.1939
  63  491.3368
  64  404.421
  65  513.9409
  66  503.7251
  67  486.0895
  68  448.6292
  69  444.8778
  70  481.712
  71  400.2811
  72  400.3127
  73  391.7678
  74  410.3672
  75  397.1566
  76  519.0638
  77  481.6033
  78  507.9254
  79  411.0212
  80  342.3215
  81  356.6919
  82  385.0231
  83  590.4012
  84  567.7289
  85  501.4417
  86  521.9998
  87  438.7412
  88  322.749
  89  417.3046
  90  546.3217
  91  546.471
  92  441.3793
  93  404.5971
  94  395.0211
  95  433.9165
  96  562.6666
  97  490.7442
  98  435.9263
  99  508.4386
 100  522.9231
 101  358.1764
 102  334.6595
 103  498.0894
 104  558.8844
 105  475.337
 106  468.7589
 107  443.4036
 108  488.4547
 109  463.7263
 110  440.0393
 111  476.4253
 112  477.3185
 113  444.5795
 114  452.8595
 115  489.1811
 116  538.7665
 117  456.4178
 118  412.1361
 119  358.09
 120  437.4243
 121  539.2364
 122  429.1615
 123  466.4127
 124  533.0488
 125  490.3354
 126  377.3459
 127  442.685
 128  469.4697
 129  362.0887
 130  378.1729
 131  440.4986
 132  412.1272
 133  471.8418
 134  535.8052
 135  533.7603
 136  406.376
 137  374.3596
 138  466.6389
 139  558.4068
 140  372.8037
 141  419.2122
 142  485.3542
 143  550.087
 144  480.4004
 145  402.9444
 146  360.4254
 147  495.494
 148  472.6258
 149  549.9669
 150  599.7066
 151  529.7617
 152  435.8594
 153  462.9449
 154  606.0305
 155  670.223
 156  500.0234
 157  485.6956
 158  437.1548
 159  388.1954
 160  439.3932
 161  437.9048
 162  405.118
 163  392.3763
 164  413.4868
 165  457.2082
 166  513.626
 167  400.6644
 168  429.5995
 169  460.9966
 170  496.205
 171  568.143
 172  443.2018
 173  489.6379
 174  506.3922
 175  452.8716
 176  486.562
 177  458.4273
 178  467.0705
 179  471.0679
 180  582.6678
 181  522.3479
 182  494.9359
 183  471.5398
 184  485.1049
 185  591.5518
 186  477.0281
 187  487.6119
 188  471.6783
 189  440.929
 190  434.0529
 191  368.0357
 192  422.4561
 193  347.4734
 194  428.6811
 195  447.399
 196  415.3799
 197  319.7965
 198  406.1742
 199  511.1639
 200  502.1478
 201  448.6811
 202  455.1371
 203  425.1705
 204  472.0991
 205  413.5418
 206  492.0304
 207  522.4905
 208  477.1012
 209  392.6165
 210  323.962
 211  429.9694
 212  372.2781
 213  391.2477
 214  337.8234
 215  472.0048
 216  526.6839
 217  374.5741
 218  279.7075
 219  344.8024
 220  406.2288
 221  376.0481
 222  467.0834
 223  420.7982
 224  364.0554
 225  392.3189
 226  271.4557
 227  346.9819
 228  358.6122
 229  396.8443
 230  415.6587
 231  540.7823
 232  548.9351
 233  541.7781
 234  362.87
 235  424.8518
 236  621.4905
 237  656.9445
 238  526.6431
 239  516.6387
 240  496.4445
 241  452.3185
 242  424.1619
 243  519.5782
 244  594.4298
 245  446.8894
 246  438.8048
 247  444.2016
 248  453.5207
 249  471.6459
 250  544.9355
 251  515.4583
 252  482.6898
 253  587.0814
 254  712.1855
 255  576.6926
 256  551.4647
 257  408.0172
 258  380.9533
 259  460.529
 260  467.8255
 261  426.7176
 262  462.9966
 263  556.9456
 264  524.4651
 265  344.0489
 266  528.0693
 267  476.1432
 268  416.3335
 269  480.6689
 270  484.0759
 271  354.1961
 272  381.3898
 273  425.0406
 274  432.1933
 275  410.384
 276  408.9722
 277  416.2176
 278  432.4116
 279  462.9782
 280  562.0042
 281  432.2249
 282  350.3837
 283  406.0638
 284  460.0095
 285  304.9572
 286  291.2895
 287  433.3457
 288  484.7785
 289  496.6233
 290  478.3317
 291  470.8153
 292  395.1692
 293  427.0738
 294  456.1636
 295  442.855
 296  474.7548
 297  525.9477
 298  401.2359
 299  386.8907
 300  381.4817
 301  329.7913
 302  404.3535
 303  393.8365
 304  406.8663
 305  331.7342
 306  478.7987
 307  483.3255
 308  450.3347
 309  336.946
 310  411.6135
 311  404.632
 312  260.3926
 313  381.6158
 314  329.8946
 315  365.6858
 316  426.66
 317  347.0898
 318  192.8445
 319  247.6957
 320  380.3278
 321  295.4194
 322  409.6571
 323  393.3851
 324  276.5951
 325  296.5919
 326  243.8203
 327  276.1293
 328  447.2243
 329  526.762
 330  449.5557
 331  333.74
 332  423.8077
 333  445.8622
 334  371.6623
 335  395.0688
 336  375.2695
 337  277.2885
 338  280.449
 339  361.2419
 340  431.3483
 341  450.1911
 342  352.9722
 343  473.5784
 344  542.9406
 345  652.284
 346  434.8341
 347  507.4789
 348  441.9405
 349  469.3362
 350  507.794
 351  450.7973
 352  480.9285
 353  501.6089
 354  593.7594
 355  612.9679
 356  529.9742
 357  489.7134
 358  476.4997
 359  426.3893
 360  508.4445
 361  488.394
 362  496.4659
 363  492.3455
 364  548.9952
 365  536.6019
 366  532.4155
 367  505.8849
 368  481.25
 369  483.5514
 370  514.3156
 371  449.6181
 372  380.8885
 373  443.9466
 374  414.3551
 375  497.0591
 376  553.3062
 377  541.8565
 378  490.957
 379  546.8262
 380  433.5268
 381  413.9604
 382  397.5263
 383  507.9053
 384  496.0187
 385  448.5339
 386  583.6545
 387  566.6591
 388  488.5989
 389  467.3763
 390  486.169
 391  574.3307
 392  457.4228
 393  519.2059
 394  506.1443
 395  422.5762
 396  350.9111
 397  344.9436
 398  400.9627
 399  382.5035
 400  410.9217
 401  464.6599
 402  474.6597
 403  465.2002
 404  351.7235
 405  434.9301
 406  401.5126
 407  326.096
 408  446.8957
 409  463.2171
 410  453.2383
 411  472.9342
 412  395.4513
 413  446.4842
 414  318.4618
 415  417.6507
 416  559.1719
 417  406.892
 418  370.0506
 419  427.1124
 420  376.1866
 421  384.7305
 422  539.6514
 423  510.9108
 424  384.3978
 425  418.7571
 426  456.8497
 427  338.9166
 428  226.125
 429  387.546
 430  512.673
 431  385.8365
 432  372.4029
 433  338.6541
 434  333.3627
 435  354.1191
 436  410.8345
 437  485.9688
 438  591.4306
 439  543.8166
 440  481.6763
 441  480.6649
 442  398.4496
 443  341.0856
 444  406.9261
 445  461.9707
 446  461.0958
 447  487.4196
 448  483.9824
 449  461.8089
 450  341.7184
 451  430.0416
 452  546.5696
 453  541.1557
 454  425.0722
 455  386.1747
 456  342
 457  414.7964
 458  575.2732
 459  573.2502
 460  576.4681
 461  485.0779
 462  439.3211
 463  370.1261
 464  338.2776
 465  438.3846
 466  514.8902
 467  385.7036
 468  399.5754
 469  419.5352
 470  372.8656
 471  349.4256
 472  443.6265
 473  528.8928
 474  415.1711
 475  334.3726
 476  430.1457
 477  434.9887
 478  398.4608
 479  580.7262
 480  557.5352
 481  505.8079
 482  477.6702
 483  366.0766
 484  450.1682
 485  493.3998
 486  492.4432
 487  460.5924
 488  351.1591
 489  470.4759
 490  521.6052
 491  424.3563
 492  530.2245
 493  473.8821
 494  453.6491
 495  460.5494
 496  494.4179
 497  556.0071
 498  577.8876
 499  536.9393
 500  492.5218
 501  449.0208
 502  429.5619
 503  537.0714
 504  501.0785
 505  485.149
 506  605.4778
 507  576.0686
 508  594.7532
 509  702.9534
 510  667.0311
 511  696.9244
