# Input file       =  1196880352.139073_cleaned.dat
# Candidate        =  PSR_0332+5434
# Telescope        =  AR
# Epoch_topo       =  58096.781645128161
# Epoch_bary       =  N/A
# T_sample         =  0.002
# Data Folded      =  7340032
# Data Avg         =  0.0286504844731627
# Data StdDev      =  1.00002199604454 
# Profile Bins     =  512
# Profile Avg      =  410.903266360587 
# Profile StdDev   =  119.735670029967 
# Reduced chi-sqr  =  0.783
# Prob(Noise)      <  1   (~0.0 sigma)
# P_topo (ms)      =  714.534674841304  +/- 0.000908
# P'_topo (s/s)    =  -0                +/- 4.79e-10
# P''_topo (s/s^2) =  0                 +/- 2.12e-13
# P_bary (ms)      =  N/A
# P'_bary (s/s)    =  N/A
# P''_bary (s/s^2) =  N/A
# P_orb (s)        =  N/A
# asin(i)/c (s)    =  N/A
# eccentricity     =  N/A
# w (rad)          =  N/A
# T_peri           =  N/A
######################################################
   0  813.7219
   1  818.2441
   2  747.1693
   3  582.8262
   4  432.4654
   5  429.5276
   6  404.5375
   7  414.5878
   8  404.2148
   9  382.5891
  10  378.879
  11  495.721
  12  465.3882
  13  427.0215
  14  431.0567
  15  298.7843
  16  417.8855
  17  335.6541
  18  323.7948
  19  388.9837
  20  416.8983
  21  451.3689
  22  502.74
  23  443.3764
  24  385.3818
  25  405.6573
  26  516.0712
  27  502.4021
  28  434.4795
  29  481.9319
  30  349.4791
  31  514.0283
  32  444.5623
  33  463.2197
  34  451.3532
  35  449.5137
  36  558.9291
  37  482.4969
  38  408.1027
  39  464.6982
  40  480.3906
  41  334.2437
  42  338.6758
  43  416.359
  44  512.1046
  45  426.4248
  46  410.804
  47  381.257
  48  433.9214
  49  555.5623
  50  545.6089
  51  494.4084
  52  519.5666
  53  374.7869
  54  359.0249
  55  484.2279
  56  427.5738
  57  281.9357
  58  464.0578
  59  539.0946
  60  493.3152
  61  348.8274
  62  352.0672
  63  352.5064
  64  416.3481
  65  308.3569
  66  330.6076
  67  515.8237
  68  495.0966
  69  465.1568
  70  329.1806
  71  368.4294
  72  447.7431
  73  413.1651
  74  304.6522
  75  392.2263
  76  440.0467
  77  535.1924
  78  538.7151
  79  388.9695
  80  434.0389
  81  420.6301
  82  458.0913
  83  449.3107
  84  381.1547
  85  371.3154
  86  362.9658
  87  339.0653
  88  424.8818
  89  374.9245
  90  437.4415
  91  461.4035
  92  472.5259
  93  481.4576
  94  557.9517
  95  470.3683
  96  472.9195
  97  472.9831
  98  491.9352
  99  446.1567
 100  475.5759
 101  486.0456
 102  506.5825
 103  394.2355
 104  478.174
 105  492.7742
 106  506.9285
 107  398.7387
 108  352.5745
 109  328.2549
 110  330.0466
 111  486.5314
 112  313.5596
 113  392.6887
 114  428.0522
 115  336.7404
 116  352.8267
 117  411.4141
 118  495.4266
 119  471.985
 120  422.5126
 121  337.7138
 122  429.3265
 123  400.5922
 124  403.5819
 125  480.3384
 126  402.7814
 127  411.9834
 128  507.3248
 129  510.7579
 130  367.3116
 131  388.1227
 132  313.8387
 133  339.5579
 134  403.4594
 135  339.5459
 136  407.1797
 137  454.3307
 138  378.7737
 139  388.6172
 140  375.2421
 141  413.0999
 142  406.2143
 143  384.7295
 144  426.5735
 145  416.9361
 146  486.5379
 147  332.0884
 148  421.8133
 149  488.1034
 150  470.5934
 151  388.5277
 152  395.8329
 153  383.3441
 154  375.5568
 155  412.005
 156  392.0754
 157  320.7776
 158  362.1526
 159  425.9787
 160  525.2451
 161  502.1459
 162  529.9024
 163  410.046
 164  436.5787
 165  512.8211
 166  445.106
 167  619.4601
 168  523.8879
 169  503.74
 170  517.4315
 171  451.7647
 172  416.5325
 173  389.6862
 174  470.8608
 175  491.7912
 176  430.3003
 177  416.4041
 178  487.6635
 179  465.0095
 180  418.9259
 181  386.3891
 182  416.0292
 183  459.3413
 184  428.1968
 185  409.9524
 186  424.946
 187  430.3206
 188  441.2323
 189  398.3755
 190  347.7488
 191  378.4228
 192  383.0898
 193  374.3392
 194  403.7134
 195  454.2581
 196  463.6997
 197  480.8611
 198  366.4134
 199  420.1611
 200  408.8435
 201  347.5754
 202  346.074
 203  518.3685
 204  340.8586
 205  328.4433
 206  438.4366
 207  460.8227
 208  351.3093
 209  414.5369
 210  377.3786
 211  365.9933
 212  412.4458
 213  441.9987
 214  346.1167
 215  362.4159
 216  352.4272
 217  287.8062
 218  326.8277
 219  322.6996
 220  379.2001
 221  429.502
 222  442.3693
 223  434.2656
 224  300.7672
 225  252.4717
 226  248.6471
 227  305.8841
 228  498.6459
 229  396.9217
 230  364.4238
 231  398.8245
 232  404.9863
 233  445.9596
 234  371.7003
 235  389.9471
 236  353.6049
 237  403.6407
 238  342.0493
 239  329.7944
 240  356.9129
 241  394.2794
 242  403.3928
 243  436.4651
 244  380.124
 245  315.2876
 246  328.1395
 247  322.1252
 248  299.8582
 249  241.1587
 250  402.8312
 251  341.8275
 252  428.5051
 253  480.7675
 254  453.5113
 255  490.3496
 256  393.4065
 257  324.8571
 258  389.798
 259  310.0855
 260  557.0249
 261  492.0965
 262  474.1083
 263  512.5054
 264  509.301
 265  450.8617
 266  502.8792
 267  531.7716
 268  478.6727
 269  440.6538
 270  359.6557
 271  400.1732
 272  479.9901
 273  401.5847
 274  331.7192
 275  419.7775
 276  486.8739
 277  460.0416
 278  349.2151
 279  418.2979
 280  462.8708
 281  426.3147
 282  389.3687
 283  364.4449
 284  448.4051
 285  370.7633
 286  454.5203
 287  423.9031
 288  456.856
 289  379.5174
 290  255.5672
 291  366.4734
 292  381.766
 293  338.2422
 294  278.2517
 295  346.8948
 296  377.1935
 297  412.5328
 298  297.5643
 299  323.1494
 300  428.995
 301  312.2915
 302  333.0908
 303  441.1663
 304  435.0922
 305  361.0057
 306  291.2239
 307  369.4018
 308  347.7139
 309  333.3904
 310  370.2037
 311  312.0334
 312  334.4536
 313  272.3732
 314  288.5187
 315  347.7631
 316  405.7961
 317  372.6168
 318  387.9865
 319  404.0467
 320  410.3647
 321  413.4263
 322  395.2535
 323  379.5285
 324  366.6045
 325  333.9104
 326  336.7621
 327  316.9185
 328  412.1147
 329  468.0924
 330  475.1924
 331  432.9656
 332  491.595
 333  388.8198
 334  292.2648
 335  299.417
 336  368.9945
 337  394.3139
 338  394.1271
 339  366.5944
 340  308.2463
 341  330.6662
 342  491.2069
 343  520.1472
 344  453.5596
 345  347.4803
 346  426.4786
 347  275.7977
 348  333.1653
 349  386.4066
 350  423.0656
 351  328.1539
 352  271.1861
 353  407.9142
 354  354.7494
 355  259.0713
 356  383.9286
 357  517.9998
 358  366.2522
 359  280.5639
 360  304.839
 361  344.7227
 362  460.5344
 363  408.9533
 364  392.0747
 365  274.3666
 366  444.8558
 367  493.3939
 368  349.9998
 369  352.8347
 370  327.8615
 371  377.2115
 372  484.3177
 373  469.9099
 374  486.2496
 375  361.4467
 376  285.5536
 377  367.4418
 378  434.9822
 379  380.4336
 380  371.8405
 381  486.9332
 382  579.4067
 383  519.1259
 384  365.9358
 385  443.9196
 386  505.3353
 387  460.1876
 388  392.4299
 389  344.7745
 390  487.9219
 391  570.8057
 392  483.6
 393  464.0275
 394  259.322
 395  246.999
 396  239.3014
 397  374.7292
 398  348.2481
 399  465.1276
 400  427.5067
 401  291.0889
 402  373.5049
 403  404.1687
 404  425.0297
 405  465.3662
 406  430.1819
 407  353.7134
 408  360.7646
 409  443.0021
 410  397.6039
 411  391.2177
 412  320.9746
 413  412.1087
 414  375.2903
 415  332.2828
 416  437.1344
 417  371.4786
 418  389.1694
 419  358.0291
 420  293.4456
 421  355.7159
 422  337.1922
 423  426.75
 424  468.2682
 425  416.6308
 426  330.3943
 427  395.2054
 428  461.6661
 429  406.1313
 430  484.1656
 431  432.739
 432  378.7043
 433  297.9414
 434  342.2037
 435  479.0009
 436  526.3467
 437  394.5506
 438  504.0725
 439  503.0983
 440  377.2734
 441  418.5605
 442  488.6098
 443  415.0381
 444  327.1898
 445  224.3364
 446  238.2353
 447  311.3269
 448  516.8027
 449  487.6862
 450  309.4456
 451  407.3992
 452  495.5651
 453  360.5035
 454  476.0373
 455  533.5407
 456  439.544
 457  394.9501
 458  384.7996
 459  357.2421
 460  341.4436
 461  466.6267
 462  466.5705
 463  421.4148
 464  412.3934
 465  379.1119
 466  370.3898
 467  456.3597
 468  535.7874
 469  438.5734
 470  330.366
 471  406.3544
 472  524.1027
 473  508.0649
 474  413.5358
 475  368.245
 476  398.62
 477  373.4357
 478  396.2864
 479  411.1075
 480  440.6326
 481  481.3641
 482  434.7419
 483  304.1512
 484  271.9192
 485  279.3297
 486  392.9893
 487  476.9814
 488  350.3002
 489  301.4613
 490  340.7944
 491  382.6131
 492  351.009
 493  417.7184
 494  415.5312
 495  324.5225
 496  428.4691
 497  458.8565
 498  447.8557
 499  369.8414
 500  370.2205
 501  423.4721
 502  457.3546
 503  443.1777
 504  492.1057
 505  463.7205
 506  354.6666
 507  381.5036
 508  490.5731
 509  593.0577
 510  674.5686
 511  719.8644
