# Input file       =  1196034081.122101_cleaned.dat
# Candidate        =  PSR_0332+5434
# Telescope        =  AR
# Epoch_topo       =  58086.986841690981
# Epoch_bary       =  N/A
# T_sample         =  0.002
# Data Folded      =  7340032
# Data Avg         =  0.0299252083944562
# Data StdDev      =  0.999994573590065
# Profile Bins     =  512
# Profile Avg      =  429.026879295801 
# Profile StdDev   =  119.732386656228 
# Reduced chi-sqr  =  0.995
# Prob(Noise)      <  0.526   (~0.0 sigma)
# P_topo (ms)      =  714.524979372312  +/- 4.91e-05
# P'_topo (s/s)    =  -0                +/- 2.59e-11
# P''_topo (s/s^2) =  0                 +/- 1.14e-14
# P_bary (ms)      =  N/A
# P'_bary (s/s)    =  N/A
# P''_bary (s/s^2) =  N/A
# P_orb (s)        =  N/A
# asin(i)/c (s)    =  N/A
# eccentricity     =  N/A
# w (rad)          =  N/A
# T_peri           =  N/A
######################################################
   0  825.3988
   1  944.9814
   2  776.6119
   3  647.3865
   4  561.5386
   5  550.7875
   6  441.9986
   7  372.4011
   8  354.4983
   9  448.4059
  10  402.1987
  11  453.1207
  12  432.2742
  13  562.8226
  14  472.1124
  15  456.6393
  16  503.1489
  17  386.9021
  18  342.0542
  19  385.4279
  20  460.578
  21  475.6734
  22  447.9165
  23  509.0329
  24  507.861
  25  433.5879
  26  349.0435
  27  296.5432
  28  317.2528
  29  375.9735
  30  371.7442
  31  383.6346
  32  313.7734
  33  314.5878
  34  405.5766
  35  445.5944
  36  435.6485
  37  471.716
  38  581.7726
  39  478.4084
  40  453.9066
  41  475.6933
  42  419.3223
  43  374.8975
  44  337.4042
  45  446.8295
  46  491.593
  47  413.0452
  48  465.4582
  49  402.2819
  50  374.6089
  51  342.9218
  52  485.6211
  53  521.3003
  54  529.1467
  55  508.0773
  56  438.7719
  57  498.3147
  58  524.0557
  59  539.879
  60  430.8479
  61  282.815
  62  344.0966
  63  427.3058
  64  382.8531
  65  381.0905
  66  419.04
  67  475.298
  68  406.2086
  69  297.148
  70  385.4707
  71  340.6061
  72  245.8229
  73  354.9048
  74  467.6645
  75  454.2363
  76  426.5733
  77  456.5062
  78  413.8494
  79  467.8611
  80  385.3273
  81  415.6896
  82  387.9463
  83  408.9313
  84  359.7464
  85  311.6654
  86  322.2782
  87  389.4553
  88  460.0067
  89  439.3815
  90  417.2236
  91  452.666
  92  390.4454
  93  418.7251
  94  520.4025
  95  662.1453
  96  575.5006
  97  550.7574
  98  525.0498
  99  477.5796
 100  434.7849
 101  439.3552
 102  447.6198
 103  486.2632
 104  338.4405
 105  399.0491
 106  376.7996
 107  393.6341
 108  393.3229
 109  421.3794
 110  436.288
 111  433.7053
 112  513.994
 113  379.2372
 114  403.8931
 115  320.891
 116  448.4716
 117  446.3028
 118  348.2505
 119  263.6355
 120  364.7904
 121  411.4802
 122  477.4421
 123  468.0115
 124  402.9678
 125  388.157
 126  403.7056
 127  512.8638
 128  456.0848
 129  378.2014
 130  457.9707
 131  478.7401
 132  397.0209
 133  381.499
 134  440.2234
 135  424.847
 136  382.1272
 137  356.1471
 138  412.3302
 139  524.2186
 140  520.0568
 141  457.7683
 142  493.6056
 143  437.7026
 144  409.6646
 145  455.8098
 146  469.2842
 147  383.6905
 148  417.43
 149  507.9689
 150  466.0103
 151  331.2351
 152  345.9387
 153  394.8714
 154  291.2671
 155  335.0266
 156  435.4742
 157  436.4815
 158  374.7288
 159  346.3204
 160  418.2306
 161  329.6473
 162  349.6402
 163  330.8593
 164  272.9503
 165  269.196
 166  408.2154
 167  504.0359
 168  502.6561
 169  460.1631
 170  428.155
 171  265.811
 172  320.5231
 173  420.7793
 174  449.0115
 175  407.5835
 176  321.7452
 177  401.8427
 178  460.3449
 179  527.7608
 180  368.9976
 181  428.1252
 182  403.3024
 183  282.1912
 184  180.1995
 185  263.8608
 186  267.2482
 187  396.809
 188  373.3927
 189  445.1063
 190  383.8309
 191  357.0406
 192  332.3984
 193  382.6151
 194  495.2907
 195  471.7861
 196  390.1135
 197  292.977
 198  356.4771
 199  336.8414
 200  333.748
 201  367.7176
 202  458.7756
 203  440.2259
 204  376.6352
 205  464.7707
 206  481.5652
 207  367.4128
 208  447.4215
 209  478.4761
 210  333.4188
 211  284.9642
 212  299.6657
 213  398.6247
 214  449.4196
 215  264.8538
 216  276.5093
 217  332.7438
 218  321.6789
 219  263.7735
 220  276.5666
 221  323.5168
 222  313.5929
 223  300.8345
 224  265.4972
 225  311.4255
 226  344.2397
 227  377.6641
 228  390.8454
 229  336.3652
 230  422.2557
 231  511.7853
 232  494.893
 233  409.5146
 234  424.945
 235  439.5359
 236  213.8266
 237  290.0593
 238  371.7056
 239  372.7636
 240  322.9209
 241  367.5811
 242  335.3914
 243  395.1962
 244  351.0893
 245  364.3311
 246  329.3317
 247  294.1899
 248  335.2863
 249  388.6439
 250  343.5132
 251  370.5508
 252  491.783
 253  515.0925
 254  308.1322
 255  278.1339
 256  381.6517
 257  360.591
 258  280.7391
 259  380.9626
 260  463.3177
 261  418.5811
 262  344.0999
 263  438.2457
 264  397.0282
 265  451.4441
 266  460.2736
 267  542.506
 268  390.423
 269  371.4009
 270  350.0656
 271  313.1334
 272  335.3606
 273  367.0674
 274  344.8466
 275  336.3336
 276  373.5176
 277  439.5355
 278  402.4164
 279  334.8484
 280  375.4931
 281  446.1741
 282  472.5892
 283  492.8752
 284  438.4314
 285  385.1603
 286  391.7408
 287  473.338
 288  395.6293
 289  426.9469
 290  341.7
 291  471.1371
 292  459.8578
 293  299.5251
 294  345.0721
 295  388.8213
 296  345.8771
 297  290.5062
 298  373.7721
 299  416.9792
 300  255.7622
 301  350.2433
 302  478.4026
 303  355.2531
 304  345.2081
 305  374.0349
 306  526.4862
 307  481.8931
 308  407.631
 309  424.1914
 310  448.2538
 311  427.1431
 312  515.5663
 313  534.7488
 314  445.5214
 315  308.6462
 316  381.7732
 317  439.7052
 318  449.244
 319  430.3431
 320  477.1226
 321  379.1277
 322  434.5759
 323  514.6238
 324  536.5042
 325  496.4651
 326  408.8294
 327  389.8491
 328  447.4388
 329  353.8105
 330  336.6861
 331  442.7603
 332  443.4042
 333  367.7169
 334  389.5826
 335  426.7097
 336  350.4529
 337  416.9932
 338  397.0549
 339  388.1887
 340  402.0046
 341  391.2142
 342  440.5017
 343  377.9637
 344  434.9551
 345  453.9804
 346  453.4103
 347  466.3371
 348  404.9457
 349  439.7683
 350  396.4021
 351  387.6622
 352  537.0173
 353  627.0496
 354  594.5295
 355  520.7228
 356  468.55
 357  437.3891
 358  358.3726
 359  506.7041
 360  571.0867
 361  482.3671
 362  378.3343
 363  298.4507
 364  404.351
 365  468.8075
 366  527.3289
 367  442.9236
 368  335.0457
 369  377.7812
 370  398.5936
 371  428.9944
 372  466.3914
 373  439.6493
 374  534.4351
 375  471.6173
 376  436.989
 377  392.7611
 378  472.0364
 379  415.2385
 380  447.7511
 381  588.886
 382  673.1562
 383  582.8679
 384  412.9296
 385  432.0084
 386  425.2815
 387  409.278
 388  551.1774
 389  518.6571
 390  424.1932
 391  428.8517
 392  497.0546
 393  376.0776
 394  366.7656
 395  382.1949
 396  425.5966
 397  351.343
 398  404.7654
 399  476.2506
 400  322.7427
 401  393.082
 402  531.0245
 403  466.5772
 404  418.0905
 405  326.0268
 406  398.2347
 407  404.1522
 408  362.5197
 409  447.0639
 410  465.7997
 411  467.4088
 412  504.3409
 413  533.1106
 414  490.0868
 415  450.3492
 416  477.9898
 417  574.3331
 418  493.966
 419  441.5829
 420  378.7385
 421  452.9977
 422  279.4728
 423  376.6503
 424  463.0161
 425  477.0182
 426  564.325
 427  488.3713
 428  600.8467
 429  480.2729
 430  416.6589
 431  459.7373
 432  520.7869
 433  611.6389
 434  501.3032
 435  443.9348
 436  390.6887
 437  421.8113
 438  541.4728
 439  555.2251
 440  373.8106
 441  364.9712
 442  478.0683
 443  566.0054
 444  545.7301
 445  468.7616
 446  484.3038
 447  502.0236
 448  512.1669
 449  506.0951
 450  453.2743
 451  447.8249
 452  448.1493
 453  440.1026
 454  425.0197
 455  382.7731
 456  484.5716
 457  441.7921
 458  451.0346
 459  521.8292
 460  505.7407
 461  497.1187
 462  425.7634
 463  440.7537
 464  547.7695
 465  413.9911
 466  443.582
 467  472.2698
 468  423.2827
 469  484.643
 470  513.3822
 471  528.1158
 472  534.4521
 473  449.1862
 474  575.5241
 475  596.5778
 476  628.7248
 477  586.0333
 478  587.7919
 479  540.4055
 480  440.0303
 481  430.2599
 482  377.582
 483  424.5633
 484  374.7535
 485  472.4962
 486  543.2756
 487  503.5424
 488  483.5914
 489  400.4573
 490  444.0181
 491  501.1248
 492  545.2039
 493  442.8261
 494  377.8097
 495  518.3445
 496  492.6893
 497  470.1702
 498  472.6074
 499  480.4542
 500  534.9708
 501  392.3177
 502  494.6279
 503  448.4485
 504  427.17
 505  467.4683
 506  502.3641
 507  543.447
 508  569.4216
 509  649.3437
 510  767.4703
 511  767.8144
