# Input file       =  1196349189.112123_cleaned.dat
# Candidate        =  PSR_0332+5434
# Telescope        =  AR
# Epoch_topo       =  58090.633924908834
# Epoch_bary       =  N/A
# T_sample         =  0.002
# Data Folded      =  7208960
# Data Avg         =  0.0293390432217528
# Data StdDev      =  1.00011182291953 
# Profile Bins     =  512
# Profile Avg      =  413.099530129508 
# Profile StdDev   =  118.672444608997 
# Reduced chi-sqr  =  0.896
# Prob(Noise)      <  0.956   (~0.0 sigma)
# P_topo (ms)      =  714.528374667128  +/- 0.000138
# P'_topo (s/s)    =  -0                +/- 7.4e-11
# P''_topo (s/s^2) =  0                 +/- 3.32e-14
# P_bary (ms)      =  N/A
# P'_bary (s/s)    =  N/A
# P''_bary (s/s^2) =  N/A
# P_orb (s)        =  N/A
# asin(i)/c (s)    =  N/A
# eccentricity     =  N/A
# w (rad)          =  N/A
# T_peri           =  N/A
######################################################
   0  785.7996
   1  782.3272
   2  676.8071
   3  475.0564
   4  417.6337
   5  370.2341
   6  503.5265
   7  463.6357
   8  545.6534
   9  535.6476
  10  477.2536
  11  542.2955
  12  543.612
  13  553.1457
  14  481.3206
  15  511.4675
  16  425.9396
  17  461.6619
  18  444.4704
  19  360.7309
  20  455.0194
  21  282.5143
  22  376.7416
  23  367.8581
  24  384.5636
  25  283.0486
  26  316.1443
  27  381.6646
  28  420.5798
  29  475.0818
  30  470.8953
  31  457.0407
  32  437.162
  33  427.7358
  34  272.8452
  35  341.9547
  36  357.4889
  37  335.8462
  38  439.8981
  39  407.1511
  40  347.3009
  41  439.3344
  42  545.6473
  43  428.6615
  44  355.0226
  45  375.7795
  46  366.3488
  47  306.4019
  48  295.2228
  49  316.6533
  50  295.14
  51  426.4668
  52  394.1039
  53  451.7089
  54  412.2046
  55  327.3607
  56  396.0023
  57  339.7054
  58  433.2859
  59  436.4409
  60  498.193
  61  407.6725
  62  364.5162
  63  386.1912
  64  417.4986
  65  464.386
  66  384.8923
  67  373.694
  68  423.7679
  69  402.4276
  70  464.3989
  71  454.2671
  72  307.8808
  73  294.5909
  74  364.4105
  75  276.7628
  76  378.9195
  77  417.9801
  78  364.494
  79  382.389
  80  404.9326
  81  427.8965
  82  249.7541
  83  341.0456
  84  427.157
  85  394.721
  86  330.3781
  87  363.4327
  88  374.4635
  89  373.4091
  90  535.6799
  91  561.0342
  92  531.8979
  93  467.6844
  94  376.163
  95  482.3815
  96  496.8836
  97  519.9179
  98  455.8568
  99  443.818
 100  396.599
 101  330.4333
 102  235.6962
 103  445.176
 104  527.0151
 105  478.6983
 106  487.6721
 107  334.4013
 108  294.67
 109  344.3286
 110  383.676
 111  543.9218
 112  534.125
 113  464.4819
 114  450.8849
 115  497.4192
 116  424.0822
 117  324.4424
 118  410.7688
 119  519.9975
 120  431.6466
 121  448.483
 122  472.4463
 123  463.8133
 124  514.6662
 125  496.2735
 126  448.3524
 127  363.461
 128  514.7847
 129  457.5761
 130  444.7158
 131  465.4249
 132  472.147
 133  465.6951
 134  456.5831
 135  431.4715
 136  434.3549
 137  339.738
 138  362.0369
 139  324.3093
 140  349.0831
 141  433.8266
 142  463.2703
 143  495.7267
 144  417.3036
 145  358.3081
 146  417.6299
 147  375.4222
 148  483.8653
 149  547.8967
 150  431.2544
 151  383.0245
 152  357.1886
 153  392.7539
 154  505.4973
 155  495.3506
 156  468.6552
 157  357.1858
 158  289.1734
 159  284.3872
 160  333.5028
 161  414.2759
 162  451.8702
 163  539.8126
 164  539.6931
 165  542.8466
 166  360.1464
 167  448.6202
 168  418.1963
 169  450.8738
 170  534.1376
 171  630.1055
 172  513.8804
 173  486.4866
 174  424.5721
 175  315.2687
 176  345.8993
 177  432.0863
 178  476.1212
 179  438.6597
 180  449.6459
 181  446.8569
 182  376.7475
 183  416.4463
 184  408.5443
 185  407.4532
 186  309.1121
 187  344.2767
 188  498.0091
 189  463.8369
 190  455.7234
 191  419.1592
 192  569.2399
 193  566.8126
 194  445.1998
 195  506.263
 196  498.3502
 197  511.3334
 198  461.3633
 199  327.6501
 200  293.2462
 201  269.0283
 202  436.769
 203  596.2899
 204  467.6901
 205  432.3054
 206  419.0755
 207  349.3363
 208  361.1719
 209  330.695
 210  518.2299
 211  501.998
 212  534.8427
 213  432.1602
 214  399.9958
 215  306.886
 216  226.9942
 217  420.9307
 218  359.9648
 219  424.1117
 220  416.9663
 221  418.8538
 222  365.2728
 223  243.3671
 224  459.7513
 225  375.485
 226  393.6808
 227  430.4386
 228  388.1186
 229  399.7058
 230  367.2572
 231  412.1084
 232  436.2838
 233  423.5349
 234  380.0139
 235  392.5238
 236  455.7943
 237  461.688
 238  448.0643
 239  487.0718
 240  392.2478
 241  375.9486
 242  359.5525
 243  398.2268
 244  364.2622
 245  435.5116
 246  491.7997
 247  379.5212
 248  325.8179
 249  416.5081
 250  421.9671
 251  293.9912
 252  366.9376
 253  446.9912
 254  434.8691
 255  445.0671
 256  385.0354
 257  225.9695
 258  266.8223
 259  317.4467
 260  482.2516
 261  443.5006
 262  373.8817
 263  377.7215
 264  284.3312
 265  314.972
 266  341.4609
 267  315.6628
 268  303.6915
 269  333.2227
 270  335.7803
 271  401.5563
 272  215.0195
 273  286.0117
 274  371.6486
 275  294.9215
 276  358.2939
 277  404.9551
 278  406.6618
 279  451.6277
 280  453.1021
 281  413.3984
 282  434.0091
 283  365.8719
 284  351.201
 285  445.4492
 286  500.0948
 287  575.8971
 288  516.7833
 289  473.4832
 290  321.0532
 291  244.9708
 292  285.6709
 293  295.5119
 294  402.6927
 295  416.7747
 296  459.2474
 297  419.3496
 298  457.2456
 299  321.5138
 300  434.3037
 301  362.8613
 302  373.0829
 303  558.1783
 304  366.5904
 305  312.4308
 306  402.8588
 307  369.2834
 308  192.8538
 309  206.859
 310  483.5872
 311  500.0058
 312  356.4207
 313  301.8687
 314  288.9005
 315  279.3132
 316  432.7079
 317  401.3446
 318  328.7531
 319  263.2922
 320  422.3972
 321  401.4671
 322  301.9369
 323  316.07
 324  297.3329
 325  341.3823
 326  457.3556
 327  407.1736
 328  400.8489
 329  378.2547
 330  407.67
 331  451.157
 332  462.0326
 333  487.8866
 334  443.0179
 335  445.5916
 336  505.1993
 337  460.3159
 338  381.6941
 339  312.0438
 340  335.6742
 341  375.43
 342  458.2667
 343  410.7664
 344  482.3912
 345  488.7203
 346  519.74
 347  390.0815
 348  379.3438
 349  295.6341
 350  287.444
 351  323.0257
 352  431.587
 353  449.3946
 354  395.9223
 355  347.1251
 356  390.1132
 357  372.2029
 358  267.7542
 359  362.622
 360  392.6882
 361  363.7076
 362  340.8125
 363  300.3866
 364  306.4848
 365  352.8477
 366  227.9191
 367  388.7503
 368  373.174
 369  354.2447
 370  389.1456
 371  362.196
 372  418.9244
 373  305.5764
 374  312.176
 375  424.9932
 376  325.4017
 377  417.7734
 378  467.297
 379  432.5789
 380  446.4377
 381  380.0179
 382  316.2297
 383  316.9211
 384  363.508
 385  379.6491
 386  372.7527
 387  342.3068
 388  316.3749
 389  480.628
 390  358.8729
 391  380.5486
 392  399.9879
 393  366.4954
 394  414.5016
 395  379.1351
 396  487.7391
 397  368.9357
 398  345.0727
 399  401.25
 400  276.3096
 401  249.2702
 402  308.0994
 403  300.3892
 404  393.2456
 405  505.8891
 406  482.2525
 407  475.198
 408  378.017
 409  330.1428
 410  316.3622
 411  482.4627
 412  412.6718
 413  264.7146
 414  376.2034
 415  383.9203
 416  486.5808
 417  461.6541
 418  410.9309
 419  309.8828
 420  346.0099
 421  414.192
 422  417.3737
 423  558.4747
 424  532.6757
 425  498.4102
 426  373.6216
 427  444.1853
 428  512.5473
 429  449.4411
 430  400.4128
 431  402.1137
 432  509.3091
 433  394.5735
 434  323.6734
 435  313.4096
 436  420.8888
 437  434.6156
 438  416.4552
 439  456.1538
 440  405.6591
 441  375.8168
 442  407.6009
 443  494.6917
 444  313.1224
 445  327.9226
 446  447.9852
 447  368.3757
 448  377.0226
 449  408.8474
 450  455.1801
 451  454.3477
 452  475.7121
 453  552.3784
 454  531.2401
 455  470.9471
 456  350.7227
 457  354.72
 458  408.1209
 459  331.4744
 460  375.3965
 461  349.5912
 462  456.5634
 463  495.5394
 464  422.4447
 465  353.1377
 466  468.0709
 467  521.274
 468  559.1092
 469  536.7369
 470  540.6354
 471  495.8793
 472  476.5697
 473  445.8616
 474  436.1563
 475  479.028
 476  442.5692
 477  396.6587
 478  402.9534
 479  424.037
 480  523.9327
 481  463.4385
 482  475.0937
 483  344.9921
 484  350.1766
 485  395.2669
 486  510.8224
 487  568.98
 488  502.7031
 489  517.6459
 490  437.2337
 491  423.8159
 492  444.6156
 493  438.3466
 494  403.3331
 495  403.9137
 496  462.5485
 497  404.6303
 498  393.5285
 499  454.9899
 500  446.1008
 501  538.5836
 502  554.9792
 503  505.8789
 504  459.6165
 505  487.3914
 506  502.9543
 507  476.5957
 508  425.9035
 509  592.8002
 510  617.08
 511  751.1003
