# Input file       =  1196722911.118757_cleaned.dat
# Candidate        =  PSR_0332+5434
# Telescope        =  AR
# Epoch_topo       =  58094.959411096723
# Epoch_bary       =  N/A
# T_sample         =  0.002
# Data Folded      =  7340032
# Data Avg         =  0.0311442072781505
# Data StdDev      =  1.00001653869228 
# Profile Bins     =  512
# Profile Avg      =  446.562120224327 
# Profile StdDev   =  119.73501660461  
# Reduced chi-sqr  =  0.938
# Prob(Noise)      <  0.838   (~0.0 sigma)
# P_topo (ms)      =  714.533151140548  +/- 0.000116
# P'_topo (s/s)    =  -0                +/- 6.12e-11
# P''_topo (s/s^2) =  0                 +/- 2.7e-14
# P_bary (ms)      =  N/A
# P'_bary (s/s)    =  N/A
# P''_bary (s/s^2) =  N/A
# P_orb (s)        =  N/A
# asin(i)/c (s)    =  N/A
# eccentricity     =  N/A
# w (rad)          =  N/A
# T_peri           =  N/A
######################################################
   0  887.5901
   1  798.858
   2  737.396
   3  640.2642
   4  674.001
   5  649.0822
   6  465.4422
   7  458.7373
   8  477.0518
   9  590.8806
  10  532.2571
  11  403.4409
  12  492.0338
  13  543.3016
  14  543.3943
  15  542.4604
  16  450.5869
  17  383.2049
  18  420.1737
  19  521.1798
  20  468.3632
  21  358.3046
  22  397.8389
  23  492.703
  24  230.5964
  25  263.0095
  26  307.3897
  27  479.8827
  28  501.0832
  29  610.6086
  30  560.5483
  31  457.5168
  32  345.7755
  33  360.229
  34  513.8575
  35  420.451
  36  347.305
  37  348.8883
  38  466.8661
  39  459.7129
  40  419.8487
  41  493.9685
  42  443.5513
  43  437.6404
  44  404.88
  45  390.7939
  46  400.2259
  47  478.2749
  48  390.4453
  49  452.0533
  50  453.8443
  51  381.3008
  52  371.4449
  53  451.0106
  54  506.9379
  55  432.1199
  56  449.5584
  57  445.4576
  58  439.2896
  59  507.7114
  60  429.8874
  61  434.4692
  62  539.8031
  63  594.9795
  64  497.6957
  65  404.7766
  66  440.7802
  67  502.6588
  68  476.449
  69  578.9024
  70  549.3497
  71  558.9389
  72  410.9481
  73  336.3885
  74  401.6743
  75  448.4781
  76  473.4589
  77  523.1293
  78  502.0837
  79  402.9855
  80  429.23
  81  447.5028
  82  367.9018
  83  346.5785
  84  329.8975
  85  445.9078
  86  389.6269
  87  378.0678
  88  410.2003
  89  482.9146
  90  476.3672
  91  396.9693
  92  359.8427
  93  433.6189
  94  478.8562
  95  430.4031
  96  385.721
  97  312.4323
  98  372.009
  99  516.2996
 100  537.4568
 101  353.8639
 102  381.2018
 103  325.9043
 104  375.26
 105  491.6461
 106  432.5946
 107  392.0457
 108  367.9335
 109  338.2926
 110  362.4721
 111  367.2165
 112  520.5483
 113  544.5293
 114  527.983
 115  539.492
 116  433.3548
 117  435.2899
 118  578.2097
 119  548.9138
 120  473.6388
 121  388.4183
 122  377.6286
 123  415.1398
 124  356.647
 125  396.0145
 126  373.7727
 127  386.1006
 128  387.1555
 129  351.5641
 130  340.4595
 131  305.8648
 132  494.2393
 133  455.4229
 134  387.8348
 135  470.7599
 136  412.4242
 137  502.4859
 138  450.1969
 139  370.9238
 140  337.2177
 141  407.2799
 142  419.757
 143  438.7539
 144  446.1634
 145  492.4815
 146  336.4002
 147  398.127
 148  428.5448
 149  410.7856
 150  470.4825
 151  456.245
 152  543.8423
 153  447.6248
 154  385.3477
 155  393.9055
 156  442.2232
 157  535.4767
 158  572.9321
 159  487.9091
 160  424.3975
 161  388.2151
 162  491.1763
 163  543.0818
 164  544.1412
 165  390.9202
 166  498.5103
 167  478.1068
 168  440.1714
 169  419.4008
 170  386.0885
 171  471.8112
 172  533.0132
 173  528.1865
 174  508.916
 175  547.2798
 176  623.5565
 177  452.071
 178  482.643
 179  546.784
 180  509.0671
 181  487.8418
 182  416.701
 183  298.501
 184  309.2275
 185  397.3308
 186  540.5767
 187  631.5302
 188  461.6961
 189  526.9664
 190  591.96
 191  487.8862
 192  496.7427
 193  366.9238
 194  382.1426
 195  555.6912
 196  490.5243
 197  393.8912
 198  448.3543
 199  517.3566
 200  372.2549
 201  444.1991
 202  514.9705
 203  463.9085
 204  428.5857
 205  470.6642
 206  422.8246
 207  461.442
 208  558.957
 209  499.8362
 210  352.3136
 211  423.9255
 212  492.4581
 213  430.3769
 214  466.4529
 215  407.4084
 216  357.6547
 217  324.5382
 218  351.6369
 219  422.0597
 220  473.5006
 221  472.3648
 222  487.0231
 223  513.4517
 224  552.6224
 225  539.9835
 226  481.1344
 227  376.4551
 228  367.3822
 229  298.7028
 230  386.4947
 231  572.5566
 232  499.2755
 233  500.9275
 234  550.1203
 235  441.1798
 236  388.8307
 237  322.8811
 238  316.0157
 239  262.9637
 240  331.8664
 241  386.1456
 242  444.0171
 243  462.7623
 244  501.8703
 245  374.8817
 246  501.7639
 247  342.4311
 248  403.4893
 249  507.8564
 250  395.7046
 251  408.3488
 252  425.4947
 253  533.0846
 254  483.5999
 255  374.7988
 256  411.322
 257  511.9847
 258  533.763
 259  477.6523
 260  405.0591
 261  413.3287
 262  378.1884
 263  429.6747
 264  513.2332
 265  559.2722
 266  349.1924
 267  244.3091
 268  334.1946
 269  402.0416
 270  448.3241
 271  413.7422
 272  419.601
 273  410.9001
 274  564.51
 275  447.5242
 276  462.9945
 277  389.138
 278  377.1008
 279  229.5693
 280  233.5801
 281  504.9836
 282  611.0197
 283  499.3236
 284  449.9267
 285  340.5081
 286  436.5817
 287  435.7501
 288  547.3821
 289  458.4889
 290  409.5844
 291  427.5214
 292  408.9783
 293  479.3188
 294  496.1119
 295  531.222
 296  579.9305
 297  554.8782
 298  466.4038
 299  497.3047
 300  492.6665
 301  405.6891
 302  324.4877
 303  402.2684
 304  405.6069
 305  460.1315
 306  395.0197
 307  335.8444
 308  435.7284
 309  437.1171
 310  431.2302
 311  521.3805
 312  512.2321
 313  430.8393
 314  395.7155
 315  420.8704
 316  407.6542
 317  423.4698
 318  490.9828
 319  394.8175
 320  416.0508
 321  413.4644
 322  349.1263
 323  425.5919
 324  476.7094
 325  606.1836
 326  536.8934
 327  476.2178
 328  400.7429
 329  442.0862
 330  512.646
 331  498.3546
 332  393.6377
 333  442.3822
 334  519.8975
 335  477.4024
 336  390.3168
 337  326.7284
 338  347.4699
 339  463.153
 340  494.1576
 341  413.7087
 342  489.2142
 343  458.9761
 344  496.3406
 345  546.6561
 346  567.4493
 347  474.215
 348  406.9845
 349  420.7017
 350  486.9688
 351  493.435
 352  546.5634
 353  403.0477
 354  392.322
 355  359.9891
 356  358.4316
 357  388.447
 358  409.2294
 359  447.5344
 360  454.8973
 361  388.1972
 362  470.3973
 363  537.5085
 364  406.4589
 365  471.6307
 366  487.2593
 367  560.0073
 368  573.9402
 369  413.2511
 370  474.1759
 371  488.3409
 372  506.6319
 373  460.316
 374  476.162
 375  397.1025
 376  334.821
 377  407.8908
 378  501.8213
 379  375.272
 380  387.3237
 381  551.8495
 382  505.4474
 383  490.7382
 384  336.1407
 385  338.0541
 386  425.6927
 387  459.493
 388  477.1034
 389  424.0148
 390  504.5215
 391  491.8563
 392  449.3288
 393  455.534
 394  341.3479
 395  337.4844
 396  403.4379
 397  458.0218
 398  433.7616
 399  357.7091
 400  416.8994
 401  377.4633
 402  348.9467
 403  417.8608
 404  457.7285
 405  588.9016
 406  445.6928
 407  568.1396
 408  431.6318
 409  364.0129
 410  360.5183
 411  450.049
 412  398.272
 413  380.5627
 414  364.8712
 415  378.0782
 416  376.6738
 417  460.3787
 418  473.24
 419  520.0807
 420  608.2592
 421  501.7701
 422  344.4818
 423  382.0522
 424  523.4036
 425  526.9001
 426  479.8442
 427  397.453
 428  332.8767
 429  422.0557
 430  478.8524
 431  518.3547
 432  440.0642
 433  365.9994
 434  459.0568
 435  438.3752
 436  382.6873
 437  374.6995
 438  354.8276
 439  419.4318
 440  467.8183
 441  302.5042
 442  501.1936
 443  439.9348
 444  335.1571
 445  384.8844
 446  475.8047
 447  520.7817
 448  605.9573
 449  409.0842
 450  412.8006
 451  525.171
 452  546.8334
 453  529.1028
 454  473.0581
 455  357.7798
 456  358.5727
 457  367.2905
 458  496.0171
 459  515.2944
 460  463.1398
 461  372.7949
 462  277.7099
 463  368.6142
 464  457.7011
 465  365.8188
 466  302.4546
 467  320.019
 468  294.1586
 469  450.4571
 470  365.4778
 471  458.6916
 472  456.7188
 473  383.0754
 474  293.3603
 475  387.5133
 476  460.9571
 477  450.5077
 478  376.078
 479  377.8509
 480  295.1292
 481  514.1757
 482  473.8701
 483  382.7885
 484  519.3177
 485  524.2183
 486  428.4278
 487  449.0983
 488  410.4211
 489  502.9288
 490  361.8866
 491  354.6555
 492  381.2233
 493  478.2581
 494  428.8308
 495  398.6964
 496  410.1931
 497  519.8203
 498  449.2923
 499  498.6636
 500  582.6841
 501  510.7821
 502  460.7255
 503  473.9643
 504  414.0458
 505  350.8178
 506  414.2624
 507  531.938
 508  710.3578
 509  714.4308
 510  732.5922
 511  907.14
