# Input file       =  1196536233.113593_cleaned.dat
# Candidate        =  PSR_0332+5434
# Telescope        =  AR
# Epoch_topo       =  58092.798786036954
# Epoch_bary       =  N/A
# T_sample         =  0.002
# Data Folded      =  7340032
# Data Avg         =  0.0318149628461818
# Data StdDev      =  1.00005022415676 
# Profile Bins     =  512
# Profile Avg      =  456.100965585817 
# Profile StdDev   =  119.739049867555 
# Reduced chi-sqr  =  0.841
# Prob(Noise)      <  0.996   (~0.0 sigma)
# P_topo (ms)      =  714.530617736804  +/- 0.000649
# P'_topo (s/s)    =  -0                +/- 3.42e-10
# P''_topo (s/s^2) =  0                 +/- 1.51e-13
# P_bary (ms)      =  N/A
# P'_bary (s/s)    =  N/A
# P''_bary (s/s^2) =  N/A
# P_orb (s)        =  N/A
# asin(i)/c (s)    =  N/A
# eccentricity     =  N/A
# w (rad)          =  N/A
# T_peri           =  N/A
######################################################
   0  738.9861
   1  726.5419
   2  534.3825
   3  608.8035
   4  513.2691
   5  480.2879
   6  424.5579
   7  443.6765
   8  411.0417
   9  460.8735
  10  477.8761
  11  511.7733
  12  436.9756
  13  391.7862
  14  451.8923
  15  348.074
  16  369.3868
  17  391.2982
  18  344.5638
  19  433.224
  20  549.5979
  21  486.1211
  22  407.5966
  23  522.1597
  24  372.4483
  25  378.5592
  26  440.0724
  27  535.1497
  28  503.0605
  29  451.4977
  30  344.1204
  31  372.6613
  32  594.4128
  33  567.6276
  34  436.3124
  35  603.7923
  36  619.6736
  37  526.2693
  38  575.6401
  39  558.7872
  40  556.3934
  41  584.9365
  42  424.6201
  43  463.3998
  44  577.3499
  45  557.5706
  46  493.6398
  47  437.1728
  48  492.9123
  49  469.5616
  50  537.7728
  51  551.2067
  52  478.5518
  53  525.1766
  54  586.9238
  55  589.1019
  56  541.3495
  57  501.5602
  58  411.0545
  59  402.1706
  60  469.7078
  61  460.9178
  62  482.262
  63  504.6957
  64  441.9747
  65  440.5583
  66  531.4175
  67  485.0138
  68  475.1853
  69  426.7352
  70  484.6042
  71  442.3639
  72  392.1021
  73  392.3355
  74  407.8788
  75  404.6488
  76  438.8873
  77  515.0192
  78  499.0976
  79  478.0488
  80  379.5704
  81  321.7549
  82  358.4686
  83  465.9806
  84  613.0874
  85  528.4402
  86  518.1718
  87  496.5104
  88  376.3729
  89  334.2071
  90  487.9452
  91  570.697
  92  503.4436
  93  408.0999
  94  407.127
  95  398.3893
  96  487.4162
  97  561.257
  98  439.3176
  99  468.6322
 100  547.141
 101  430.3641
 102  337.7026
 103  376.9878
 104  578.4736
 105  502.6383
 106  470.5835
 107  459.7591
 108  459.4253
 109  511.8076
 110  431.3352
 111  454.076
 112  461.7656
 113  484.674
 114  436.278
 115  477.0147
 116  514.3691
 117  507.693
 118  428.6758
 119  385.941
 120  372.8568
 121  505.1357
 122  490.4094
 123  422.5167
 124  511.4174
 125  532.7748
 126  431.761
 127  372.1153
 128  498.001
 129  413.9566
 130  358.5587
 131  408.5382
 132  424.7702
 133  432.1956
 134  508.391
 135  542.2885
 136  474.7
 137  376.0166
 138  397.9048
 139  539.4632
 140  480.8866
 141  356.9903
 142  464.6725
 143  513.9847
 144  525.78
 145  447.7636
 146  360.0287
 147  436.0092
 148  488.7115
 149  497.2021
 150  582.553
 151  584.3781
 152  466.1555
 153  459.686
 154  504.0008
 155  666.9998
 156  603.5671
 157  464.0169
 158  490.9645
 159  382.7182
 160  424.2319
 161  440.3949
 162  438.7325
 163  387.741
 164  400.9584
 165  419.7568
 166  502.3834
 167  453.3197
 168  407.5405
 169  446.9391
 170  474.8649
 171  544.1232
 172  522.3262
 173  426.3054
 174  530.2096
 175  468.4048
 176  472.6012
 177  472.3392
 178  454.441
 179  459.9208
 180  513.9808
 181  593.1812
 182  490.0973
 183  505.0617
 184  448.1412
 185  551.168
 186  560.6126
 187  453.5756
 188  498.1028
 189  437.081
 190  458.27
 191  372.1455
 192  411.537
 193  378.2892
 194  384.2454
 195  443.0468
 196  447.9206
 197  372.9789
 198  329.9234
 199  463.8428
 200  512.0091
 201  476.0116
 202  444.8685
 203  455.9478
 204  437.4851
 205  460.6986
 206  424.8587
 207  518.864
 208  517.0787
 209  436.7395
 210  349.7695
 211  361.6304
 212  418.7727
 213  367.2046
 214  364.1344
 215  381.4701
 216  547.0032
 217  464.1763
 218  312.5496
 219  279.858
 220  403.1807
 221  383.1754
 222  407.5568
 223  465.6998
 224  375.6924
 225  397.931
 226  324.4394
 227  308.1946
 228  343.6584
 229  391.5319
 230  382.2972
 231  476.2554
 232  536.2811
 233  584.9579
 234  434.9482
 235  387.1823
 236  479.087
 237  705.7814
 238  575.8476
 239  518.1749
 240  510.0976
 241  476.5941
 242  447.1825
 243  442.3558
 244  579.6782
 245  528.3841
 246  430.1775
 247  436.1432
 248  448.6237
 249  452.2525
 250  514.5922
 251  551.8746
 252  485.9993
 253  505.5383
 254  676.3638
 255  649.7086
 256  564.7427
 257  497.4426
 258  368.8922
 259  412.1972
 260  479.4255
 261  454.5552
 262  430.2501
 263  499.3366
 264  574.9946
 265  430.008
 266  401.6359
 267  545.0374
 268  430.3126
 269  435.037
 270  506.605
 271  423.0043
 272  339.7065
 273  416.5331
 274  419.4796
 275  437.3124
 276  402.5375
 277  415.9776
 278  414.1292
 279  435.3501
 280  518.2068
 281  531.1478
 282  378.5647
 283  342.6906
 284  469.6471
 285  409.2133
 286  260.2811
 287  351.8776
 288  447.5032
 289  506.5273
 290  482.8982
 291  499.1263
 292  428.5787
 293  397.9206
 294  449.3076
 295  456.783
 296  429.1717
 297  534.2458
 298  458.1231
 299  397.1968
 300  371.4377
 301  367.2968
 302  346.1956
 303  410.3807
 304  403.4565
 305  351.7318
 306  385.5871
 307  509.1755
 308  477.9776
 309  399.1822
 310  331.0424
 311  453.4489
 312  331.6342
 313  300.5583
 314  389.0021
 315  308.8175
 316  408.8894
 317  406.2696
 318  275.1197
 319  174.1061
 320  335.92
 321  335.6676
 322  331.6816
 323  442.9883
 324  338.2431
 325  270.2065
 326  286.777
 327  223.8742
 328  361.0244
 329  498.249
 330  513.0288
 331  376.4574
 332  365.1884
 333  447.3176
 334  412.7574
 335  361.554
 336  409.573
 337  326.4074
 338  259.2341
 339  319.2123
 340  394.9609
 341  468.695
 342  391.8458
 343  391.9066
 344  506.9664
 345  613.0219
 346  563.4818
 347  436.0155
 348  500.1279
 349  425.952
 350  502.0302
 351  490.1987
 352  444.0686
 353  502.1793
 354  522.9492
 355  626.6957
 356  571.9836
 357  510.0532
 358  501.1135
 359  432.3786
 360  461.1618
 361  499.3289
 362  496.6643
 363  499.8239
 364  513.5425
 365  555.0044
 366  521.2211
 367  540.1858
 368  477.297
 369  490.9133
 370  479.1037
 371  511.5049
 372  406.3483
 373  412.7446
 374  429.8444
 375  423.4591
 376  529.8741
 377  567.2716
 378  512.2168
 379  525.8983
 380  508.0363
 381  403.4435
 382  400.3835
 383  442.1508
 384  527.3185
 385  454.1893
 386  496.4308
 387  603.5109
 388  523.3126
 389  483.2727
 390  457.9625
 391  542.1104
 392  525.1188
 393  475.2229
 394  524.6369
 395  470.1505
 396  399.9579
 397  326.7234
 398  392.9273
 399  374.8536
 400  394.1694
 401  432.7815
 402  473.0056
 403  484.2635
 404  399.8399
 405  379.0606
 406  453.1652
 407  339.3566
 408  382.5941
 409  457.0263
 410  462.9072
 411  473.5658
 412  442.2028
 413  398.4585
 414  412.0243
 415  320.7155
 416  505.2739
 417  523.1047
 418  334.2999
 419  417.7359
 420  396.9233
 421  375.1231
 422  459.2591
 423  560.3079
 424  441.0667
 425  357.8498
 426  480.009
 427  400.167
 428  284.3649
 429  245.5605
 430  503.6357
 431  464.3381
 432  372.0902
 433  342.0164
 434  329.1731
 435  336.9903
 436  384.5572
 437  433.6102
 438  542.1069
 439  598.1771
 440  498.2791
 441  492.4836
 442  442.9778
 443  364.2783
 444  349.196
 445  439.6764
 446  472.8043
 447  473.4448
 448  481.3249
 449  478.8487
 450  401.3441
 451  362.169
 452  499.6879
 453  553.6447
 454  488.6716
 455  402.7534
 456  369.4406
 457  356.4502
 458  487.4753
 459  589.4761
 460  582.1564
 461  539.4356
 462  466.3559
 463  411.9195
 464  332.5709
 465  372.8607
 466  509.3866
 467  457.2695
 468  372.8278
 469  410.5013
 470  407.2034
 471  350.251
 472  378.3472
 473  494.9099
 474  506.7542
 475  359.8592
 476  369.3029
 477  451.753
 478  386.8126
 479  465.1719
 480  609.1862
 481  513.4998
 482  513.4683
 483  416.4777
 484  393.8893
 485  481.8506
 486  498.3966
 487  479.5941
 488  404.602
 489  370.3476
 490  542.0137
 491  449.1786
 492  475.5792
 493  521.4379
 494  448.4445
 495  461.0526
 496  461.1034
 497  533.8924
 498  579.306
 499  567.7523
 500  503.9938
 501  485.5587
 502  406.9017
 503  483.7873
 504  541.3695
 505  474.5063
 506  553.4362
 507  605.4356
 508  565.5684
 509  637.2013
 510  696.5125
 511  661.0129
