# Input file       =  1196809110.124559_cleaned.dat
# Candidate        =  PSR_0332+5434
# Telescope        =  AR
# Epoch_topo       =  58095.957084774986
# Epoch_bary       =  N/A
# T_sample         =  0.002
# Data Folded      =  7340032
# Data Avg         =  0.0220006718080867
# Data StdDev      =  1.0000290172268  
# Profile Bins     =  512
# Profile Avg      =  315.296699202013 
# Profile StdDev   =  119.736510697438 
# Reduced chi-sqr  =  0.943
# Prob(Noise)      <  0.819   (~0.0 sigma)
# P_topo (ms)      =  714.534169360162  +/- 0.00021
# P'_topo (s/s)    =  -0                +/- 1.11e-10
# P''_topo (s/s^2) =  0                 +/- 4.9e-14
# P_bary (ms)      =  N/A
# P'_bary (s/s)    =  N/A
# P''_bary (s/s^2) =  N/A
# P_orb (s)        =  N/A
# asin(i)/c (s)    =  N/A
# eccentricity     =  N/A
# w (rad)          =  N/A
# T_peri           =  N/A
######################################################
   0  803.4819
   1  749.4697
   2  539.4948
   3  530.5928
   4  518.733
   5  439.8134
   6  381.4588
   7  363.2246
   8  272.1453
   9  270.7893
  10  316.0561
  11  325.6479
  12  376.0726
  13  325.0175
  14  402.6385
  15  434.9571
  16  401.777
  17  271.8283
  18  321.4359
  19  427.4895
  20  273.5319
  21  306.4061
  22  304.4519
  23  420.0117
  24  345.4032
  25  337.8048
  26  390.433
  27  393.7357
  28  230.8533
  29  177.8529
  30  264.7823
  31  317.5528
  32  264.4456
  33  224.7152
  34  277.8644
  35  298.0998
  36  370.4143
  37  374.89
  38  263.4844
  39  383.2957
  40  257.324
  41  149.4762
  42  218.3807
  43  275.651
  44  361.5455
  45  493.7909
  46  443.4851
  47  283.503
  48  265.8624
  49  255.7776
  50  242.3156
  51  252.7347
  52  328.3319
  53  231.864
  54  276.4274
  55  236.6004
  56  352.1673
  57  459.8536
  58  365.3146
  59  360.8679
  60  255.1493
  61  287.5253
  62  257.2932
  63  327.8594
  64  307.3657
  65  347.8794
  66  357.0244
  67  300.8216
  68  271.5349
  69  257.1354
  70  268.9057
  71  279.4199
  72  316.2333
  73  286.5471
  74  355.4412
  75  371.5111
  76  356.5826
  77  307.8898
  78  281.145
  79  331.0739
  80  325.505
  81  164.0656
  82  295.5945
  83  377.8105
  84  310.1251
  85  227.648
  86  239.9401
  87  316.2671
  88  313.6166
  89  366.7367
  90  344.3969
  91  319.0925
  92  324.7994
  93  357.1747
  94  342.1681
  95  425.358
  96  322.218
  97  304.1222
  98  352.2988
  99  160.3999
 100  204.7325
 101  199.4375
 102  326.9929
 103  366.6886
 104  322.0066
 105  359.976
 106  344.3715
 107  317.4624
 108  230.0665
 109  201.9149
 110  255.1503
 111  330.7184
 112  436.7646
 113  310.0462
 114  272.4787
 115  251.0735
 116  293.7274
 117  208.054
 118  255.1861
 119  299.9915
 120  286.3123
 121  388.8991
 122  406.7217
 123  328.1875
 124  396.5542
 125  258.5919
 126  274.1263
 127  312.8846
 128  337.4153
 129  378.4102
 130  387.1968
 131  251.312
 132  249.0735
 133  307.984
 134  334.8545
 135  285.9871
 136  200.2811
 137  336.8259
 138  403.9656
 139  282.6941
 140  303.5793
 141  258.9551
 142  284.9532
 143  277.1454
 144  274.229
 145  321.3462
 146  347.0133
 147  417.0561
 148  308.5009
 149  188.7727
 150  238.4627
 151  313.1586
 152  242.7782
 153  265.7516
 154  217.0699
 155  305.6172
 156  226.5495
 157  349.6306
 158  328.9267
 159  318.9801
 160  250.4179
 161  253.8606
 162  262.2312
 163  313.3912
 164  411.0483
 165  425.1856
 166  341.8477
 167  384.5422
 168  393.6321
 169  328.2851
 170  266.2701
 171  352.4927
 172  306.8557
 173  384.2646
 174  243.6982
 175  199.3234
 176  263.4884
 177  297.2068
 178  343.0666
 179  276.4199
 180  264.6533
 181  254.0098
 182  214.2554
 183  198.0664
 184  330.7107
 185  363.7425
 186  395.4097
 187  321.4209
 188  370.3441
 189  332.5771
 190  332.8255
 191  392.7735
 192  498.347
 193  418.5656
 194  371.469
 195  406.1972
 196  343.1395
 197  249.8624
 198  279.8372
 199  310.6471
 200  366.5964
 201  301.0991
 202  321.3242
 203  406.1827
 204  345.7138
 205  338.3843
 206  281.0363
 207  150.6564
 208  232.1889
 209  299.83
 210  337.3387
 211  479.6308
 212  303.3978
 213  356.1599
 214  421.6584
 215  382.3693
 216  399.0489
 217  248.9215
 218  278.544
 219  214.8992
 220  310.4708
 221  267.1164
 222  200.4331
 223  267.9939
 224  399.1894
 225  347.9232
 226  342.5722
 227  304.2352
 228  299.1029
 229  362.9853
 230  293.3605
 231  261.4364
 232  263.8026
 233  358.312
 234  377.8352
 235  301.1257
 236  279.0713
 237  308.2744
 238  311.4842
 239  271.5792
 240  329.7508
 241  301.1274
 242  316.0314
 243  279.5667
 244  314.6113
 245  346.3556
 246  324.4254
 247  299.8372
 248  357.8061
 249  346.8063
 250  386.4316
 251  311.1146
 252  342.3357
 253  381.2644
 254  351.4341
 255  327.3474
 256  385.0947
 257  283.0971
 258  321.989
 259  360.0649
 260  423.0251
 261  509.5764
 262  412.8264
 263  259.8483
 264  258.623
 265  321.9548
 266  463.154
 267  443.9146
 268  361.0069
 269  259.7454
 270  277.7811
 271  249.9349
 272  257.8237
 273  277.6365
 274  283.3926
 275  321.7603
 276  253.0705
 277  198.9525
 278  234.3631
 279  392.1008
 280  360.9433
 281  297.4857
 282  514.4262
 283  468.3779
 284  231.8582
 285  359.751
 286  384.8644
 287  493.0311
 288  435.5401
 289  272.0208
 290  174.2264
 291  246.8829
 292  319.1537
 293  348.4545
 294  332.2134
 295  328.7323
 296  350.5578
 297  316.4709
 298  312.8233
 299  317.709
 300  395.4774
 301  377.982
 302  351.9896
 303  303.9659
 304  231.2675
 305  306.6742
 306  302.5786
 307  394.4458
 308  236.1811
 309  272.2545
 310  172.9476
 311  192.093
 312  269.7889
 313  321.1857
 314  380.9423
 315  353.7659
 316  348.3477
 317  311.4728
 318  467.6655
 319  374.2216
 320  344.3907
 321  284.4304
 322  289.0894
 323  344.9461
 324  277.4685
 325  373.118
 326  268.2439
 327  309.5163
 328  382.3233
 329  304.0217
 330  243.3997
 331  299.7664
 332  242.4747
 333  328.8723
 334  388.8011
 335  319.351
 336  291.8991
 337  185.371
 338  306.7275
 339  434.8828
 340  361.4731
 341  402.2449
 342  434.6842
 343  410.3265
 344  382.5907
 345  387.8923
 346  368.963
 347  328.9751
 348  349.7846
 349  340.5443
 350  285.4061
 351  316.4203
 352  536.705
 353  468.9766
 354  473.4884
 355  501.0123
 356  392.4233
 357  321.8166
 358  270.2132
 359  245.6317
 360  286.6382
 361  313.2864
 362  391.3167
 363  357.5828
 364  360.4361
 365  262.0623
 366  184.6869
 367  330.6321
 368  294.4869
 369  178.0346
 370  149.3421
 371  188.1474
 372  267.6615
 373  273.1648
 374  241.3402
 375  264.1214
 376  250.4063
 377  190.9649
 378  284.8652
 379  272.2422
 380  315.8918
 381  280.8695
 382  298.3139
 383  276.4631
 384  183.2163
 385  161.923
 386  220.5549
 387  242.4997
 388  310.7144
 389  279.551
 390  149.6239
 391  152.4848
 392  226.7903
 393  169.4406
 394  123.729
 395  199.7297
 396  283.1154
 397  161.5672
 398  216.1167
 399  288.9019
 400  327.2245
 401  367.9862
 402  396.4143
 403  295.7559
 404  196.1649
 405  382.382
 406  348.4006
 407  317.5949
 408  227.475
 409  283.6768
 410  299.545
 411  225.1139
 412  276.6587
 413  325.945
 414  390.8033
 415  376.5923
 416  302.5547
 417  447.6086
 418  334.1324
 419  232.0403
 420  272.6958
 421  311.5003
 422  294.405
 423  258.0127
 424  433.3262
 425  300.3698
 426  243.0724
 427  233.0563
 428  198.9358
 429  214.9122
 430  204.1795
 431  248.6142
 432  259.9733
 433  260.1845
 434  306.2217
 435  388.2786
 436  509.8298
 437  450.1286
 438  275.4676
 439  191.0203
 440  144.2814
 441  266.3941
 442  329.276
 443  215.7252
 444  219.1908
 445  339.4453
 446  433.7002
 447  479.9365
 448  373.4106
 449  413.7646
 450  406.5687
 451  242.2124
 452  283.4994
 453  323.4073
 454  219.0702
 455  262.2772
 456  321.6004
 457  299.4988
 458  295.3355
 459  274.8759
 460  210.0669
 461  235.0356
 462  180.3576
 463  216.0173
 464  171.6757
 465  124.3919
 466  250.2777
 467  334.247
 468  386.1748
 469  196.3542
 470  251.7822
 471  349.4161
 472  399.2553
 473  333.9988
 474  413.059
 475  297.9141
 476  258.7363
 477  247.9602
 478  242.2756
 479  326.4463
 480  397.4169
 481  386.2855
 482  248.1258
 483  246.3305
 484  164.8462
 485  164.247
 486  230.1408
 487  187.0746
 488  200.6744
 489  257.2751
 490  253.075
 491  312.2725
 492  280.7889
 493  224.6304
 494  255.7617
 495  306.4912
 496  290.1552
 497  363.8961
 498  464.8838
 499  347.6461
 500  354.132
 501  300.6015
 502  400.486
 503  271.8318
 504  389.4272
 505  395.8967
 506  495.1151
 507  554.799
 508  515.7133
 509  477.3741
 510  544.8969
 511  692.7531
