# Input file       =  1196722911.118757_cleaned.dat
# Candidate        =  PSR_0332+5434
# Telescope        =  AR
# Epoch_topo       =  58094.959411096723
# Epoch_bary       =  N/A
# T_sample         =  0.002
# Data Folded      =  7340032
# Data Avg         =  0.0311442072781505
# Data StdDev      =  1.00001653869228 
# Profile Bins     =  512
# Profile Avg      =  446.562120239557 
# Profile StdDev   =  119.73501660461  
# Reduced chi-sqr  =  0.940
# Prob(Noise)      <  0.832   (~0.0 sigma)
# P_topo (ms)      =  714.533151269859  +/- 0.000115
# P'_topo (s/s)    =  -0                +/- 6.05e-11
# P''_topo (s/s^2) =  0                 +/- 2.67e-14
# P_bary (ms)      =  N/A
# P'_bary (s/s)    =  N/A
# P''_bary (s/s^2) =  N/A
# P_orb (s)        =  N/A
# asin(i)/c (s)    =  N/A
# eccentricity     =  N/A
# w (rad)          =  N/A
# T_peri           =  N/A
######################################################
   0  811.6113
   1  802.3709
   2  659.6351
   3  657.223
   4  681.4924
   5  532.5858
   6  442.6747
   7  467.8591
   8  543.206
   9  598.4708
  10  423.9315
  11  451.7039
  12  529.8496
  13  547.5458
  14  542.4805
  15  485.8014
  16  410.5944
  17  397.0243
  18  480.1865
  19  512.5898
  20  394.0427
  21  352.7972
  22  502.8149
  23  342.0709
  24  226.9653
  25  271.0811
  26  417.9644
  27  488.8991
  28  563.0167
  29  597.7387
  30  502.1047
  31  397.9906
  32  319.327
  33  474.107
  34  473.7244
  35  363.2805
  36  326.6182
  37  414.9726
  38  480.8314
  39  432.4057
  40  458.8244
  41  464.9253
  42  455.4143
  43  412.1205
  44  408.7131
  45  363.941
  46  461.8969
  47  431.4144
  48  402.6006
  49  479.9975
  50  398.9371
  51  379.1007
  52  406.8695
  53  506.2596
  54  462.4696
  55  429.7053
  56  458.3707
  57  430.1455
  58  491.2495
  59  485.6783
  60  402.351
  61  502.1663
  62  562.4727
  63  566.1313
  64  421.7238
  65  410.0974
  66  477.121
  67  481.1823
  68  543.11
  69  582.6035
  70  556.1536
  71  481.9492
  72  354.6922
  73  364.4361
  74  438.2724
  75  446.1233
  76  502.8486
  77  523.4572
  78  451.7261
  79  384.5979
  80  477.6785
  81  393.7559
  82  355.9981
  83  323.0165
  84  389.739
  85  427.3028
  86  386.0433
  87  384.3598
  88  470.1459
  89  489.5112
  90  434.6523
  91  358.4399
  92  377.869
  93  486.6137
  94  435.7551
  95  440.7431
  96  324.4168
  97  318.3878
  98  457.5728
  99  560.9694
 100  442.4058
 101  338.3351
 102  364.1896
 103  316.3626
 104  469.3827
 105  472.1779
 106  404.5122
 107  387.7167
 108  335.5065
 109  357.8962
 110  340.1315
 111  461.713
 112  549.9825
 113  535.2332
 114  530.2794
 115  496.6748
 116  394.6152
 117  520.724
 118  571.6469
 119  511.6542
 120  435.0459
 121  360.6206
 122  429.1909
 123  354.1042
 124  411.5487
 125  351.8806
 126  396.346
 127  369.1345
 128  378.0685
 129  347.8748
 130  300.9599
 131  421.7392
 132  490.9957
 133  410.9165
 134  421.1929
 135  454.077
 136  448.2761
 137  506.2386
 138  392.3998
 139  337.0491
 140  375.6513
 141  424.9149
 142  431.58
 143  427.7544
 144  485.8699
 145  412.8365
 146  335.2994
 147  443.4672
 148  398.8295
 149  461.1165
 150  456.0385
 151  510.1033
 152  517.3367
 153  382.5288
 154  407.9982
 155  389.5306
 156  511.2597
 157  546.3115
 158  560.2961
 159  424.4243
 160  409.4452
 161  421.1851
 162  537.6194
 163  567.6
 164  446.3948
 165  428.7992
 166  513.6628
 167  444.9115
 168  426.8029
 169  399.1524
 170  412.9219
 171  532.573
 172  522.7731
 173  526.9574
 174  507.5054
 175  619.36
 176  534.2419
 177  432.0041
 178  550.2432
 179  535.0961
 180  480.0864
 181  460.7249
 182  329.1638
 183  307.9731
 184  333.6147
 185  493.3339
 186  601.7799
 187  573.7016
 188  423.6355
 189  620.5463
 190  506.4073
 191  507.8452
 192  428.6494
 193  346.3011
 194  488.9843
 195  536.8361
 196  424.4941
 197  398.2167
 198  523.6049
 199  424.5365
 200  387.3557
 201  507.189
 202  495.8166
 203  449.5932
 204  448.6272
 205  454.4401
 206  405.2614
 207  527.4508
 208  544.1724
 209  415.6387
 210  354.089
 211  493.3897
 212  462.0312
 213  440.0834
 214  460.5344
 215  350.531
 216  363.4563
 217  312.1783
 218  406.5827
 219  443.2082
 220  491.7018
 221  453.5854
 222  516.4758
 223  519.7812
 224  566.1291
 225  519.7987
 226  399.7802
 227  377.8391
 228  336.2047
 229  327.6945
 230  487.5763
 231  556.7312
 232  455.27
 233  571.9867
 234  472.8485
 235  424.3187
 236  346.37
 237  329.3789
 238  277.2966
 239  292.6562
 240  354.8217
 241  430.0823
 242  431.5366
 243  521.0368
 244  413.0217
 245  447.9806
 246  430.4961
 247  325.2565
 248  509.0859
 249  444.6773
 250  394.6826
 251  401.1049
 252  493.2798
 253  532.4197
 254  411.1721
 255  369.7933
 256  480.0452
 257  524.894
 258  529.7115
 259  406.3221
 260  415.7103
 261  389.5731
 262  404.6319
 263  462.1213
 264  568.5962
 265  457.007
 266  261.4096
 267  290.4941
 268  376.8827
 269  438.445
 270  425.5262
 271  421.7616
 272  396.9859
 273  511.8475
 274  507.6675
 275  439.4503
 276  435.7316
 277  384.8184
 278  304.3661
 279  188.3674
 280  373.1139
 281  618.0026
 282  536.2204
 283  480.3139
 284  367.7582
 285  379.8035
 286  439.228
 287  510.8395
 288  515.9957
 289  410.537
 290  430.862
 291  400.2042
 292  462.8399
 293  476.0678
 294  513.6296
 295  555.9144
 296  595.2957
 297  481.2429
 298  508.9579
 299  475.0293
 300  480.427
 301  315.8637
 302  375.2018
 303  411.0065
 304  426.1859
 305  462.6799
 306  310.7286
 307  411.0017
 308  434.2954
 309  435.4267
 310  469.7129
 311  536.2259
 312  468.6412
 313  398.1395
 314  417.4176
 315  406.7308
 316  416.0512
 317  449.7868
 318  468.1485
 319  363.8353
 320  452.75
 321  344.0655
 322  398.4428
 323  459.4854
 324  548.4848
 325  603.9756
 326  473.3954
 327  461.4444
 328  377.7142
 329  504.3517
 330  517.8658
 331  442.1759
 332  389.2517
 333  493.8378
 334  506.3965
 335  452.6233
 336  330.2991
 337  337.1939
 338  391.2362
 339  530.5771
 340  422.9676
 341  460.4683
 342  464.9716
 343  470.5779
 344  525.9075
 345  568.4316
 346  526.1296
 347  425.3385
 348  411.2832
 349  450.8023
 350  495.304
 351  536.5588
 352  475.8173
 353  371.6026
 354  393.0664
 355  336.0591
 356  381.7251
 357  390.2957
 358  441.9539
 359  464.776
 360  414.1743
 361  407.3856
 362  538.252
 363  456.7299
 364  428.4809
 365  497.2549
 366  508.1481
 367  591.5076
 368  465.7465
 369  443.0152
 370  498.5794
 371  503.9442
 372  478.6147
 373  459.7055
 374  460.9023
 375  339.1273
 376  363.8284
 377  469.0406
 378  455.6369
 379  323.4172
 380  515.7025
 381  524.2
 382  509.2698
 383  402.3999
 384  302.5176
 385  409.5502
 386  429.0493
 387  500.7708
 388  413.4621
 389  486.6001
 390  502.9581
 391  473.2919
 392  458.7131
 393  382.47
 394  326.9708
 395  369.3294
 396  452.1751
 397  456.2003
 398  372.165
 399  381.5752
 400  410.1702
 401  342.2406
 402  396.092
 403  425.0776
 404  552.8116
 405  505.826
 406  502.9679
 407  520.0508
 408  375.9215
 409  344.9868
 410  425.664
 411  438.8044
 412  373.9476
 413  376.4903
 414  360.8599
 415  375.9314
 416  409.7951
 417  493.9771
 418  482.1665
 419  587.3603
 420  561.2722
 421  414.5523
 422  316.6783
 423  488.4328
 424  532.0679
 425  525.4808
 426  412.9515
 427  352.6949
 428  358.793
 429  472.3592
 430  499.5937
 431  507.2144
 432  355.2338
 433  430.1057
 434  457.4562
 435  412.7818
 436  383.9489
 437  360.8298
 438  360.397
 439  494.679
 440  339.951
 441  401.2903
 442  508.2483
 443  360.5748
 444  354.4199
 445  440.304
 446  504.2622
 447  581.6762
 448  517.558
 449  358.2242
 450  474.548
 451  555.1137
 452  545.2717
 453  510.8953
 454  397.577
 455  350.8887
 456  354.263
 457  448.3697
 458  504.1446
 459  500.691
 460  412.4862
 461  317.7496
 462  288.7757
 463  457.3033
 464  409.7277
 465  312.6974
 466  322.6453
 467  272.7989
 468  422.6172
 469  385.4049
 470  418.0747
 471  452.7357
 472  441.3537
 473  304.557
 474  347.1386
 475  417.1792
 476  484.1758
 477  383.6847
 478  404.5311
 479  312.4177
 480  402.5902
 481  544.2603
 482  374.2035
 483  470.4232
 484  537.285
 485  463.944
 486  436.7688
 487  411.4488
 488  489.7933
 489  433.7518
 490  352.1236
 491  347.5086
 492  444.3242
 493  449.025
 494  421.7128
 495  383.8494
 496  475.8633
 497  484.8206
 498  464.355
 499  546.0349
 500  586.7278
 501  435.245
 502  502.0282
 503  431.9095
 504  374.5326
 505  368.9124
 506  470.2922
 507  646.97
 508  733.5444
 509  702.2814
 510  821.1284
 511  929.4164
