# Input file       =  1196277675.112092_cleaned.dat
# Candidate        =  PSR_0332+5434
# Telescope        =  AR
# Epoch_topo       =  58089.806216575140
# Epoch_bary       =  N/A
# T_sample         =  0.002
# Data Folded      =  7340032
# Data Avg         =  0.0347156437555209
# Data StdDev      =  1.00008312228455 
# Profile Bins     =  512
# Profile Avg      =  497.68692533859  
# Profile StdDev   =  119.742988860286 
# Reduced chi-sqr  =  0.793
# Prob(Noise)      <  1   (~0.0 sigma)
# P_topo (ms)      =  714.527546837777  +/- 0.000484
# P'_topo (s/s)    =  -0                +/- 2.55e-10
# P''_topo (s/s^2) =  0                 +/- 1.13e-13
# P_bary (ms)      =  N/A
# P'_bary (s/s)    =  N/A
# P''_bary (s/s^2) =  N/A
# P_orb (s)        =  N/A
# asin(i)/c (s)    =  N/A
# eccentricity     =  N/A
# w (rad)          =  N/A
# T_peri           =  N/A
######################################################
   0  739.1161
   1  811.9382
   2  858.5134
   3  690.7164
   4  624.3461
   5  541.4891
   6  472.1134
   7  493.9635
   8  436.0856
   9  424.7615
  10  488.2747
  11  534.7146
  12  490.8406
  13  451.6497
  14  441.0193
  15  477.6847
  16  426.3813
  17  491.9968
  18  561.925
  19  595.142
  20  422.2467
  21  461.9149
  22  457.4716
  23  540.2585
  24  600.6802
  25  515.539
  26  454.6302
  27  476.41
  28  552.3361
  29  538.0463
  30  590.2612
  31  644.0494
  32  460.3614
  33  454.0707
  34  505.0255
  35  608.8752
  36  543.2034
  37  505.3802
  38  538.5645
  39  637.5842
  40  603.7062
  41  576.606
  42  529.5883
  43  565.7891
  44  560.1364
  45  532.3295
  46  546.6617
  47  526.0242
  48  460.5263
  49  377.5649
  50  433.9031
  51  487.9062
  52  545.7323
  53  544.8173
  54  628.7385
  55  517.388
  56  443.3867
  57  341.8466
  58  429.2934
  59  461.1879
  60  528.306
  61  430.0075
  62  387.5494
  63  507.5958
  64  541.8754
  65  538.9471
  66  582.1007
  67  457.5473
  68  579.1403
  69  548.6238
  70  467.9184
  71  394.3687
  72  388.347
  73  436.056
  74  528.9308
  75  616.8555
  76  575.374
  77  475.9626
  78  463.7607
  79  457.1425
  80  449.8408
  81  418.5523
  82  457.9644
  83  503.2762
  84  510.2809
  85  604.6474
  86  650.5866
  87  617.2533
  88  523.129
  89  465.0233
  90  566.4567
  91  591.1312
  92  494.5829
  93  498.4702
  94  553.4767
  95  476.1779
  96  420.2805
  97  543.454
  98  538.84
  99  478.9073
 100  393.1085
 101  411.9042
 102  518.8932
 103  507.6059
 104  565.8845
 105  605.6932
 106  503.7602
 107  476.2757
 108  408.6161
 109  445.7503
 110  530.848
 111  442.037
 112  477.9341
 113  506.3335
 114  419.1074
 115  418.6671
 116  546.4206
 117  422.9044
 118  505.2799
 119  551.3987
 120  516.0122
 121  523.9264
 122  574.1205
 123  467.9793
 124  533.7802
 125  641.0463
 126  695.6378
 127  561.4762
 128  527.8201
 129  483.0007
 130  547.3634
 131  530.4768
 132  530.8569
 133  399.7634
 134  505.3405
 135  533.5393
 136  458.496
 137  482.1475
 138  440.4237
 139  461.5908
 140  434.381
 141  401.7508
 142  489.3242
 143  483.4381
 144  585.2371
 145  568.0565
 146  549.5685
 147  552.8497
 148  459.39
 149  467.3976
 150  493.8811
 151  506.173
 152  621.1975
 153  664.7437
 154  629.0903
 155  524.8199
 156  391.8295
 157  446.5227
 158  459.264
 159  466.2966
 160  485.0088
 161  549.7339
 162  519.61
 163  478.0253
 164  565.7133
 165  559.1754
 166  461.6808
 167  467.7078
 168  646.115
 169  651.5176
 170  580.9648
 171  457.7383
 172  536.626
 173  534.8609
 174  629.5983
 175  657.0933
 176  454.4661
 177  405.8279
 178  493.4043
 179  453.1847
 180  408.0641
 181  408.0966
 182  475.2443
 183  529.7573
 184  528.708
 185  536.168
 186  460.2189
 187  480.3465
 188  532.7875
 189  488.8829
 190  313.4428
 191  463.7159
 192  457.1756
 193  407.3395
 194  443.791
 195  418.0947
 196  376.6059
 197  436.2014
 198  536.4691
 199  548.4987
 200  423.8244
 201  501.6963
 202  507.3875
 203  409.7461
 204  504.4135
 205  489.1315
 206  563.8333
 207  490.1976
 208  550.154
 209  529.0328
 210  497.6479
 211  476.3484
 212  401.1327
 213  466.7206
 214  557.077
 215  543.738
 216  530.3271
 217  451.7382
 218  434.244
 219  487.3339
 220  436.6041
 221  437.4187
 222  498.0011
 223  467.8639
 224  462.8665
 225  465.4449
 226  570.7279
 227  529.5223
 228  488.548
 229  513.5801
 230  404.9613
 231  395.027
 232  532.1152
 233  474.1853
 234  446.1732
 235  391.0443
 236  349.0333
 237  404.8492
 238  466.1674
 239  472.1677
 240  485.2463
 241  452.1704
 242  417.6714
 243  423.6784
 244  452.5262
 245  471.8129
 246  569.3777
 247  491.0759
 248  376.7594
 249  323.9937
 250  366.9113
 251  410.3686
 252  445.1712
 253  551.2177
 254  508.9259
 255  481.5933
 256  496.4957
 257  409.6849
 258  474.1712
 259  505.4708
 260  483.5969
 261  537.1728
 262  549.5884
 263  501.2962
 264  381.2902
 265  464.3038
 266  536.3631
 267  452.6099
 268  351.8817
 269  438.6282
 270  530.5115
 271  555.9975
 272  542.9957
 273  612.9476
 274  531.6339
 275  573.3912
 276  573.9871
 277  641.611
 278  610.0883
 279  549.5527
 280  555.9165
 281  585.9455
 282  572.954
 283  541.4236
 284  510.435
 285  480.3238
 286  514.9008
 287  530.6699
 288  471.8133
 289  489.741
 290  490.0877
 291  441.4626
 292  364.7109
 293  413.7883
 294  492.1223
 295  579.3317
 296  472.0568
 297  354.3126
 298  579.9129
 299  554.9052
 300  489.0948
 301  386.5413
 302  571.4846
 303  644.6488
 304  543.0762
 305  491.414
 306  458.8473
 307  456.7296
 308  443.5557
 309  448.0146
 310  488.22
 311  654.7301
 312  672.4987
 313  541.2181
 314  580.5657
 315  558.5037
 316  493.6265
 317  519.1627
 318  535.5746
 319  494.2084
 320  369.6973
 321  503.2328
 322  533.8023
 323  530.0939
 324  387.1367
 325  335.9247
 326  373.4918
 327  524.8015
 328  493.0688
 329  499.967
 330  380.3176
 331  353.8749
 332  428.6371
 333  425.3132
 334  515.711
 335  487.1418
 336  444.9617
 337  537.4729
 338  514.9426
 339  531.9191
 340  462.9665
 341  422.1488
 342  392.0941
 343  500.1974
 344  470.9613
 345  439.0403
 346  447.2654
 347  497.6307
 348  401.6435
 349  389.0286
 350  364.6769
 351  538.91
 352  591.2445
 353  521.7825
 354  556.6757
 355  514.2302
 356  592.5002
 357  481.775
 358  495.6383
 359  577.3813
 360  546.5793
 361  683.3626
 362  553.0043
 363  498.6027
 364  457.6241
 365  355.06
 366  344.9269
 367  400.6797
 368  535.0131
 369  587.5012
 370  488.0264
 371  540.9627
 372  586.4432
 373  525.7485
 374  524.7229
 375  493.0377
 376  478.5794
 377  549.2897
 378  582.9759
 379  530.035
 380  520.4793
 381  502.418
 382  455.7168
 383  415.886
 384  404.1512
 385  279.0943
 386  397.615
 387  391.1079
 388  428.9978
 389  404.3391
 390  464.8544
 391  500.1742
 392  521.6588
 393  461.8611
 394  470.2311
 395  359.9011
 396  391.562
 397  515.6154
 398  524.8405
 399  520.5711
 400  501.6875
 401  571.6946
 402  540.6047
 403  461.2837
 404  395.5645
 405  492.583
 406  477.33
 407  531.3085
 408  570.91
 409  553.9675
 410  539.1681
 411  520.4498
 412  550.9017
 413  456.214
 414  511.9185
 415  604.5146
 416  575.4557
 417  587.5535
 418  541.0873
 419  516.9037
 420  606.3436
 421  551.8509
 422  567.5331
 423  433.8211
 424  463.6062
 425  549.3843
 426  609.1047
 427  564.8026
 428  513.8522
 429  454.9746
 430  425.1107
 431  331.8528
 432  409.964
 433  369.3048
 434  487.712
 435  478.189
 436  533.9519
 437  502.475
 438  403.5627
 439  453.9599
 440  489.8736
 441  523.7259
 442  651.0135
 443  637.0995
 444  454.2601
 445  389.0403
 446  393.1363
 447  407.2826
 448  343.6469
 449  372.0474
 450  425.3713
 451  458.3754
 452  566.6607
 453  569.568
 454  537.4449
 455  455.8324
 456  361.1892
 457  343.2704
 458  324.8531
 459  426.9753
 460  510.4683
 461  399.9
 462  343.8832
 463  389.0742
 464  457.9786
 465  504.7236
 466  542.5588
 467  466.6095
 468  471.7903
 469  430.8079
 470  498.8703
 471  526.1976
 472  503.6349
 473  392.5343
 474  319.4905
 475  476.4999
 476  525.4034
 477  517.0814
 478  571.6213
 479  625.0259
 480  520.1205
 481  466.1416
 482  490.0867
 483  463.7615
 484  481.7481
 485  491.2317
 486  517.8683
 487  526.7587
 488  492.7573
 489  476.5165
 490  562.1391
 491  507.2468
 492  543.1643
 493  497.923
 494  568.4588
 495  521.9666
 496  442.394
 497  558.8012
 498  526.8456
 499  363.0615
 500  392.0168
 501  556.1363
 502  538.9567
 503  539.2275
 504  513.8359
 505  442.7138
 506  491.7613
 507  553.8997
 508  653.6654
 509  738.9718
 510  715.5469
 511  748.2798
