# Input file       =  1196105373.116092_cleaned.dat
# Candidate        =  PSR_0332+5434
# Telescope        =  AR
# Epoch_topo       =  58087.811980510327
# Epoch_bary       =  N/A
# T_sample         =  0.002
# Data Folded      =  7340032
# Data Avg         =  0.030448411972739
# Data StdDev      =  1.00008630090599 
# Profile Bins     =  512
# Profile Avg      =  436.66595032077  
# Profile StdDev   =  119.743369446283 
# Reduced chi-sqr  =  0.910
# Prob(Noise)      <  0.927   (~0.0 sigma)
# P_topo (ms)      =  714.525493100792  +/- 0.000183
# P'_topo (s/s)    =  -0                +/- 9.68e-11
# P''_topo (s/s^2) =  0                 +/- 4.27e-14
# P_bary (ms)      =  N/A
# P'_bary (s/s)    =  N/A
# P''_bary (s/s^2) =  N/A
# P_orb (s)        =  N/A
# asin(i)/c (s)    =  N/A
# eccentricity     =  N/A
# w (rad)          =  N/A
# T_peri           =  N/A
######################################################
   0  928.5376
   1  844.6078
   2  740.9064
   3  577.9053
   4  522.9198
   5  419.4194
   6  482.7769
   7  595.2795
   8  479.2892
   9  431.4339
  10  436.748
  11  480.7437
  12  533.2112
  13  478.0017
  14  483.0221
  15  419.12
  16  366.9005
  17  348.0016
  18  373.6679
  19  355.9364
  20  514.2216
  21  530.3405
  22  464.376
  23  410.7439
  24  436.268
  25  462.3781
  26  515.9918
  27  575.6017
  28  387.7567
  29  348.1968
  30  225.9731
  31  483.9066
  32  505.2198
  33  380.9523
  34  571.7679
  35  541.7455
  36  482.5347
  37  373.8704
  38  397.7471
  39  438.7986
  40  539.9518
  41  428.8692
  42  386.1796
  43  464.886
  44  504.0836
  45  538.5383
  46  439.596
  47  475.9384
  48  434.6589
  49  403.0724
  50  501.5566
  51  422.2768
  52  415.5068
  53  427.8166
  54  371.1908
  55  465.7212
  56  448.5133
  57  411.0624
  58  455.1646
  59  469.382
  60  439.4871
  61  301.4638
  62  392.1269
  63  398.3713
  64  480.2614
  65  491.4425
  66  398.2479
  67  381.2159
  68  417.104
  69  418.3581
  70  332.0166
  71  274.8472
  72  405.2551
  73  438.1675
  74  418.5753
  75  451.3141
  76  450.0301
  77  443.1661
  78  421.1212
  79  437.5646
  80  357.8366
  81  407.0721
  82  461.2704
  83  449.8916
  84  462.7928
  85  423.087
  86  356.6098
  87  442.6957
  88  441.1508
  89  392.3425
  90  415.3715
  91  396.1944
  92  514.0261
  93  624.4351
  94  355.9994
  95  219.8368
  96  285.0527
  97  395.7803
  98  476.1506
  99  476.2502
 100  400.1269
 101  348.1066
 102  409.8432
 103  387.6223
 104  438.3923
 105  500.5951
 106  491.4545
 107  436.0639
 108  558.216
 109  447.7963
 110  522.4011
 111  530.6288
 112  504.5326
 113  399.9809
 114  502.6926
 115  448.5699
 116  431.4847
 117  377.0127
 118  223.6934
 119  267.1412
 120  380.6628
 121  322.5636
 122  424.0412
 123  497.1372
 124  459.7924
 125  337.2923
 126  362.0617
 127  465.1744
 128  422.6523
 129  350.7117
 130  395.6016
 131  512.8825
 132  525.9586
 133  531.2463
 134  579.8406
 135  615.1699
 136  534.6569
 137  455.8599
 138  456.3538
 139  557.2808
 140  520.611
 141  502.2905
 142  548.0957
 143  464.988
 144  474.0309
 145  555.828
 146  590.0868
 147  535.0428
 148  482.7745
 149  501.4179
 150  449.5295
 151  393.0016
 152  377.059
 153  463.0383
 154  479.5404
 155  475.7906
 156  383.4993
 157  360.0269
 158  362.4818
 159  412.9366
 160  471.2325
 161  490.372
 162  534.72
 163  449.7796
 164  403.4023
 165  315.6041
 166  321.2748
 167  470.4565
 168  565.3655
 169  478.194
 170  436.3631
 171  358.1484
 172  383.6771
 173  468.189
 174  460.7332
 175  594.9109
 176  600.5015
 177  468.0011
 178  319.8498
 179  308.5155
 180  421.2599
 181  455.8787
 182  448.4702
 183  358.6555
 184  336.7356
 185  391.4022
 186  448.3326
 187  448.6992
 188  369.9428
 189  340.179
 190  343.9163
 191  398.3647
 192  423.5461
 193  378.5276
 194  386.9482
 195  417.4269
 196  433.9535
 197  447.0789
 198  492.4027
 199  458.0048
 200  405.5298
 201  446.9109
 202  449.9291
 203  400.7613
 204  383.9066
 205  360.6234
 206  368.2877
 207  451.2572
 208  492.8177
 209  531.2952
 210  523.2334
 211  380.8041
 212  345.4209
 213  434.3159
 214  653.0597
 215  580.1976
 216  500.3743
 217  556.7186
 218  474.9218
 219  432.1966
 220  469.7931
 221  541.2321
 222  508.4275
 223  501.2535
 224  483.1526
 225  548.4935
 226  541.3865
 227  354.8698
 228  396.9577
 229  476.9042
 230  459.4485
 231  381.8872
 232  382.0171
 233  367.7378
 234  472.229
 235  377.8904
 236  394.4567
 237  443.8741
 238  464.9446
 239  540.7205
 240  448.1337
 241  384.562
 242  358.7795
 243  402.6782
 244  478.6518
 245  447.3004
 246  359.933
 247  381.2106
 248  455.4507
 249  441.8536
 250  322.3515
 251  302.0771
 252  398.9286
 253  536.1854
 254  543.0541
 255  491.6766
 256  488.0084
 257  422.5271
 258  461.4758
 259  396.3355
 260  441.7586
 261  406.2196
 262  345.8849
 263  406.4663
 264  456.4463
 265  320.9428
 266  349.4753
 267  312.4329
 268  427.0117
 269  461.5701
 270  488.3446
 271  489.5127
 272  523.6146
 273  459.5234
 274  401.0453
 275  378.5544
 276  426.1399
 277  410.2851
 278  351.7729
 279  425.5052
 280  393.0999
 281  426.8462
 282  412.3931
 283  442.6932
 284  365.4437
 285  306.7466
 286  306.1328
 287  449.0535
 288  447.8974
 289  415.3824
 290  484.3124
 291  469.6942
 292  346.9171
 293  365.4334
 294  451.8613
 295  490.6994
 296  536.6476
 297  428.7106
 298  271.2126
 299  314.6153
 300  441.4807
 301  332.8675
 302  469.2333
 303  442.4699
 304  334.9206
 305  380.8249
 306  399.058
 307  432.4054
 308  478.8934
 309  500.7142
 310  515.7712
 311  579.2913
 312  514.9076
 313  485.6811
 314  408.2387
 315  301.7451
 316  312.6418
 317  308.1332
 318  358.1381
 319  423.0046
 320  370.8089
 321  397.4669
 322  411.1555
 323  453.5836
 324  376.034
 325  345.2416
 326  401.0836
 327  417.5879
 328  384.6967
 329  596.3839
 330  531.7188
 331  393.9426
 332  402.2753
 333  437.0143
 334  409.1508
 335  453.488
 336  382.9714
 337  383.5767
 338  358.7059
 339  392.3369
 340  383.1551
 341  322.8622
 342  393.3801
 343  523.2677
 344  460.5728
 345  443.7966
 346  518.5618
 347  330.9694
 348  277.4712
 349  262.2531
 350  397.185
 351  453.2617
 352  406.1421
 353  459.769
 354  378.1245
 355  347.521
 356  291.5406
 357  276.5502
 358  209.2223
 359  297.5964
 360  419.8493
 361  318.8605
 362  354.2148
 363  369.9352
 364  373.1711
 365  281.918
 366  344.6835
 367  380.6099
 368  427.7835
 369  440.7898
 370  419.0928
 371  335.3687
 372  407.0593
 373  510.0904
 374  399.474
 375  447.2781
 376  414.6736
 377  341.935
 378  436.7534
 379  464.001
 380  427.412
 381  391.5237
 382  345.4167
 383  401.5107
 384  422.4776
 385  384.5315
 386  396.2634
 387  408.5096
 388  453.0571
 389  433.196
 390  413.2332
 391  429.8979
 392  377.5472
 393  428.1285
 394  415.5211
 395  392.9345
 396  438.8307
 397  460.3852
 398  459.7743
 399  504.1434
 400  406.2431
 401  365.0142
 402  433.8982
 403  529.2548
 404  471.104
 405  434.2747
 406  526.3948
 407  536.8085
 408  508.7327
 409  543.3947
 410  537.1912
 411  387.129
 412  316.4219
 413  317.7017
 414  429.9473
 415  419.2346
 416  496.8353
 417  467.6422
 418  443.5791
 419  464.5187
 420  449.0669
 421  493.4131
 422  494.4396
 423  472.2429
 424  447.1511
 425  514.0787
 426  488.4828
 427  359.4715
 428  351.4645
 429  494.4066
 430  374.732
 431  231.0244
 432  330.5235
 433  425.2323
 434  341.6425
 435  477.8384
 436  502.8707
 437  555.1251
 438  470.0302
 439  478.1402
 440  393.8597
 441  399.8591
 442  442.3224
 443  428.8498
 444  470.567
 445  395.6222
 446  399.5826
 447  410.0746
 448  473.2354
 449  420.2552
 450  458.934
 451  444.0142
 452  388.0699
 453  374.666
 454  394.0662
 455  338.0458
 456  307.9582
 457  393.0639
 458  437.4128
 459  423.2179
 460  502.7427
 461  463.8677
 462  458.6812
 463  385.0834
 464  465.1944
 465  398.9438
 466  363.1806
 467  441.4533
 468  404.1412
 469  363.388
 470  419.7402
 471  505.7567
 472  455.1042
 473  395.5303
 474  387.0633
 475  399.4878
 476  385.6253
 477  388.022
 478  541.0192
 479  454.2984
 480  460.2495
 481  467.5932
 482  445.3482
 483  419.4482
 484  403.6533
 485  456.6432
 486  454.1685
 487  428.0274
 488  418.2884
 489  437.8364
 490  446.2634
 491  630.6908
 492  552.8364
 493  441.8455
 494  547.2326
 495  623.051
 496  444.3732
 497  547.9416
 498  508.6593
 499  461.2563
 500  474.662
 501  497.6614
 502  436.3899
 503  437.1983
 504  553.496
 505  374.8125
 506  392.6792
 507  461.0807
 508  635.4396
 509  726.574
 510  768.6896
 511  886.634
