# Input file       =  1196176904.130603_cleaned.dat
# Candidate        =  PSR_0332+5434
# Telescope        =  AR
# Epoch_topo       =  58088.639885770870
# Epoch_bary       =  N/A
# T_sample         =  0.002
# Data Folded      =  7208960
# Data Avg         =  0.0215703273962643
# Data StdDev      =  1.00044760907343 
# Profile Bins     =  512
# Profile Avg      =  303.724667034194 
# Profile StdDev   =  118.712288717262 
# Reduced chi-sqr  =  0.709
# Prob(Noise)      <  1   (~0.0 sigma)
# P_topo (ms)      =  714.526323210361  +/- 5.07e-05
# P'_topo (s/s)    =  -0                +/- 2.72e-11
# P''_topo (s/s^2) =  0                 +/- 1.22e-14
# P_bary (ms)      =  N/A
# P'_bary (s/s)    =  N/A
# P''_bary (s/s^2) =  N/A
# P_orb (s)        =  N/A
# asin(i)/c (s)    =  N/A
# eccentricity     =  N/A
# w (rad)          =  N/A
# T_peri           =  N/A
######################################################
   0  504.9803
   1  567.3011
   2  531.863
   3  395.9911
   4  299.874
   5  324.6263
   6  427.6477
   7  329.2701
   8  291.1999
   9  235.0486
  10  325.2871
  11  371.7419
  12  451.9806
  13  441.2791
  14  402.1301
  15  253.9027
  16  291.0039
  17  411.9619
  18  343.0577
  19  341.0896
  20  314.0214
  21  274.3246
  22  351.1172
  23  369.6213
  24  337.9306
  25  276.4729
  26  300.4352
  27  366.0967
  28  403.7148
  29  199.1651
  30  236.9091
  31  268.6229
  32  301.1846
  33  376.2828
  34  387.9229
  35  374.0599
  36  284.5427
  37  260.5984
  38  268.3946
  39  320.7315
  40  343.8895
  41  387.8037
  42  278.006
  43  225.5021
  44  327.4116
  45  361.5858
  46  331.8898
  47  322.8515
  48  324.0444
  49  298.3077
  50  203.342
  51  136.1508
  52  213.7157
  53  358.172
  54  257.398
  55  305.6649
  56  270.8362
  57  288.3664
  58  256.9916
  59  275.6385
  60  375.0094
  61  344.977
  62  417.8282
  63  376.1099
  64  309.5153
  65  212.4546
  66  201.4716
  67  323.1397
  68  205.6647
  69  314.1975
  70  345.0764
  71  310.8456
  72  252.3848
  73  265.0117
  74  256.436
  75  265.5883
  76  160.7778
  77  221.5654
  78  271.8889
  79  306.7578
  80  297.5096
  81  291.3568
  82  268.9033
  83  338.2921
  84  299.5418
  85  252.1886
  86  241.8678
  87  253.4749
  88  316.4512
  89  215.3128
  90  237.8761
  91  361.1694
  92  352.142
  93  307.6233
  94  234.5571
  95  340.0866
  96  377.5366
  97  223.4562
  98  263.3285
  99  348.9488
 100  263.9308
 101  161.5042
 102  308.001
 103  283.4939
 104  218.5157
 105  247.4519
 106  282.8293
 107  236.7235
 108  240.1376
 109  302.1759
 110  309.1427
 111  261.8233
 112  278.0699
 113  300.0245
 114  273.1903
 115  221.5602
 116  299.0794
 117  349.9177
 118  275.1569
 119  246.7255
 120  344.4875
 121  381.5019
 122  234.9682
 123  145.6423
 124  350.9309
 125  354.7874
 126  338.1599
 127  405.7731
 128  410.7498
 129  270.7838
 130  206.3922
 131  202.8317
 132  277.1454
 133  297.0106
 134  308.0307
 135  334.1824
 136  342.4317
 137  307.8481
 138  264.1189
 139  354.6517
 140  384.6607
 141  364.8909
 142  219.3527
 143  220.6963
 144  241.5314
 145  222.3268
 146  344.2578
 147  321.1898
 148  260.4582
 149  322.5167
 150  306.184
 151  255.3573
 152  282.6031
 153  340.8189
 154  317.2913
 155  322.1287
 156  399.8963
 157  351.971
 158  327.1955
 159  385.3036
 160  423.227
 161  337.5861
 162  311.992
 163  370.5315
 164  321.6139
 165  298.9709
 166  359.0682
 167  476.2005
 168  471.7875
 169  384.5605
 170  363.8673
 171  457.524
 172  398.4451
 173  320.224
 174  415.0327
 175  349.9618
 176  374.7418
 177  346.7905
 178  458.9993
 179  322.9478
 180  304.664
 181  436.4238
 182  402.8808
 183  341.4268
 184  336.7618
 185  417.7039
 186  367.245
 187  360.9041
 188  290.7484
 189  317.7367
 190  268.444
 191  185.4434
 192  280.4383
 193  314.2782
 194  300.4375
 195  276.5697
 196  220.9973
 197  171.2233
 198  180.8122
 199  236.609
 200  196.1262
 201  232.6061
 202  307.5371
 203  370.6599
 204  227.1303
 205  166.0203
 206  216.1068
 207  284.2898
 208  269.171
 209  178.1298
 210  226.6269
 211  252.9335
 212  230.4515
 213  275.1646
 214  332.5521
 215  327.4037
 216  284.3064
 217  223.4386
 218  247.9137
 219  322.9923
 220  220.8323
 221  246.6151
 222  235.3626
 223  339.5819
 224  398.0251
 225  485.678
 226  273.5847
 227  265.5692
 228  260.3452
 229  246.9838
 230  321.2878
 231  321.274
 232  301.5841
 233  220.4599
 234  208.6043
 235  248.0601
 236  266.874
 237  358.1111
 238  273.8422
 239  215.8059
 240  171.2944
 241  222.2402
 242  254.5293
 243  135.2654
 244  252.454
 245  333.2035
 246  290.1449
 247  288.4469
 248  303.7782
 249  258.5389
 250  229.6413
 251  259.5898
 252  259.3166
 253  242.803
 254  287.6129
 255  261.209
 256  346.9354
 257  366.3044
 258  335.4216
 259  270.4529
 260  411.2406
 261  416.4716
 262  267.6457
 263  321.8338
 264  421.4485
 265  286.7044
 266  244.1888
 267  270.2962
 268  316.0016
 269  262.3482
 270  214.2145
 271  284.3565
 272  311.7813
 273  394.8522
 274  365.5609
 275  334.6907
 276  225.7248
 277  296.5613
 278  395.8425
 279  334.9958
 280  281.1009
 281  264.5633
 282  297.6891
 283  338.3272
 284  355.3218
 285  378.276
 286  268.283
 287  234.1133
 288  252.248
 289  231.7139
 290  205.2103
 291  319.4793
 292  318.9013
 293  283.9583
 294  250.46
 295  200.6173
 296  379.5156
 297  296.0551
 298  317.776
 299  347.4009
 300  379.4969
 301  286.0771
 302  289.2402
 303  246.8328
 304  367.955
 305  348.3582
 306  407.1045
 307  398.6462
 308  457.3539
 309  353.4727
 310  313.2538
 311  249.0903
 312  231.8516
 313  190.3514
 314  215.271
 315  273.9438
 316  260.0555
 317  390.028
 318  370.0832
 319  210.2555
 320  233.2764
 321  333.4665
 322  315.8683
 323  229.3108
 324  312.4383
 325  376.2748
 326  365.2773
 327  479.9107
 328  419.4981
 329  345.3916
 330  331.9404
 331  255.0623
 332  239.1491
 333  308.472
 334  276.7596
 335  304.0015
 336  333.7666
 337  347.8083
 338  391.3002
 339  310.7181
 340  245.3525
 341  345.7263
 342  353.113
 343  410.916
 344  367.8466
 345  318.2212
 346  299.836
 347  290.4234
 348  214.5972
 349  169.3916
 350  246.059
 351  269.2841
 352  197.1794
 353  150.6839
 354  271.0222
 355  302.2763
 356  196.5461
 357  264.1077
 358  157.8846
 359  62.55507
 360  124.6035
 361  222.3867
 362  294.3635
 363  113.8078
 364  152.7176
 365  293.7346
 366  197.3538
 367  131.7217
 368  208.9204
 369  306.8647
 370  419.7512
 371  446.7508
 372  312.9907
 373  207.5626
 374  254.6135
 375  333.3695
 376  300.2785
 377  378.7325
 378  443.9311
 379  327.113
 380  275.486
 381  304.8425
 382  344.1506
 383  326.1301
 384  378.3156
 385  401.4794
 386  374.9797
 387  298.053
 388  331.5256
 389  329.3194
 390  275.8765
 391  227.1147
 392  274.3741
 393  307.0233
 394  193.4044
 395  241.7475
 396  356.7917
 397  340.8769
 398  257.085
 399  275.4119
 400  312.0122
 401  283.9563
 402  330.6493
 403  353.7109
 404  465.5399
 405  356.5571
 406  330.2177
 407  469.6636
 408  392.3175
 409  287.2967
 410  280.6577
 411  272.8789
 412  311.6787
 413  246.4214
 414  364.1148
 415  312.2097
 416  228.9131
 417  175.9207
 418  152.8073
 419  204.0592
 420  246.1865
 421  295.0239
 422  346.189
 423  278.1475
 424  299.691
 425  286.3712
 426  157.4787
 427  188.717
 428  254.8945
 429  331.6328
 430  315.7208
 431  266.884
 432  276.1705
 433  308.5203
 434  274.189
 435  198.2517
 436  257.3796
 437  313.1463
 438  364.3396
 439  280.1809
 440  235.4908
 441  299.4651
 442  270.5797
 443  325.0092
 444  267.3823
 445  281.9428
 446  262.008
 447  259.42
 448  313.2267
 449  275.9088
 450  335.4485
 451  393.7419
 452  345.8076
 453  367.9543
 454  389.629
 455  314.215
 456  366.3172
 457  376.5902
 458  292.8969
 459  227.9828
 460  248.1463
 461  372.9194
 462  347.4455
 463  247.5424
 464  322.3674
 465  377.4153
 466  264.6789
 467  167.0906
 468  339.9167
 469  458.8898
 470  306.87
 471  334.9068
 472  366.9999
 473  219.8825
 474  185.1648
 475  287.588
 476  263.0607
 477  256.9346
 478  325.5466
 479  330.1521
 480  240.0311
 481  243.4698
 482  267.3969
 483  344.5509
 484  399.7837
 485  409.5078
 486  430.3287
 487  292.8004
 488  319.585
 489  414.7277
 490  359.2479
 491  374.558
 492  373.7812
 493  316.912
 494  257.6461
 495  364.7477
 496  355.7449
 497  284.7231
 498  274.0523
 499  299.7351
 500  258.5782
 501  242.829
 502  327.4998
 503  424.5853
 504  470.964
 505  441.6214
 506  389.7954
 507  415.8743
 508  351.3536
 509  370.5635
 510  496.5876
 511  486.618
