# Input file       =  1196551142.114409_cleaned.dat
# Candidate        =  PSR_0332+5434
# Telescope        =  AR
# Epoch_topo       =  58092.971343916768
# Epoch_bary       =  N/A
# T_sample         =  0.002
# Data Folded      =  7340032
# Data Avg         =  0.0271487105661364
# Data StdDev      =  1.00007167187331 
# Profile Bins     =  512
# Profile Avg      =  389.210902872234 
# Profile StdDev   =  119.74161786778  
# Reduced chi-sqr  =  0.678
# Prob(Noise)      <  1   (~0.0 sigma)
# P_topo (ms)      =  714.531133901852  +/- 0.000592
# P'_topo (s/s)    =  -0                +/- 3.13e-10
# P''_topo (s/s^2) =  0                 +/- 1.38e-13
# P_bary (ms)      =  N/A
# P'_bary (s/s)    =  N/A
# P''_bary (s/s^2) =  N/A
# P_orb (s)        =  N/A
# asin(i)/c (s)    =  N/A
# eccentricity     =  N/A
# w (rad)          =  N/A
# T_peri           =  N/A
######################################################
   0  596.6246
   1  530.3459
   2  500.5332
   3  458.7093
   4  447.8315
   5  519.7354
   6  381.7266
   7  314.4673
   8  328.1065
   9  300.9261
  10  342.6152
  11  333.3798
  12  467.8695
  13  575.7079
  14  549.541
  15  440.7086
  16  331.5826
  17  267.8991
  18  258.4668
  19  369.2222
  20  366.0786
  21  425.0683
  22  393.802
  23  362.0573
  24  421.3423
  25  389.075
  26  329.8625
  27  367.3858
  28  264.6342
  29  373.679
  30  425.4329
  31  382.3709
  32  334.114
  33  377.5038
  34  302.0545
  35  384.6037
  36  350.9062
  37  398.0327
  38  302.0356
  39  396.5605
  40  536.3284
  41  519.6671
  42  563.7452
  43  478.8076
  44  430.5399
  45  553.6677
  46  485.1006
  47  504.9729
  48  353.8578
  49  386.4167
  50  383.5642
  51  387.1023
  52  419.8693
  53  456.7979
  54  393.0663
  55  374.0772
  56  455.8403
  57  426.7785
  58  344.5189
  59  344.5395
  60  423.2934
  61  382.5713
  62  417.8188
  63  398.319
  64  468.756
  65  524.7662
  66  400.1086
  67  300.5375
  68  430.271
  69  475.8758
  70  559.3185
  71  521.9893
  72  556.4775
  73  565.302
  74  524.5265
  75  420.0272
  76  310.7962
  77  431.9453
  78  412.1994
  79  302.0496
  80  361.6016
  81  398.3129
  82  412.2794
  83  401.2991
  84  449.5972
  85  390.4477
  86  298.4633
  87  323.4956
  88  412.5422
  89  421.174
  90  404.2067
  91  390.211
  92  246.9898
  93  289.0463
  94  387.6456
  95  338.557
  96  262.7188
  97  311.4103
  98  431.63
  99  330.9776
 100  353.8896
 101  460.8297
 102  456.729
 103  371.3095
 104  378.1102
 105  394.6171
 106  411.7945
 107  330.6301
 108  347.7609
 109  377.966
 110  369.3966
 111  314.9211
 112  324.9574
 113  462.1983
 114  397.0073
 115  343.023
 116  405.6603
 117  375.0432
 118  423.6899
 119  382.8831
 120  315.2196
 121  312.3914
 122  422.1023
 123  376.2355
 124  323.759
 125  352.9646
 126  355.4289
 127  317.981
 128  401.4284
 129  441.4895
 130  403.1068
 131  428.837
 132  487.1244
 133  437.8139
 134  377.8894
 135  330.2902
 136  389.0954
 137  504.6002
 138  386.4905
 139  341.8079
 140  351.9056
 141  349.2849
 142  348.4861
 143  431.2355
 144  432.3171
 145  389.9747
 146  448.7994
 147  432.8116
 148  410.0512
 149  468.4284
 150  357.7099
 151  343.1047
 152  460.8301
 153  501.6406
 154  486.3131
 155  470.5099
 156  412.4132
 157  440.7017
 158  369.5172
 159  368.4767
 160  342.16
 161  385.5573
 162  447.6078
 163  401.5982
 164  389.0107
 165  406.2589
 166  439.1879
 167  321.8907
 168  317.1794
 169  419.5157
 170  390.857
 171  334.8874
 172  334.8291
 173  450.2756
 174  349.9477
 175  354.158
 176  510.455
 177  395.3712
 178  376.9319
 179  364.6369
 180  465.4079
 181  504.442
 182  415.5021
 183  392.4995
 184  318.8974
 185  346.5611
 186  336.7198
 187  430.9278
 188  343.9236
 189  380.278
 190  324.6076
 191  318.3513
 192  299.0955
 193  277.6658
 194  358.9218
 195  394.5933
 196  368.8174
 197  382.4068
 198  474.1924
 199  362.1994
 200  364.3356
 201  301.9495
 202  427.8106
 203  450.4085
 204  421.484
 205  414.09
 206  374.3328
 207  319.0425
 208  395.4856
 209  501.0172
 210  378.4377
 211  318.822
 212  450.2535
 213  549.7598
 214  482.2772
 215  448.6981
 216  391.8446
 217  337.0526
 218  311.218
 219  389.9815
 220  408.092
 221  407.9436
 222  348.0098
 223  416.3133
 224  360.0804
 225  234.7847
 226  236.6958
 227  286.1918
 228  277.8564
 229  259.5266
 230  203.1926
 231  321.3853
 232  333.0002
 233  338.4456
 234  378.9888
 235  375.104
 236  366.3472
 237  373.1612
 238  407.9987
 239  351.2282
 240  253.7127
 241  388.7641
 242  372.3141
 243  410.6479
 244  387.7374
 245  396.0109
 246  291.873
 247  381.5048
 248  486.5938
 249  530.1335
 250  378.733
 251  270.9775
 252  275.8859
 253  369.6654
 254  326.3749
 255  362.6023
 256  333.6869
 257  322.6022
 258  274.3068
 259  334.1818
 260  365.2353
 261  446.1057
 262  507.9465
 263  337.9027
 264  275.6474
 265  394.0753
 266  438.5831
 267  352.128
 268  326.9612
 269  371.9052
 270  398.9643
 271  343.3586
 272  331.1463
 273  446.1059
 274  317.7038
 275  346.1907
 276  398.8918
 277  504.581
 278  468.1493
 279  458.2839
 280  418.5578
 281  390.1779
 282  291.2264
 283  429.8147
 284  438.387
 285  307.6961
 286  306.2166
 287  389.3526
 288  461.0186
 289  481.9438
 290  467.9043
 291  383.5702
 292  377.9071
 293  413.5258
 294  402.8422
 295  387.565
 296  379.4063
 297  317.2289
 298  516.452
 299  488.1303
 300  400.8711
 301  285.4255
 302  266.4007
 303  414.5854
 304  396.9697
 305  348.8158
 306  315.7603
 307  301.9235
 308  379.7299
 309  418.2037
 310  444.2496
 311  414.6737
 312  428.1463
 313  322.2212
 314  262.7969
 315  317.1131
 316  466.2849
 317  519.0905
 318  340.5625
 319  360.1825
 320  327.0504
 321  280.33
 322  306.7908
 323  302.1477
 324  255.0188
 325  272.6841
 326  378.0606
 327  249.5605
 328  330.0142
 329  382.9678
 330  451.8036
 331  396.4975
 332  298.3227
 333  326.9553
 334  353.6682
 335  428.8653
 336  429.5565
 337  393.6955
 338  407.1962
 339  371.8591
 340  413.7625
 341  410.3749
 342  376.9004
 343  273.062
 344  224.5734
 345  235.1756
 346  396.8419
 347  326.7617
 348  313.7346
 349  248.877
 350  305.8473
 351  244.7274
 352  368.234
 353  414.0278
 354  328.7592
 355  276.2053
 356  314.6089
 357  318.7054
 358  347.4582
 359  538.3223
 360  509.0209
 361  456.2211
 362  383.5502
 363  411.1305
 364  517.7798
 365  441.5384
 366  548.2727
 367  481.1521
 368  431.6755
 369  437.8116
 370  382.3065
 371  307.86
 372  310.2689
 373  268.6157
 374  377.9397
 375  444.9034
 376  532.2958
 377  491.8791
 378  481.2921
 379  434.3274
 380  336.5291
 381  384.1815
 382  445.6714
 383  473.3066
 384  456.4249
 385  364.0892
 386  494.5971
 387  421.1349
 388  373.7815
 389  350.7122
 390  346.6075
 391  456.7332
 392  429.6582
 393  392.9868
 394  449.1398
 395  393.1452
 396  423.6938
 397  372.3127
 398  461.4548
 399  440.966
 400  274.3114
 401  285.654
 402  419.301
 403  304.1637
 404  233.2633
 405  246.5509
 406  270.8279
 407  347.6344
 408  367.327
 409  380.37
 410  290.5643
 411  280.3222
 412  369.8607
 413  464.4815
 414  364.5042
 415  361.7925
 416  350.6885
 417  341.067
 418  269.0835
 419  363.9666
 420  380.8849
 421  445.9498
 422  470.4207
 423  360.6062
 424  406.4085
 425  378.3593
 426  390.3265
 427  368.4834
 428  396.6088
 429  442.3425
 430  317.4809
 431  295.5464
 432  464.8219
 433  430.2313
 434  387.7301
 435  300.1573
 436  303.6447
 437  313.6944
 438  277.207
 439  377.6031
 440  530.2322
 441  517.882
 442  407.518
 443  390.9668
 444  404.5607
 445  341.4124
 446  369.4703
 447  338.6366
 448  358.0639
 449  464.4132
 450  529.0767
 451  441.2505
 452  390.8253
 453  454.3743
 454  443.1528
 455  514.7908
 456  417.9557
 457  339.4833
 458  340.4107
 459  343.7974
 460  346.8674
 461  433.3369
 462  470.6953
 463  421.6495
 464  365.6842
 465  352.74
 466  403.5882
 467  433.6949
 468  444.0665
 469  353.7072
 470  343.9038
 471  376.3492
 472  372.1983
 473  479.8195
 474  453.043
 475  316.7615
 476  467.0656
 477  465.0233
 478  443.7815
 479  468.8065
 480  430.6108
 481  502.4102
 482  387.3701
 483  432.1668
 484  499.8942
 485  451.3839
 486  469.2213
 487  502.7229
 488  467.8911
 489  474.2696
 490  470.3349
 491  462.2293
 492  398.7296
 493  315.5512
 494  306.9073
 495  306.4173
 496  372.2369
 497  374.2381
 498  342.1383
 499  304.4529
 500  249.4057
 501  377.2078
 502  408.5069
 503  404.6244
 504  375.2207
 505  449.1871
 506  503.5072
 507  428.9776
 508  404.4939
 509  533.5868
 510  573.7631
 511  527.5776
