# Input file       =  1196019175.113502_cleaned.dat
# Candidate        =  PSR_0332+5434
# Telescope        =  AR
# Epoch_topo       =  58086.814318443314
# Epoch_bary       =  N/A
# T_sample         =  0.002
# Data Folded      =  7340032
# Data Avg         =  0.0354846029148804
# Data StdDev      =  1.00002134110152 
# Profile Bins     =  512
# Profile Avg      =  508.77603741706  
# Profile StdDev   =  119.735591611651 
# Reduced chi-sqr  =  0.836
# Prob(Noise)      <  0.997   (~0.0 sigma)
# P_topo (ms)      =  714.524462827886  +/- 0.000651
# P'_topo (s/s)    =  -0                +/- 3.44e-10
# P''_topo (s/s^2) =  0                 +/- 1.52e-13
# P_bary (ms)      =  N/A
# P'_bary (s/s)    =  N/A
# P''_bary (s/s^2) =  N/A
# P_orb (s)        =  N/A
# asin(i)/c (s)    =  N/A
# eccentricity     =  N/A
# w (rad)          =  N/A
# T_peri           =  N/A
######################################################
   0  850.9965
   1  808.2712
   2  755.217
   3  711.3821
   4  618.0944
   5  668.6412
   6  561.1402
   7  510.8991
   8  551.5579
   9  430.8047
  10  471.5126
  11  567.4147
  12  636.0494
  13  694.4661
  14  653.8853
  15  583.1238
  16  557.4001
  17  476.2333
  18  629.3506
  19  559.2632
  20  539.937
  21  565.7623
  22  435.8538
  23  510.5789
  24  506.3417
  25  525.1769
  26  668.1212
  27  699.032
  28  593.544
  29  477.6991
  30  492.2392
  31  483.0314
  32  435.3618
  33  532.3435
  34  597.458
  35  644.9423
  36  495.6575
  37  534.1622
  38  561.5938
  39  667.4348
  40  590.0636
  41  522.3204
  42  492.9761
  43  456.05
  44  419.2688
  45  477.2476
  46  612.8333
  47  600.5665
  48  605.5467
  49  563.7355
  50  483.1244
  51  379.3772
  52  440.3162
  53  615.0989
  54  598.9343
  55  499.1978
  56  526.1978
  57  545.0681
  58  488.3687
  59  487.4048
  60  482.4746
  61  564.7386
  62  494.2635
  63  362.7276
  64  415.5016
  65  505.5221
  66  524.6754
  67  407.1444
  68  528.3878
  69  539.9048
  70  504.1847
  71  484.1468
  72  545.7305
  73  575.0199
  74  576.0181
  75  615.965
  76  553.486
  77  393.2367
  78  368.3135
  79  468.7043
  80  389.3308
  81  456.0673
  82  550.7716
  83  533.5522
  84  423.7628
  85  499.209
  86  515.1879
  87  463.6313
  88  469.4488
  89  486.1086
  90  533.3916
  91  613.0357
  92  530.5886
  93  590.4371
  94  574.9984
  95  400.9579
  96  388.8916
  97  452.9114
  98  634.0892
  99  549.8698
 100  463.1528
 101  517.9097
 102  466.782
 103  490.3888
 104  518.1204
 105  560.2871
 106  543.7944
 107  434.454
 108  451.2617
 109  659.5538
 110  567.406
 111  629.1016
 112  627.4399
 113  583.4862
 114  521.2393
 115  478.5198
 116  417.5302
 117  447.9357
 118  498.5482
 119  484.626
 120  359.1177
 121  462.9932
 122  570.1378
 123  498.4041
 124  447.8279
 125  493.2553
 126  485.0429
 127  457.3121
 128  564.9195
 129  563.5665
 130  536.4576
 131  522.2433
 132  501.6649
 133  450.9852
 134  452.5791
 135  412.3613
 136  435.3117
 137  394.7315
 138  421.326
 139  445.0929
 140  466.1763
 141  427.9537
 142  435.3065
 143  480.9546
 144  477.3138
 145  364.644
 146  400.2575
 147  472.7276
 148  505.9142
 149  411.454
 150  488.3881
 151  390.9357
 152  482.817
 153  577.7006
 154  545.689
 155  608.1965
 156  551.2669
 157  458.2473
 158  504.0431
 159  436.2122
 160  409.0795
 161  537.7233
 162  571.5148
 163  540.5085
 164  553.6868
 165  587.6862
 166  663.3708
 167  497.2614
 168  495.4945
 169  430.2675
 170  456.3123
 171  471.3309
 172  449.2985
 173  536.8588
 174  436.0557
 175  465.0269
 176  520.4928
 177  501.5728
 178  499.8915
 179  587.8129
 180  541.0268
 181  502.0629
 182  481.4657
 183  534.3591
 184  465.5103
 185  507.2492
 186  470.9965
 187  500.1813
 188  475.5737
 189  516.7357
 190  505.0547
 191  474.8759
 192  520.8469
 193  415.4062
 194  500.9805
 195  521.3422
 196  510.602
 197  659.9238
 198  501.4745
 199  510.7564
 200  656.4248
 201  573.2605
 202  481.1603
 203  466.6741
 204  497.1792
 205  474.2435
 206  467.4183
 207  493.3704
 208  406.8306
 209  407.4231
 210  339.2364
 211  296.3351
 212  405.8729
 213  469.2409
 214  560.2661
 215  525.998
 216  439.7121
 217  435.3065
 218  437.3018
 219  483.1673
 220  455.7088
 221  556.4572
 222  398.495
 223  469.9273
 224  479.8758
 225  565.8784
 226  516.5549
 227  419.2266
 228  506.794
 229  561.5003
 230  439.6549
 231  506.003
 232  594.5279
 233  548.2448
 234  411.8053
 235  299.439
 236  443.3119
 237  655.6024
 238  608.5047
 239  573.7148
 240  588.8547
 241  498.749
 242  446.5299
 243  473.0127
 244  440.9417
 245  393.8784
 246  431.6476
 247  512.8455
 248  552.6401
 249  670.6038
 250  511.4567
 251  410.8533
 252  446.017
 253  552.4939
 254  601.0143
 255  513.3339
 256  521.3635
 257  528.2352
 258  538.3709
 259  531.6056
 260  580.6603
 261  593.6181
 262  552.8275
 263  405.0341
 264  462.3839
 265  586.0253
 266  586.7724
 267  547.3393
 268  558.5234
 269  574.7819
 270  545.3989
 271  506.8399
 272  434.7298
 273  446.7845
 274  300.7952
 275  364.5109
 276  387.5549
 277  348.5129
 278  402.4707
 279  518.8386
 280  479.8357
 281  511.8374
 282  448.0083
 283  508.076
 284  460.5364
 285  524.5217
 286  443.1844
 287  525.7036
 288  518.8531
 289  613.5615
 290  734.9033
 291  651.0563
 292  558.2468
 293  536.2563
 294  581.655
 295  583.1353
 296  559.4614
 297  539.5341
 298  579.088
 299  559.7668
 300  632.1891
 301  523.9763
 302  536.7772
 303  623.9305
 304  508.3789
 305  521.3849
 306  470.7723
 307  587.7191
 308  521.878
 309  502.6949
 310  500.4331
 311  539.5094
 312  561.0223
 313  543.2012
 314  509.2497
 315  355.545
 316  363.5741
 317  451.7209
 318  543.0258
 319  591.5648
 320  495.3973
 321  539.3055
 322  628.3473
 323  487.4596
 324  368.1213
 325  423.2917
 326  530.1677
 327  376.7444
 328  438.1738
 329  637.2294
 330  546.1284
 331  475.5587
 332  582.4625
 333  628.408
 334  611.0754
 335  635.21
 336  485.2028
 337  401.831
 338  550.4589
 339  401.7531
 340  395.8773
 341  435.8494
 342  467.9286
 343  472.8823
 344  429.8924
 345  441.5724
 346  356.6669
 347  428.896
 348  478.7737
 349  463.9323
 350  491.8926
 351  458.316
 352  476.2176
 353  556.4742
 354  483.5548
 355  510.2553
 356  563.2375
 357  490.5822
 358  417.7536
 359  359.6559
 360  373.8842
 361  406.0799
 362  484.6234
 363  486.2888
 364  482.3205
 365  490.2512
 366  459.3555
 367  524.1976
 368  396.1096
 369  413.9276
 370  463.6839
 371  440.5244
 372  489.2167
 373  431.8678
 374  388.7416
 375  414.5884
 376  423.4094
 377  307.2588
 378  342.7051
 379  341.1827
 380  457.2779
 381  504.6439
 382  413.1605
 383  473.5492
 384  502.3114
 385  479.9229
 386  447.9477
 387  485.5369
 388  552.0498
 389  553.7571
 390  538.9915
 391  530.0345
 392  487.6107
 393  553.9772
 394  515.5673
 395  385.2182
 396  386.4392
 397  581.7387
 398  675.5754
 399  596.52
 400  598.9532
 401  635.2919
 402  462.6789
 403  383.5533
 404  549.8646
 405  542.3374
 406  529.9589
 407  507.1474
 408  513.0704
 409  455.1409
 410  489.3443
 411  464.1542
 412  480.9068
 413  497.7844
 414  510.0083
 415  522.3939
 416  525.9807
 417  578.7678
 418  463.7517
 419  475.7069
 420  548.934
 421  521.8623
 422  586.5848
 423  517.4725
 424  526.5532
 425  483.1154
 426  511.7207
 427  533.934
 428  586.8297
 429  565.2563
 430  518.7134
 431  579.5334
 432  574.7892
 433  539.5765
 434  481.6114
 435  387.9907
 436  450.9836
 437  422.9977
 438  380.4291
 439  512.2253
 440  459.6955
 441  453.2262
 442  450.143
 443  485.9598
 444  549.7278
 445  492.1696
 446  513.3663
 447  566.7486
 448  500.0824
 449  498.8804
 450  407.4611
 451  519.0123
 452  559.4405
 453  547.6863
 454  579.8898
 455  499.675
 456  420.2822
 457  500.1066
 458  507.9957
 459  524.6442
 460  485.8671
 461  532.4254
 462  553.3772
 463  464.2975
 464  615.1528
 465  770.0996
 466  573.4452
 467  505.3703
 468  543.8764
 469  628.6387
 470  533.0469
 471  545.6661
 472  547.6852
 473  617.2361
 474  552.3289
 475  432.3206
 476  535.8675
 477  546.3336
 478  557.5519
 479  544.5154
 480  562.0832
 481  567.3948
 482  535.9972
 483  508.5552
 484  574.8147
 485  521.2429
 486  581.327
 487  407.4923
 488  453.8047
 489  485.5405
 490  357.9086
 491  369.5748
 492  399.0058
 493  503.6028
 494  664.5516
 495  580.1206
 496  427.542
 497  475.7259
 498  660.9778
 499  598.8041
 500  592.757
 501  571.7579
 502  522.3912
 503  436.6798
 504  415.7504
 505  542.7692
 506  523.7176
 507  515.1021
 508  566.5873
 509  656.7936
 510  731.0509
 511  753.0544
