# Input file       =  1196019175.113502_cleaned.dat
# Candidate        =  PSR_0332+5434
# Telescope        =  AR
# Epoch_topo       =  58086.814318443314
# Epoch_bary       =  N/A
# T_sample         =  0.002
# Data Folded      =  7340032
# Data Avg         =  0.0354846029148804
# Data StdDev      =  1.00002134110152 
# Profile Bins     =  512
# Profile Avg      =  508.776037213704 
# Profile StdDev   =  119.735591611651 
# Reduced chi-sqr  =  0.837
# Prob(Noise)      <  0.997   (~0.0 sigma)
# P_topo (ms)      =  714.524462562094  +/- 0.000655
# P'_topo (s/s)    =  -0                +/- 3.46e-10
# P''_topo (s/s^2) =  0                 +/- 1.53e-13
# P_bary (ms)      =  N/A
# P'_bary (s/s)    =  N/A
# P''_bary (s/s^2) =  N/A
# P_orb (s)        =  N/A
# asin(i)/c (s)    =  N/A
# eccentricity     =  N/A
# w (rad)          =  N/A
# T_peri           =  N/A
######################################################
   0  837.3115
   1  811.0742
   2  794.2072
   3  730.6938
   4  677.3191
   5  629.439
   6  654.6915
   7  492.1871
   8  556.7916
   9  499.9314
  10  411.638
  11  537.6302
  12  586.483
  13  675.7241
  14  690.3525
  15  595.6301
  16  590.5571
  17  495.6298
  18  542.6025
  19  631.9997
  20  507.4337
  21  582.1104
  22  506.799
  23  436.408
  24  542.1467
  25  493.7675
  26  596.8369
  27  703.5729
  28  650.7614
  29  525.4604
  30  477.3278
  31  507.7721
  32  466.8344
  33  456.8411
  34  567.5604
  35  620.7806
  36  591.1856
  37  482.1325
  38  568.218
  39  597.9293
  40  661.9686
  41  542.8445
  42  505.9789
  43  491.6549
  44  419.3332
  45  436.5364
  46  535.0383
  47  643.845
  48  580.319
  49  607.2941
  50  515.8979
  51  438.552
  52  369.5014
  53  530.5071
  54  623.1234
  55  551.1132
  56  488.1531
  57  556.6097
  58  536.7087
  59  476.2006
  60  492.386
  61  494.8378
  62  580.9036
  63  403.7133
  64  375.9431
  65  441.9288
  66  560.2194
  67  460.5717
  68  454.8126
  69  545.196
  70  514.8966
  71  490.837
  72  505.4435
  73  576.7833
  74  564.6805
  75  590.9483
  76  607.4786
  77  491.0087
  78  358.9316
  79  408.7851
  80  444.6742
  81  388.5856
  82  503.5313
  83  578.6902
  84  462.2317
  85  454.9187
  86  517.14
  87  485.2383
  88  452.2538
  89  488.9094
  90  486.4686
  91  605.4701
  92  557.6846
  93  547.503
  94  609.3152
  95  494.628
  96  384.0432
  97  398.9474
  98  546.1844
  99  627.9978
 100  469.423
 101  503.2877
 102  492.7574
 103  482.4353
 104  495.596
 105  540.4286
 106  555.8546
 107  508.7437
 108  402.7199
 109  560.6318
 110  644.3902
 111  564.6934
 112  651.218
 113  604.3775
 114  559.6821
 115  514.4055
 116  446.4251
 117  418.3381
 118  452.7226
 119  520.1296
 120  417.5978
 121  388.5797
 122  518.3082
 123  566.0605
 124  442.8149
 125  484.157
 126  490.317
 127  467.1948
 128  485.3162
 129  599.246
 130  538.4293
 131  530.3172
 132  520.1055
 133  468.2473
 134  472.2877
 135  415.2978
 136  425.1749
 137  418.3402
 138  398.5121
 139  432.7063
 140  446.7683
 141  470.0736
 142  412.067
 143  458.8844
 144  492.4721
 145  426.2553
 146  357.7148
 147  444.3895
 148  493.2309
 149  467.41
 150  444.6753
 151  456.8573
 152  400.1295
 153  547.923
 154  561.0791
 155  561.8328
 156  617.1014
 157  472.2955
 158  500.4066
 159  468.9207
 160  419.4311
 161  447.6826
 162  577.0746
 163  548.8444
 164  557.7707
 165  562.4128
 166  630.4134
 167  591.3102
 168  471.3651
 169  484.1695
 170  435.9039
 171  467.7144
 172  458.4755
 173  478.7618
 174  513.6408
 175  415.9466
 176  498.8065
 177  530.6968
 178  473.5024
 179  556.8031
 180  578.1523
 181  517.1967
 182  479.4354
 183  520.8312
 184  504.4464
 185  484.0478
 186  490.5823
 187  466.9963
 188  513.8655
 189  475.5068
 190  533.0904
 191  464.9073
 192  496.8393
 193  489.0459
 194  427.6289
 195  545.5618
 196  482.3942
 197  589.0707
 198  612.9146
 199  478.9482
 200  583.4985
 201  648.7519
 202  512.2041
 203  468.0076
 204  476.7698
 205  511.5679
 206  441.3564
 207  506.9066
 208  443.7584
 209  402.841
 210  392.0336
 211  295.2907
 212  335.9162
 213  425.1781
 214  512.9411
 215  587.2615
 216  462.7932
 217  452.0056
 218  409.8257
 219  484.3158
 220  449.5564
 221  505.998
 222  502.0151
 223  415.67
 224  482.8454
 225  510.9387
 226  552.9739
 227  467.0925
 228  421.2807
 229  571.1782
 230  496.3802
 231  452.4916
 232  569.1127
 233  578.1283
 234  514.4407
 235  327.9557
 236  347.7229
 237  544.1859
 238  663.0334
 239  568.0979
 240  594.5754
 241  548.0233
 242  466.2614
 243  456.289
 244  469.6694
 245  421.0512
 246  388.2497
 247  487.5205
 248  501.9135
 249  630.9884
 250  635.5327
 251  437.0444
 252  422.2354
 253  469.2645
 254  612.4512
 255  549.3881
 256  511.594
 257  521.8789
 258  536.1613
 259  540.9224
 260  531.2455
 261  606.2881
 262  568.7117
 263  515.8632
 264  375.0936
 265  544.4547
 266  587.501
 267  577.5068
 268  542.1488
 269  566.2138
 270  557.5075
 271  534.1281
 272  469.9687
 273  448.3644
 274  393.7292
 275  298.7156
 276  401.5987
 277  367.7785
 278  342.5806
 279  473.0584
 280  506.8786
 281  484.7017
 282  501.5455
 283  464.7365
 284  488.1596
 285  485.7794
 286  492.2831
 287  467.1547
 288  541.5248
 289  518.3497
 290  706.6885
 291  697.4407
 292  616.2034
 293  539.0515
 294  551.0595
 295  592.7274
 296  561.9723
 297  560.3566
 298  544.735
 299  572.7206
 300  579.7784
 301  613.2761
 302  487.1595
 303  612.0334
 304  579.9937
 305  502.5335
 306  508.1801
 307  499.129
 308  593.7255
 309  481.0419
 310  507.1089
 311  492.4583
 312  569.6511
 313  557.3998
 314  549.364
 315  447.5716
 316  322.8447
 317  410.6641
 318  468.3602
 319  593.6767
 320  541.446
 321  494.728
 322  605.2072
 323  584.853
 324  422.3208
 325  352.5063
 326  505.0186
 327  472.3009
 328  355.623
 329  539.4341
 330  638.2365
 331  497.9363
 332  510.7984
 333  625.9017
 334  603.9858
 335  631.2563
 336  601.3471
 337  402.6231
 338  478.1759
 339  518.1616
 340  354.8161
 341  436.3151
 342  426.4682
 343  493.87
 344  447.1655
 345  433.8618
 346  410.7341
 347  360.4514
 348  473.5462
 349  466.9722
 350  469.6481
 351  490.6269
 352  447.5144
 353  522.6299
 354  534.1886
 355  464.5933
 356  561.7375
 357  527.6428
 358  465.8899
 359  370.8193
 360  364.5385
 361  386.4258
 362  441.9002
 363  504.4969
 364  473.4269
 365  504.5116
 366  454.197
 367  501.2761
 368  464.8567
 369  389.0631
 370  453.33
 371  451.7458
 372  464.9718
 373  471.4261
 374  404.6456
 375  391.903
 376  428.8066
 377  374.0899
 378  299.2611
 379  364.8916
 380  354.5742
 381  517.7795
 382  456.4192
 383  436.9253
 384  490.3751
 385  490.1133
 386  457.5979
 387  466.5787
 388  509.0798
 389  558.3237
 390  541.6513
 391  539.377
 392  521.0121
 393  493.3901
 394  577.2758
 395  453.6122
 396  356.5179
 397  454.2174
 398  638.9354
 399  663.6059
 400  574.9091
 401  628.3272
 402  579.475
 403  379.3114
 404  470.5698
 405  567.7506
 406  532.6738
 407  517.1159
 408  508.9485
 409  490.9298
 410  463.0015
 411  500.1514
 412  456.8699
 413  502.073
 414  487.7582
 415  517.7087
 416  515.9019
 417  562.6088
 418  548.1257
 419  440.3763
 420  518.805
 421  532.0197
 422  555.8278
 423  554.2578
 424  525.467
 425  497.2838
 426  496.2451
 427  515.4962
 428  556.8698
 429  589.4511
 430  537.5783
 431  533.3414
 432  598.7923
 433  532.7681
 434  545.4056
 435  419.3163
 436  404.4905
 437  464.9201
 438  379.2449
 439  443.9373
 440  501.8936
 441  442.6106
 442  467.6039
 443  463.2483
 444  504.0758
 445  550.9235
 446  459.1777
 447  581.5952
 448  515.6017
 449  515.4874
 450  440.689
 451  460.3672
 452  528.7218
 453  574.0234
 454  544.3985
 455  581.6567
 456  431.5635
 457  451.8282
 458  499.2732
 459  522.046
 460  515.0883
 461  495.3842
 462  554.5668
 463  506.9003
 464  503.3863
 465  740.8419
 466  689.1345
 467  509.0848
 468  502.9961
 469  600.2415
 470  605.9675
 471  516.7258
 472  541.6141
 473  578.7343
 474  616.1718
 475  473.7823
 476  467.5669
 477  559.8868
 478  554.2571
 479  550.1959
 480  536.1133
 481  581.8262
 482  551.6648
 483  508.5989
 484  542.3002
 485  568.0114
 486  543.7545
 487  535.011
 488  360.3377
 489  510.624
 490  433.6806
 491  348.2528
 492  383.6674
 493  413.2817
 494  592.0481
 495  645.5491
 496  518.4919
 497  408.7247
 498  581.1099
 499  652.758
 500  565.1759
 501  606.2491
 502  550.2963
 503  489.6274
 504  415.889
 505  459.3074
 506  564.7637
 507  495.6868
 508  543.7158
 509  588.8436
 510  722.0758
 511  704.5678
