# Input file       =  1196551142.114409_cleaned.dat
# Candidate        =  PSR_0332+5434
# Telescope        =  AR
# Epoch_topo       =  58092.971343916768
# Epoch_bary       =  N/A
# T_sample         =  0.002
# Data Folded      =  7340032
# Data Avg         =  0.0271487105661364
# Data StdDev      =  1.00007167187331 
# Profile Bins     =  512
# Profile Avg      =  389.21090282407  
# Profile StdDev   =  119.74161786778  
# Reduced chi-sqr  =  0.681
# Prob(Noise)      <  1   (~0.0 sigma)
# P_topo (ms)      =  714.531133915853  +/- 0.000599
# P'_topo (s/s)    =  -0                +/- 3.16e-10
# P''_topo (s/s^2) =  0                 +/- 1.4e-13
# P_bary (ms)      =  N/A
# P'_bary (s/s)    =  N/A
# P''_bary (s/s^2) =  N/A
# P_orb (s)        =  N/A
# asin(i)/c (s)    =  N/A
# eccentricity     =  N/A
# w (rad)          =  N/A
# T_peri           =  N/A
######################################################
   0  559.4168
   1  582.2184
   2  494.6751
   3  502.4712
   4  408.4574
   5  522.3474
   6  465.3292
   7  340.3522
   8  306.1969
   9  324.5861
  10  305.1123
  11  354.6151
  12  362.2085
  13  530.712
  14  577.6873
  15  503.1955
  16  399.1715
  17  289.8543
  18  258.9311
  19  303.9464
  20  381.1983
  21  385.2495
  22  430.1818
  23  368.659
  24  388.2919
  25  417.3248
  26  345.4872
  27  348.5316
  28  332.8354
  29  285.1187
  30  434.3759
  31  388.03
  32  358.8138
  33  346.0228
  34  354.6736
  35  327.3804
  36  390.5916
  37  384.851
  38  337.1241
  39  316.6303
  40  467.3556
  41  555.696
  42  524.8201
  43  558.955
  44  409.4364
  45  500.9635
  46  517.7941
  47  506.182
  48  447.4236
  49  339.7204
  50  412.0778
  51  363.7021
  52  415.4478
  53  420.4166
  54  451.6306
  55  371.1078
  56  406.6865
  57  465.5598
  58  365.0397
  59  344.9258
  60  377.5847
  61  415.3563
  62  381.6011
  63  435.2609
  64  395.2863
  65  525.2845
  66  478.8139
  67  336.2007
  68  334.9935
  69  469.8923
  70  506.8518
  71  564.7195
  72  518.7541
  73  569.215
  74  543.3232
  75  498.0483
  76  348.1348
  77  354.1278
  78  451.5015
  79  346.8743
  80  302.6214
  81  407.9702
  82  399.4912
  83  428.3331
  84  401.403
  85  451.4168
  86  326.6856
  87  306.4076
  88  358.4207
  89  429.0226
  90  406.5484
  91  413.4264
  92  328.4848
  93  227.6086
  94  358.6573
  95  378.5467
  96  302.1675
  97  249.1698
  98  386.8641
  99  397.7486
 100  313.6632
 101  404.6132
 102  489.5544
 103  415.8029
 104  366.5989
 105  370.9483
 106  411.8482
 107  371.7765
 108  338.2563
 109  352.2564
 110  389.9688
 111  348.8608
 112  288.1589
 113  401.4525
 114  453.0219
 115  359.1388
 116  363.6872
 117  395.1949
 118  389.8655
 119  426.8126
 120  347.5423
 121  308.5223
 122  351.6263
 123  440.6258
 124  319.3403
 125  343.7787
 126  354.6837
 127  344.7272
 128  331.6278
 129  435.721
 130  424.7911
 131  394.3676
 132  487.2165
 133  459.1914
 134  421.2095
 135  352.1208
 136  313.0051
 137  475.8914
 138  460.6585
 139  362.6795
 140  336.5265
 141  362.6163
 142  334.3422
 143  373.8767
 144  450.2543
 145  400.0135
 146  427.5668
 147  439.1666
 148  426.1894
 149  438.3448
 150  435.8845
 151  321.903
 152  383.9901
 153  516.8049
 154  483.6754
 155  495.8595
 156  410.1614
 157  446.2619
 158  389.89
 159  380.2938
 160  353.7515
 161  351.8613
 162  425.2094
 163  424.7817
 164  400.5495
 165  390.4813
 166  437.0545
 167  394.7195
 168  286.2357
 169  363.1654
 170  411.1288
 171  375.8002
 172  312.7046
 173  409.9681
 174  421.141
 175  315.6693
 176  432.6882
 177  478.1949
 178  377.5573
 179  363.0387
 180  389.9023
 181  508.3344
 182  456.0481
 183  422.4606
 184  353.3671
 185  339.0977
 186  326.7456
 187  385.764
 188  400.3764
 189  346.7554
 190  372.9457
 191  295.3069
 192  322.1216
 193  283.2952
 194  293.3641
 195  410.2113
 196  373.4868
 197  373.2803
 198  425.1663
 199  438.6482
 200  350.2318
 201  341.3855
 202  327.447
 203  474.223
 204  421.3546
 205  433.9052
 206  381.3302
 207  365.515
 208  309.8008
 209  483.0244
 210  445.4138
 211  336.1581
 212  374.0613
 213  516.3229
 214  516.0369
 215  456.8194
 216  442.9675
 217  368.7775
 218  308.3208
 219  335.9455
 220  405.5708
 221  413.4027
 222  376.9451
 223  356.8542
 224  436.7028
 225  289.6217
 226  219.6375
 227  264.9785
 228  280.2432
 229  296.1735
 230  200.4782
 231  258.5848
 232  338.4414
 233  335.4561
 234  349.4209
 235  392.3748
 236  358.7028
 237  370.2921
 238  385.0761
 239  410.3855
 240  291.2018
 241  298.2599
 242  396.3842
 243  381.4764
 244  390.4914
 245  395.1486
 246  358.569
 247  306.0769
 248  446.5843
 249  497.984
 250  498.843
 251  315.1058
 252  260.3054
 253  314.7996
 254  361.0895
 255  328.0726
 256  371.3753
 257  320.2421
 258  312.8245
 259  268.0393
 260  372.461
 261  369.0906
 262  518.7935
 263  430.7264
 264  281.8401
 265  317.0505
 266  453.5712
 267  404.1814
 268  323.6997
 269  342.9456
 270  376.989
 271  398.181
 272  297.3061
 273  414.4827
 274  394.6442
 275  310.0763
 276  367.6122
 277  437.7383
 278  509.2985
 279  455.4658
 280  449.3287
 281  411.3379
 282  342.3158
 283  320.8042
 284  481.7931
 285  372.4572
 286  287.404
 287  350.3293
 288  401.4766
 289  495.0219
 290  467.9923
 291  439.661
 292  366.1544
 293  396.1128
 294  432.5202
 295  392.0612
 296  386.6029
 297  337.123
 298  391.4254
 299  543.3921
 300  439.1692
 301  341.8618
 302  262.226
 303  315.51
 304  443.5813
 305  369.0886
 306  334.4153
 307  289.1924
 308  337.5976
 309  402.2878
 310  445.0757
 311  433.4606
 312  409.7343
 313  400.143
 314  277.1921
 315  275.5617
 316  372.3187
 317  520.1442
 318  439.8911
 319  342.0708
 320  352.7438
 321  295.8652
 322  285.9309
 323  315.7509
 324  287.4737
 325  237.7175
 326  335.0346
 327  331.6757
 328  253.1885
 329  363.8884
 330  420.7687
 331  446.4319
 332  337.6602
 333  311.2538
 334  335.5043
 335  384.1428
 336  452.5286
 337  395.1105
 338  415.5616
 339  368.1023
 340  401.8314
 341  413.3979
 342  406.736
 343  328.035
 344  238.4777
 345  207.9892
 346  315.4159
 347  391.2141
 348  312.9678
 349  287.4502
 350  247.617
 351  300.5806
 352  264.4271
 353  433.5633
 354  375.0962
 355  294.0392
 356  292.2203
 357  322.9638
 358  307.6332
 359  441.4933
 360  548.3649
 361  490.7504
 362  420.4783
 363  376.8551
 364  470.3679
 365  477.9582
 366  474.2199
 367  554.4688
 368  446.2904
 369  430.7617
 370  418.8438
 371  327.2075
 372  318.5323
 373  282.7493
 374  307.4343
 375  424.6225
 376  483.2903
 377  523.9314
 378  470.4377
 379  484.7541
 380  379.1581
 381  352.5151
 382  403.1998
 383  454.8741
 384  495.9667
 385  380.4451
 386  440.2707
 387  473.8613
 388  397.9403
 389  364.0379
 390  322.8834
 391  408.0445
 392  462.8691
 393  398.6842
 394  425.5435
 395  412.9908
 396  409.7149
 397  397.5866
 398  398.4521
 399  487.5038
 400  372.4788
 401  238.4381
 402  358.6736
 403  399.9305
 404  231.1732
 405  269.2699
 406  216.996
 407  339.4494
 408  332.8749
 409  404.0388
 410  326.3738
 411  271.735
 412  309.0203
 413  435.7975
 414  431.5674
 415  360.9132
 416  347.4403
 417  361.1619
 418  290.1037
 419  312.0869
 420  362.4076
 421  405.8105
 422  471.7183
 423  426.2574
 424  371.7421
 425  402.6018
 426  376.8752
 427  394.8819
 428  364.9717
 429  426.9738
 430  399.836
 431  276.3103
 432  364.9457
 433  479.927
 434  411.4672
 435  342.8525
 436  287.7936
 437  306.4991
 438  310.5305
 439  303.5671
 440  447.73
 441  550.8069
 442  457.406
 443  395.3018
 444  397.3622
 445  393.5114
 446  337.3596
 447  364.4656
 448  315.628
 449  409.1898
 450  509.9529
 451  513.0281
 452  393.1291
 453  416.6952
 454  456.5327
 455  467.2536
 456  506.8024
 457  351.3023
 458  347.2639
 459  335.3365
 460  340.3952
 461  392.787
 462  446.9864
 463  482.0529
 464  357.6918
 465  377.7661
 466  363.522
 467  427.3855
 468  437.5334
 469  404.9066
 470  326.8625
 471  374.6681
 472  373.1334
 473  413.8614
 474  507.841
 475  360.6828
 476  375.9165
 477  502.3007
 478  421.5431
 479  472.9665
 480  429.0208
 481  476.0654
 482  458.1143
 483  375.1294
 484  485.1584
 485  480.2504
 486  442.0314
 487  496.5795
 488  486.8264
 489  468.7308
 490  471.9743
 491  477.1057
 492  434.0949
 493  366.9754
 494  290.6277
 495  311.6259
 496  329.9507
 497  386.4123
 498  361.5022
 499  320.9117
 500  266.9673
 501  290.053
 502  433.5477
 503  383.5299
 504  414.5622
 505  374.8094
 506  507.6028
 507  463.4963
 508  405.4435
 509  451.5944
 510  585.0649
 511  536.8527
