# Input file       =  1196794206.116471_cleaned.dat
# Candidate        =  PSR_0332+5434
# Telescope        =  AR
# Epoch_topo       =  58095.784584681380
# Epoch_bary       =  N/A
# T_sample         =  0.002
# Data Folded      =  7340032
# Data Avg         =  0.025765148169693
# Data StdDev      =  0.999985018906787
# Profile Bins     =  512
# Profile Avg      =  369.376048179201 
# Profile StdDev   =  119.731242644988 
# Reduced chi-sqr  =  1.032
# Prob(Noise)      <  0.299   (~0.5 sigma)
# P_topo (ms)      =  714.533660217527  +/- 0.000316
# P'_topo (s/s)    =  -0                +/- 1.67e-10
# P''_topo (s/s^2) =  0                 +/- 7.36e-14
# P_bary (ms)      =  N/A
# P'_bary (s/s)    =  N/A
# P''_bary (s/s^2) =  N/A
# P_orb (s)        =  N/A
# asin(i)/c (s)    =  N/A
# eccentricity     =  N/A
# w (rad)          =  N/A
# T_peri           =  N/A
######################################################
   0  882.3773
   1  718.5401
   2  542.4951
   3  423.093
   4  425.2509
   5  504.7831
   6  336.2212
   7  162.716
   8  304.0365
   9  453.0927
  10  515.5385
  11  372.3837
  12  424.4394
  13  452.1333
  14  540.2554
  15  490.5686
  16  324.5918
  17  362.2732
  18  342.2325
  19  278.5421
  20  236.3692
  21  302.0065
  22  351.7619
  23  408.7484
  24  330.6203
  25  297.2259
  26  422.2758
  27  332.5422
  28  330.3865
  29  296.7244
  30  258.6713
  31  262.7466
  32  352.0694
  33  321.2549
  34  328.1581
  35  274.4167
  36  323.053
  37  450.4448
  38  414.5015
  39  443.5879
  40  441.6712
  41  340.4177
  42  204.9608
  43  212.3945
  44  292.2697
  45  401.0139
  46  488.6279
  47  547.1969
  48  456.1908
  49  388.7477
  50  388.8721
  51  462.8849
  52  480.614
  53  464.1021
  54  473.4026
  55  444.841
  56  333.9134
  57  363.2721
  58  440.3092
  59  499.041
  60  396.8266
  61  281.2328
  62  300.3086
  63  287.7589
  64  305.1968
  65  362.9792
  66  346.8461
  67  395.7608
  68  451.9858
  69  362.7777
  70  353.5578
  71  429.9105
  72  368.2787
  73  292.2087
  74  272.1823
  75  328.5739
  76  485.0009
  77  509.3781
  78  427.8474
  79  268.5813
  80  297.7812
  81  326.9801
  82  506.866
  83  384.143
  84  409.5056
  85  296.8094
  86  300.2514
  87  302.8936
  88  241.1144
  89  219.6321
  90  284.5675
  91  380.338
  92  358.4868
  93  357.7459
  94  427.8458
  95  464.4305
  96  345.39
  97  281.4363
  98  366.0303
  99  395.9759
 100  389.5537
 101  393.8153
 102  380.1245
 103  324.4471
 104  270.1989
 105  422.6491
 106  514.9951
 107  525.059
 108  482.4005
 109  388.2664
 110  365.002
 111  406.8839
 112  445.2629
 113  397.3028
 114  285.1931
 115  286.206
 116  281.9057
 117  387.9646
 118  436.4078
 119  496.9829
 120  466.4411
 121  377.0491
 122  462.5418
 123  393.9283
 124  374.3331
 125  373.0803
 126  315.4083
 127  418.5983
 128  335.4542
 129  359.8389
 130  306.4321
 131  396.13
 132  340.2686
 133  436.8853
 134  316.026
 135  264.8153
 136  435.2494
 137  429.7069
 138  305.2947
 139  309.7583
 140  400.5169
 141  394.1982
 142  153.9054
 143  194.5285
 144  217.4419
 145  276.2928
 146  356.4337
 147  353.4794
 148  358.2404
 149  402.1396
 150  436.2278
 151  347.0612
 152  342.6873
 153  406.2213
 154  339.9294
 155  369.1392
 156  290.5063
 157  282.2033
 158  123.745
 159  238.0753
 160  372.5711
 161  347.9893
 162  356.5649
 163  362.5038
 164  384.8492
 165  302.624
 166  283.7668
 167  361.1379
 168  367.1334
 169  340.6204
 170  462.9068
 171  515.788
 172  503.1528
 173  387.4853
 174  331.106
 175  339.7019
 176  370.7257
 177  322.2222
 178  216.1083
 179  242.7229
 180  408.639
 181  463.2203
 182  337.308
 183  275.1458
 184  361.0848
 185  336.0285
 186  370.2951
 187  254.0802
 188  232.6816
 189  394.4898
 190  503.0413
 191  385.9514
 192  291.7147
 193  372.3968
 194  424.8019
 195  376.7738
 196  286.0917
 197  299.4087
 198  243.8531
 199  384.0836
 200  287.2205
 201  234.8017
 202  352.0585
 203  395.5898
 204  275.3148
 205  234.993
 206  250.5977
 207  332.1184
 208  376.4567
 209  356.7622
 210  389.9233
 211  439.5459
 212  472.5384
 213  497.3701
 214  400.3336
 215  367.6247
 216  319.551
 217  332.2211
 218  302.1319
 219  243.7468
 220  331.4254
 221  382.1559
 222  499.1336
 223  441.4465
 224  270.8242
 225  295.4144
 226  345.4345
 227  390.82
 228  326.3835
 229  291.8345
 230  254.9674
 231  361.7654
 232  419.7279
 233  454.1711
 234  417.8297
 235  431.5146
 236  372.5597
 237  356.6026
 238  344.708
 239  295.92
 240  311.7563
 241  319.5894
 242  302.4765
 243  332.3909
 244  437.2682
 245  375.2119
 246  187.7683
 247  285.9196
 248  484.7241
 249  404.5924
 250  404.774
 251  338.5127
 252  345.287
 253  235.5254
 254  410.3156
 255  449.892
 256  438.0182
 257  451.5633
 258  233.5243
 259  212.2371
 260  296.4513
 261  291.7755
 262  368.9411
 263  348.0095
 264  375.671
 265  299.8732
 266  309.0429
 267  302.6511
 268  415.6243
 269  443.2105
 270  419.6929
 271  441.841
 272  494.864
 273  401.4779
 274  320.7757
 275  290.5497
 276  285.0702
 277  220.285
 278  258.3903
 279  409.4873
 280  411.7017
 281  380.7784
 282  407.3724
 283  399.3397
 284  326.5272
 285  306.7858
 286  340.3763
 287  446.0425
 288  358.4012
 289  387.6325
 290  289.3586
 291  235.3663
 292  310.1655
 293  442.9112
 294  420.3761
 295  390.6376
 296  422.0912
 297  347.3537
 298  364.2322
 299  439.4885
 300  476.0663
 301  409.6694
 302  289.841
 303  303.2556
 304  356.7719
 305  337.6269
 306  356.969
 307  413.8867
 308  405.6218
 309  223.5978
 310  183.3209
 311  324.1379
 312  409.1198
 313  426.143
 314  464.9136
 315  384.7816
 316  311.5036
 317  336.3076
 318  360.3248
 319  440.6022
 320  644.2546
 321  489.0831
 322  336.8683
 323  394.2711
 324  448.9297
 325  524.2681
 326  442.6725
 327  419.0059
 328  442.705
 329  367.395
 330  319.3811
 331  384.4884
 332  288.2123
 333  363.2274
 334  519.4433
 335  516.2684
 336  303.8392
 337  351.1609
 338  395.8266
 339  279.8678
 340  395.6423
 341  445.8427
 342  385.2873
 343  278.0038
 344  433.3175
 345  524.9885
 346  385.656
 347  301.0224
 348  298.1631
 349  332.8836
 350  225.3731
 351  289.2197
 352  310.0302
 353  323.1082
 354  339.2207
 355  331.5686
 356  451.3679
 357  385.6041
 358  346.9301
 359  258.5018
 360  217.1938
 361  395.981
 362  491.5829
 363  501.0075
 364  459.3969
 365  424.1927
 366  389.8755
 367  411.5119
 368  481.3259
 369  374.018
 370  370.229
 371  378.6518
 372  426.1393
 373  414.9905
 374  370.4149
 375  239.2507
 376  270.1044
 377  343.3858
 378  419.8235
 379  508.7641
 380  347.6349
 381  281.6428
 382  275.1454
 383  295.2069
 384  398.5869
 385  373.0154
 386  448.2397
 387  449.8413
 388  397.2999
 389  325.0402
 390  318.9627
 391  332.9436
 392  359.3979
 393  425.9481
 394  408.0486
 395  401.1022
 396  337.0514
 397  416.4999
 398  409.2516
 399  383.7133
 400  433.8704
 401  433.8193
 402  354.4855
 403  297.0289
 404  244.8723
 405  275.5787
 406  304.0542
 407  397.4682
 408  314.1024
 409  274.0241
 410  221.8779
 411  238.4634
 412  257.9774
 413  297.8882
 414  325.1845
 415  302.9721
 416  404.6131
 417  386.4964
 418  379.8662
 419  425.1472
 420  422.4579
 421  457.9207
 422  478.0144
 423  439.3689
 424  483.6829
 425  358.4473
 426  263.6063
 427  417.9694
 428  462.0047
 429  384.6583
 430  438.925
 431  364.8752
 432  549.1432
 433  565.0909
 434  482.2018
 435  390.8879
 436  350.3967
 437  373.2312
 438  305.3913
 439  290.5734
 440  352.9325
 441  413.4543
 442  336.6087
 443  302.1422
 444  355.9049
 445  381.2363
 446  330.3498
 447  290.2736
 448  316.7449
 449  319.5772
 450  336.7243
 451  343.833
 452  419.4625
 453  411.4844
 454  481.4922
 455  490.0573
 456  359.333
 457  272.8557
 458  215.3912
 459  267.4351
 460  280.0042
 461  300.2003
 462  307.4969
 463  299.5152
 464  241.9628
 465  309.0439
 466  327.5086
 467  258.421
 468  305.5924
 469  291.5825
 470  226.057
 471  271.6873
 472  333.4203
 473  275.0366
 474  364.8391
 475  477.0812
 476  325.6473
 477  305.2907
 478  334.923
 479  318.015
 480  416.2712
 481  412.8237
 482  383.6061
 483  384.8876
 484  382.9969
 485  333.1033
 486  366.4143
 487  459.8731
 488  407.8191
 489  254.4931
 490  217.7443
 491  298.4425
 492  471.1051
 493  471.2847
 494  428.2556
 495  431.3653
 496  494.9219
 497  500.8245
 498  451.5089
 499  465.8737
 500  458.0702
 501  371.075
 502  407.3166
 503  380.2764
 504  419.6072
 505  388.0506
 506  537.925
 507  457.737
 508  455.1025
 509  676.3085
 510  729.2057
 511  872.8115
