# Input file       =  1196693364.105924_cleaned.dat
# Candidate        =  PSR_0332+5434
# Telescope        =  AR
# Epoch_topo       =  58094.617431781524
# Epoch_bary       =  N/A
# T_sample         =  0.002
# Data Folded      =  7208960
# Data Avg         =  0.110379544458657
# Data StdDev      =  1.00035171019772 
# Profile Bins     =  512
# Profile Avg      =  1554.14375046995 
# Profile StdDev   =  118.70090943571  
# Reduced chi-sqr  =  0.949
# Prob(Noise)      <  0.789   (~0.0 sigma)
# P_topo (ms)      =  714.532459672858  +/- 5.32e-05
# P'_topo (s/s)    =  -0                +/- 2.86e-11
# P''_topo (s/s^2) =  0                 +/- 1.28e-14
# P_bary (ms)      =  N/A
# P'_bary (s/s)    =  N/A
# P''_bary (s/s^2) =  N/A
# P_orb (s)        =  N/A
# asin(i)/c (s)    =  N/A
# eccentricity     =  N/A
# w (rad)          =  N/A
# T_peri           =  N/A
######################################################
   0  1816.839
   1  1859.527
   2  1759.398
   3  1671.65
   4  1718.557
   5  1620.619
   6  1540.686
   7  1524.609
   8  1415.391
   9  1433.323
  10  1503.534
  11  1707.489
  12  1676.113
  13  1581.229
  14  1569.424
  15  1580.488
  16  1434.086
  17  1430.151
  18  1546.608
  19  1561.095
  20  1581.504
  21  1577.115
  22  1684.523
  23  1624.022
  24  1573.938
  25  1534.877
  26  1475.964
  27  1628.361
  28  1667.997
  29  1502.468
  30  1436.766
  31  1524.608
  32  1516.829
  33  1582.487
  34  1573.354
  35  1524.329
  36  1607.553
  37  1648.252
  38  1578.347
  39  1599.68
  40  1539.017
  41  1508.323
  42  1497.157
  43  1487.232
  44  1443.017
  45  1401.358
  46  1490.207
  47  1554.245
  48  1555.68
  49  1560.45
  50  1530.463
  51  1571.163
  52  1538.921
  53  1631.958
  54  1702.168
  55  1740.395
  56  1525.444
  57  1564.109
  58  1540.308
  59  1445.841
  60  1570.867
  61  1637.516
  62  1643.861
  63  1563.332
  64  1495.395
  65  1614.672
  66  1565.475
  67  1526.975
  68  1597.495
  69  1729.554
  70  1601.077
  71  1602.898
  72  1663.486
  73  1506.875
  74  1494.664
  75  1457.775
  76  1545.409
  77  1524.018
  78  1522.897
  79  1616.356
  80  1619.979
  81  1516.642
  82  1553.332
  83  1577.092
  84  1589.099
  85  1684.812
  86  1743.385
  87  1739.696
  88  1690.132
  89  1593.37
  90  1663.185
  91  1506.421
  92  1518.496
  93  1480.312
  94  1574.269
  95  1658.001
  96  1646.843
  97  1616.992
  98  1614.718
  99  1596.215
 100  1567.642
 101  1590.315
 102  1676.958
 103  1702.827
 104  1614.252
 105  1558.88
 106  1540.656
 107  1461.986
 108  1411.588
 109  1442.753
 110  1474.328
 111  1585.888
 112  1544.983
 113  1456.244
 114  1445.495
 115  1527.062
 116  1530.276
 117  1466.271
 118  1515.806
 119  1587.483
 120  1618.358
 121  1539.694
 122  1558.886
 123  1559.618
 124  1429.218
 125  1509.81
 126  1642.131
 127  1680.795
 128  1553.113
 129  1590.92
 130  1571.924
 131  1493.274
 132  1443.764
 133  1439.077
 134  1456.375
 135  1576.79
 136  1699.095
 137  1683.984
 138  1520.963
 139  1521.337
 140  1469.927
 141  1625.803
 142  1524.69
 143  1635.834
 144  1607.62
 145  1485.094
 146  1471.257
 147  1523.872
 148  1477.52
 149  1507.464
 150  1615.703
 151  1698.24
 152  1607.459
 153  1508.538
 154  1582.803
 155  1522.302
 156  1514.798
 157  1553.211
 158  1545.023
 159  1462.536
 160  1361.656
 161  1417.096
 162  1480.604
 163  1516.205
 164  1464.312
 165  1561.054
 166  1520.879
 167  1519.418
 168  1520.987
 169  1620.559
 170  1582.277
 171  1497.796
 172  1582.699
 173  1483.79
 174  1441.662
 175  1522.918
 176  1662.251
 177  1626.318
 178  1568.189
 179  1535.723
 180  1523.15
 181  1387.854
 182  1430.618
 183  1651.679
 184  1622.397
 185  1613.307
 186  1581.034
 187  1546.783
 188  1470.474
 189  1378.926
 190  1423.664
 191  1445.563
 192  1404.598
 193  1584.68
 194  1605.224
 195  1509.272
 196  1518.424
 197  1414.221
 198  1401.356
 199  1405.462
 200  1546.702
 201  1657.662
 202  1564.966
 203  1545.096
 204  1571.486
 205  1546.214
 206  1505.964
 207  1474.257
 208  1623.959
 209  1634.522
 210  1572.574
 211  1608.123
 212  1657.678
 213  1478.66
 214  1338.068
 215  1505.841
 216  1496.464
 217  1552.884
 218  1593.064
 219  1560.611
 220  1546.419
 221  1492.815
 222  1530.013
 223  1615.485
 224  1549.668
 225  1579.955
 226  1684.039
 227  1581.292
 228  1516.63
 229  1532.336
 230  1568.8
 231  1582.407
 232  1410.06
 233  1513.498
 234  1611.38
 235  1621.488
 236  1641.369
 237  1600.017
 238  1488.378
 239  1402.316
 240  1417.1
 241  1420.096
 242  1499.371
 243  1471.089
 244  1456.13
 245  1510.317
 246  1349.34
 247  1410.002
 248  1470.004
 249  1493.724
 250  1523.439
 251  1570.105
 252  1572.986
 253  1591.659
 254  1581.419
 255  1469.504
 256  1350.004
 257  1335.311
 258  1524.206
 259  1574.771
 260  1519.696
 261  1450.395
 262  1476.798
 263  1493.839
 264  1487.888
 265  1572.373
 266  1727.902
 267  1670.759
 268  1789.338
 269  1722.701
 270  1609.842
 271  1553.086
 272  1449.659
 273  1448.158
 274  1562.041
 275  1502.684
 276  1487.184
 277  1496.425
 278  1640.419
 279  1573.719
 280  1441.791
 281  1549.99
 282  1582.024
 283  1526.308
 284  1585.989
 285  1532.05
 286  1609.495
 287  1609.953
 288  1520.389
 289  1478.048
 290  1423.013
 291  1490.095
 292  1500.204
 293  1546.109
 294  1593.335
 295  1626.597
 296  1515.722
 297  1586.479
 298  1591.889
 299  1637.702
 300  1638.197
 301  1592.128
 302  1629.35
 303  1634.091
 304  1568.128
 305  1584.718
 306  1505.609
 307  1575.153
 308  1587.866
 309  1536.515
 310  1489.585
 311  1610.603
 312  1513.842
 313  1431.545
 314  1421.868
 315  1518.32
 316  1550.652
 317  1627.14
 318  1713.21
 319  1712.26
 320  1601.501
 321  1562.925
 322  1577.091
 323  1559.896
 324  1528.075
 325  1588.295
 326  1675.705
 327  1689.605
 328  1560.812
 329  1515.37
 330  1517.731
 331  1423.439
 332  1475.205
 333  1651.758
 334  1738.219
 335  1725.681
 336  1690.383
 337  1517.655
 338  1427.508
 339  1427.029
 340  1515.119
 341  1585.339
 342  1550.85
 343  1508.088
 344  1529.978
 345  1494.368
 346  1457.14
 347  1475.175
 348  1619.579
 349  1595.201
 350  1627.957
 351  1635.696
 352  1568.754
 353  1544.361
 354  1561.482
 355  1533.237
 356  1433.515
 357  1425.83
 358  1467.924
 359  1548.762
 360  1527.231
 361  1485.156
 362  1528.572
 363  1595.009
 364  1640.923
 365  1561.07
 366  1567.384
 367  1612.745
 368  1617.077
 369  1652.984
 370  1603.27
 371  1598.735
 372  1629.449
 373  1608.687
 374  1553.139
 375  1544.837
 376  1600.433
 377  1645.441
 378  1618.49
 379  1506.902
 380  1479.164
 381  1558.686
 382  1553.761
 383  1622.521
 384  1756.684
 385  1640.91
 386  1503.324
 387  1533.241
 388  1450.25
 389  1331.048
 390  1324.139
 391  1554.274
 392  1648.999
 393  1571.353
 394  1495.066
 395  1439.95
 396  1464.985
 397  1537.143
 398  1486.9
 399  1546.79
 400  1525.405
 401  1538.232
 402  1611.282
 403  1572.076
 404  1606.551
 405  1508.662
 406  1374.564
 407  1380.542
 408  1466.979
 409  1568.999
 410  1576.999
 411  1422.714
 412  1496.582
 413  1503.923
 414  1498.898
 415  1578.41
 416  1611.714
 417  1595.845
 418  1542.531
 419  1624.753
 420  1659.276
 421  1575.579
 422  1577.187
 423  1594.917
 424  1647.255
 425  1590.448
 426  1504.298
 427  1431.656
 428  1518.773
 429  1516.59
 430  1621.236
 431  1636.406
 432  1642.223
 433  1692.989
 434  1673.416
 435  1665.188
 436  1628.214
 437  1572.021
 438  1573.937
 439  1471.771
 440  1495.451
 441  1637.306
 442  1531.172
 443  1452.53
 444  1448.403
 445  1518.312
 446  1451.35
 447  1442.063
 448  1625.905
 449  1648.876
 450  1640.669
 451  1600.405
 452  1599.776
 453  1516.784
 454  1459.464
 455  1522.151
 456  1528.222
 457  1517.275
 458  1592.513
 459  1553.197
 460  1540.496
 461  1526.875
 462  1508.304
 463  1550.068
 464  1664.356
 465  1659.254
 466  1634.307
 467  1698.78
 468  1579.741
 469  1562.3
 470  1580.403
 471  1524.504
 472  1410.334
 473  1439.157
 474  1513.12
 475  1461.123
 476  1476.461
 477  1574.297
 478  1535.588
 479  1525.832
 480  1605.62
 481  1743.808
 482  1625.023
 483  1675.087
 484  1641.251
 485  1506.864
 486  1497.797
 487  1474.246
 488  1528.58
 489  1567.298
 490  1548.155
 491  1588.144
 492  1630.706
 493  1582.579
 494  1496.322
 495  1413.993
 496  1412.192
 497  1487.842
 498  1620.093
 499  1588.883
 500  1526.695
 501  1591.841
 502  1606.929
 503  1561.998
 504  1515.88
 505  1625.107
 506  1671.823
 507  1699.299
 508  1650.446
 509  1772.3
 510  1683.716
 511  1768.926
