# Input file       =  1196809110.124559_cleaned.dat
# Candidate        =  PSR_0332+5434
# Telescope        =  AR
# Epoch_topo       =  58095.957084774986
# Epoch_bary       =  N/A
# T_sample         =  0.002
# Data Folded      =  7340032
# Data Avg         =  0.0220006718080867
# Data StdDev      =  1.0000290172268  
# Profile Bins     =  512
# Profile Avg      =  315.296699202983 
# Profile StdDev   =  119.736510697438 
# Reduced chi-sqr  =  0.934
# Prob(Noise)      <  0.854   (~0.0 sigma)
# P_topo (ms)      =  714.53416935813   +/- 0.000221
# P'_topo (s/s)    =  -0                +/- 1.17e-10
# P''_topo (s/s^2) =  0                 +/- 5.14e-14
# P_bary (ms)      =  N/A
# P'_bary (s/s)    =  N/A
# P''_bary (s/s^2) =  N/A
# P_orb (s)        =  N/A
# asin(i)/c (s)    =  N/A
# eccentricity     =  N/A
# w (rad)          =  N/A
# T_peri           =  N/A
######################################################
   0  806.335
   1  630.8428
   2  496.3008
   3  550.1652
   4  454.4122
   5  415.2133
   6  359.6438
   7  330.704
   8  234.7392
   9  319.6113
  10  299.9072
  11  389.9509
  12  329.6359
  13  376.2367
  14  409.7646
  15  443.4082
  16  313.784
  17  270.048
  18  406.7005
  19  348.7048
  20  272.3203
  21  311.9173
  22  360.8532
  23  403.2264
  24  322.614
  25  365.7454
  26  409.8535
  27  311.6946
  28  176.5863
  29  220.1564
  30  295.1949
  31  298.9684
  32  223.4343
  33  260.8102
  34  288.7635
  35  341.8593
  36  397.5245
  37  299.1566
  38  332.6786
  39  335.0175
  40  182.2144
  41  170.4157
  42  257.9017
  43  305.3422
  44  441.5793
  45  505.7042
  46  341.069
  47  263.7496
  48  241.535
  49  270.7691
  50  218.7356
  51  322.5107
  52  267.7622
  53  243.9308
  54  277.0979
  55  271.6338
  56  449.5579
  57  398.0862
  58  361.7991
  59  308.2746
  60  255.5107
  61  266.7168
  62  279.5655
  63  337.8712
  64  316.0406
  65  384.775
  66  302.2141
  67  287.3758
  68  258.68
  69  258.7124
  70  284.779
  71  304.2649
  72  299.2126
  73  318.4692
  74  364.5046
  75  386.4057
  76  298.5984
  77  325.9615
  78  256.2404
  79  395.5953
  80  202.1102
  81  221.9337
  82  354.3095
  83  350.4971
  84  259.7227
  85  224.9774
  86  279.9733
  87  311.6637
  88  339.0885
  89  368.5859
  90  322.2042
  91  317.6374
  92  342.8878
  93  356.4527
  94  393.274
  95  395.0755
  96  275.996
  97  370.043
  98  238.0365
  99  168.3794
 100  200.9541
 101  253.7268
 102  373.9459
 103  319.6786
 104  345.8489
 105  343.6711
 106  347.4352
 107  268.36
 108  216.407
 109  236.1991
 110  268.6195
 111  419.4193
 112  365.2947
 113  303.4171
 114  234.756
 115  291.0386
 116  232.2047
 117  222.9079
 118  294.6246
 119  283.1018
 120  343.0103
 121  404.8625
 122  361.5891
 123  354.4431
 124  369.4444
 125  214.5977
 126  327.5007
 127  313.5944
 128  353.9181
 129  410.4263
 130  298.4762
 131  231.4002
 132  276.3275
 133  334.5095
 134  328.0349
 135  227.9026
 136  241.1063
 137  427.5883
 138  314.9662
 139  304.3055
 140  263.7544
 141  275.278
 142  287.3642
 143  257.8568
 144  298.118
 145  326.185
 146  400.0191
 147  367.8076
 148  236.9487
 149  199.8808
 150  309.8141
 151  264.2536
 152  260.7618
 153  223.2503
 154  267.1545
 155  258.7278
 156  280.2477
 157  370.194
 158  322.151
 159  276.9606
 160  242.8238
 161  265.0543
 162  278.8903
 163  369.8308
 164  442.1466
 165  372.0798
 166  347.4901
 167  407.5862
 168  363.0069
 169  278.1338
 170  316.119
 171  324.6403
 172  352.2726
 173  332.9756
 174  183.0925
 175  246.3445
 176  289.8867
 177  327.6475
 178  310.8887
 179  258.1261
 180  268.589
 181  226.5012
 182  190.2737
 183  254.4378
 184  361.3806
 185  389.5388
 186  344.2197
 187  354.7744
 188  350.5695
 189  351.7264
 190  324.9306
 191  496.2762
 192  438.6499
 193  395.0674
 194  382.0933
 195  380.1445
 196  288.9816
 197  262.62
 198  292.0774
 199  359.3232
 200  324.662
 201  299.8817
 202  384.5281
 203  364.4487
 204  344.9836
 205  301.9694
 206  220.2835
 207  150.6486
 208  321.4239
 209  270.5489
 210  471.7766
 211  374.972
 212  303.4972
 213  402.6711
 214  402.4198
 215  396.6904
 216  321.4286
 217  250.9896
 218  250.1775
 219  255.8754
 220  301.2444
 221  228.1323
 222  217.0083
 223  359.6373
 224  381.3209
 225  338.1765
 226  324.3721
 227  294.3147
 228  332.2074
 229  350.4769
 230  256.556
 231  246.7831
 232  309.402
 233  393.5479
 234  331.8831
 235  287.0063
 236  286.8006
 237  323.5958
 238  290.1743
 239  288.413
 240  327.7222
 241  289.2199
 242  322.1657
 243  279.3871
 244  339.2351
 245  330.7652
 246  298.4097
 247  350.4216
 248  335.6367
 249  388.123
 250  332.5767
 251  331.2136
 252  359.3672
 253  373.2407
 254  326.3658
 255  370.6092
 256  346.0263
 257  259.1378
 258  366.9605
 259  377.5356
 260  495.414
 261  483.1297
 262  297.6929
 263  258.9463
 264  266.7782
 265  427.8843
 266  448.5433
 267  422.1192
 268  279.0497
 269  267.6751
 270  262.644
 271  250.2466
 272  278.6707
 273  276.269
 274  305.9244
 275  301.4787
 276  214.7637
 277  198.3349
 278  318.9623
 279  417.9968
 280  278.9905
 281  418.7181
 282  549.5046
 283  297.2472
 284  282.8616
 285  381.7146
 286  448.3337
 287  487.1978
 288  345.832
 289  184.3398
 290  215.8098
 291  278.0944
 292  358.6509
 293  337.2764
 294  331.326
 295  330.9799
 296  340.455
 297  322.107
 298  306.018
 299  368.9987
 300  390.2679
 301  362.6227
 302  323.1607
 303  262.889
 304  252.8394
 305  322.2447
 306  357.171
 307  325.211
 308  228.1883
 309  238.7629
 310  156.7431
 311  235.0956
 312  310.9062
 313  342.1064
 314  381.7665
 315  338.3766
 316  324.7084
 317  387.616
 318  449.6447
 319  328.4601
 320  325.7897
 321  260.903
 322  345.0924
 323  293.7684
 324  342.1963
 325  332.2237
 326  251.113
 327  372.3195
 328  348.7942
 329  268.045
 330  259.7492
 331  290.2774
 332  246.3661
 333  413.2759
 334  323.0166
 335  316.8532
 336  224.177
 337  234.7897
 338  402.4236
 339  394.8326
 340  368.6235
 341  424.0691
 342  427.8202
 343  393.2821
 344  391.2046
 345  382.0485
 346  338.704
 347  335.5545
 348  348.0775
 349  326.6374
 350  250.8235
 351  462.9296
 352  516.4352
 353  456.3341
 354  509.723
 355  446.8935
 356  346.9098
 357  294.1042
 358  246.9667
 359  274.194
 360  278.939
 361  366.5085
 362  369.3589
 363  361.6802
 364  321.5981
 365  187.5766
 366  267.5139
 367  345.0883
 368  216.2861
 369  161.4424
 370  145.919
 371  256.8084
 372  268.1409
 373  268.6419
 374  236.7376
 375  267.5638
 376  201.6583
 377  246.6848
 378  276.0548
 379  306.3775
 380  296.1304
 381  297.7344
 382  286.379
 383  230.7864
 384  150.2519
 385  191.5462
 386  231.0521
 387  277.2852
 388  305.7547
 389  220.468
 390  127.5334
 391  211.5866
 392  201.6962
 393  115.7306
 394  153.7376
 395  265.365
 396  219.8715
 397  174.8101
 398  279.7329
 399  302.8583
 400  350.261
 401  394.4102
 402  357.5972
 403  218.6133
 404  282.2794
 405  397.1841
 406  320.0786
 407  269.6266
 408  229.3961
 409  334.3224
 410  240.1967
 411  255.193
 412  291.5538
 413  361.0559
 414  400.6354
 415  314.2523
 416  386.8083
 417  425.5828
 418  239.3729
 419  258.5008
 420  284.1143
 421  322.9424
 422  243.1243
 423  373.659
 424  384.3123
 425  235.225
 426  265.0859
 427  199.084
 428  224.2908
 429  175.7515
 430  261.7623
 431  239.1117
 432  265.4288
 433  268.6952
 434  347.8041
 435  453.9638
 436  515.8562
 437  330.653
 438  232.5386
 439  146.9739
 440  212.0589
 441  319.8907
 442  281.3637
 443  178.1235
 444  295.6642
 445  387.7466
 446  479.4297
 447  429.8156
 448  365.358
 449  447.2966
 450  307.4496
 451  229.7268
 452  342.5209
 453  254.2886
 454  240.9587
 455  290.0587
 456  320.8022
 457  275.3421
 458  310.7787
 459  209.3578
 460  251.8278
 461  182.8127
 462  222.8849
 463  195.2594
 464  137.4941
 465  183.4584
 466  295.4514
 467  376.2728
 468  282.3464
 469  196.7517
 470  316.8055
 471  394.4789
 472  340.0376
 473  392.1598
 474  359.757
 475  250.5948
 476  267.3165
 477  236.1966
 478  279.6914
 479  370.0859
 480  426.9488
 481  289.8833
 482  257.2669
 483  188.4381
 484  155.9708
 485  208.8737
 486  222.1428
 487  176.1367
 488  242.715
 489  236.9193
 490  302.0493
 491  294.1674
 492  254.2895
 493  221.7148
 494  295.2549
 495  309.9093
 496  294.9391
 497  449.3838
 498  396.698
 499  359.5307
 500  314.8941
 501  381.5948
 502  303.1472
 503  336.8497
 504  382.6542
 505  452.4934
 506  534.4002
 507  546.452
 508  478.6281
 509  508.3367
 510  618.2766
 511  774.8484
