# Input file       =  1197929750.11364_cleaned.dat
# Candidate        =  PSR_0332+5434
# Telescope        =  AR
# Epoch_topo       =  58108.927455018980
# Epoch_bary       =  N/A
# T_sample         =  0.002
# Data Folded      =  7340032
# Data Avg         =  0.0213119731366112
# Data StdDev      =  1.00007893449902 
# Profile Bins     =  512
# Profile Avg      =  305.467209906517 
# Profile StdDev   =  119.742487444009 
# Reduced chi-sqr  =  0.814
# Prob(Noise)      <  0.999   (~0.0 sigma)
# P_topo (ms)      =  714.547035389186  +/- 0.00156
# P'_topo (s/s)    =  -0                +/- 8.22e-10
# P''_topo (s/s^2) =  0                 +/- 3.63e-13
# P_bary (ms)      =  N/A
# P'_bary (s/s)    =  N/A
# P''_bary (s/s^2) =  N/A
# P_orb (s)        =  N/A
# asin(i)/c (s)    =  N/A
# eccentricity     =  N/A
# w (rad)          =  N/A
# T_peri           =  N/A
######################################################
   0  735.1979
   1  789.3226
   2  676.7011
   3  378.7865
   4  252.881
   5  262.8525
   6  337.25
   7  366.019
   8  310.2437
   9  281.7254
  10  277.1699
  11  385.741
  12  413.4873
  13  383.4647
  14  424.675
  15  457.5568
  16  381.4891
  17  338.4657
  18  349.1666
  19  385.5641
  20  374.4243
  21  386.9461
  22  366.9877
  23  348.0558
  24  303.3903
  25  295.1798
  26  234.2897
  27  214.504
  28  330.1744
  29  232.8765
  30  286.0658
  31  366.6682
  32  318.8696
  33  265.3593
  34  261.8664
  35  254.3328
  36  257.8002
  37  364.2459
  38  419.4218
  39  407.5897
  40  302.5143
  41  266.3987
  42  232.6567
  43  287.3451
  44  218.2707
  45  305.9492
  46  228.0055
  47  209.8435
  48  188.4997
  49  217.9522
  50  265.9482
  51  202.1398
  52  260.0461
  53  359.8611
  54  442.7812
  55  239.1118
  56  164.4111
  57  248.4478
  58  301.3275
  59  332.8638
  60  284.9936
  61  208.0929
  62  355.6752
  63  342.6511
  64  365.9358
  65  272.6036
  66  194.662
  67  281.5644
  68  269.5082
  69  301.6455
  70  332.1668
  71  354.0391
  72  303.673
  73  319.0753
  74  257.2776
  75  372.6035
  76  409.4095
  77  349.4006
  78  250.6317
  79  197.3147
  80  328.7196
  81  446.8577
  82  283.2828
  83  288.7896
  84  357.99
  85  365.0323
  86  425.0103
  87  316.2964
  88  351.4301
  89  226.4793
  90  234.7912
  91  370.6396
  92  418.4296
  93  372.4351
  94  270.3656
  95  295.515
  96  296.4297
  97  265.378
  98  260.0406
  99  280.3311
 100  411.5122
 101  368.9355
 102  409.4955
 103  391.1019
 104  373.9795
 105  392.6332
 106  321.615
 107  262.9131
 108  353.3036
 109  357.8652
 110  282.8823
 111  299.4565
 112  405.7878
 113  376.8141
 114  292.9127
 115  318.4794
 116  279.4632
 117  296.4716
 118  287.9962
 119  335.9865
 120  340.579
 121  284.5562
 122  295.9779
 123  316.1476
 124  330.1441
 125  207.9032
 126  197.3813
 127  237.2824
 128  228.1254
 129  283.0647
 130  303.3575
 131  312.6827
 132  293.1443
 133  282.9643
 134  350.6067
 135  249.3259
 136  234.8099
 137  258.3991
 138  302.7961
 139  270.7534
 140  335.0925
 141  391.3634
 142  387.4389
 143  398.3816
 144  290.3322
 145  388.5847
 146  324.8103
 147  326.8265
 148  323.4752
 149  303.0137
 150  203.1214
 151  207.7997
 152  314.7074
 153  217.2239
 154  200.7126
 155  246.1345
 156  274.8896
 157  283.9026
 158  232.6999
 159  256.4461
 160  270.5596
 161  395.5974
 162  376.3993
 163  231.5967
 164  181.6918
 165  170.0726
 166  168.2195
 167  132.4533
 168  225.4678
 169  313.0032
 170  307.0447
 171  243.6337
 172  207.2517
 173  246.3271
 174  312.2956
 175  179.3977
 176  168.184
 177  250.6456
 178  202.2108
 179  275.595
 180  242.8929
 181  170.2382
 182  232.8011
 183  288.0587
 184  270.5467
 185  279.6667
 186  316.5943
 187  338.4242
 188  277.4229
 189  365.6736
 190  405.4155
 191  392.0511
 192  287.6519
 193  240.6844
 194  333.2581
 195  287.8518
 196  329.5601
 197  327.1503
 198  367.9449
 199  310.0127
 200  309.7081
 201  325.233
 202  306.7836
 203  301.9497
 204  237.241
 205  140.6645
 206  181.2577
 207  367.3212
 208  385.5527
 209  285.3501
 210  232.0145
 211  399.562
 212  350.2348
 213  321.4159
 214  230.3217
 215  261.1779
 216  274.0143
 217  228.4495
 218  201.6383
 219  109.3683
 220  168.2475
 221  263.8541
 222  212.0711
 223  344.51
 224  354.7459
 225  338.153
 226  275.1735
 227  161.5769
 228  204.8145
 229  264.23
 230  319.2903
 231  341.9487
 232  260.9958
 233  215.8638
 234  330.6246
 235  392.6042
 236  348.3477
 237  334.6573
 238  257.9201
 239  305.766
 240  326.0056
 241  312.2196
 242  376.6519
 243  324.0031
 244  276.3167
 245  302.0053
 246  268.5628
 247  334.5416
 248  286.4009
 249  361.9556
 250  396.5306
 251  331.9475
 252  337.2865
 253  243.2416
 254  246.0486
 255  246.5671
 256  244.0755
 257  224.8838
 258  198.4644
 259  293.5998
 260  418.9505
 261  390.4782
 262  259.0131
 263  324.9329
 264  259.7925
 265  265.84
 266  334.8927
 267  461.447
 268  441.9162
 269  419.0695
 270  308.1405
 271  242.9318
 272  343.8875
 273  397.4429
 274  348.4054
 275  421.4681
 276  423.7829
 277  368.4879
 278  348.3898
 279  332.058
 280  295.9467
 281  192.9434
 282  205.1265
 283  181.8427
 284  204.397
 285  256.2143
 286  261.8391
 287  291.4737
 288  257.157
 289  199.8143
 290  322.7665
 291  345.6893
 292  231.8526
 293  255.4918
 294  260.3419
 295  295.0383
 296  320.4682
 297  302.7891
 298  343.9439
 299  342.1901
 300  305.7229
 301  252.4544
 302  270.289
 303  369.3171
 304  231.7622
 305  233.8484
 306  375.6861
 307  372.1071
 308  304.9363
 309  321.7679
 310  268.3016
 311  228.8823
 312  325.2503
 313  322.6862
 314  323.4396
 315  314.4174
 316  190.517
 317  232.9447
 318  249.2502
 319  202.3382
 320  264.3451
 321  286.4083
 322  329.3258
 323  407.7805
 324  401.9969
 325  365.0069
 326  269.315
 327  300.3706
 328  223.7012
 329  265.7538
 330  239.9094
 331  250.0942
 332  246.313
 333  352.6662
 334  335.3279
 335  228.6985
 336  264.3142
 337  281.0457
 338  364.5461
 339  384.486
 340  241.7273
 341  246.9728
 342  253.8973
 343  164.5361
 344  364.5596
 345  276.5673
 346  221.3562
 347  278.6361
 348  317.4417
 349  357.3481
 350  345.0621
 351  353.5732
 352  370.4699
 353  392.0801
 354  297.264
 355  252.8854
 356  350.9168
 357  302.9667
 358  234.6064
 359  298.1728
 360  311.813
 361  308.4933
 362  317.1218
 363  287.8222
 364  327.2171
 365  343.166
 366  402.6429
 367  393.4216
 368  394.3524
 369  344.6574
 370  264.7471
 371  327.3316
 372  279.9983
 373  271.0959
 374  250.3069
 375  277.9503
 376  244.1852
 377  170.0361
 378  361.9543
 379  436.7633
 380  277.2005
 381  270.7806
 382  308.4986
 383  243.9953
 384  171.4426
 385  366.4384
 386  266.361
 387  297.385
 388  292.2074
 389  242.0746
 390  294.5811
 391  311.3065
 392  210.1677
 393  236.4428
 394  312.8329
 395  379.0439
 396  388.2535
 397  396.4081
 398  324.492
 399  87.38509
 400  165.9679
 401  308.1902
 402  218.5376
 403  311.9863
 404  258.3163
 405  219.5563
 406  356.2301
 407  334.1105
 408  198.3535
 409  268.2034
 410  319.8392
 411  359.5626
 412  287.9974
 413  351.2598
 414  328.1004
 415  301.0801
 416  350.3456
 417  238.2883
 418  346.0117
 419  414.2611
 420  389.9134
 421  344.8549
 422  307.229
 423  351.4954
 424  363.522
 425  266.0857
 426  228.4766
 427  229.6665
 428  269.5851
 429  267.8263
 430  266.6714
 431  216.343
 432  171.5924
 433  129.4217
 434  223.8288
 435  327.7692
 436  396.4161
 437  318.0482
 438  251.4275
 439  302.7088
 440  373.849
 441  343.3506
 442  355.5127
 443  399.1354
 444  338.2226
 445  344.6501
 446  298.539
 447  255.022
 448  380.6769
 449  407.1665
 450  345.1345
 451  342.6521
 452  237.3325
 453  345.7131
 454  272.0534
 455  365.639
 456  369.7006
 457  195.7426
 458  242.4504
 459  318.2857
 460  309.3305
 461  158.5297
 462  358.9884
 463  348.567
 464  258.5972
 465  219.5874
 466  311.3317
 467  235.3421
 468  279.3226
 469  348.5234
 470  324.9163
 471  251.6775
 472  237.8096
 473  333.2859
 474  280.4832
 475  386.391
 476  514.7546
 477  472.3426
 478  337.8839
 479  282.0512
 480  193.3318
 481  232.6661
 482  377.9064
 483  267.1242
 484  257.84
 485  292.7063
 486  236.1587
 487  255.8931
 488  299.9378
 489  389.8921
 490  347.6072
 491  484.4078
 492  444.5504
 493  455.2685
 494  436.4205
 495  360.97
 496  142.1408
 497  207.1818
 498  293.3609
 499  276.4872
 500  310.0555
 501  408.5171
 502  383.726
 503  359.1639
 504  433.1936
 505  375.5796
 506  426.7634
 507  430.71
 508  381.2268
 509  466.0781
 510  497.3089
 511  653.5974
