# Input file       =  1197986379.106846_cleaned.dat
# Candidate        =  PSR_0332+5434
# Telescope        =  AR
# Epoch_topo       =  58109.582883181087
# Epoch_bary       =  N/A
# T_sample         =  0.002
# Data Folded      =  7143424
# Data Avg         =  0.0383016231653212
# Data StdDev      =  1.00040516569238 
# Profile Bins     =  512
# Profile Avg      =  534.383924159264 
# Profile StdDev   =  118.166442079931 
# Reduced chi-sqr  =  0.732
# Prob(Noise)      <  1   (~0.0 sigma)
# P_topo (ms)      =  714.547291839701  +/- 0.000195
# P'_topo (s/s)    =  -0                +/- 1.06e-10
# P''_topo (s/s^2) =  0                 +/- 4.79e-14
# P_bary (ms)      =  N/A
# P'_bary (s/s)    =  N/A
# P''_bary (s/s^2) =  N/A
# P_orb (s)        =  N/A
# asin(i)/c (s)    =  N/A
# eccentricity     =  N/A
# w (rad)          =  N/A
# T_peri           =  N/A
######################################################
   0  827.0173
   1  801.5716
   2  785.5129
   3  616.9077
   4  502.81
   5  392.4972
   6  542.0481
   7  585.3549
   8  546.2251
   9  620.6725
  10  744.2034
  11  604.385
  12  501.3867
  13  430.3572
  14  456.356
  15  555.0319
  16  527.4841
  17  527.2749
  18  482.1074
  19  491.2957
  20  506.5747
  21  670.9579
  22  510.4121
  23  438.9006
  24  515.1793
  25  536.0452
  26  421.1378
  27  451.1222
  28  588.022
  29  356.5854
  30  468.2476
  31  452.4197
  32  464.6195
  33  504.4841
  34  599.1579
  35  569.622
  36  467.4401
  37  575.8749
  38  482.2451
  39  488.8242
  40  400.6951
  41  502.2608
  42  476.6084
  43  500.0009
  44  504.8376
  45  465.1662
  46  484.8123
  47  399.0214
  48  489.0406
  49  488.658
  50  403.2085
  51  396.7896
  52  417.1724
  53  623.1572
  54  505.7236
  55  500.8681
  56  414.3724
  57  529.7675
  58  563.5436
  59  567.5641
  60  610.8921
  61  591.5648
  62  522.0759
  63  533.4967
  64  492.3667
  65  538.9924
  66  682.4516
  67  703.0812
  68  568.4869
  69  559.1255
  70  479.8184
  71  504.63
  72  539.0175
  73  498.4575
  74  454.8621
  75  409.8553
  76  490.9628
  77  472.7764
  78  502.8456
  79  506.6619
  80  528.1102
  81  594.8881
  82  533.3381
  83  561.9955
  84  535.6998
  85  656.6719
  86  597.9778
  87  462.5578
  88  457.8033
  89  624.1178
  90  607.2197
  91  648.0544
  92  550.4993
  93  547.0692
  94  551.5563
  95  634.8807
  96  657.2489
  97  682.3236
  98  585.0588
  99  524.2143
 100  501.8612
 101  569.5047
 102  479.7783
 103  497.6906
 104  584.8375
 105  663.7161
 106  676.6299
 107  602.8843
 108  565.8911
 109  606.1486
 110  551.1405
 111  614.0178
 112  573.8332
 113  531.0032
 114  520.8987
 115  554.864
 116  509.743
 117  452.2219
 118  525.9761
 119  503.7912
 120  429.7569
 121  414.5587
 122  471.9305
 123  538.5854
 124  554.9521
 125  398.759
 126  454.7121
 127  489.3638
 128  431.4691
 129  466.2611
 130  493.8161
 131  535.1768
 132  535.5863
 133  438.8877
 134  406.9538
 135  496.4106
 136  512.1058
 137  470.4477
 138  467.6848
 139  570.3284
 140  565.5485
 141  591.1763
 142  605.011
 143  558.5641
 144  572.6542
 145  610.1982
 146  661.8118
 147  640.9037
 148  559.2921
 149  402.809
 150  572.5491
 151  562.3541
 152  589.7665
 153  547.1024
 154  650.7313
 155  636.6902
 156  531.9703
 157  546.3818
 158  514.3552
 159  532.3998
 160  539.9076
 161  547.3185
 162  500.1523
 163  471.5345
 164  489.1141
 165  441.6638
 166  525.7181
 167  583.0114
 168  592.6879
 169  562.6294
 170  549.6942
 171  528.8356
 172  510.8135
 173  507.371
 174  503.6154
 175  513.0303
 176  464.7931
 177  543.8066
 178  579.4361
 179  498.4069
 180  588.572
 181  604.4395
 182  634.9839
 183  550.6148
 184  488.2343
 185  565.8865
 186  603.596
 187  604.4541
 188  616.755
 189  648.8978
 190  531.9983
 191  497.6482
 192  563.924
 193  677.6207
 194  691.9688
 195  548.7703
 196  532.5639
 197  473.6983
 198  432.6284
 199  451.7296
 200  560.8905
 201  569.8694
 202  450.5688
 203  568.3151
 204  479.9324
 205  538.9247
 206  575.7179
 207  459.825
 208  423.6946
 209  435.2253
 210  619.6329
 211  504.8015
 212  466.5764
 213  541.7934
 214  493.4378
 215  436.5025
 216  320.9653
 217  402.5488
 218  495.5701
 219  531.5571
 220  452.3883
 221  433.8234
 222  488.0615
 223  517.2758
 224  531.9561
 225  548.2912
 226  479.5157
 227  534.2067
 228  469.3293
 229  555.7265
 230  602.4449
 231  499.8289
 232  481.8306
 233  478.7479
 234  518.1667
 235  546.8969
 236  525.1891
 237  414.3289
 238  536.4864
 239  434.3236
 240  513.812
 241  515.4399
 242  489.6297
 243  484.8552
 244  491.031
 245  490.4413
 246  465.8029
 247  506.8217
 248  458.1101
 249  423.5981
 250  542.6615
 251  626.7237
 252  565.3148
 253  578.6448
 254  566.991
 255  463.0779
 256  517.496
 257  551.6093
 258  535.516
 259  475.8017
 260  539.4694
 261  563.6635
 262  515.6248
 263  499.5019
 264  431.2034
 265  481.1948
 266  497.8155
 267  514.9299
 268  514.449
 269  497.3677
 270  534.7489
 271  496.2495
 272  507.092
 273  545.5062
 274  509.533
 275  445.8427
 276  508.0556
 277  592.3245
 278  499.8273
 279  470.8429
 280  459.8341
 281  548.0741
 282  672.3197
 283  671.431
 284  709.6194
 285  567.1506
 286  558.0374
 287  495.5568
 288  536.741
 289  512.863
 290  460.1036
 291  552.1091
 292  547.0128
 293  520.5184
 294  546.4736
 295  592.8981
 296  561.9505
 297  493.6984
 298  350.0907
 299  394.5837
 300  566.6483
 301  573.0043
 302  505.0359
 303  612.8403
 304  672.6249
 305  565.713
 306  580.9635
 307  643.9312
 308  541.9935
 309  449.869
 310  413.0717
 311  441.1828
 312  516.0504
 313  526.5356
 314  475.2756
 315  443.2012
 316  361.5017
 317  406.7503
 318  435.336
 319  417.0374
 320  512.1749
 321  603.426
 322  651.6616
 323  560.5561
 324  522.3671
 325  460.3185
 326  470.2588
 327  326.877
 328  432.1821
 329  529.5565
 330  511.5203
 331  605.0587
 332  443.1208
 333  495.6916
 334  530.6363
 335  510.5439
 336  580.1763
 337  596.7078
 338  573.246
 339  623.3671
 340  610.387
 341  472.929
 342  532.129
 343  595.8617
 344  540.5042
 345  639.0759
 346  578.8844
 347  607.2289
 348  458.2528
 349  570.7895
 350  596.8306
 351  708.7168
 352  629.1522
 353  506.1094
 354  582.6594
 355  626.4228
 356  516.7789
 357  463.0315
 358  548.5439
 359  541.1631
 360  511.6795
 361  535.6597
 362  539.9656
 363  698.0245
 364  603.9376
 365  582.8866
 366  468.3615
 367  480.3087
 368  525.6008
 369  480.5344
 370  507.6877
 371  585.8456
 372  543.9908
 373  471.6783
 374  558.8615
 375  512.7257
 376  499.8942
 377  518.4211
 378  513.6511
 379  519.4586
 380  522.3105
 381  492.3263
 382  480.5475
 383  447.2145
 384  472.55
 385  489.0479
 386  562.5658
 387  448.6947
 388  370.4293
 389  419.1038
 390  503.1957
 391  510.8312
 392  454.9597
 393  488.1935
 394  533.7446
 395  540.7411
 396  585.0888
 397  470.2422
 398  421.9389
 399  568.1608
 400  512.914
 401  527.8838
 402  523.0207
 403  466.3791
 404  566.7787
 405  560.593
 406  561.1288
 407  584.6548
 408  536.908
 409  539.9984
 410  508.3951
 411  414.4471
 412  554.5607
 413  514.4763
 414  494.9877
 415  612.5223
 416  538.8475
 417  487.0264
 418  473.05
 419  553.7887
 420  648.5163
 421  574.058
 422  561.8587
 423  538.3817
 424  492.2241
 425  589.4313
 426  612.2793
 427  656.0574
 428  613.0754
 429  570.0934
 430  491.8651
 431  561.0993
 432  507.2845
 433  451.0778
 434  504.3134
 435  593.1328
 436  590.0735
 437  548.7916
 438  506.1016
 439  538.1569
 440  599.0228
 441  538.8129
 442  515.5623
 443  537.656
 444  554.2799
 445  608.6315
 446  471.5747
 447  547.4993
 448  553.1277
 449  624.7479
 450  568.0869
 451  509.0278
 452  564.5199
 453  610.7978
 454  601.6083
 455  581.3027
 456  497.8918
 457  451.3751
 458  581.6476
 459  589.9332
 460  642.2172
 461  545.4481
 462  445.3877
 463  462.179
 464  426.6642
 465  562.938
 466  487.7677
 467  631.5698
 468  608.0089
 469  576.0119
 470  478.1972
 471  473.5527
 472  439.7423
 473  513.3621
 474  635.8475
 475  610.4785
 476  603.112
 477  556.7161
 478  547.2219
 479  522.7606
 480  560.5029
 481  626.6064
 482  531.9025
 483  546.0419
 484  549.2358
 485  521.6494
 486  562.0464
 487  697.1619
 488  595.5517
 489  614.491
 490  609.17
 491  591.8387
 492  515.2228
 493  469.3304
 494  652.9899
 495  586.8476
 496  468.1394
 497  488.3099
 498  476.8665
 499  594.2292
 500  677.5927
 501  620.3561
 502  650.3177
 503  589.587
 504  583.1454
 505  700.8613
 506  761.8767
 507  670.924
 508  611.3798
 509  546.9036
 510  659.2
 511  834.0684
