# Input file       =  1197828070.101624_cleaned.dat
# Candidate        =  PSR_0332+5434
# Telescope        =  AR
# Epoch_topo       =  58107.750603028057
# Epoch_bary       =  N/A
# T_sample         =  0.002
# Data Folded      =  7340032
# Data Avg         =  0.0283694583211684
# Data StdDev      =  1.00005028123061 
# Profile Bins     =  512
# Profile Avg      =  406.735852178669 
# Profile StdDev   =  119.73905670118  
# Reduced chi-sqr  =  0.978
# Prob(Noise)      <  0.628   (~0.0 sigma)
# P_topo (ms)      =  714.545564714781  +/- 0.000217
# P'_topo (s/s)    =  -0                +/- 1.15e-10
# P''_topo (s/s^2) =  0                 +/- 5.06e-14
# P_bary (ms)      =  N/A
# P'_bary (s/s)    =  N/A
# P''_bary (s/s^2) =  N/A
# P_orb (s)        =  N/A
# asin(i)/c (s)    =  N/A
# eccentricity     =  N/A
# w (rad)          =  N/A
# T_peri           =  N/A
######################################################
   0  870.8329
   1  835.3883
   2  816.6635
   3  541.3711
   4  477.3933
   5  461.5912
   6  448.1664
   7  370.7765
   8  473.5121
   9  433.8329
  10  351.0167
  11  392.337
  12  535.7039
  13  455.5581
  14  302.6375
  15  338.8091
  16  428.2794
  17  311.2036
  18  304.1876
  19  469.0563
  20  448.3336
  21  508.1007
  22  580.954
  23  586.1473
  24  445.9974
  25  341.6007
  26  449.1205
  27  445.9059
  28  490.6773
  29  405.5483
  30  474.2213
  31  520.387
  32  418.3224
  33  391.3588
  34  391.116
  35  377.6566
  36  441.4761
  37  479.1244
  38  404.0517
  39  422.539
  40  449.0521
  41  414.1964
  42  317.2751
  43  366.5474
  44  367.5267
  45  371.1927
  46  428.9456
  47  496.7234
  48  527.1769
  49  484.0109
  50  498.406
  51  391.0122
  52  395.2865
  53  459.1294
  54  423.1443
  55  346.4043
  56  373.1758
  57  334.9142
  58  478.095
  59  492.7792
  60  365.8231
  61  469.631
  62  543.0685
  63  499.1996
  64  360.2811
  65  456.6718
  66  467.5028
  67  374.6002
  68  482.3844
  69  426.7061
  70  453.0964
  71  340.2965
  72  323.0819
  73  173.8085
  74  243.8435
  75  235.9766
  76  366.7063
  77  447.6446
  78  346.0984
  79  308.0514
  80  304.4804
  81  329.9843
  82  383.378
  83  506.3596
  84  500.9929
  85  459.2996
  86  478.4096
  87  379.6417
  88  386.436
  89  396.3172
  90  463.1066
  91  512.0084
  92  545.185
  93  520.972
  94  554.4634
  95  538.9799
  96  444.2691
  97  440.6436
  98  448.1019
  99  490.2271
 100  495.5538
 101  480.6613
 102  394.7009
 103  259.8724
 104  354.621
 105  410.8806
 106  334.159
 107  338.569
 108  409.4147
 109  380.4533
 110  350.9838
 111  309.4026
 112  259.5019
 113  356.039
 114  462.7259
 115  374.1747
 116  376.1651
 117  408.2635
 118  301.5184
 119  370.967
 120  377.1916
 121  338.0375
 122  414.1225
 123  478.1618
 124  530.315
 125  353.8629
 126  376.1965
 127  391.4593
 128  338.3214
 129  338.625
 130  353.0714
 131  424.6318
 132  497.1389
 133  281.2259
 134  456.1345
 135  404.345
 136  486.2771
 137  418.2041
 138  506.582
 139  567.5518
 140  398.2762
 141  385.4978
 142  450.0258
 143  522.6411
 144  587.1133
 145  481.1978
 146  459.9945
 147  409.0833
 148  447.8912
 149  518.2595
 150  439.1337
 151  382.3969
 152  464.5956
 153  425.7212
 154  351.0936
 155  341.5913
 156  306.7248
 157  412.4568
 158  373.9255
 159  412.5412
 160  592.8765
 161  479.9458
 162  493.9069
 163  458.9354
 164  330.1525
 165  477.7052
 166  478.3207
 167  458.6623
 168  585.4752
 169  486.5776
 170  542.7933
 171  480.2804
 172  436.7914
 173  392.2893
 174  395.9838
 175  347.9066
 176  364.2872
 177  369.4023
 178  506.7421
 179  511.3161
 180  488.1438
 181  411.0992
 182  341.2203
 183  357.4497
 184  319.5683
 185  367.2764
 186  320.9663
 187  371.5675
 188  426.2834
 189  372.2619
 190  399.2423
 191  297.3483
 192  268.54
 193  355.4861
 194  452.9896
 195  365.9557
 196  399.6475
 197  478.9256
 198  385.4896
 199  361.3602
 200  466.2101
 201  450.8843
 202  298.7801
 203  359.101
 204  484.7365
 205  473.4554
 206  366.4986
 207  415.4666
 208  329.6016
 209  329.39
 210  319.9903
 211  353.9753
 212  385.9612
 213  385.5316
 214  425.769
 215  453.7344
 216  519.3963
 217  430.2007
 218  292.2457
 219  333.75
 220  346.791
 221  355.9767
 222  298.2745
 223  296.6622
 224  379.2607
 225  442.2604
 226  314.9688
 227  216.5392
 228  295.4834
 229  464.0112
 230  528.1581
 231  514.7336
 232  403.8871
 233  346.0271
 234  415.6773
 235  435.096
 236  442.4742
 237  445.11
 238  496.1982
 239  351.3514
 240  393.8479
 241  401.9984
 242  460.7218
 243  406.1914
 244  385.5773
 245  374.1591
 246  381.6084
 247  378.7916
 248  383.6406
 249  334.1422
 250  339.7385
 251  317.5725
 252  423.3937
 253  532.7721
 254  399.4744
 255  386.5975
 256  434.7862
 257  237.2707
 258  291.4307
 259  404.2252
 260  516.683
 261  417.1174
 262  410.9376
 263  412.6409
 264  443.022
 265  448.8556
 266  433.5393
 267  401.0937
 268  384.0766
 269  319.2368
 270  285.5708
 271  325.7981
 272  384.6134
 273  228.2879
 274  272.6769
 275  362.5157
 276  252.8528
 277  217.8391
 278  336.0409
 279  305.0728
 280  342.9656
 281  360.1492
 282  355.2506
 283  338.6325
 284  364.9314
 285  451.3664
 286  383.6693
 287  378.4197
 288  459.7009
 289  497.0633
 290  427.8398
 291  304.0948
 292  325.0087
 293  391.762
 294  410.7542
 295  474.0601
 296  449.2078
 297  382.6447
 298  345.4581
 299  329.7212
 300  316.1248
 301  315.8252
 302  289.4591
 303  342.9765
 304  335.3735
 305  308.007
 306  281.8599
 307  252.0279
 308  289.4154
 309  327.1219
 310  438.4973
 311  545.7326
 312  462.1054
 313  320.9534
 314  196.1454
 315  238.3796
 316  313.4708
 317  317.9364
 318  413.3665
 319  483.629
 320  327.0545
 321  401.1556
 322  423.9188
 323  353.8444
 324  390.2301
 325  434.2255
 326  474.453
 327  359.3491
 328  345.8478
 329  389.3312
 330  437.5974
 331  273.9573
 332  314.8653
 333  380.9034
 334  420.7646
 335  333.4687
 336  414.1451
 337  349.0263
 338  214.4536
 339  276.9674
 340  383.3566
 341  451.283
 342  544.5066
 343  454.1623
 344  370.6187
 345  290.3219
 346  351.667
 347  387.5034
 348  433.0013
 349  378.7653
 350  362.3173
 351  440.8018
 352  345.2708
 353  386.5374
 354  373.1208
 355  252.2251
 356  251.8397
 357  210.3721
 358  272.0612
 359  356.9085
 360  365.9329
 361  342.1233
 362  297.9014
 363  310.9239
 364  403.9532
 365  369.353
 366  455.9489
 367  499.8526
 368  451.7996
 369  386.6207
 370  328.9131
 371  450.6974
 372  449.947
 373  399.8326
 374  395.6393
 375  412.4827
 376  416.6869
 377  364.0562
 378  314.7649
 379  462.2192
 380  527.5027
 381  571.962
 382  524.3661
 383  603.3003
 384  442.8043
 385  309.18
 386  333.7911
 387  300.7372
 388  401.2651
 389  442.3727
 390  571.2886
 391  522.8109
 392  484.5712
 393  467.9797
 394  359.8298
 395  488.2863
 396  576.3788
 397  486.4811
 398  448.1946
 399  425.3442
 400  341.6252
 401  465.1051
 402  436.192
 403  352.7615
 404  416.5063
 405  477.9117
 406  445.9519
 407  391.7088
 408  287.2318
 409  305.4414
 410  365.5132
 411  462.8366
 412  473.2231
 413  417.8661
 414  280.4553
 415  365.4512
 416  509.1613
 417  438.1516
 418  387.6057
 419  354.5242
 420  367.3593
 421  377.1561
 422  412.178
 423  441.7859
 424  318.0157
 425  244.6371
 426  393.4422
 427  498.6247
 428  378.3763
 429  321.52
 430  293.1142
 431  453.9977
 432  456.9477
 433  405.5665
 434  378.3464
 435  298.1409
 436  422.5947
 437  430.0319
 438  399.592
 439  448.5695
 440  428.9583
 441  559.8323
 442  388.5723
 443  339.3438
 444  427.4699
 445  505.1779
 446  623.2401
 447  465.8141
 448  471.2321
 449  488.9109
 450  389.6679
 451  412.0849
 452  440.2017
 453  414.5609
 454  340.8338
 455  318.0396
 456  372.0641
 457  457.5538
 458  498.9385
 459  480.7152
 460  399.3224
 461  336.0323
 462  342.8649
 463  362.0638
 464  361.712
 465  325.3031
 466  393.5193
 467  454.3055
 468  302.7548
 469  381.9018
 470  359.2634
 471  379.8376
 472  307.1969
 473  340.377
 474  399.0567
 475  413.1302
 476  444.5443
 477  396.9246
 478  401.2568
 479  395.3738
 480  369.3364
 481  360.7204
 482  484.4192
 483  534.3804
 484  488.5267
 485  466.5489
 486  423.2187
 487  346.8665
 488  318.9798
 489  346.6758
 490  354.6235
 491  421.6967
 492  459.4781
 493  561.5281
 494  315.0145
 495  328.2094
 496  474.7512
 497  289.3852
 498  444.4152
 499  570.3226
 500  511.0103
 501  416.7436
 502  457.7527
 503  487.8552
 504  467.393
 505  394.395
 506  414.7496
 507  507.1548
 508  502.5027
 509  648.4198
 510  643.6487
 511  686.3293
