# Input file       =  1197842978.102469_cleaned.dat
# Candidate        =  PSR_0332+5434
# Telescope        =  AR
# Epoch_topo       =  58107.923149334129
# Epoch_bary       =  N/A
# T_sample         =  0.002
# Data Folded      =  7340032
# Data Avg         =  0.0245042778258481
# Data StdDev      =  1.00009094668629 
# Profile Bins     =  512
# Profile Avg      =  351.374909482249 
# Profile StdDev   =  119.743925699664 
# Reduced chi-sqr  =  0.744
# Prob(Noise)      <  1   (~0.0 sigma)
# P_topo (ms)      =  714.546062042673  +/- 0.000184
# P'_topo (s/s)    =  -0                +/- 9.72e-11
# P''_topo (s/s^2) =  0                 +/- 4.29e-14
# P_bary (ms)      =  N/A
# P'_bary (s/s)    =  N/A
# P''_bary (s/s^2) =  N/A
# P_orb (s)        =  N/A
# asin(i)/c (s)    =  N/A
# eccentricity     =  N/A
# w (rad)          =  N/A
# T_peri           =  N/A
######################################################
   0  585.6913
   1  632.0169
   2  599.6515
   3  526.8943
   4  470.3039
   5  348.2658
   6  316.7577
   7  375.5748
   8  352.3765
   9  215.2181
  10  320.834
  11  369.4735
  12  277.3667
  13  444.992
  14  401.5985
  15  356.5796
  16  376.3883
  17  483.6918
  18  387.5794
  19  292.4009
  20  300.0253
  21  288.9219
  22  169.2971
  23  293.4258
  24  450.7685
  25  427.8518
  26  321.2781
  27  357.819
  28  273.5335
  29  273.4154
  30  390.152
  31  376.3048
  32  457.6584
  33  411.0966
  34  363.5865
  35  383.0041
  36  419.4084
  37  442.2216
  38  517.8583
  39  403.9462
  40  309.1082
  41  359.4762
  42  275.9423
  43  350.1612
  44  326.7406
  45  324.7576
  46  328.1602
  47  364.6162
  48  326.1901
  49  282.0815
  50  352.2994
  51  370.7759
  52  438.9162
  53  469.0276
  54  561.5189
  55  484.6891
  56  400.8336
  57  533.5109
  58  424.1256
  59  300.8341
  60  301.0617
  61  331.4691
  62  468.315
  63  533.3994
  64  422.1406
  65  448.2953
  66  448.3828
  67  450.0771
  68  396.4523
  69  338.2565
  70  354.98
  71  413.5856
  72  482.6564
  73  386.0619
  74  354.2163
  75  325.1063
  76  293.5302
  77  390.9432
  78  440.5016
  79  404.8385
  80  485.7951
  81  462.8805
  82  365.1237
  83  306.6968
  84  253.9196
  85  247.7091
  86  299.1022
  87  331.9873
  88  328.562
  89  182.7297
  90  361.2748
  91  438.7778
  92  374.6071
  93  431.8176
  94  396.6629
  95  319.3528
  96  388.4713
  97  533.0714
  98  480.8831
  99  364.757
 100  386.3921
 101  332.3891
 102  342.4079
 103  315.3636
 104  425.2115
 105  367.6797
 106  452.96
 107  508.2741
 108  433.8779
 109  340.6383
 110  289.8441
 111  376.5723
 112  440.7691
 113  452.076
 114  453.5804
 115  388.1475
 116  292.5793
 117  291.9613
 118  329.4474
 119  338.7259
 120  298.375
 121  152.0654
 122  179.3753
 123  289.6603
 124  342.074
 125  315.1886
 126  439.2004
 127  333.3171
 128  346.8552
 129  313.2505
 130  380.5216
 131  324.3722
 132  166.2827
 133  254.4261
 134  306.8696
 135  361.5667
 136  298.5936
 137  369.8159
 138  360.6421
 139  319.397
 140  347.1382
 141  384.4693
 142  351.3919
 143  352.0873
 144  377.318
 145  426.5965
 146  436.7467
 147  422.3611
 148  336.4583
 149  306.5085
 150  335.6907
 151  337.3374
 152  249.2413
 153  336.4435
 154  431.4369
 155  344.9551
 156  343.3229
 157  341.1324
 158  335.1665
 159  351.6035
 160  295.118
 161  301.8295
 162  356.7282
 163  292.2319
 164  268.3283
 165  234.7481
 166  242.8499
 167  292.3035
 168  242.5161
 169  236.7984
 170  303.8747
 171  329.7656
 172  381.7995
 173  340.236
 174  304.0488
 175  330.9107
 176  319.2166
 177  358.5461
 178  319.5072
 179  273.0181
 180  298.1203
 181  401.5818
 182  320.383
 183  342.8466
 184  364.3204
 185  308.2818
 186  252.6888
 187  273.0115
 188  296.247
 189  282.0121
 190  332.4083
 191  396.9226
 192  173.2571
 193  190.4213
 194  253.8533
 195  243.1712
 196  232.3741
 197  317.2032
 198  277.7068
 199  127.3612
 200  133.267
 201  236.4018
 202  256.0863
 203  278.9828
 204  431.3333
 205  470.4825
 206  466.1578
 207  287.1781
 208  402.9389
 209  363.6541
 210  275.4653
 211  318.9202
 212  330.6211
 213  476.1078
 214  444.4802
 215  438.7274
 216  426.6933
 217  434.5784
 218  418.6031
 219  425.1981
 220  437.8291
 221  312.3024
 222  249.3715
 223  233.3763
 224  284.5335
 225  334.2375
 226  296.3114
 227  269.1699
 228  330.8951
 229  404.8701
 230  410.5433
 231  311.8127
 232  220.0925
 233  222.6392
 234  345.9221
 235  342.3247
 236  347.9079
 237  405.9676
 238  337.6007
 239  367.3038
 240  275.1661
 241  331.7018
 242  373.6483
 243  310.0893
 244  362.9085
 245  401.2608
 246  244.3622
 247  325.6033
 248  463.5873
 249  358.7572
 250  336.604
 251  378.2498
 252  370.0568
 253  371.8428
 254  331.4014
 255  346.0789
 256  379.1629
 257  392.8398
 258  352.4533
 259  391.3064
 260  394.4322
 261  310.5028
 262  355.5817
 263  435.1752
 264  447.2087
 265  366.2531
 266  474.8877
 267  490.7417
 268  346.2845
 269  375.3457
 270  331.7384
 271  332.2255
 272  380.4176
 273  364.8011
 274  270.0307
 275  289.8411
 276  342.8505
 277  448.1338
 278  436.5646
 279  359.5491
 280  342.0369
 281  351.1981
 282  366.4944
 283  485.0242
 284  363.0048
 285  371.0652
 286  419.3798
 287  433.7483
 288  430.1492
 289  339.4396
 290  300.0822
 291  355.0648
 292  278.6438
 293  299.6627
 294  295.7661
 295  300.1423
 296  373.1602
 297  323.5589
 298  263.3453
 299  314.0284
 300  334.137
 301  279.7945
 302  273.0729
 303  310.8958
 304  275.5368
 305  466.3607
 306  474.3156
 307  346.3613
 308  364.8864
 309  359.2156
 310  345.827
 311  312.3224
 312  315.0317
 313  270.7381
 314  242.647
 315  394.0113
 316  395.0993
 317  326.4298
 318  350.0951
 319  298.9351
 320  372.4193
 321  413.6578
 322  281.4214
 323  235.178
 324  190.3553
 325  164.8054
 326  274.8499
 327  317.3214
 328  306.2631
 329  347.3378
 330  419.6922
 331  417.9088
 332  260.8155
 333  309.7131
 334  324.8574
 335  300.084
 336  206.1172
 337  201.6422
 338  306.1462
 339  321.3898
 340  387.7617
 341  471.2229
 342  367.6297
 343  281.5076
 344  359.026
 345  469.8659
 346  434.5042
 347  361.8811
 348  372.8232
 349  253.8447
 350  304.8965
 351  447.1595
 352  348.3441
 353  268.9068
 354  264.2231
 355  269.7613
 356  325.6069
 357  266.4961
 358  238.2784
 359  295.8818
 360  209.0081
 361  351.1118
 362  348.5809
 363  459.3161
 364  433.4485
 365  368.2493
 366  388.0656
 367  442.4858
 368  430.2878
 369  340.5789
 370  367.046
 371  462.5855
 372  346.0035
 373  351.4304
 374  309.5827
 375  300.4085
 376  359.8405
 377  381.0839
 378  452.609
 379  446.2278
 380  340.1797
 381  315.1581
 382  350.5977
 383  346.3937
 384  394.3578
 385  393.6318
 386  438.6633
 387  390.8872
 388  424.6006
 389  416.0866
 390  437.5522
 391  497.0428
 392  344.2156
 393  296.1587
 394  375.8102
 395  340.0256
 396  408.3743
 397  406.4514
 398  328.0544
 399  333.5994
 400  353.5984
 401  365.1971
 402  319.9396
 403  298.4218
 404  350.4548
 405  314.8814
 406  282.1621
 407  436.904
 408  430.864
 409  450.4261
 410  480.4338
 411  362.8842
 412  346.196
 413  354.7935
 414  392.7298
 415  343.2592
 416  283.936
 417  199.5576
 418  213.8173
 419  386.4917
 420  323.5519
 421  318.1629
 422  384.3016
 423  419.7082
 424  360.5682
 425  293.8356
 426  306.2839
 427  444
 428  388.2842
 429  438.4965
 430  422.6353
 431  322.1667
 432  282.1403
 433  284.7895
 434  354.0945
 435  341.0801
 436  326.1832
 437  303.5788
 438  330.935
 439  315.202
 440  285.8615
 441  345.1678
 442  337.1412
 443  236.0904
 444  219.3815
 445  260.3173
 446  352.2162
 447  367.2355
 448  338.6627
 449  387.7883
 450  300.068
 451  317.9207
 452  280.265
 453  271.4447
 454  344.0002
 455  346.228
 456  393.8907
 457  368.9678
 458  365.0119
 459  337.0539
 460  255.9215
 461  216.3356
 462  270.8633
 463  213.5405
 464  220.9972
 465  264.3978
 466  450.4614
 467  396.2425
 468  311.9663
 469  287.772
 470  323.5486
 471  328.8753
 472  431.3235
 473  409.3976
 474  339.4915
 475  411.7713
 476  372.5678
 477  375.8235
 478  427.4479
 479  485.4185
 480  378.1935
 481  420.9576
 482  416.3354
 483  308.3966
 484  400.2081
 485  386.3593
 486  326.5254
 487  410.7878
 488  469.0189
 489  441.5226
 490  385.8588
 491  349.324
 492  300.9449
 493  329.6386
 494  386.94
 495  417.8148
 496  390.2556
 497  262.766
 498  329.8375
 499  344.1637
 500  283.2846
 501  339.9977
 502  308.1635
 503  275.3316
 504  177.8897
 505  262.914
 506  351.766
 507  404.792
 508  354.8005
 509  513.3503
 510  450.9235
 511  546.2886
