# Input file       =  1197741965.100548_cleaned.dat
# Candidate        =  PSR_0332+5434
# Telescope        =  AR
# Epoch_topo       =  58106.754017367457
# Epoch_bary       =  N/A
# T_sample         =  0.002
# Data Folded      =  7340032
# Data Avg         =  0.0286191013555688
# Data StdDev      =  0.999991716920318
# Profile Bins     =  512
# Profile Avg      =  410.282039918333 
# Profile StdDev   =  119.732044618485 
# Reduced chi-sqr  =  0.845
# Prob(Noise)      <  0.995   (~0.0 sigma)
# P_topo (ms)      =  714.544606042028  +/- 0.000393
# P'_topo (s/s)    =  -0                +/- 2.07e-10
# P''_topo (s/s^2) =  0                 +/- 9.15e-14
# P_bary (ms)      =  N/A
# P'_bary (s/s)    =  N/A
# P''_bary (s/s^2) =  N/A
# P_orb (s)        =  N/A
# asin(i)/c (s)    =  N/A
# eccentricity     =  N/A
# w (rad)          =  N/A
# T_peri           =  N/A
######################################################
   0  919.5186
   1  807.1919
   2  585.0627
   3  490.4132
   4  464.5707
   5  420.2449
   6  471.9265
   7  633.3029
   8  525.7361
   9  509.8543
  10  406.8326
  11  409.1702
  12  412.0074
  13  442.4036
  14  479.2939
  15  578.0154
  16  529.6525
  17  406.124
  18  317.3282
  19  327.498
  20  409.8014
  21  437.9435
  22  536.8557
  23  444.7492
  24  423.5719
  25  323.2884
  26  293.9954
  27  389.288
  28  505.9429
  29  462.0846
  30  551.7368
  31  593.4964
  32  454.9915
  33  452.9031
  34  469.3336
  35  351.321
  36  324.3217
  37  235.6078
  38  326.1048
  39  345.9145
  40  384.4772
  41  358.9714
  42  358.2544
  43  363.5033
  44  417.2315
  45  334.6819
  46  405.2754
  47  343.6554
  48  483.4808
  49  552.6282
  50  554.7731
  51  517.8366
  52  494.093
  53  381.108
  54  359.9047
  55  531.627
  56  567.7629
  57  491.1367
  58  478.5138
  59  463.8472
  60  460.1816
  61  453.7295
  62  377.1754
  63  374.5633
  64  529.8506
  65  524.1194
  66  408.487
  67  425.7291
  68  403.1031
  69  352.5295
  70  439.8783
  71  448.8669
  72  456.4666
  73  465.5345
  74  471.6558
  75  447.1661
  76  369.3724
  77  425.2362
  78  334.383
  79  353.5549
  80  494.0163
  81  477.1374
  82  368.8186
  83  414.7473
  84  413.3239
  85  441.9817
  86  420.8471
  87  442.7018
  88  422.0264
  89  475.2448
  90  428.8782
  91  292.1065
  92  315.0875
  93  379.8662
  94  405.7794
  95  406.5428
  96  362.4585
  97  344.8757
  98  397.2895
  99  465.1959
 100  335.043
 101  304.7983
 102  361.1813
 103  395.8495
 104  322.2438
 105  385.5477
 106  401.326
 107  417.0911
 108  330.665
 109  292.6635
 110  395.0364
 111  470.5675
 112  411.3868
 113  378.6565
 114  489.6154
 115  427.7125
 116  381.5871
 117  277.2349
 118  347.946
 119  350.2222
 120  371.1102
 121  389.0865
 122  283.0764
 123  427.0223
 124  423.8413
 125  458.7816
 126  506.5269
 127  462.0809
 128  377.3676
 129  320.5557
 130  360.2473
 131  478.455
 132  546.9804
 133  487.7874
 134  454.8058
 135  362.3532
 136  307.8396
 137  336.247
 138  406.8384
 139  476.2455
 140  414.3821
 141  382.4948
 142  281.8616
 143  277.8406
 144  342.9466
 145  414.0628
 146  401.5708
 147  446.3841
 148  456.2513
 149  307.6415
 150  382.3578
 151  494.0948
 152  426.9239
 153  347.4753
 154  332.7335
 155  344.2534
 156  406.5914
 157  540.073
 158  341.4561
 159  354.0027
 160  357.0273
 161  366.6956
 162  281.0193
 163  364.3622
 164  465.476
 165  441.0552
 166  520.687
 167  524.9367
 168  362.3318
 169  371.0594
 170  376.3479
 171  445.8832
 172  481.8362
 173  416.1258
 174  315.0186
 175  496.326
 176  475.0525
 177  425.1758
 178  458.3161
 179  544.532
 180  523.4876
 181  472.6645
 182  425.7921
 183  408.9756
 184  442.3634
 185  395.7022
 186  418.665
 187  410.1286
 188  514.7863
 189  507.8272
 190  263.5174
 191  371.2312
 192  360.7126
 193  354.2728
 194  441.0111
 195  464.1435
 196  442.4261
 197  386.6794
 198  517.3113
 199  399.3232
 200  355.7852
 201  438.5793
 202  515.7866
 203  445.7599
 204  400.2232
 205  492.5427
 206  414.0018
 207  502.8487
 208  513.1313
 209  429.4998
 210  391.2791
 211  375.9873
 212  488.6584
 213  504.0749
 214  357.973
 215  417.9238
 216  363.528
 217  490.4876
 218  470.4074
 219  424.7181
 220  328.8623
 221  509.592
 222  502.5861
 223  485.8542
 224  437.9251
 225  348.3175
 226  361.1393
 227  401.8211
 228  407.5519
 229  376.4085
 230  402.2897
 231  453.0782
 232  436.7231
 233  466.7205
 234  542.5927
 235  392.6855
 236  481.2302
 237  454.0043
 238  393.2878
 239  402.7084
 240  470.8659
 241  519.4667
 242  433.4391
 243  307.7754
 244  287.9439
 245  399.3774
 246  462.2646
 247  407.0474
 248  354.6592
 249  401.948
 250  379.402
 251  395.1776
 252  402.4786
 253  252.1994
 254  223.9691
 255  197.8951
 256  280.6859
 257  203.6557
 258  305.144
 259  382.8708
 260  369.2979
 261  435.2022
 262  384.4435
 263  368.8446
 264  443.2179
 265  262.3223
 266  249.8429
 267  283.0467
 268  277.4085
 269  340.715
 270  453.5691
 271  446.9493
 272  418.0078
 273  576.2281
 274  427.6082
 275  285.098
 276  342.7002
 277  392.8105
 278  364.7681
 279  461.0997
 280  559.0714
 281  497.3131
 282  383.4622
 283  413.8102
 284  337.9141
 285  383.9228
 286  404.3832
 287  431.2352
 288  426.925
 289  434.4107
 290  402.5752
 291  387.3187
 292  389.8803
 293  370.453
 294  425.3684
 295  468.782
 296  457.0397
 297  472.9175
 298  506.9051
 299  440.6981
 300  461.625
 301  479.6463
 302  464.6789
 303  451.5341
 304  389.3831
 305  403.7805
 306  282.5731
 307  379.6171
 308  470.4131
 309  366.7727
 310  332.532
 311  379.2372
 312  389.8878
 313  414.3532
 314  430.8343
 315  395.3261
 316  444.0378
 317  450.4101
 318  428.3611
 319  512.9653
 320  402.846
 321  399.4896
 322  353.212
 323  455.0301
 324  578.6767
 325  463.9486
 326  299.1895
 327  361.3532
 328  437.1642
 329  423.7689
 330  479.0666
 331  383.3908
 332  354.433
 333  354.215
 334  360.8048
 335  462.5139
 336  342.7541
 337  302.3669
 338  458.3564
 339  416.2401
 340  416.5901
 341  451.9359
 342  359.5033
 343  400.0708
 344  526.8572
 345  439.7426
 346  453.5594
 347  383.5887
 348  407.8179
 349  436.0902
 350  489.8055
 351  582.6736
 352  491.5638
 353  377.8965
 354  357.888
 355  359.4853
 356  392.1812
 357  408.2061
 358  453.6324
 359  476.2431
 360  394.3575
 361  356.0594
 362  284.7134
 363  414.9258
 364  447.8434
 365  401.769
 366  409.8423
 367  357.6944
 368  318.4224
 369  237.9178
 370  317.7108
 371  394.7437
 372  276.4404
 373  261.2627
 374  394.4828
 375  453.5189
 376  266.3806
 377  304.2617
 378  397.1821
 379  506.2205
 380  413.2586
 381  421.777
 382  452.4982
 383  304.4417
 384  354.3651
 385  403.5082
 386  380.7503
 387  421.494
 388  532.4018
 389  419.6995
 390  286.2909
 391  365.6566
 392  334.4239
 393  337.1003
 394  257.2964
 395  359.1337
 396  365.6856
 397  478.9728
 398  542.489
 399  331.9854
 400  440.4463
 401  316.6985
 402  351.2119
 403  302.1828
 404  249.6404
 405  343.301
 406  307.3628
 407  373.742
 408  371.3202
 409  360.7073
 410  286.6933
 411  302.2362
 412  380.0233
 413  440.528
 414  497.2532
 415  431.5625
 416  325.5714
 417  387.9915
 418  431.2404
 419  408.8838
 420  520.2187
 421  426.349
 422  407.0228
 423  404.3606
 424  498.6295
 425  458.6433
 426  496.5005
 427  501.4879
 428  461.8051
 429  486.0576
 430  463.7743
 431  455.662
 432  435.0719
 433  408.2726
 434  430.0854
 435  360.4296
 436  270.4994
 437  346.5152
 438  433.5679
 439  429.7044
 440  372.4044
 441  346.1501
 442  421.0987
 443  404.9545
 444  406.2964
 445  418.2648
 446  444.38
 447  450.932
 448  571.8146
 449  437.3185
 450  333.6806
 451  321.5934
 452  348.4188
 453  307.0161
 454  430.0657
 455  374.4331
 456  447.0197
 457  482.7795
 458  397.7071
 459  294.9945
 460  403.1476
 461  444.0845
 462  363.0756
 463  376.2412
 464  423.4825
 465  447.8748
 466  355.8407
 467  420.8665
 468  426.579
 469  297.3695
 470  357.0868
 471  367.6793
 472  305.7326
 473  378.6525
 474  353.5351
 475  314.3413
 476  414.7038
 477  431.7697
 478  324.5117
 479  319.7058
 480  473.5758
 481  421.1601
 482  416.7266
 483  401.4343
 484  345.5702
 485  349.1778
 486  380.5876
 487  301.3513
 488  370.6834
 489  393.0241
 490  364.0687
 491  189.4981
 492  339.0281
 493  397.2288
 494  388.9568
 495  372.6724
 496  352.6398
 497  367.1247
 498  359.0864
 499  317.5833
 500  494.9189
 501  432.7873
 502  433.741
 503  376.795
 504  363.3887
 505  440.8505
 506  516.7294
 507  540.8884
 508  514.4954
 509  583.7211
 510  700.9167
 511  735.6519
