# Input file       =  1197655838.099764_cleaned.dat
# Candidate        =  PSR_0332+5434
# Telescope        =  AR
# Epoch_topo       =  58105.757177080603
# Epoch_bary       =  N/A
# T_sample         =  0.002
# Data Folded      =  7340032
# Data Avg         =  0.0337840936642743
# Data StdDev      =  1.00011302184235 
# Profile Bins     =  512
# Profile Avg      =  484.681842818446 
# Profile StdDev   =  119.746568825127 
# Reduced chi-sqr  =  0.864
# Prob(Noise)      <  0.988   (~0.0 sigma)
# P_topo (ms)      =  714.543639494731  +/- 0.00015
# P'_topo (s/s)    =  -0                +/- 7.91e-11
# P''_topo (s/s^2) =  0                 +/- 3.49e-14
# P_bary (ms)      =  N/A
# P'_bary (s/s)    =  N/A
# P''_bary (s/s^2) =  N/A
# P_orb (s)        =  N/A
# asin(i)/c (s)    =  N/A
# eccentricity     =  N/A
# w (rad)          =  N/A
# T_peri           =  N/A
######################################################
   0  830.8168
   1  768.9857
   2  735.093
   3  637.4785
   4  561.4313
   5  571.821
   6  475.6815
   7  547.7834
   8  552.2464
   9  629.7164
  10  562.8708
  11  559.7863
  12  488.3484
  13  610.2963
  14  510.5927
  15  343.2812
  16  477.1432
  17  456.8116
  18  458.3342
  19  563.9868
  20  464.8207
  21  521.8269
  22  547.3958
  23  544.0201
  24  549.9341
  25  550.6332
  26  572.4672
  27  538.1663
  28  478.4306
  29  459.3702
  30  497.6489
  31  501.5895
  32  549.0749
  33  439.5974
  34  494.3078
  35  450.6219
  36  393.5017
  37  475.3624
  38  563.9619
  39  490.0694
  40  479.0944
  41  513.062
  42  470.4483
  43  376.1673
  44  493.768
  45  501.9884
  46  417.2453
  47  331.2806
  48  421.3549
  49  434.5041
  50  535.2809
  51  514.1743
  52  545.7458
  53  647.5972
  54  526.5411
  55  313.3412
  56  271.8682
  57  314.7044
  58  481.983
  59  468.9213
  60  486.5861
  61  411.1136
  62  327.4904
  63  462.3782
  64  540.3198
  65  622.2546
  66  586.1434
  67  458.9958
  68  423.4233
  69  301.1458
  70  303.092
  71  424.5112
  72  459.2685
  73  519.4959
  74  528.6433
  75  527.1764
  76  557.5557
  77  433.2393
  78  494.4509
  79  441.0241
  80  460.8312
  81  423.3328
  82  430.4676
  83  415.9806
  84  370.0872
  85  464.8111
  86  509.9639
  87  402.3357
  88  431.0448
  89  381.0949
  90  480.7783
  91  457.3321
  92  448.1483
  93  495.1058
  94  454.8439
  95  458.1766
  96  445.0425
  97  328.4579
  98  345.2288
  99  545.3856
 100  515.7282
 101  531.7827
 102  513.1573
 103  475.4596
 104  446.819
 105  360.2426
 106  389.6813
 107  405.0951
 108  424.4307
 109  490.2681
 110  436.7547
 111  486.5176
 112  526.3996
 113  471.1271
 114  588.6894
 115  568.4589
 116  395.2079
 117  479.918
 118  476.0574
 119  426.4398
 120  441.4146
 121  533.8954
 122  409.0419
 123  312.1944
 124  424.1763
 125  499.2502
 126  482.5604
 127  400.5847
 128  480.6304
 129  440.145
 130  449.4781
 131  399.087
 132  378.2809
 133  494.666
 134  649.3508
 135  583.6216
 136  547.6001
 137  441.8671
 138  511.2475
 139  498.2614
 140  507.2922
 141  471.8212
 142  392.7879
 143  445.9715
 144  487.4465
 145  475.4648
 146  490.2637
 147  443.1141
 148  599.8237
 149  543.878
 150  476.1921
 151  433.5298
 152  465.5135
 153  548.239
 154  475.8508
 155  412.4937
 156  577.8562
 157  518.5346
 158  468.5238
 159  605.254
 160  587.4344
 161  659.0627
 162  542.415
 163  510.7827
 164  611.7694
 165  727.4231
 166  616.9169
 167  501.7226
 168  550.965
 169  534.3187
 170  527.4851
 171  439.1028
 172  499.7352
 173  405.6647
 174  543.4881
 175  623.8428
 176  619.4597
 177  531.4163
 178  455.8684
 179  358.3528
 180  360.0501
 181  459.2202
 182  506.3462
 183  485.4853
 184  440.6734
 185  369.9187
 186  533.936
 187  555.7383
 188  495.9969
 189  546.8184
 190  411.0628
 191  426.149
 192  502.2077
 193  514.8422
 194  430.5278
 195  439.4858
 196  428.9957
 197  345.6603
 198  498.6172
 199  542.6763
 200  470.3073
 201  519.9127
 202  571.3601
 203  619.942
 204  463.9132
 205  433.1474
 206  468.4587
 207  504.935
 208  562.3993
 209  533.8586
 210  561.9808
 211  565.3421
 212  509.9444
 213  586.3634
 214  637.046
 215  564.3338
 216  656.7017
 217  587.9009
 218  501.9012
 219  508.2579
 220  554.0803
 221  528.3092
 222  540.0483
 223  634.8077
 224  605.8082
 225  548.8865
 226  492.4515
 227  532.8419
 228  562.3492
 229  575.5444
 230  661.838
 231  567.7866
 232  519.146
 233  462.4096
 234  472.3084
 235  585.7462
 236  587.3407
 237  478.5294
 238  518.1679
 239  527.1281
 240  592.3727
 241  686.1434
 242  654.5109
 243  513.3699
 244  515.1161
 245  459.8311
 246  516.7284
 247  465.2765
 248  481.3789
 249  575.4583
 250  491.8095
 251  509.4808
 252  593.4103
 253  614.6437
 254  529.8292
 255  517.2059
 256  543.769
 257  543.0977
 258  502.5879
 259  476.94
 260  515.6689
 261  357.9865
 262  484.2157
 263  605.3703
 264  564.9309
 265  477.8195
 266  470.5806
 267  600.5673
 268  509.534
 269  427.3679
 270  365.3049
 271  451.2766
 272  476.24
 273  524.7684
 274  497.709
 275  540.8201
 276  479.0833
 277  442.8203
 278  506.2148
 279  509.1129
 280  646.282
 281  487.8796
 282  427.3759
 283  394.5203
 284  317.2657
 285  407.1822
 286  495.8041
 287  533.7078
 288  560.3896
 289  612.5737
 290  580.5135
 291  518.0079
 292  467.4495
 293  477.8907
 294  499.626
 295  492.3288
 296  528.3064
 297  522.4545
 298  484.0329
 299  409.8472
 300  401.2082
 301  496.6833
 302  553.1846
 303  582.5466
 304  516.9179
 305  503.0616
 306  567.6875
 307  546.4111
 308  595.9927
 309  501.4798
 310  539.7371
 311  433.9394
 312  404.1497
 313  464.8277
 314  457.7108
 315  440.2452
 316  334.5818
 317  408.7138
 318  455.5568
 319  412.1931
 320  364.4647
 321  483.2096
 322  460.1218
 323  466.8628
 324  423.2634
 325  495.3345
 326  453.256
 327  594.6346
 328  607.3201
 329  471.006
 330  479.4974
 331  524.3721
 332  530.9258
 333  548.9832
 334  509.6515
 335  408.4754
 336  364.9796
 337  539.204
 338  537.3331
 339  487.3918
 340  466.9368
 341  442.0706
 342  391.0336
 343  584.431
 344  599.6173
 345  502.8658
 346  428.1954
 347  519.4622
 348  378.3735
 349  342.9894
 350  458.2844
 351  518.5415
 352  396.6326
 353  505.6387
 354  558.3378
 355  445.3571
 356  375.8068
 357  430.9541
 358  357.7254
 359  462.0179
 360  567.2339
 361  579.9224
 362  521.7394
 363  462.3477
 364  446.4734
 365  542.8881
 366  390.6836
 367  455.703
 368  532.4604
 369  477.4466
 370  436.2321
 371  430.2636
 372  496.6699
 373  506.4855
 374  478.4667
 375  469.7921
 376  448.1045
 377  475.2203
 378  474.1952
 379  348.217
 380  334.2767
 381  385.7133
 382  502.5995
 383  499.0968
 384  401.9735
 385  494.594
 386  552.5653
 387  473.4476
 388  496.7751
 389  578.2084
 390  565.3769
 391  473.2492
 392  403.2014
 393  468.9716
 394  423.447
 395  430.8761
 396  552.5598
 397  603.5474
 398  537.9817
 399  373.7291
 400  330.0534
 401  389.652
 402  407.9792
 403  589.0878
 404  622.8082
 405  459.2142
 406  348.9444
 407  403.485
 408  517.8693
 409  458.3227
 410  376.2547
 411  453.7797
 412  432.5501
 413  335.8206
 414  385.8869
 415  525.7042
 416  530.8839
 417  495.6049
 418  481.5514
 419  395.8023
 420  429.4348
 421  359.4648
 422  370.5083
 423  365.2213
 424  316.4364
 425  467.3746
 426  412.2674
 427  354.468
 428  373.3911
 429  439.3692
 430  411.5848
 431  411.2173
 432  466.3449
 433  507.0427
 434  453.1585
 435  487.1405
 436  457.2277
 437  420.7677
 438  471.5165
 439  428.1118
 440  390.8979
 441  389.2389
 442  349.1483
 443  445.6622
 444  469.1545
 445  369.6276
 446  436.165
 447  546.7514
 448  486.2742
 449  447.1458
 450  449.4898
 451  463.5712
 452  425.1744
 453  407.3303
 454  464.8491
 455  432.9085
 456  547.7661
 457  465.4159
 458  376.8919
 459  410.7544
 460  519.4583
 461  529.0977
 462  390.9395
 463  366.5483
 464  415.7678
 465  456.6999
 466  430.3587
 467  429.7839
 468  444.6518
 469  437.894
 470  532.2695
 471  559.2167
 472  487.6013
 473  488.8964
 474  494.5414
 475  470.8979
 476  483.86
 477  552.0759
 478  512.6049
 479  431.3412
 480  480.7962
 481  397.9572
 482  382.9807
 483  407.9618
 484  419.6041
 485  378.2606
 486  337.3174
 487  326.9498
 488  431.6117
 489  476.8869
 490  380.3667
 491  425.4818
 492  440.8406
 493  395.6389
 494  478.4329
 495  507.2891
 496  540.042
 497  525.5731
 498  551.5734
 499  583.1935
 500  387.7308
 501  359.7912
 502  366.5014
 503  444.9657
 504  449.0425
 505  478.573
 506  649.3878
 507  604.3786
 508  595.4315
 509  705.8082
 510  734.3426
 511  789.7077
