# Input file       =  1197828070.101624_cleaned.dat
# Candidate        =  PSR_0332+5434
# Telescope        =  AR
# Epoch_topo       =  58107.750603028057
# Epoch_bary       =  N/A
# T_sample         =  0.002
# Data Folded      =  7340032
# Data Avg         =  0.0283694583211684
# Data StdDev      =  1.00005028123061 
# Profile Bins     =  512
# Profile Avg      =  406.735852176739 
# Profile StdDev   =  119.73905670118  
# Reduced chi-sqr  =  0.958
# Prob(Noise)      <  0.744   (~0.0 sigma)
# P_topo (ms)      =  714.545564522138  +/- 0.000228
# P'_topo (s/s)    =  -0                +/- 1.2e-10
# P''_topo (s/s^2) =  0                 +/- 5.3e-14
# P_bary (ms)      =  N/A
# P'_bary (s/s)    =  N/A
# P''_bary (s/s^2) =  N/A
# P_orb (s)        =  N/A
# asin(i)/c (s)    =  N/A
# eccentricity     =  N/A
# w (rad)          =  N/A
# T_peri           =  N/A
######################################################
   0  879.2546
   1  824.1627
   2  667.4279
   3  488.6787
   4  465.4808
   5  457.1371
   6  375.6655
   7  426.8588
   8  491.7159
   9  374.8991
  10  334.9474
  11  490.413
  12  527.0064
  13  360.9145
  14  286.5165
  15  403.5551
  16  407.8371
  17  245.7047
  18  423.8475
  19  435.3916
  20  500.2017
  21  547.3823
  22  594.7881
  23  512.3922
  24  360.8697
  25  415.2175
  26  455.6816
  27  462.7713
  28  458.5796
  29  412.8815
  30  531.1717
  31  446.0653
  32  403.6394
  33  397.9113
  34  401.3022
  35  384.4447
  36  472.2796
  37  434.3538
  38  424.0953
  39  445.8173
  40  430.8173
  41  339.3878
  42  348.7736
  43  372.1163
  44  354.2297
  45  377.6989
  46  512.1216
  47  520.8153
  48  501.1426
  49  460.1847
  50  454.8414
  51  387.4364
  52  434.4454
  53  449.142
  54  360.0795
  55  388.212
  56  326.1155
  57  396.1327
  58  520.264
  59  423.6868
  60  405.9266
  61  517.1864
  62  540.1068
  63  404.6838
  64  420.4825
  65  473.6393
  66  390.2042
  67  440.3307
  68  458.4856
  69  450.8439
  70  365.2532
  71  344.7722
  72  247.0352
  73  206.7906
  74  233.4168
  75  280.9701
  76  460.2104
  77  399.707
  78  306.1745
  79  278.6627
  80  324.0505
  81  366.7498
  82  456.1115
  83  512.2338
  84  464.0648
  85  481.9156
  86  439.1975
  87  355.0033
  88  388.9714
  89  447.1273
  90  474.0084
  91  549.1288
  92  507.2806
  93  558.2012
  94  566.4608
  95  482.1358
  96  420.0554
  97  443.8243
  98  479.4128
  99  496.3764
 100  480.2544
 101  449.442
 102  313.0239
 103  309.9342
 104  395.4636
 105  365.9659
 106  323.7091
 107  384.326
 108  409.0681
 109  326.3388
 110  349.4869
 111  281.3801
 112  291.5913
 113  439.0293
 114  400.2399
 115  376.417
 116  418.8267
 117  332.3444
 118  321.793
 119  413.3187
 120  336.7048
 121  368.8005
 122  434.821
 123  540.4257
 124  436.0822
 125  356.548
 126  362.0327
 127  383.0602
 128  328.2808
 129  367.4319
 130  350.0171
 131  505.6312
 132  367.0525
 133  375.7315
 134  437.7559
 135  411.9906
 136  488.0773
 137  431.3768
 138  597.3379
 139  446.7786
 140  381.6456
 141  431.032
 142  471.8905
 143  565.0468
 144  530.4235
 145  473.0425
 146  453.1146
 147  382.1942
 148  509.1546
 149  495.9269
 150  401.0762
 151  416.4815
 152  455.5936
 153  364.1984
 154  381.0676
 155  292.9632
 156  370.4317
 157  393.3133
 158  380.0627
 159  528.7746
 160  535.4875
 161  462.842
 162  498.947
 163  384.4024
 164  395.3453
 165  506.5968
 166  427.675
 167  560.0162
 168  524.1152
 169  506.2939
 170  510.4206
 171  475.2036
 172  406.6171
 173  394.0635
 174  356.8735
 175  364.8165
 176  365.6211
 177  439.2558
 178  519.1269
 179  500.0422
 180  469.2122
 181  335.0675
 182  354.327
 183  328.1405
 184  365.1352
 185  336.5966
 186  320.8149
 187  422.5331
 188  407.8124
 189  386.4774
 190  338.998
 191  264.4096
 192  297.4358
 193  455.8017
 194  392.5564
 195  368.1439
 196  449.515
 197  466.0395
 198  328.8177
 199  421.0512
 200  467.904
 201  375.6844
 202  320.6401
 203  423.6294
 204  502.7342
 205  398.2334
 206  418.6621
 207  366.2116
 208  286.3029
 209  324.8755
 210  359.511
 211  378.0533
 212  372.4338
 213  399.3764
 214  463.1241
 215  489.7861
 216  482.2003
 217  319.5278
 218  316.9762
 219  376.1908
 220  332.8971
 221  329.2376
 222  278.4475
 223  364.9591
 224  416.1164
 225  389.3683
 226  229.3746
 227  248.1798
 228  395.024
 229  492.0255
 230  535.3453
 231  468.6712
 232  364.8443
 233  369.7007
 234  429.2104
 235  456.681
 236  450.3615
 237  473.9375
 238  396.2045
 239  352.8525
 240  414.1537
 241  452.7936
 242  421.6682
 243  395.7587
 244  380.139
 245  392.3669
 246  361.1224
 247  382.8962
 248  355.8674
 249  349.6314
 250  323.0894
 251  340.1949
 252  509.1052
 253  492.7768
 254  357.743
 255  436.7755
 256  312.8558
 257  256.1347
 258  346.0583
 259  488.6422
 260  438.4683
 261  420.15
 262  417.006
 263  431.5277
 264  434.4037
 265  458.622
 266  415.5392
 267  383.6205
 268  342.0768
 269  299.4322
 270  307.4394
 271  382.2069
 272  289.2215
 273  224.8929
 274  352.4886
 275  322.945
 276  185.4228
 277  282.5464
 278  347.8145
 279  304.0688
 280  378.1646
 281  325.0941
 282  366.491
 283  333.2352
 284  436.5557
 285  410.6902
 286  366.5294
 287  413.9165
 288  504.8815
 289  459.6643
 290  359.2633
 291  296.1535
 292  391.9611
 293  392.9686
 294  429.9518
 295  478.0102
 296  417.7218
 297  357.5424
 298  328.8891
 299  293.8336
 300  362.874
 301  279.744
 302  335.1942
 303  307.7108
 304  341.8837
 305  303.7917
 306  252.2777
 307  267.0402
 308  300.5881
 309  394.9936
 310  508.5821
 311  509.2547
 312  390.0442
 313  255.7839
 314  198.0876
 315  254.8563
 316  334.94
 317  333.3543
 318  523.5861
 319  359.1855
 320  356.1576
 321  424.0414
 322  406.1949
 323  341.8974
 324  409.2084
 325  475.9444
 326  420.3968
 327  356.8488
 328  333.856
 329  450.2703
 330  350.4982
 331  272.8891
 332  360.8861
 333  402.5788
 334  383.4506
 335  366.9808
 336  409.3113
 337  246.8469
 338  233.1364
 339  359.3152
 340  412.3357
 341  497.202
 342  496.0813
 343  434.3092
 344  307.8999
 345  324.9441
 346  343.4885
 347  440.1926
 348  402.9438
 349  353.9331
 350  413.6762
 351  402.3321
 352  359.0768
 353  404.636
 354  284.7676
 355  242.2245
 356  235.3726
 357  231.5381
 358  315.2903
 359  376.9976
 360  365.2201
 361  324.5572
 362  273.8017
 363  360.8868
 364  392.0308
 365  418.41
 366  501.2103
 367  465.7054
 368  409.2166
 369  360.7223
 370  376.4987
 371  481.3611
 372  398.2772
 373  406.5884
 374  416.3743
 375  385.6176
 376  408.9184
 377  301.5055
 378  434.2977
 379  482.0632
 380  574.563
 381  521.3541
 382  607.5977
 383  524.8377
 384  325.0359
 385  325.8575
 386  298.2933
 387  379.6601
 388  394.6765
 389  506.2352
 390  594.8594
 391  478.395
 392  510.587
 393  349.3653
 394  427.113
 395  572.9871
 396  542.5293
 397  439.1234
 398  433.3846
 399  387.4884
 400  390.7227
 401  478.9068
 402  368.952
 403  389.2221
 404  472.8071
 405  450.6346
 406  416.1935
 407  331.8025
 408  292.7151
 409  342.2975
 410  406.0113
 411  479.0185
 412  458.0649
 413  339.3568
 414  285.7995
 415  466.4139
 416  483.9668
 417  418.0127
 418  355.5357
 419  356.7105
 420  370.1993
 421  413.734
 422  424.6347
 423  406.5609
 424  222.6583
 425  342.5394
 426  463.1131
 427  444.5111
 428  302.9314
 429  323.1273
 430  369.289
 431  486.9601
 432  397.9303
 433  415.3138
 434  327.2298
 435  351.1631
 436  440.2669
 437  394.4677
 438  463.3761
 439  412.3566
 440  512.29
 441  484.192
 442  338.6832
 443  390.43
 444  432.9223
 445  603.0082
 446  539.3503
 447  465.0694
 448  488.3401
 449  433.7979
 450  386.3354
 451  454.7467
 452  411.5183
 453  374.4973
 454  322.2606
 455  349.9792
 456  424.6345
 457  480.1494
 458  483.3587
 459  447.9265
 460  360.3857
 461  322.5643
 462  347.1001
 463  379.0505
 464  342.6631
 465  355.4279
 466  434.602
 467  372.2608
 468  337.6458
 469  385.3398
 470  349.1282
 471  346.9418
 472  314.0923
 473  404.2532
 474  387.7521
 475  420.1631
 476  438.6292
 477  389.9988
 478  410.2627
 479  360.2814
 480  363.8605
 481  436.6808
 482  531.3566
 483  494.7237
 484  466.2208
 485  469.7108
 486  368.5841
 487  322.5296
 488  320.1225
 489  358.7778
 490  415.711
 491  409.1306
 492  536.7751
 493  435.1278
 494  285.1939
 495  449.1532
 496  364.9908
 497  330.2717
 498  550.6081
 499  563.4335
 500  418.9874
 501  437.782
 502  476.9171
 503  511.635
 504  422.9022
 505  376.3996
 506  485.1468
 507  483.3577
 508  586.2037
 509  648.29
 510  658.1529
 511  802.7975
