# Input file       =  1197756875.120159_cleaned.dat
# Candidate        =  PSR_0332+5434
# Telescope        =  AR
# Epoch_topo       =  58106.926587038877
# Epoch_bary       =  N/A
# T_sample         =  0.002
# Data Folded      =  7340032
# Data Avg         =  0.0246800184328541
# Data StdDev      =  1.00011444413096 
# Profile Bins     =  512
# Profile Avg      =  353.699501142149 
# Profile StdDev   =  119.746739120062 
# Reduced chi-sqr  =  0.867
# Prob(Noise)      <  0.986   (~0.0 sigma)
# P_topo (ms)      =  714.545105676876  +/- 0.000153
# P'_topo (s/s)    =  -0                +/- 8.07e-11
# P''_topo (s/s^2) =  0                 +/- 3.56e-14
# P_bary (ms)      =  N/A
# P'_bary (s/s)    =  N/A
# P''_bary (s/s^2) =  N/A
# P_orb (s)        =  N/A
# asin(i)/c (s)    =  N/A
# eccentricity     =  N/A
# w (rad)          =  N/A
# T_peri           =  N/A
######################################################
   0  662.4294
   1  635.4183
   2  585.8221
   3  552.9297
   4  518.9937
   5  460.133
   6  354.6427
   7  360.2119
   8  456.2876
   9  353.4836
  10  381.0481
  11  380.8726
  12  457.3215
  13  312.4235
  14  319.9865
  15  294.3035
  16  297.7473
  17  412.0335
  18  369.372
  19  386.5001
  20  336.0897
  21  308.458
  22  337.6539
  23  245.5893
  24  210.1612
  25  367.192
  26  449.7433
  27  403.739
  28  400.7202
  29  394.461
  30  368.3069
  31  333.6533
  32  398.2421
  33  356.1977
  34  311.6667
  35  387.4706
  36  309.1034
  37  342.6898
  38  293.9855
  39  289.2784
  40  393.9778
  41  388.6776
  42  308.9049
  43  264.3705
  44  282.4378
  45  225.073
  46  205.7278
  47  289.793
  48  478.6277
  49  483.1575
  50  288.2615
  51  235.5098
  52  282.5177
  53  320.2937
  54  328.3774
  55  301.9238
  56  364.7337
  57  344.4402
  58  207.1142
  59  308.2785
  60  353.8804
  61  267.929
  62  354.54
  63  258.2845
  64  222.0679
  65  162.5738
  66  270.8487
  67  301.4853
  68  219.5517
  69  237.1019
  70  291.0175
  71  241.2814
  72  211.2531
  73  328.3059
  74  280.4738
  75  195.0828
  76  271.3841
  77  351.0879
  78  471.6396
  79  391.0102
  80  281.2432
  81  269.3087
  82  381.125
  83  407.8817
  84  353.817
  85  309.2668
  86  229.2569
  87  203.9073
  88  257.9989
  89  256.9353
  90  196.3998
  91  317.7214
  92  326.7643
  93  338.2206
  94  334.7046
  95  278.7258
  96  313.507
  97  292.7998
  98  312.1017
  99  281.028
 100  322.823
 101  347.1648
 102  340.1904
 103  253.7251
 104  258.9149
 105  296.5743
 106  254.3472
 107  349.9009
 108  415.4159
 109  520.4523
 110  531.0933
 111  345.4753
 112  336.8471
 113  251.2497
 114  268.1997
 115  369.9439
 116  316.1756
 117  150.6503
 118  263.626
 119  342.6143
 120  386.2187
 121  419.9258
 122  351.3076
 123  401.1059
 124  382.6321
 125  348.8683
 126  228.623
 127  233.1572
 128  283.9579
 129  257.4683
 130  404.1742
 131  429.4507
 132  388.7232
 133  355.6551
 134  311.9179
 135  233.7
 136  238.6933
 137  282.3024
 138  351.609
 139  366.1864
 140  206.4525
 141  187.5527
 142  306.4104
 143  392.3803
 144  365.8263
 145  372.8408
 146  280.32
 147  237.505
 148  318.7804
 149  329.3754
 150  408.3351
 151  309.6338
 152  270.1809
 153  210.0942
 154  252.3598
 155  329.6002
 156  314.7562
 157  275.3727
 158  281.9052
 159  199.3306
 160  336.4252
 161  357.599
 162  393.0438
 163  368.9961
 164  412.1718
 165  400.1012
 166  416.7543
 167  380.7963
 168  347.2446
 169  404.8239
 170  318.4193
 171  262.5683
 172  306.3279
 173  338.7019
 174  366.9186
 175  455.5524
 176  403.7847
 177  471.3636
 178  518.7109
 179  389.399
 180  379.3982
 181  427.3177
 182  476.762
 183  369.3634
 184  213.0358
 185  281.5625
 186  295.3173
 187  352.0441
 188  324.2258
 189  365.2332
 190  354.1575
 191  353.0364
 192  281.5759
 193  203.9621
 194  312.7285
 195  280.2392
 196  324.9388
 197  299.3853
 198  334.9038
 199  346.4777
 200  255.3215
 201  221.8006
 202  302.1116
 203  431.8113
 204  374.5591
 205  428.887
 206  433.219
 207  490.2152
 208  474.6595
 209  340.0074
 210  445.0084
 211  279.7958
 212  167.1372
 213  282.8164
 214  414.7482
 215  363.2293
 216  342.7325
 217  318.3333
 218  266.8664
 219  250.507
 220  292.2686
 221  359.7763
 222  253.0971
 223  308.7677
 224  319.2208
 225  356.123
 226  303.5516
 227  267.2279
 228  240.2449
 229  415.0555
 230  455.397
 231  438.4081
 232  364.5675
 233  422.0092
 234  379.655
 235  289.2605
 236  447.9018
 237  394.6933
 238  371.9228
 239  334.8099
 240  411.2099
 241  414.5976
 242  430.2528
 243  383.8315
 244  293.0284
 245  164.9255
 246  341.8232
 247  451.9703
 248  451.478
 249  388.7455
 250  324.9305
 251  323.3422
 252  354.0215
 253  371.2623
 254  346.1034
 255  272.9131
 256  468.1646
 257  468.1658
 258  475.2013
 259  411.0983
 260  301.7516
 261  283.9724
 262  324.6556
 263  262.1648
 264  353.9301
 265  315.4395
 266  393.8683
 267  306.8785
 268  393.2798
 269  437.2031
 270  465.617
 271  394.5714
 272  238.798
 273  260.6122
 274  271.7355
 275  310.715
 276  437.652
 277  475.081
 278  326.3388
 279  299.0387
 280  460.8839
 281  375.4747
 282  328.3722
 283  442.0155
 284  382.0177
 285  388.9395
 286  412.4523
 287  400.8438
 288  512.1219
 289  527.3116
 290  551.0147
 291  436.5192
 292  370.305
 293  396.627
 294  274.2505
 295  397.0661
 296  513.7329
 297  512.2736
 298  413.1574
 299  439.341
 300  398.4965
 301  438.6923
 302  375.2021
 303  360.6138
 304  432.6294
 305  552.0668
 306  506.4155
 307  377.152
 308  399.2135
 309  288.6968
 310  325.2979
 311  409.5714
 312  419.0059
 313  405.4157
 314  358.0665
 315  336.0761
 316  368.0483
 317  274.4919
 318  369.2918
 319  454.9431
 320  464.4536
 321  466.1429
 322  410.0954
 323  349.6393
 324  313.5402
 325  328.2213
 326  301.187
 327  291.6104
 328  272.6603
 329  324.3763
 330  214.8657
 331  248.7124
 332  345.6018
 333  313.2062
 334  362.0059
 335  431.3535
 336  379.782
 337  272.1628
 338  351.4799
 339  352.1472
 340  344.1665
 341  346.5157
 342  361.8174
 343  400.5455
 344  302.9467
 345  162.9053
 346  284.1507
 347  350.8652
 348  386.5075
 349  510.4266
 350  298.3177
 351  340.6234
 352  412.3705
 353  334.8671
 354  333.8105
 355  365.7837
 356  394.0798
 357  364.6779
 358  339.2885
 359  262.0192
 360  284.9878
 361  301.1339
 362  270.0053
 363  277.9858
 364  380.2794
 365  363.7886
 366  406.709
 367  401.1794
 368  357.9904
 369  274.4909
 370  287.2898
 371  328.0985
 372  395.6195
 373  481.3564
 374  419.186
 375  275.4378
 376  270.4619
 377  388.7197
 378  428.3055
 379  493.9379
 380  431.1737
 381  304.6805
 382  340.4491
 383  239.7246
 384  233.2546
 385  336.0594
 386  412.298
 387  371.8828
 388  378.9404
 389  377.6224
 390  390.4522
 391  278.815
 392  299.8021
 393  424.3396
 394  367.2435
 395  358.0435
 396  418.4691
 397  339.1062
 398  369.0586
 399  446.6653
 400  430.8574
 401  316.6449
 402  307.1099
 403  431.1451
 404  347.8018
 405  358.8389
 406  444.7824
 407  423.1013
 408  412.0565
 409  444.7755
 410  387.0661
 411  360.976
 412  356.9077
 413  493.8859
 414  467.8594
 415  507.0898
 416  512.0809
 417  320.7321
 418  373.6024
 419  421.9931
 420  501.7109
 421  390.312
 422  454.114
 423  329.126
 424  276.1554
 425  314.4665
 426  351.754
 427  358.9484
 428  453.6923
 429  432.1097
 430  372.7516
 431  372.1228
 432  384.9645
 433  404.6394
 434  356.466
 435  393.8778
 436  404.1239
 437  314.4612
 438  373.3999
 439  317.6332
 440  390.4861
 441  369.2355
 442  343.5271
 443  434.7877
 444  453.0755
 445  362.0361
 446  430.9201
 447  440.9812
 448  463.2641
 449  451.9031
 450  284.9669
 451  250.9634
 452  357.3943
 453  340.5255
 454  407.5545
 455  311.8467
 456  336.9017
 457  371.9587
 458  304.9931
 459  308.0391
 460  392.8959
 461  471.3544
 462  353.6518
 463  330.585
 464  284.2368
 465  358.6929
 466  456.3572
 467  309.3039
 468  324.3271
 469  302.6841
 470  212.216
 471  164.7929
 472  312.4514
 473  400.7096
 474  377.1966
 475  477.1163
 476  394.5909
 477  319.4386
 478  377.8629
 479  439.1733
 480  357.1053
 481  298.1862
 482  270.7527
 483  324.5012
 484  334.1361
 485  301.3885
 486  386.3066
 487  321.6724
 488  311.7284
 489  281.5019
 490  344.2469
 491  335.0134
 492  264.4623
 493  333.3885
 494  344.4892
 495  414.0048
 496  379.4161
 497  344.6646
 498  274.5221
 499  209.203
 500  284.3474
 501  419.2995
 502  391.8479
 503  293.2395
 504  311.4229
 505  312.3813
 506  421.7654
 507  469.3137
 508  549.2828
 509  567.8605
 510  650.3999
 511  676.4669
