# Input file       =  1197900169.093376_cleaned.dat
# Candidate        =  PSR_0332+5434
# Telescope        =  AR
# Epoch_topo       =  58108.585082099256
# Epoch_bary       =  N/A
# T_sample         =  0.002
# Data Folded      =  7208960
# Data Avg         =  0.0330197361502628
# Data StdDev      =  1.00038300142245 
# Profile Bins     =  512
# Profile Avg      =  464.93164655886  
# Profile StdDev   =  118.704622426646 
# Reduced chi-sqr  =  1.141
# Prob(Noise)      <  0.0146   (~2.2 sigma)
# P_topo (ms)      =  714.546346763004  +/- 9.5e-05
# P'_topo (s/s)    =  -0                +/- 5.11e-11
# P''_topo (s/s^2) =  0                 +/- 2.29e-14
# P_bary (ms)      =  N/A
# P'_bary (s/s)    =  N/A
# P''_bary (s/s^2) =  N/A
# P_orb (s)        =  N/A
# asin(i)/c (s)    =  N/A
# eccentricity     =  N/A
# w (rad)          =  N/A
# T_peri           =  N/A
######################################################
   0  1010.029
   1  966.7585
   2  834.9336
   3  639.0464
   4  479.3279
   5  479.2921
   6  535.4923
   7  408.912
   8  351.7244
   9  417.3521
  10  490.293
  11  489.3601
  12  502.7286
  13  399.8647
  14  379.2996
  15  448.2485
  16  445.0808
  17  514.89
  18  465.0179
  19  540.374
  20  592.5773
  21  579.3157
  22  540.2126
  23  588.2666
  24  585.0803
  25  371.6615
  26  442.7224
  27  532.5972
  28  462.2246
  29  542.6509
  30  588.279
  31  450.2555
  32  425.4584
  33  532.1161
  34  517.8157
  35  353.9078
  36  365.9001
  37  551.5865
  38  491.4323
  39  447.5265
  40  501.6849
  41  534.8923
  42  471.3176
  43  404.6518
  44  492.7067
  45  506.0274
  46  530.4452
  47  481.5624
  48  457.7863
  49  458.6333
  50  409.5279
  51  465.8997
  52  560.0141
  53  596.9509
  54  393.8859
  55  453.5459
  56  525.6312
  57  523.9467
  58  474.5504
  59  575.1285
  60  510.8341
  61  498.9896
  62  611.8597
  63  484.0053
  64  402.6675
  65  538.7749
  66  685.5263
  67  594.9256
  68  547.6884
  69  548.2864
  70  467.4555
  71  538.2518
  72  558.8906
  73  561.3239
  74  491.8871
  75  471.4497
  76  408.6111
  77  420.2079
  78  492.6597
  79  513.7209
  80  505.2757
  81  488.3754
  82  397.6172
  83  497.0883
  84  598.3587
  85  497.566
  86  522.9893
  87  458.7994
  88  383.2656
  89  431.106
  90  409.7321
  91  520.5308
  92  590.1093
  93  556.4782
  94  496.9504
  95  359.8276
  96  245.6764
  97  353.1485
  98  504.9054
  99  523.1564
 100  497.8647
 101  346.3889
 102  356.744
 103  558.0068
 104  506.4124
 105  415.4162
 106  361.1568
 107  434.2718
 108  503.251
 109  508.7344
 110  409.5047
 111  430.5692
 112  431.226
 113  409.061
 114  446.0627
 115  364.0499
 116  409.1591
 117  501.9698
 118  547.8751
 119  549.4626
 120  516.8107
 121  474.1245
 122  439.6303
 123  366.3236
 124  319.5432
 125  311.765
 126  417.6965
 127  491.8458
 128  469.813
 129  457.8701
 130  415.8754
 131  442.204
 132  454.0656
 133  390.7244
 134  367.8001
 135  446.3258
 136  421.0692
 137  411.3123
 138  475.0651
 139  442.5811
 140  432.4136
 141  406.4755
 142  517.3719
 143  396.1198
 144  395.9215
 145  487.5594
 146  356.8987
 147  234.4759
 148  402.1652
 149  543.7922
 150  430.7589
 151  386.1052
 152  472.2948
 153  458.7876
 154  372.4984
 155  406.231
 156  490.5045
 157  510.7276
 158  439.5274
 159  458.2578
 160  491.9772
 161  388.9276
 162  283.0888
 163  409.0371
 164  470.7952
 165  404.8947
 166  356.9909
 167  304.8588
 168  293.2553
 169  317.0468
 170  352.8829
 171  495.5274
 172  477.7691
 173  406.3226
 174  401.5742
 175  450.7403
 176  380.1731
 177  480.4728
 178  514.1586
 179  454.8716
 180  405.7589
 181  394.727
 182  396.9969
 183  435.3251
 184  444.2766
 185  330.2066
 186  272.374
 187  387.6334
 188  487.9921
 189  268.8296
 190  360.1857
 191  365.4557
 192  374.7339
 193  345.1571
 194  260.0849
 195  388.5547
 196  436.758
 197  546.6882
 198  540.064
 199  529.4928
 200  582.2805
 201  542.0519
 202  423.2386
 203  479.1878
 204  478.345
 205  499.3003
 206  438.2051
 207  418.3168
 208  403.6551
 209  447.9999
 210  419.0067
 211  376.8116
 212  415.1835
 213  493.0268
 214  554.3257
 215  476.2293
 216  511.3373
 217  504.2273
 218  406.2465
 219  386.4547
 220  254.3406
 221  276.4721
 222  444.6649
 223  481.1378
 224  415.3757
 225  348.774
 226  372.6552
 227  483.4984
 228  425.1349
 229  300.672
 230  445.647
 231  540.4388
 232  488.6313
 233  467.8085
 234  357.8345
 235  353.347
 236  381.5643
 237  355.6561
 238  376.7573
 239  339.5858
 240  294.288
 241  370.0371
 242  462.7451
 243  474.5059
 244  386.7239
 245  427.8289
 246  525.6893
 247  474.9649
 248  439.0539
 249  480.131
 250  552.843
 251  485.0155
 252  518.278
 253  465.256
 254  376.2924
 255  431.5382
 256  535.1763
 257  521.6791
 258  436.6758
 259  468.654
 260  454.3929
 261  418.8227
 262  346.7499
 263  464.8003
 264  598.2188
 265  505.1594
 266  580.3812
 267  536.704
 268  480.0971
 269  369.9052
 270  463.0462
 271  450.3967
 272  478.9233
 273  510.353
 274  457.345
 275  392.2395
 276  379.1204
 277  442.7381
 278  369.3736
 279  363.3819
 280  429.1783
 281  366.3654
 282  523.9191
 283  487.4795
 284  388.4497
 285  411.3205
 286  441.5331
 287  385.1558
 288  406.3851
 289  372.565
 290  496.2966
 291  374.0617
 292  332.3195
 293  488.8592
 294  537.6932
 295  414.6145
 296  405.5326
 297  353.7324
 298  445.6163
 299  544.7422
 300  553.9212
 301  593.9135
 302  582.8647
 303  571.3663
 304  593.8245
 305  503.9448
 306  571.6486
 307  543.6202
 308  432.9899
 309  490.5158
 310  489.7369
 311  487.4894
 312  502.1513
 313  651.4402
 314  700.4577
 315  457.8659
 316  454.8546
 317  461.2822
 318  477.176
 319  497.2696
 320  534.0095
 321  496.3022
 322  464.3391
 323  443.3976
 324  538.1357
 325  461.1122
 326  414.3243
 327  426.5826
 328  541.5922
 329  478.6878
 330  390.39
 331  413.1677
 332  419.1964
 333  436.3801
 334  370.0278
 335  415.9985
 336  345.7905
 337  366.1788
 338  517.246
 339  531.0958
 340  565.3191
 341  392.4181
 342  405.7883
 343  463.7593
 344  434.7619
 345  291.8668
 346  332.9043
 347  421.1334
 348  443.1527
 349  541.9838
 350  438.4117
 351  408.9128
 352  374.4285
 353  428.6196
 354  353.8932
 355  269.3753
 356  417.1259
 357  361.3452
 358  313.8422
 359  280.0045
 360  325.1347
 361  383.2151
 362  435.2414
 363  469.8307
 364  435.1568
 365  393.6761
 366  440.4249
 367  478.3821
 368  438.5959
 369  400.4225
 370  441.2652
 371  354.2224
 372  337.636
 373  379.6019
 374  467.3838
 375  490.0256
 376  392.0989
 377  471.2556
 378  510.8502
 379  381.2258
 380  360.0283
 381  305.8105
 382  347.7758
 383  501.8909
 384  593.764
 385  569.5816
 386  338.4702
 387  349.4599
 388  560.527
 389  537.3945
 390  363.7448
 391  357.3785
 392  379.479
 393  425.0912
 394  426.4536
 395  473.4035
 396  441.1357
 397  432.9803
 398  472.0576
 399  468.1776
 400  404.7421
 401  519.9683
 402  533.2238
 403  473.7862
 404  468.8601
 405  415.0104
 406  425.0423
 407  397.0789
 408  395.9398
 409  412.056
 410  522.5984
 411  495.0396
 412  415.0178
 413  450.907
 414  506.4544
 415  433.3937
 416  457.4141
 417  408.1122
 418  484.7577
 419  596.2231
 420  532.6005
 421  531.5533
 422  481.94
 423  475.3038
 424  455.4403
 425  474.3717
 426  309.0512
 427  390.8577
 428  511.3642
 429  560.4129
 430  492.8127
 431  400.7555
 432  362.1333
 433  417.4832
 434  455.3186
 435  504.8066
 436  516.2979
 437  550.525
 438  610.4055
 439  489.2144
 440  530.8551
 441  437.685
 442  461.0209
 443  509.9892
 444  422.6681
 445  571.5978
 446  546.9474
 447  500.3748
 448  547.4406
 449  559.8337
 450  582.1951
 451  517.2176
 452  490.1922
 453  578.3027
 454  518.3099
 455  348.1291
 456  495.719
 457  607.1914
 458  483.69
 459  405.3617
 460  503.9734
 461  550.2106
 462  429.4565
 463  454.7273
 464  518.0396
 465  507.9906
 466  591.1351
 467  601.4973
 468  639.8729
 469  560.8622
 470  566.7177
 471  576.7536
 472  467.2386
 473  482.3745
 474  553.7529
 475  571.6254
 476  511.3245
 477  434.1733
 478  537.7891
 479  623.9164
 480  604.3163
 481  600.4095
 482  552.8699
 483  603.6527
 484  530.3681
 485  427.796
 486  461.8087
 487  431.3492
 488  465.2193
 489  546.0009
 490  470.5848
 491  395.844
 492  475.3156
 493  566.2294
 494  493.4169
 495  424.1522
 496  433.5071
 497  375.431
 498  416.7519
 499  515.6665
 500  452.5558
 501  420.8939
 502  515.0797
 503  493.262
 504  533.4733
 505  561.3105
 506  784.8507
 507  723.3562
 508  637.6663
 509  773.4766
 510  768.707
 511  908.3432
