# Input file       =  1197741965.100548_cleaned.dat
# Candidate        =  PSR_0332+5434
# Telescope        =  AR
# Epoch_topo       =  58106.754017367457
# Epoch_bary       =  N/A
# T_sample         =  0.002
# Data Folded      =  7340032
# Data Avg         =  0.0286191013555688
# Data StdDev      =  0.999991716920318
# Profile Bins     =  512
# Profile Avg      =  410.28203991722  
# Profile StdDev   =  119.732044618485 
# Reduced chi-sqr  =  0.838
# Prob(Noise)      <  0.997   (~0.0 sigma)
# P_topo (ms)      =  714.544606129903  +/- 0.000391
# P'_topo (s/s)    =  -0                +/- 2.06e-10
# P''_topo (s/s^2) =  0                 +/- 9.1e-14
# P_bary (ms)      =  N/A
# P'_bary (s/s)    =  N/A
# P''_bary (s/s^2) =  N/A
# P_orb (s)        =  N/A
# asin(i)/c (s)    =  N/A
# eccentricity     =  N/A
# w (rad)          =  N/A
# T_peri           =  N/A
######################################################
   0  804.884
   1  927.0015
   2  689.8094
   3  537.5918
   4  463.3396
   5  457.8514
   6  402.958
   7  569.6307
   8  591.1512
   9  518.9225
  10  472.9926
  11  401.6808
  12  407.3825
  13  423.7324
  14  460.5985
  15  523.1907
  16  590.0951
  17  458.7663
  18  356.0976
  19  297.3671
  20  370.9081
  21  415.6643
  22  497.3524
  23  516.3182
  24  418.9545
  25  402.6578
  26  285.1799
  27  331.7268
  28  438.3096
  29  489.0661
  30  481.5441
  31  591.825
  32  554.5182
  33  420.4533
  34  499.7858
  35  398.1645
  36  345.2122
  37  284.8473
  38  245.443
  39  357.2057
  40  357.1237
  41  375.1306
  42  365.581
  43  344.4103
  44  414.1815
  45  364.0248
  46  371.7985
  47  368.9973
  48  402.5046
  49  507.6306
  50  580.4605
  51  518.9443
  52  530.1846
  53  442.3026
  54  341.5897
  55  435.7889
  56  567.9046
  57  534.1901
  58  475.7421
  59  467.4441
  60  487.395
  61  437.0093
  62  452.9647
  63  323.3871
  64  461.6093
  65  541.4458
  66  482.8711
  67  368.0263
  68  460.5163
  69  351.1645
  70  404.6087
  71  441.2897
  72  446.0055
  73  477.7299
  74  440.0219
  75  503.4488
  76  378.1183
  77  406.2364
  78  394.3837
  79  319.2784
  80  422.9299
  81  495.293
  82  421.3624
  83  388.0259
  84  410.0138
  85  446.8432
  86  403.0363
  87  458.641
  88  410.4402
  89  465.1928
  90  454.5067
  91  390.4794
  92  247.9613
  93  376.2853
  94  378.2916
  95  412.6705
  96  391.0137
  97  342.7802
  98  362.8585
  99  452.2233
 100  416.0602
 101  296.7586
 102  325.6761
 103  396.1003
 104  351.472
 105  348.6214
 106  373.438
 107  444.2487
 108  358.6475
 109  340.7178
 110  289.2605
 111  472.8482
 112  441.5095
 113  369.9849
 114  453.3773
 115  457.653
 116  430.9178
 117  300.2171
 118  310.3144
 119  365.2757
 120  339.116
 121  411.4508
 122  322.6158
 123  345.0763
 124  431.5948
 125  423.5397
 126  480.4358
 127  495.6296
 128  426.8456
 129  339.4978
 130  334.7671
 131  406.789
 132  530.9854
 133  519.397
 134  479.5866
 135  421.9563
 136  320.1522
 137  313.6658
 138  355.2273
 139  457.5374
 140  456.8829
 141  394.6118
 142  345.6416
 143  248.9595
 144  315.1713
 145  367.1618
 146  433.558
 147  391.1674
 148  482.244
 149  381.1871
 150  324.1605
 151  447.5278
 152  486.083
 153  368.5441
 154  347.08
 155  332.4504
 156  355.2891
 157  490.7968
 158  464.693
 159  323.7108
 160  371.9229
 161  369.492
 162  328.8614
 163  282.556
 164  420.6441
 165  465.9985
 166  449.501
 167  563.9248
 168  440.1821
 169  362.5929
 170  375.6443
 171  392.8481
 172  460.6249
 173  483.4264
 174  332.365
 175  384.0731
 176  514.5015
 177  445.5081
 178  434.3954
 179  507.1044
 180  546.0121
 181  496.7632
 182  437.9384
 183  425.4506
 184  419.1647
 185  440.4355
 186  382.6529
 187  416.9254
 188  445.8424
 189  558.2955
 190  384.1172
 191  281.5982
 192  395.6412
 193  347.8857
 194  382.3299
 195  452.9881
 196  457.0518
 197  421.0542
 198  433.3444
 199  501.9119
 200  347.924
 201  390.1613
 202  486.6395
 203  495.2515
 204  399.2651
 205  452.7852
 206  456.2721
 207  448.6577
 208  521.489
 209  486.6215
 210  382.8153
 211  404.6657
 212  397.1753
 213  553.869
 214  398.995
 215  388.0177
 216  382.6101
 217  419.7611
 218  494.0431
 219  463.6107
 220  359.6555
 221  395.9399
 222  532.8876
 223  476.2138
 224  486.9608
 225  388.1454
 226  343.9827
 227  379.0023
 228  414.8199
 229  397.3111
 230  373.7617
 231  426.7248
 232  457.1494
 233  429.1934
 234  527.2712
 235  474.6261
 236  406.2561
 237  510.2838
 238  408.9521
 239  404.0493
 240  407.1281
 241  509.5143
 242  480.5097
 243  389.7557
 244  273.0085
 245  337.147
 246  431.4679
 247  457.9408
 248  362.6271
 249  375.1926
 250  403.0029
 251  379.5372
 252  418.0527
 253  325.6003
 254  233.2703
 255  214.9847
 256  233.0186
 257  254.8195
 258  210.9201
 259  371.2415
 260  369.1682
 261  395.9442
 262  426.2152
 263  364.5729
 264  412.0771
 265  392.125
 266  207.5031
 267  287.9547
 268  273.2107
 269  295.3172
 270  396.258
 271  474.2757
 272  415.3233
 273  476.2168
 274  545.1357
 275  339.1061
 276  292.0289
 277  384.6461
 278  372.0844
 279  396.3223
 280  510.8387
 281  559.8519
 282  427.6471
 283  402.9251
 284  387.8102
 285  340.2004
 286  400.4866
 287  416.8138
 288  432.7922
 289  430.588
 290  432.4373
 291  378.2939
 292  392.8483
 293  382.3782
 294  379.7427
 295  472.374
 296  452.9952
 297  453.4991
 298  493.465
 299  486.309
 300  447.3995
 301  462.3658
 302  478.4592
 303  458.6796
 304  426.0439
 305  403.7122
 306  358.2909
 307  286.7856
 308  443.1198
 309  440.2358
 310  324.6914
 311  365.5984
 312  364.7646
 313  408.0803
 314  422.9981
 315  433.7977
 316  396.5652
 317  481.9845
 318  406.4431
 319  472.4736
 320  473.1877
 321  377.6201
 322  405.7805
 323  364.194
 324  528.4492
 325  549.8555
 326  372.3677
 327  297.4868
 328  419.4234
 329  429.7042
 330  460.2761
 331  434.9529
 332  364.2471
 333  350.6509
 334  367.7058
 335  388.8353
 336  452.2767
 337  269.5446
 338  389.9449
 339  461.0206
 340  397.3154
 341  447.9224
 342  416.068
 343  342.7754
 344  473.1696
 345  492.2613
 346  441.136
 347  432.5219
 348  374.0647
 349  429.8154
 350  435.6171
 351  549.7426
 352  560.1165
 353  429.8684
 354  375.3662
 355  339.3014
 356  396.4153
 357  387.5966
 358  426.974
 359  465.3089
 360  444.8916
 361  374.0899
 362  306.248
 363  336.4859
 364  440.4024
 365  445.3985
 366  404.8751
 367  389.4873
 368  340.1481
 369  279.9515
 370  248.2205
 371  379.2891
 372  346.7202
 373  248.6157
 374  309.8692
 375  445.4268
 376  390.6444
 377  247.5905
 378  360.8095
 379  444.2393
 380  491.2928
 381  378.184
 382  450.0676
 383  393.6817
 384  289.5492
 385  421.8504
 386  372.4931
 387  395.3101
 388  463.761
 389  541.6742
 390  315.1463
 391  309.162
 392  371.2969
 393  320.5981
 394  307.2906
 395  288.4989
 396  383.4669
 397  388.2323
 398  549.2554
 399  435.347
 400  371.4105
 401  406.0289
 402  302.2384
 403  359.6804
 404  251.1978
 405  286.8294
 406  341.5187
 407  327.0636
 408  387.652
 409  373.5775
 410  299.3688
 411  304.4211
 412  316.1009
 413  431.1815
 414  454.2814
 415  503.916
 416  363.2476
 417  335.3467
 418  435.3697
 419  406.7824
 420  471.0468
 421  477.4875
 422  406.1855
 423  406.9136
 424  438.5666
 425  503.2628
 426  450.4952
 427  517.1959
 428  484.1219
 429  455.5079
 430  506.0115
 431  432.8804
 432  469.8521
 433  402.3269
 434  426.4658
 435  419.7061
 436  299.5844
 437  291.0806
 438  384.5338
 439  456.1006
 440  406.7234
 441  338.1242
 442  390.9577
 443  419.9597
 444  401.1568
 445  389.9868
 446  440.8382
 447  437.8564
 448  517.1241
 449  543.1052
 450  363.8881
 451  321.536
 452  333.5351
 453  310.2515
 454  369.6941
 455  417.4444
 456  402.5255
 457  472.8855
 458  465.3349
 459  329.2941
 460  327.3399
 461  447.8634
 462  401.2644
 463  352.477
 464  393.0023
 465  453.0971
 466  416.7005
 467  360.9845
 468  457.4946
 469  361.376
 470  284.6414
 471  403.3842
 472  315.6497
 473  342.7778
 474  376.4858
 475  333.1636
 476  334.1123
 477  457.1151
 478  380.4276
 479  298.4649
 480  383.5829
 481  479.0714
 482  399.5287
 483  426.5177
 484  363.9414
 485  335.9465
 486  377.3189
 487  353.4253
 488  327.3341
 489  385.1128
 490  403.2395
 491  261.571
 492  233.0308
 493  377.1478
 494  405.6478
 495  375.9454
 496  374.6839
 497  351.6756
 498  368.2862
 499  334.3046
 500  383.7618
 501  505.3091
 502  399.3572
 503  432.4302
 504  336.7181
 505  416.4599
 506  460.7716
 507  546.0515
 508  527.4458
 509  529.6829
 510  654.0726
 511  699.2468
