# Input file       =  1197756875.120159_cleaned.dat
# Candidate        =  PSR_0332+5434
# Telescope        =  AR
# Epoch_topo       =  58106.926587038877
# Epoch_bary       =  N/A
# T_sample         =  0.002
# Data Folded      =  7340032
# Data Avg         =  0.0246800184328541
# Data StdDev      =  1.00011444413096 
# Profile Bins     =  512
# Profile Avg      =  353.699501123729 
# Profile StdDev   =  119.746739120062 
# Reduced chi-sqr  =  0.872
# Prob(Noise)      <  0.983   (~0.0 sigma)
# P_topo (ms)      =  714.54510550864   +/- 0.000144
# P'_topo (s/s)    =  -0                +/- 7.59e-11
# P''_topo (s/s^2) =  0                 +/- 3.35e-14
# P_bary (ms)      =  N/A
# P'_bary (s/s)    =  N/A
# P''_bary (s/s^2) =  N/A
# P_orb (s)        =  N/A
# asin(i)/c (s)    =  N/A
# eccentricity     =  N/A
# w (rad)          =  N/A
# T_peri           =  N/A
######################################################
   0  648.0932
   1  609.2944
   2  567.8023
   3  519.3314
   4  507.9492
   5  394.7414
   6  350.0696
   7  428.348
   8  410.9968
   9  348.0311
  10  370.3604
  11  433.5386
  12  379.7315
  13  306.2528
  14  326.2593
  15  264.6365
  16  377.8758
  17  384.0789
  18  385.348
  19  363.0127
  20  304.8611
  21  332.2094
  22  300.4352
  23  208.2364
  24  286.3466
  25  427.4272
  26  422.6387
  27  398.0544
  28  410.6709
  29  375.3751
  30  349.3652
  31  362.1122
  32  397.2427
  33  302.2067
  34  362.2713
  35  347.4565
  36  317.2968
  37  325.4126
  38  274.2659
  39  344.431
  40  432.6591
  41  323.2132
  42  292.5665
  43  276.8264
  44  255.581
  45  203.3457
  46  221.7418
  47  418.2653
  48  511.8845
  49  368.8533
  50  233.9066
  51  258.3299
  52  317.3471
  53  308.7861
  54  324.2441
  55  305.0345
  56  410.5564
  57  235.2451
  58  253.5005
  59  366.2763
  60  290.4037
  61  309.7688
  62  323.6988
  63  230.0267
  64  175.1893
  65  199.4652
  66  319.1193
  67  250.8396
  68  227.048
  69  257.408
  70  294.7599
  71  191.4622
  72  290.4677
  73  312.7902
  74  225.6629
  75  228.6068
  76  305.2876
  77  420.7195
  78  462.3339
  79  312.9056
  80  259.7772
  81  321.1386
  82  427.6346
  83  369.6276
  84  332.9233
  85  253.3456
  86  227.9812
  87  211.8197
  88  290.4423
  89  206.1577
  90  258.9335
  91  347.2549
  92  306.1242
  93  354.7948
  94  282.9485
  95  317.3911
  96  287.125
  97  317.8223
  98  277.7729
  99  310.5215
 100  340.6649
 101  362.0722
 102  287.2509
 103  233.25
 104  277.1228
 105  281.2849
 106  281.2616
 107  423.3595
 108  441.3356
 109  585.2241
 110  392.0321
 111  345.6653
 112  277.6877
 113  268.5273
 114  311.7761
 115  385.7553
 116  173.1383
 117  209.3636
 118  319.4111
 119  367.7452
 120  423.1501
 121  383.618
 122  378.0705
 123  383.3896
 124  370.8734
 125  276.6491
 126  223.561
 127  260.5846
 128  257.8338
 129  339.3788
 130  445.7617
 131  403.0886
 132  362.1119
 133  328.2139
 134  269.8134
 135  215.9599
 136  270.6114
 137  315.7158
 138  394.8096
 139  273.4509
 140  166.0158
 141  246.4079
 142  382.3429
 143  377.077
 144  364.9249
 145  342.2393
 146  220.0438
 147  305.5111
 148  301.0128
 149  393.9744
 150  359.3791
 151  280.4088
 152  239.6456
 153  217.8388
 154  301.3822
 155  326.2414
 156  290.6878
 157  293.632
 158  209.8492
 159  266.954
 160  357.0011
 161  392.9621
 162  370.0956
 163  385.2065
 164  425.2603
 165  392.5303
 166  426.5193
 167  315.5324
 168  424.1055
 169  352.8242
 170  285.2423
 171  251.754
 172  352.8713
 173  336.0208
 174  434.7695
 175  422.4132
 176  435.8692
 177  517.707
 178  436.5683
 179  364.2589
 180  421.421
 181  477.6528
 182  423.1394
 183  258.6083
 184  232.4154
 185  311.973
 186  309.7449
 187  343.3628
 188  347.5565
 189  363.9292
 190  348.0712
 191  323.9897
 192  211.3022
 193  270.0796
 194  304.5079
 195  303.2642
 196  321.2736
 197  307.6567
 198  352.2452
 199  301.8473
 200  231.1918
 201  232.2016
 202  411.7848
 203  395.3758
 204  407.922
 205  410.5701
 206  474.7306
 207  499.5758
 208  392.5385
 209  382.9847
 210  385.1344
 211  186.3971
 212  225.8577
 213  365.1744
 214  390.2713
 215  359.1395
 216  334.0067
 217  297.7662
 218  240.5441
 219  265.0563
 220  347.2063
 221  286.1897
 222  277.3567
 223  309.8062
 224  356.1402
 225  323.9159
 226  307.3681
 227  213.0925
 228  337.5932
 229  442.5013
 230  464.5677
 231  397.7253
 232  369.5449
 233  440.9958
 234  285.2668
 235  382.6469
 236  438.5269
 237  364.4741
 238  368.9955
 239  349.6964
 240  440.4413
 241  396.0807
 242  454.6902
 243  321.0587
 244  209.1441
 245  214.0736
 246  441.0967
 247  467.9032
 248  416.3179
 249  353.9342
 250  313.9765
 251  343.5563
 252  351.1852
 253  370.0426
 254  293.199
 255  369.0932
 256  492.9436
 257  458.2595
 258  474.8689
 259  334.911
 260  272.6066
 261  317.9333
 262  281.3015
 263  334.2244
 264  307.6989
 265  370.5645
 266  340.3917
 267  347.084
 268  424.7511
 269  463.1623
 270  444.9284
 271  291.1152
 272  234.478
 273  265.1351
 274  294.6172
 275  364.0537
 276  508.4234
 277  389.0143
 278  283.6488
 279  390.592
 280  428.9274
 281  327.9154
 282  396.6752
 283  423.5638
 284  368.6809
 285  424.7161
 286  387.277
 287  452.8678
 288  531.5046
 289  552.2275
 290  514.2676
 291  358.442
 292  395.1807
 293  325.8414
 294  324.205
 295  463.3451
 296  538.4681
 297  455.3918
 298  432.9768
 299  413.6803
 300  409.3481
 301  429.7559
 302  343.7513
 303  405.49
 304  475.0574
 305  576.0319
 306  409.7306
 307  395.5207
 308  346.4482
 309  273.143
 310  390.6988
 311  391.9717
 312  422.6597
 313  382.7369
 314  338.1999
 315  381.3872
 316  292.6404
 317  323.8051
 318  414.2228
 319  492.5254
 320  449.5229
 321  461.22
 322  346.6345
 323  339.5987
 324  299.528
 325  331.9527
 326  274.3564
 327  283.4418
 328  320.5154
 329  276.6209
 330  203.7487
 331  302.4889
 332  350.6807
 333  319.5901
 334  414.7627
 335  411.476
 336  302.8477
 337  326.3929
 338  340.9664
 339  348.3171
 340  340.3911
 341  369.4573
 342  370.3899
 343  377.5022
 344  195.3861
 345  223.0103
 346  347.0006
 347  338.5252
 348  483.3337
 349  409.3633
 350  264.1135
 351  433.0131
 352  357.0476
 353  350.0588
 354  305.8649
 355  414.2018
 356  361.4435
 357  363.5562
 358  304.9428
 359  239.1872
 360  328.2246
 361  253.1863
 362  289.7794
 363  324.2191
 364  385.3715
 365  369.5579
 366  422.6644
 367  389.1796
 368  302.8819
 369  267.5125
 370  296.9631
 371  379.5984
 372  431.4863
 373  482.3147
 374  324.105
 375  249.6984
 376  354.3664
 377  391.8677
 378  476.0332
 379  483.0577
 380  357.5045
 381  310.8903
 382  293.6889
 383  214.9641
 384  294.6545
 385  385.1096
 386  391.5233
 387  378.8617
 388  386.4979
 389  395.5243
 390  325.2455
 391  255.4966
 392  396.062
 393  386.1649
 394  358.6353
 395  389.4036
 396  394.1269
 397  319.4421
 398  427.0362
 399  449.439
 400  380.2941
 401  278.8697
 402  384.7452
 403  393.9581
 404  320.3096
 405  436.7162
 406  440.5872
 407  414.0751
 408  424.242
 409  419.3405
 410  363.3804
 411  344.1777
 412  436.9721
 413  494.0096
 414  480.8107
 415  540.0284
 416  390.8094
 417  319.7829
 418  399.1084
 419  505.5442
 420  416.9704
 421  445.647
 422  363.7498
 423  324.1622
 424  252.3391
 425  367.5981
 426  345.8026
 427  414.9912
 428  465.163
 429  369.7401
 430  380.2572
 431  364.8592
 432  419.7376
 433  361.1706
 434  366.2585
 435  437.5787
 436  325.9641
 437  374.2291
 438  318.9775
 439  366.9814
 440  382.2288
 441  340.0236
 442  394.7146
 443  453.6005
 444  410.8257
 445  366.3799
 446  485.6998
 447  419.3934
 448  497.7777
 449  344.4236
 450  235.4212
 451  323.7738
 452  332.485
 453  404.446
 454  339.9766
 455  320.3981
 456  353.0499
 457  362.8563
 458  281.1565
 459  349.67
 460  457.5339
 461  412.0297
 462  338.6432
 463  296.3188
 464  299.9058
 465  452.7516
 466  378.8713
 467  294.3744
 468  324.985
 469  260.0841
 470  148.6769
 471  261.3061
 472  348.7504
 473  414.9659
 474  413.4297
 475  477.0808
 476  308.9601
 477  364.9897
 478  413.0813
 479  400.9929
 480  305.9784
 481  288.032
 482  299.3773
 483  340.269
 484  294.3098
 485  360.612
 486  357.7537
 487  311.1433
 488  293.1408
 489  302.942
 490  367.1024
 491  270.9792
 492  301.8313
 493  341.6249
 494  378.2355
 495  406.4177
 496  369.3955
 497  310.1921
 498  237.0192
 499  219.1816
 500  373.469
 501  420.0759
 502  331.9283
 503  305.5739
 504  294.283
 505  389.085
 506  424.2231
 507  541.8729
 508  538.2536
 509  631.7401
 510  653.0414
 511  677.256
