# Input file       =  1197570344.120679_cleaned.dat
# Candidate        =  PSR_0332+5434
# Telescope        =  AR
# Epoch_topo       =  58104.767663433784
# Epoch_bary       =  N/A
# T_sample         =  0.002
# Data Folded      =  7340032
# Data Avg         =  0.0347605808504351
# Data StdDev      =  1.00005044693723 
# Profile Bins     =  512
# Profile Avg      =  498.31472669145  
# Profile StdDev   =  119.739076541737 
# Reduced chi-sqr  =  0.895
# Prob(Noise)      <  0.958   (~0.0 sigma)
# P_topo (ms)      =  714.542682120429  +/- 0.000308
# P'_topo (s/s)    =  -0                +/- 1.62e-10
# P''_topo (s/s^2) =  0                 +/- 7.16e-14
# P_bary (ms)      =  N/A
# P'_bary (s/s)    =  N/A
# P''_bary (s/s^2) =  N/A
# P_orb (s)        =  N/A
# asin(i)/c (s)    =  N/A
# eccentricity     =  N/A
# w (rad)          =  N/A
# T_peri           =  N/A
######################################################
   0  878.2567
   1  872.3671
   2  748.6611
   3  694.7421
   4  611.6666
   5  619.5323
   6  609.1313
   7  590.7969
   8  476.7648
   9  423.5793
  10  471.7629
  11  433.2081
  12  465.5069
  13  622.3815
  14  592.644
  15  503.2576
  16  579.8334
  17  461.5772
  18  427.0541
  19  544.8306
  20  563.7614
  21  507.2682
  22  469.1677
  23  596.6966
  24  674.5876
  25  606.3415
  26  515.3371
  27  544.0914
  28  553.2178
  29  448.3535
  30  492.0955
  31  567.6752
  32  542.7231
  33  481.7917
  34  513.8112
  35  561.5143
  36  453.5184
  37  472.2556
  38  477.7784
  39  438.0879
  40  404.2622
  41  376.5977
  42  404.5159
  43  362.1651
  44  501.7614
  45  493.165
  46  506.7514
  47  432.8207
  48  458.6025
  49  506.1195
  50  537.8858
  51  409.6096
  52  443.893
  53  526.4307
  54  518.2646
  55  603.6584
  56  576.4261
  57  525.4659
  58  473.7506
  59  539.2621
  60  429.155
  61  433.632
  62  514.0206
  63  484.9224
  64  499.908
  65  408.7315
  66  381.6421
  67  417.671
  68  521.6301
  69  452.2324
  70  441.9893
  71  397.4686
  72  368.3386
  73  480.8933
  74  512.4149
  75  598.1949
  76  489.559
  77  368.1874
  78  384.5556
  79  474.8774
  80  562.0432
  81  480.1561
  82  507.5319
  83  485.6698
  84  646.8647
  85  671.1689
  86  620.8167
  87  644.6299
  88  548.8575
  89  497.6819
  90  370.0857
  91  371.2301
  92  523.1025
  93  618.8347
  94  500.4036
  95  486.5191
  96  529.6739
  97  457.451
  98  549.4078
  99  433.0304
 100  431.9742
 101  495.1791
 102  520.7965
 103  492.6649
 104  416.3797
 105  531.3687
 106  514.865
 107  494.2516
 108  624.6837
 109  533.4581
 110  393.1142
 111  518.891
 112  456.1067
 113  418.1611
 114  456.8671
 115  379.8555
 116  413.3242
 117  348.9575
 118  456.1417
 119  535.4794
 120  522.5273
 121  595.1953
 122  590.6983
 123  498.5545
 124  454.7869
 125  419.7996
 126  439.0977
 127  401.2659
 128  486.4435
 129  398.7646
 130  453.7971
 131  395.5788
 132  440.1218
 133  489.1181
 134  481.8843
 135  445.1365
 136  473.4104
 137  437.4133
 138  496.7241
 139  624.9938
 140  565.6544
 141  460.984
 142  469.9565
 143  493.8063
 144  487.8184
 145  582.7387
 146  560.0848
 147  389.4227
 148  475.7396
 149  428.4898
 150  519.6248
 151  513.0972
 152  592.7131
 153  529.6038
 154  470.3051
 155  406.3047
 156  521.5963
 157  542.128
 158  510.6863
 159  540.3917
 160  508.8478
 161  494.7204
 162  404.759
 163  503.5294
 164  650.6953
 165  611.421
 166  516.6005
 167  426.4659
 168  547.1304
 169  464.7881
 170  451.1597
 171  520.0763
 172  493.0265
 173  526.8403
 174  483.1187
 175  450.6349
 176  357.9152
 177  401.1067
 178  454.1614
 179  463.5147
 180  466.4366
 181  445.3354
 182  540.6833
 183  529.5988
 184  684.3924
 185  606.0334
 186  569.5615
 187  549.7708
 188  503.6572
 189  508.3759
 190  551.4138
 191  478.4228
 192  475.8986
 193  570.101
 194  508.6885
 195  526.1013
 196  488.9761
 197  542.837
 198  684.0303
 199  764.968
 200  625.9323
 201  425.9363
 202  412.5958
 203  439.6576
 204  371.9581
 205  396.1906
 206  602.132
 207  509.8103
 208  494.0809
 209  556.2704
 210  506.0197
 211  414.0456
 212  438.2733
 213  500.506
 214  462.1982
 215  450.7189
 216  424.3242
 217  487.7279
 218  453.9663
 219  478.6223
 220  571.4063
 221  541.6601
 222  465.8473
 223  428.6322
 224  464.6375
 225  539.2186
 226  524.8733
 227  535.3123
 228  520.8143
 229  461.6581
 230  455.7864
 231  560.414
 232  647.8082
 233  560.1516
 234  428.5217
 235  457.5175
 236  529.5167
 237  364.991
 238  351.5176
 239  501.2386
 240  497.0254
 241  500.4241
 242  421.2925
 243  408.1701
 244  493.6942
 245  553.9016
 246  516.3052
 247  519.8868
 248  542.7642
 249  603.9655
 250  557.3013
 251  489.049
 252  487.7473
 253  617.3121
 254  602.1979
 255  546.111
 256  559.3082
 257  533.2831
 258  457.4701
 259  409.5577
 260  367.0292
 261  474.6514
 262  480.3735
 263  434.7485
 264  365.6008
 265  430.3979
 266  466.8011
 267  367.933
 268  328.405
 269  408.0379
 270  511.4611
 271  617.0257
 272  594.3596
 273  564.3246
 274  603.9631
 275  518.1401
 276  472.5462
 277  446.1364
 278  396.9143
 279  455.4465
 280  383.7621
 281  425.1774
 282  453.9554
 283  364.1073
 284  383.6591
 285  578.3287
 286  496.3809
 287  405.9386
 288  466.1067
 289  633.0395
 290  577.4398
 291  537.5627
 292  455.0149
 293  590.4604
 294  632.7274
 295  494.5489
 296  435.2136
 297  489.2872
 298  472.8604
 299  480.0931
 300  537.9281
 301  499.0532
 302  532.9692
 303  523.6168
 304  637.3359
 305  616.7082
 306  526.5461
 307  569.3774
 308  523.7034
 309  548.7394
 310  486.6064
 311  493.7243
 312  522.3878
 313  461.5653
 314  465.3495
 315  397.3594
 316  442.6255
 317  565.2389
 318  440.5974
 319  464.7493
 320  456.8742
 321  447.1016
 322  409.7504
 323  427.2819
 324  596.3123
 325  491.583
 326  553.5714
 327  597.7897
 328  551.9813
 329  543.0517
 330  499.6265
 331  459.0061
 332  464.4294
 333  477.9668
 334  488.2617
 335  479.8699
 336  576.1881
 337  582.5847
 338  613.9922
 339  619.0875
 340  545.9782
 341  551.0929
 342  502.423
 343  419.8188
 344  455.9987
 345  399.7823
 346  499.5721
 347  400.5203
 348  342.7872
 349  427.0124
 350  506.8798
 351  412.6722
 352  422.2057
 353  443.673
 354  445.4791
 355  426.8221
 356  416.0642
 357  458.448
 358  456.3636
 359  468.8035
 360  426.0644
 361  538.2208
 362  510.0515
 363  371.8184
 364  348.9447
 365  510.0692
 366  650.4955
 367  567.8287
 368  621.9026
 369  536.0892
 370  520.7202
 371  500.1765
 372  478.7542
 373  441.4277
 374  454.6285
 375  402.3322
 376  438.693
 377  455.412
 378  471.2404
 379  527.7504
 380  438.2614
 381  506.2879
 382  634.1945
 383  621.364
 384  535.1335
 385  523.2349
 386  522.3494
 387  426.8201
 388  529.0883
 389  671.3591
 390  594.935
 391  556.7241
 392  472.4395
 393  519.6003
 394  518.0754
 395  581.3779
 396  662.6375
 397  516.3914
 398  437.8549
 399  486.0978
 400  477.8476
 401  419.1967
 402  391.0342
 403  349.6617
 404  376.6677
 405  449.2341
 406  477.3613
 407  431.8268
 408  410.6215
 409  546.403
 410  522.6482
 411  517.3792
 412  411.1281
 413  460.6831
 414  554.9831
 415  487.2783
 416  532.7493
 417  495.0543
 418  527.0817
 419  538.9988
 420  432.471
 421  281.25
 422  356.2193
 423  497.6039
 424  586.7321
 425  531.2488
 426  434.5939
 427  375.9238
 428  470.9592
 429  335.049
 430  379.3149
 431  448.9615
 432  386.8219
 433  469.1366
 434  471.9129
 435  517.6379
 436  536.7517
 437  442.7311
 438  456.8199
 439  518.9805
 440  506.0395
 441  583.7677
 442  671.6566
 443  667.6351
 444  634.3607
 445  524.629
 446  532.3895
 447  583.4059
 448  524.7629
 449  447.1909
 450  545.6702
 451  465.4702
 452  459.2256
 453  409.7216
 454  410.9041
 455  502.5901
 456  408.6183
 457  474.3265
 458  388.9608
 459  484.4239
 460  464.6247
 461  445.8643
 462  522.4492
 463  603.0811
 464  560.8207
 465  485.241
 466  508.103
 467  484.7728
 468  407.8012
 469  421.2948
 470  509.5544
 471  539.0963
 472  462.4704
 473  460.7458
 474  577.1046
 475  603.2372
 476  589.8638
 477  465.1784
 478  439.0359
 479  383.8087
 480  357.8373
 481  432.0391
 482  459.4709
 483  510.7046
 484  443.498
 485  419.8672
 486  562.2261
 487  486.6418
 488  561.6236
 489  595.4531
 490  609.8325
 491  651.7991
 492  488.6663
 493  527.4247
 494  502.6722
 495  465.3121
 496  485.6666
 497  543.1943
 498  493.1347
 499  447.515
 500  467.8336
 501  330.078
 502  429.4915
 503  441.5133
 504  443.392
 505  457.1142
 506  615.0114
 507  475.7841
 508  558.1661
 509  723.9049
 510  868.4383
 511  913.0328
