# Input file       =  1198417033.10782_cleaned.dat
# Candidate        =  PSR_0332+5434
# Telescope        =  AR
# Epoch_topo       =  58114.567304488657
# Epoch_bary       =  N/A
# T_sample         =  0.002
# Data Folded      =  7208960
# Data Avg         =  0.0210685804963079
# Data StdDev      =  1.00013586987302 
# Profile Bins     =  512
# Profile Avg      =  296.706981539916 
# Profile StdDev   =  118.675298000678 
# Reduced chi-sqr  =  1.033
# Prob(Noise)      <  0.291   (~0.5 sigma)
# P_topo (ms)      =  714.551878982537  +/- 0.000138
# P'_topo (s/s)    =  -0                +/- 7.44e-11
# P''_topo (s/s^2) =  0                 +/- 3.34e-14
# P_bary (ms)      =  N/A
# P'_bary (s/s)    =  N/A
# P''_bary (s/s^2) =  N/A
# P_orb (s)        =  N/A
# asin(i)/c (s)    =  N/A
# eccentricity     =  N/A
# w (rad)          =  N/A
# T_peri           =  N/A
######################################################
   0  682.1932
   1  683.8994
   2  595.6827
   3  523.912
   4  474.269
   5  317.4639
   6  198.5177
   7  121.9831
   8  188.5179
   9  124.4702
  10  77.78929
  11  169.6326
  12  139.5363
  13  341.9966
  14  390.4636
  15  343.2967
  16  321.1389
  17  220.8477
  18  350.0117
  19  427.2676
  20  400.1689
  21  411.7777
  22  125.923
  23  149.5041
  24  314.6928
  25  449.2132
  26  364.3484
  27  241.0565
  28  331.9874
  29  249.3666
  30  289.0331
  31  305.3937
  32  349.9507
  33  332.8885
  34  283.6054
  35  299.6069
  36  332.8853
  37  458.3703
  38  432.6252
  39  387.1999
  40  393.2344
  41  168.4825
  42  215.5106
  43  350.527
  44  428.9007
  45  369.1883
  46  304.3029
  47  370.9996
  48  256.4442
  49  293.6886
  50  292.6259
  51  346.5887
  52  341.9369
  53  349.1825
  54  340.853
  55  310.6043
  56  472.9825
  57  364.0972
  58  300.1374
  59  318.6184
  60  228.5877
  61  143.991
  62  172.1518
  63  329.0651
  64  398.3527
  65  289.0398
  66  209.139
  67  167.032
  68  254.9726
  69  345.2123
  70  341.6608
  71  310.399
  72  273.2042
  73  336.8717
  74  334.1531
  75  336.055
  76  360.7743
  77  283.1179
  78  209.0314
  79  227.6915
  80  289.5434
  81  232.0979
  82  228.0817
  83  212.3159
  84  270.1146
  85  239.5558
  86  223.0178
  87  179.4809
  88  379.8411
  89  375.2197
  90  293.7236
  91  228.7545
  92  299.0976
  93  307.8799
  94  128.2791
  95  200.0628
  96  286.0701
  97  305.1727
  98  233.9848
  99  409.4873
 100  374.4024
 101  309.8088
 102  305.5678
 103  482.9077
 104  454.8144
 105  393.6039
 106  271.3279
 107  188.864
 108  217.9851
 109  209.0594
 110  267.9955
 111  358.7047
 112  241.4217
 113  319.7451
 114  195.6105
 115  148.3563
 116  329.9192
 117  405.9773
 118  362.6646
 119  293.4042
 120  349.1023
 121  356.9384
 122  314.461
 123  245.5679
 124  273.7343
 125  298.2805
 126  299.0725
 127  241.8046
 128  259.6002
 129  280.5928
 130  276.7469
 131  380.8075
 132  355.472
 133  263.5103
 134  264.9347
 135  331.739
 136  341.8581
 137  393.5609
 138  380.6061
 139  324.678
 140  277.4945
 141  340.4361
 142  383.683
 143  346.1196
 144  355.8447
 145  263.4906
 146  243.2016
 147  131.6451
 148  251.1203
 149  289.4871
 150  398.8563
 151  391.7675
 152  230.065
 153  302.2841
 154  313.6758
 155  279.3425
 156  102.3715
 157  265.9465
 158  344.5968
 159  222.9863
 160  179.7727
 161  225.2002
 162  382.9108
 163  423.4622
 164  256.0702
 165  275.3312
 166  201.4118
 167  122.9135
 168  214.7042
 169  172.5814
 170  180.7305
 171  282.0155
 172  233.9657
 173  343.8487
 174  321.5526
 175  334.0854
 176  405.0604
 177  281.1288
 178  283.5604
 179  291.9321
 180  255.2937
 181  354.7205
 182  387.3416
 183  202.1961
 184  245.4872
 185  271.7772
 186  262.6397
 187  343.9552
 188  280.7239
 189  316.59
 190  302.2804
 191  293.4343
 192  309.4319
 193  180.8365
 194  131.0983
 195  321.0934
 196  321.2978
 197  299.9064
 198  254.3937
 199  237.7076
 200  325.3664
 201  443.9601
 202  384.3357
 203  352.4433
 204  334.8606
 205  312.0042
 206  398.1524
 207  448.931
 208  324.946
 209  153.2068
 210  196.009
 211  335.8029
 212  358.5909
 213  330.2171
 214  173.1013
 215  310.4502
 216  343.7348
 217  335.5963
 218  262.0373
 219  331.9753
 220  340.9835
 221  92.29098
 222  211.7816
 223  164.155
 224  311.537
 225  354.517
 226  276.0455
 227  230.9602
 228  164.9995
 229  209.4777
 230  279.1755
 231  143.6689
 232  226.0109
 233  273.5326
 234  270.0637
 235  225.6193
 236  165.3819
 237  242.9673
 238  228.8993
 239  223.2943
 240  220.6109
 241  153.2689
 242  129.6062
 243  125.3184
 244  263.4276
 245  311.3683
 246  240.1221
 247  224.0761
 248  196.9451
 249  321.4446
 250  358.8583
 251  307.5756
 252  307.5464
 253  296.2766
 254  248.5767
 255  150.3985
 256  122.7625
 257  327.2425
 258  284.5135
 259  300.8859
 260  279.5791
 261  175.5355
 262  300.113
 263  442.048
 264  430.9893
 265  284.2501
 266  277.4688
 267  276.3167
 268  256.1895
 269  291.0631
 270  323.2399
 271  285.2031
 272  221.1039
 273  239.8612
 274  139.3372
 275  184.0594
 276  147.9665
 277  271.4942
 278  300.7747
 279  230.0463
 280  264.3469
 281  181.9509
 282  211.1996
 283  314.3778
 284  248.987
 285  335.3748
 286  394.5317
 287  385.9581
 288  292.4812
 289  173.7185
 290  244.6725
 291  203.8346
 292  220.0712
 293  341.3877
 294  234.4156
 295  252.2678
 296  373.007
 297  272.1375
 298  231.3208
 299  284.2115
 300  384.7048
 301  260.5719
 302  200.3708
 303  332.5927
 304  96.80175
 305  101.2207
 306  333.506
 307  384.8613
 308  258.1646
 309  229.1795
 310  297.3539
 311  317.7682
 312  371.2571
 313  277.1344
 314  264.6965
 315  401.2738
 316  370.1046
 317  212.435
 318  319.3831
 319  234.3224
 320  257.9249
 321  301.9594
 322  199.1486
 323  151.1025
 324  219.6556
 325  298.5729
 326  405.42
 327  318.0391
 328  365.1135
 329  306.3137
 330  343.0905
 331  281.06
 332  219.0839
 333  315.7198
 334  372.3462
 335  382.3557
 336  276.3751
 337  233.4242
 338  274.5342
 339  252.5137
 340  296.9444
 341  210.1873
 342  279.2889
 343  434.9914
 344  358.0082
 345  250.5661
 346  264.9416
 347  261.7127
 348  321.695
 349  353.4416
 350  268.4767
 351  325.889
 352  403.2585
 353  263.8456
 354  383.8644
 355  368.3138
 356  364.3416
 357  414.505
 358  428.6251
 359  448.5769
 360  385.0789
 361  367.1915
 362  346.8657
 363  352.854
 364  390.4455
 365  414.0909
 366  243.5709
 367  327.4543
 368  300.3896
 369  246.4949
 370  229.9387
 371  391.6646
 372  299.2253
 373  210.5118
 374  216.8258
 375  363.2271
 376  421.0503
 377  317.6764
 378  297.7007
 379  151.092
 380  138.0396
 381  347.3302
 382  454.0003
 383  433.1682
 384  354.5452
 385  242.2757
 386  364.5891
 387  373.6037
 388  195.8434
 389  198.6415
 390  239.7481
 391  226.159
 392  219.5225
 393  219.0679
 394  329.1844
 395  277.6969
 396  238.9391
 397  259.0329
 398  265.4127
 399  236.5224
 400  318.6635
 401  325.6637
 402  459.4522
 403  349.0713
 404  333.7292
 405  208.0678
 406  218.4899
 407  391.3605
 408  508.7236
 409  464.6442
 410  343.6574
 411  379.6469
 412  252.0613
 413  369.1073
 414  341.8763
 415  358.7121
 416  320.1771
 417  346.4908
 418  339.5564
 419  280.2254
 420  194.521
 421  261.1512
 422  324.257
 423  311.2478
 424  372.4093
 425  248.1888
 426  284.5108
 427  239.8478
 428  193.0917
 429  192.5387
 430  270.9536
 431  356.2941
 432  261.4537
 433  215.8291
 434  342.7576
 435  396.0666
 436  316.5269
 437  180.246
 438  197.13
 439  207.4491
 440  278.0991
 441  140.0857
 442  199.3632
 443  321.1513
 444  235.0881
 445  266.2361
 446  338.3624
 447  306.1194
 448  291.9832
 449  237.5153
 450  269.5451
 451  295.8874
 452  351.7907
 453  349.9579
 454  292.3007
 455  138.7941
 456  211.5979
 457  269.389
 458  345.8302
 459  337.6291
 460  183.3446
 461  348.8489
 462  258.7937
 463  267.6199
 464  300.9381
 465  317.3981
 466  399.8672
 467  380.4613
 468  427.6382
 469  386.2652
 470  270.912
 471  142.2499
 472  158.0511
 473  411.3346
 474  312.3576
 475  378.1304
 476  336.1133
 477  308.4793
 478  299.8376
 479  194.701
 480  293.4999
 481  326.2274
 482  451.5853
 483  343.457
 484  328.8738
 485  342.0025
 486  356.5016
 487  317.7832
 488  406.6563
 489  333.8772
 490  228.8398
 491  214.4672
 492  253.4702
 493  361.1771
 494  190.8337
 495  178.0852
 496  270.6305
 497  277.3514
 498  372.3008
 499  307.5384
 500  303.6891
 501  463.1678
 502  351.5349
 503  392.1425
 504  410.9852
 505  436.6889
 506  505.0103
 507  479.0207
 508  375.2442
 509  553.8985
 510  512.0418
 511  583.3303
