# Input file       =  1198618942.110888_cleaned.dat
# Candidate        =  PSR_0332+5434
# Telescope        =  AR
# Epoch_topo       =  58116.904214246388
# Epoch_bary       =  N/A
# T_sample         =  0.002
# Data Folded      =  7340032
# Data Avg         =  0.0333680542950508
# Data StdDev      =  1.00007749202154 
# Profile Bins     =  512
# Profile Avg      =  478.387243313312 
# Profile StdDev   =  119.7423147318   
# Reduced chi-sqr  =  0.838
# Prob(Noise)      <  0.997   (~0.0 sigma)
# P_topo (ms)      =  714.554300710528  +/- 0.000343
# P'_topo (s/s)    =  -0                +/- 1.81e-10
# P''_topo (s/s^2) =  0                 +/- 7.99e-14
# P_bary (ms)      =  N/A
# P'_bary (s/s)    =  N/A
# P''_bary (s/s^2) =  N/A
# P_orb (s)        =  N/A
# asin(i)/c (s)    =  N/A
# eccentricity     =  N/A
# w (rad)          =  N/A
# T_peri           =  N/A
######################################################
   0  788.8197
   1  838.839
   2  705.0203
   3  635.806
   4  595.7208
   5  554.5414
   6  478.5793
   7  519.1094
   8  547.8608
   9  565.1932
  10  467.3409
  11  381.3995
  12  493.5422
  13  559.6059
  14  577.8077
  15  565.5637
  16  503.0183
  17  512.9951
  18  342.0161
  19  469.9474
  20  558.3189
  21  499.9114
  22  547.0577
  23  562.8
  24  487.9548
  25  471.8778
  26  547.8109
  27  454.2584
  28  568.9512
  29  578.7938
  30  460.2706
  31  463.7645
  32  386.6353
  33  388.1564
  34  408.893
  35  527.555
  36  515.3921
  37  577.4248
  38  539.2174
  39  511.6067
  40  426.1383
  41  454.6344
  42  551.2637
  43  624.0475
  44  656.0004
  45  517.9146
  46  427.9912
  47  392.7625
  48  460.0743
  49  587.8764
  50  592.0625
  51  404.34
  52  423.295
  53  433.7275
  54  343.4286
  55  471.3404
  56  471.2348
  57  443.401
  58  519.1716
  59  478.56
  60  415.0172
  61  523.8572
  62  504.9439
  63  536.287
  64  583.4481
  65  628.1776
  66  487.9364
  67  487.2433
  68  450.2938
  69  550.8243
  70  512.6881
  71  431.1772
  72  381.1965
  73  353.4824
  74  463.2523
  75  510.5663
  76  438.6214
  77  555.9117
  78  472.8924
  79  487.8763
  80  449.304
  81  471.4491
  82  410.4187
  83  378.3196
  84  392.1184
  85  410.2314
  86  486.2625
  87  413.224
  88  384.9323
  89  482.8653
  90  490.6941
  91  554.8864
  92  446.3685
  93  486.0154
  94  535.6773
  95  435.5261
  96  432.8026
  97  513.7775
  98  495.3219
  99  392.8049
 100  399.6839
 101  490.1781
 102  468.5444
 103  390.5908
 104  335.9357
 105  313.2418
 106  439.6982
 107  538.6399
 108  467.4496
 109  484.2266
 110  447.9521
 111  415.5212
 112  317.7756
 113  303.8917
 114  373.37
 115  378.1431
 116  340.0477
 117  371.424
 118  397.7412
 119  459.8994
 120  419.1282
 121  445.1143
 122  560.6534
 123  679.9651
 124  542.0877
 125  520.1348
 126  526.8225
 127  459.4388
 128  503.9158
 129  544.1223
 130  513.4305
 131  477.6738
 132  453.1866
 133  484.0974
 134  598.5406
 135  572.3079
 136  579.6263
 137  419.0854
 138  478.7831
 139  480.6275
 140  481.5512
 141  575.5865
 142  535.0623
 143  597.4143
 144  638.9137
 145  503.4876
 146  406.0131
 147  371.7002
 148  420.0552
 149  380.0412
 150  505.0579
 151  569.8395
 152  472.3546
 153  350.8426
 154  390.7804
 155  434.1846
 156  391.9808
 157  251.2351
 158  476.4206
 159  469.2767
 160  506.0232
 161  326.6418
 162  428.726
 163  443.4466
 164  424.5679
 165  477.7486
 166  472.9044
 167  453.4336
 168  410.622
 169  512.7817
 170  544.4471
 171  480.7483
 172  511.5894
 173  470.0612
 174  464.9862
 175  377.275
 176  569.1883
 177  493.4729
 178  324.2168
 179  369.598
 180  500.9575
 181  547.2875
 182  360.0357
 183  387.112
 184  469.7926
 185  404.756
 186  400.7538
 187  447.4736
 188  442.5171
 189  445.2809
 190  411.8185
 191  371.339
 192  380.5445
 193  426.4016
 194  266.3145
 195  263.8126
 196  307.5416
 197  298.3191
 198  411.8066
 199  399.9413
 200  442.4463
 201  487.3435
 202  449.2592
 203  448.1296
 204  463.5949
 205  410.8719
 206  443.2873
 207  478.3438
 208  432.0528
 209  530.1369
 210  512.1998
 211  402.9638
 212  427.5601
 213  387.8063
 214  376.4842
 215  365.3143
 216  444.8304
 217  483.257
 218  545.8476
 219  475.0374
 220  455.5301
 221  411.6896
 222  509.1222
 223  446.3249
 224  473.0132
 225  454.9548
 226  432.6782
 227  484.9807
 228  316.0222
 229  372.2317
 230  493.2335
 231  456.9918
 232  488.1525
 233  445.4384
 234  473.7737
 235  566.1772
 236  516.621
 237  446.2569
 238  476.9317
 239  591.9163
 240  461.037
 241  461.8687
 242  516.7471
 243  526.5738
 244  525.5122
 245  454.456
 246  425.0818
 247  364.7551
 248  283.7371
 249  437.787
 250  531.9158
 251  442.3215
 252  432.321
 253  443.155
 254  414.3899
 255  390.9983
 256  432.9803
 257  482.2557
 258  504.489
 259  413.7265
 260  531.4024
 261  560.3034
 262  481.4035
 263  347.9458
 264  291.5146
 265  410.2946
 266  414.4314
 267  464.8285
 268  442.8247
 269  483.0377
 270  473.9966
 271  393.4851
 272  416.1521
 273  445.5743
 274  522.745
 275  555.4404
 276  462.8758
 277  483.4655
 278  560.2205
 279  534.8806
 280  443.9904
 281  472.0271
 282  403.96
 283  443.9794
 284  442.3954
 285  532.8243
 286  478.8757
 287  372.6619
 288  436.0097
 289  557.1966
 290  598.21
 291  575.5399
 292  570.6324
 293  436.7441
 294  541.1772
 295  483.7069
 296  500.7395
 297  603.7391
 298  494.9156
 299  464.7953
 300  473.321
 301  464.2012
 302  412.2738
 303  449.2295
 304  521.2471
 305  505.0549
 306  538.5682
 307  471.3972
 308  516.9324
 309  432.6337
 310  358.8705
 311  426.5504
 312  523.2501
 313  507.7398
 314  519.2641
 315  465.9309
 316  529.9476
 317  446.1822
 318  465.0792
 319  500.5877
 320  510.838
 321  491.2477
 322  463.3564
 323  541.8867
 324  509.6902
 325  580.1434
 326  523.136
 327  479.808
 328  513.2878
 329  532.238
 330  526.7715
 331  531.1512
 332  486.3922
 333  517.8463
 334  407.9311
 335  507.4041
 336  573.8482
 337  516.6207
 338  550.2441
 339  470.8995
 340  437.1393
 341  419.4969
 342  591.6718
 343  577.8933
 344  533.5626
 345  609.0193
 346  598.0822
 347  546.6646
 348  574.336
 349  542.4371
 350  438.2718
 351  582.4084
 352  588.648
 353  643.0972
 354  616.7228
 355  568.4507
 356  576.6907
 357  524.7895
 358  438.1275
 359  431.7788
 360  411.0952
 361  530.7166
 362  543.7383
 363  478.6075
 364  438.2293
 365  509.2361
 366  536.6092
 367  378.4113
 368  540.4706
 369  622.6616
 370  584.2801
 371  583.1668
 372  619.575
 373  475.4341
 374  327.694
 375  503.5392
 376  485.5486
 377  437.023
 378  422.0552
 379  502.901
 380  592.4805
 381  493.0137
 382  437.2573
 383  564.3879
 384  534.8549
 385  425.8295
 386  498.9844
 387  499.1639
 388  526.0954
 389  433.3083
 390  486.2494
 391  493.1497
 392  475.4391
 393  508.4659
 394  576.6576
 395  499.0695
 396  502.8078
 397  471.0314
 398  512.1105
 399  503.0533
 400  404.7261
 401  384.0933
 402  464.8132
 403  458.7633
 404  392.9578
 405  523.8844
 406  527.1019
 407  360.4354
 408  483.3334
 409  545.7159
 410  525.2495
 411  469.454
 412  479.0182
 413  589.4647
 414  563.7027
 415  431.2119
 416  424.9713
 417  355.6847
 418  411.9204
 419  414.4709
 420  422.7738
 421  363.7504
 422  449.2429
 423  537.1113
 424  537.3013
 425  490.4061
 426  552.3406
 427  577.0447
 428  552.7112
 429  451.8643
 430  427.8895
 431  552.5845
 432  563.8793
 433  398.164
 434  387.2449
 435  445.3999
 436  428.097
 437  435.948
 438  436.9649
 439  455.6571
 440  417.3082
 441  486.807
 442  532.7205
 443  466.1912
 444  533.4787
 445  510.7243
 446  541.8029
 447  583.7285
 448  631.6442
 449  521.2307
 450  446.6968
 451  425.7948
 452  441.0273
 453  378.7545
 454  422.6693
 455  305.6712
 456  296.5602
 457  474.911
 458  566.5131
 459  576.5414
 460  506.9444
 461  384.7925
 462  358.7134
 463  302.5229
 464  351.5754
 465  390.2309
 466  358.9461
 467  378.9937
 468  419.4434
 469  473.1751
 470  464.9528
 471  504.6462
 472  416.5321
 473  482.1402
 474  489.9275
 475  547.9578
 476  629.5645
 477  555.4536
 478  477.0931
 479  345.8699
 480  427.4541
 481  516.0264
 482  453.8919
 483  355.7882
 484  443.6884
 485  444.0489
 486  456.4201
 487  505.6183
 488  521.4609
 489  564.4531
 490  541.6621
 491  524.1442
 492  538.0413
 493  438.1402
 494  523.5236
 495  493.0388
 496  517.1704
 497  491.4095
 498  381.3826
 499  421.3744
 500  390.0257
 501  491.6317
 502  489.9221
 503  556.9226
 504  554.4408
 505  562.2216
 506  519.6462
 507  550.1765
 508  640.5773
 509  693.4468
 510  837.5788
 511  750.6725
