# Input file       =  1198431712.104709_cleaned.dat
# Candidate        =  PSR_0332+5434
# Telescope        =  AR
# Epoch_topo       =  58114.737200285985
# Epoch_bary       =  N/A
# T_sample         =  0.002
# Data Folded      =  7340032
# Data Avg         =  0.0291610975127903
# Data StdDev      =  1.0000720594832  
# Profile Bins     =  512
# Profile Avg      =  418.044233864453 
# Profile StdDev   =  119.741664277489 
# Reduced chi-sqr  =  0.917
# Prob(Noise)      <  0.912   (~0.0 sigma)
# P_topo (ms)      =  714.552051896365  +/- 0.00058
# P'_topo (s/s)    =  -0                +/- 3.06e-10
# P''_topo (s/s^2) =  0                 +/- 1.35e-13
# P_bary (ms)      =  N/A
# P'_bary (s/s)    =  N/A
# P''_bary (s/s^2) =  N/A
# P_orb (s)        =  N/A
# asin(i)/c (s)    =  N/A
# eccentricity     =  N/A
# w (rad)          =  N/A
# T_peri           =  N/A
######################################################
   0  846.499
   1  926.4365
   2  876.0547
   3  687.3951
   4  536.788
   5  472.501
   6  360.1854
   7  279.6585
   8  364.4142
   9  423.5433
  10  437.6961
  11  370.9745
  12  482.2408
  13  457.8778
  14  425.3693
  15  412.7294
  16  374.1707
  17  355.8956
  18  385.139
  19  352.236
  20  378.5529
  21  335.1253
  22  445.4149
  23  353.0404
  24  414.3394
  25  354.748
  26  252.3099
  27  379.1301
  28  441.614
  29  466.3255
  30  478.4433
  31  506.6002
  32  480.3856
  33  482.4388
  34  368.0586
  35  353.5287
  36  355.0272
  37  389.0024
  38  393.4066
  39  391.056
  40  368.4285
  41  224.824
  42  353.5953
  43  539.3854
  44  509.215
  45  413.4741
  46  418.5224
  47  473.8312
  48  458.7509
  49  473.3648
  50  403.6704
  51  414.099
  52  410.2338
  53  341.2234
  54  323.9719
  55  445.5251
  56  518.4922
  57  394.5069
  58  377.8185
  59  356.377
  60  394.0797
  61  398.2831
  62  386.0709
  63  354.6218
  64  329.5939
  65  157.3408
  66  328.8658
  67  422.2679
  68  443.6538
  69  427.4834
  70  430.9487
  71  418.7128
  72  426.333
  73  434.1224
  74  401.8239
  75  424.6697
  76  478.1006
  77  403.4499
  78  395.5174
  79  353.0353
  80  404.1832
  81  437.364
  82  422.094
  83  349.8427
  84  362.7852
  85  508.0489
  86  428.6357
  87  395.5168
  88  443.6059
  89  352.9442
  90  369.6127
  91  393.9528
  92  392.6636
  93  410.2589
  94  336.3177
  95  365.0409
  96  453.8007
  97  264.3752
  98  307.5107
  99  307.5988
 100  336.3976
 101  267.6479
 102  361.3826
 103  273.0154
 104  365.3207
 105  506.9395
 106  500.5175
 107  442.5541
 108  356.245
 109  383.3009
 110  359.4086
 111  528.386
 112  401.4378
 113  366.3026
 114  282.5378
 115  259.9696
 116  349.9178
 117  502.672
 118  362.3557
 119  296.2176
 120  347.4633
 121  342.8514
 122  352.2471
 123  432.5101
 124  393.1566
 125  372.1426
 126  390.0504
 127  488.6852
 128  431.9987
 129  332.4905
 130  372.4996
 131  403.2867
 132  461.632
 133  436.3845
 134  453.3887
 135  459.3666
 136  392.5129
 137  340.9353
 138  447.7429
 139  453.786
 140  346.2008
 141  341.5295
 142  319.1593
 143  371.5299
 144  381.9647
 145  354.5092
 146  347.9337
 147  442.8015
 148  385.937
 149  463.8893
 150  426.5355
 151  361.8984
 152  361.2883
 153  492.5725
 154  539.4683
 155  365.8804
 156  423.4479
 157  430.9015
 158  380.6759
 159  413.1746
 160  433.4621
 161  428.2683
 162  361.9723
 163  451.787
 164  549.5254
 165  458.4265
 166  489.9696
 167  501.6319
 168  403.8792
 169  420.9363
 170  380.4821
 171  371.5829
 172  447.7999
 173  389.079
 174  468.8927
 175  480.0031
 176  421.5214
 177  439.0897
 178  441.0789
 179  414.7566
 180  452.2172
 181  531.4562
 182  528.8533
 183  339.2085
 184  354.0941
 185  467.5403
 186  463.0897
 187  451.0604
 188  556.2637
 189  460.48
 190  396.6411
 191  386.5417
 192  456.6735
 193  363.2461
 194  345.4705
 195  387.3919
 196  209.3062
 197  339.7296
 198  501.1787
 199  426.6843
 200  321.0577
 201  381.2646
 202  505.0777
 203  371.3636
 204  426.2106
 205  446.3146
 206  437.0435
 207  360.7868
 208  318.7745
 209  394.1963
 210  422.7688
 211  396.484
 212  305.8966
 213  360.6181
 214  444.4427
 215  477.7617
 216  439.0199
 217  484.0966
 218  308.4621
 219  329.7237
 220  427.3644
 221  427.474
 222  456.5898
 223  272.2031
 224  244.1801
 225  413.4226
 226  442.5164
 227  449.184
 228  308.9469
 229  390.937
 230  478.0167
 231  486.4399
 232  355.9461
 233  385.8161
 234  450.7692
 235  381.2109
 236  285.4714
 237  330.1217
 238  381.1042
 239  425.0861
 240  408.361
 241  403.8315
 242  438.2874
 243  426.4065
 244  407.2321
 245  354.8422
 246  313.9799
 247  388.1783
 248  404.1965
 249  466.0599
 250  406.0518
 251  496.2965
 252  610.7953
 253  484.8227
 254  495.751
 255  529.9719
 256  416.7192
 257  328.0817
 258  278.433
 259  292.5663
 260  428.548
 261  470.3696
 262  506.8977
 263  451.983
 264  445.426
 265  485.6343
 266  475.1385
 267  474.3951
 268  530.7053
 269  391.7695
 270  339.1567
 271  327.907
 272  353.105
 273  390.4991
 274  439.4987
 275  499.2191
 276  531.6855
 277  442.8795
 278  197.6526
 279  340.8995
 280  475.9758
 281  461.2831
 282  450.0899
 283  344.523
 284  362.4422
 285  393.7428
 286  457.7291
 287  554.0365
 288  473.5415
 289  503.8203
 290  480.6893
 291  560.3259
 292  473.7841
 293  309.9196
 294  251.1445
 295  314.4206
 296  340.0844
 297  326.7832
 298  515.5232
 299  515.8273
 300  431.2511
 301  393.9407
 302  299.5543
 303  447.8932
 304  469.1497
 305  336.5525
 306  344.5165
 307  306.6681
 308  385.0073
 309  512.8911
 310  444.2915
 311  392.6301
 312  343.9263
 313  315.6696
 314  409.3177
 315  347.1267
 316  388.0002
 317  475.3229
 318  350.806
 319  397.867
 320  477.5835
 321  410.9401
 322  388.6465
 323  501.3151
 324  405.8519
 325  325.4239
 326  387.7818
 327  296.1805
 328  259.3704
 329  367.727
 330  440.6084
 331  346.1853
 332  261.3879
 333  401.5448
 334  373.8484
 335  289.5595
 336  327.74
 337  364.4567
 338  440.9468
 339  525.7557
 340  436.9104
 341  386.4461
 342  401.2508
 343  444.8244
 344  448.4007
 345  497.3929
 346  475.7603
 347  394.203
 348  474.2138
 349  457.6585
 350  446.1251
 351  465.2263
 352  450.2008
 353  587.4208
 354  541.6577
 355  417.5894
 356  389.4804
 357  398.7169
 358  469.6717
 359  409.9531
 360  436.7997
 361  607.3921
 362  487.0729
 363  384.1284
 364  486.9894
 365  509.9296
 366  516.8406
 367  519.6304
 368  524.9554
 369  484.7115
 370  407.1754
 371  334.4195
 372  367.7965
 373  413.5963
 374  349.2834
 375  362.8108
 376  384.0912
 377  347.4213
 378  376.6035
 379  323.7979
 380  424.3562
 381  468.4138
 382  364.2313
 383  326.5906
 384  483.0118
 385  499.5074
 386  472.2169
 387  455.5583
 388  375.6407
 389  377.3991
 390  461.7599
 391  513.3557
 392  484.5107
 393  377.0975
 394  443.2284
 395  537.9882
 396  498.5991
 397  542.9246
 398  644.9545
 399  521.8515
 400  356.8467
 401  398.2687
 402  505.6076
 403  516.5628
 404  519.2455
 405  503.5738
 406  488.9398
 407  559.4166
 408  581.6666
 409  479.7672
 410  381.2098
 411  380.7084
 412  490.188
 413  530.7525
 414  430.6021
 415  279.9491
 416  382.2067
 417  475.2421
 418  429.5344
 419  331.771
 420  427.3504
 421  505.5699
 422  426.4343
 423  400.3786
 424  423.9511
 425  397.7578
 426  374.6984
 427  282.8053
 428  307.886
 429  386.9953
 430  459.4661
 431  420.054
 432  335.5629
 433  412.565
 434  414.3979
 435  387.7191
 436  450.7552
 437  451.398
 438  457.1757
 439  401.1765
 440  376.4678
 441  461.3014
 442  480.8163
 443  496.2929
 444  456.3838
 445  520.8246
 446  465.8692
 447  322.7322
 448  356.2103
 449  475.2034
 450  474.694
 451  370.2874
 452  394.1795
 453  323.1394
 454  327.889
 455  363.133
 456  393.3024
 457  387.5236
 458  462.8423
 459  432.1909
 460  387.4082
 461  352.192
 462  345.5289
 463  357.0649
 464  411.7591
 465  421.4118
 466  376.1767
 467  402.5181
 468  380.2308
 469  332.5219
 470  335.0551
 471  411.8479
 472  520.9879
 473  477.029
 474  492.6752
 475  324.5163
 476  359.1345
 477  425.9711
 478  381.6202
 479  365.8378
 480  358.2788
 481  443.4694
 482  476.7653
 483  419.6655
 484  415.2085
 485  437.9303
 486  528.3564
 487  562.2769
 488  631.6899
 489  488.3067
 490  400.6865
 491  409.9817
 492  356.7258
 493  339.7687
 494  449.9004
 495  436.8687
 496  457.8919
 497  374.1667
 498  296.7215
 499  354.0093
 500  422.2414
 501  486.5158
 502  402.8491
 503  407.9501
 504  440.3186
 505  474.7116
 506  487.6744
 507  638.9254
 508  484.3856
 509  579.1489
 510  693.4783
 511  780.7667
