# Input file       =  1198589328.111569_cleaned.dat
# Candidate        =  PSR_0332+5434
# Telescope        =  AR
# Epoch_topo       =  58116.561459624638
# Epoch_bary       =  N/A
# T_sample         =  0.002
# Data Folded      =  7208960
# Data Avg         =  0.0181935924436561
# Data StdDev      =  1.00000807412398 
# Profile Bins     =  512
# Profile Avg      =  256.431399994054 
# Profile StdDev   =  118.660133862428 
# Reduced chi-sqr  =  1.200
# Prob(Noise)      <  0.00122   (~3.0 sigma)
# P_topo (ms)      =  714.553643661556  +/- 0.000136
# P'_topo (s/s)    =  -0                +/- 7.31e-11
# P''_topo (s/s^2) =  0                 +/- 3.29e-14
# P_bary (ms)      =  N/A
# P'_bary (s/s)    =  N/A
# P''_bary (s/s^2) =  N/A
# P_orb (s)        =  N/A
# asin(i)/c (s)    =  N/A
# eccentricity     =  N/A
# w (rad)          =  N/A
# T_peri           =  N/A
######################################################
   0  663.0234
   1  618.8362
   2  622.8843
   3  504.7578
   4  423.6288
   5  332.0324
   6  233.5214
   7  230.7497
   8  214.07
   9  262.3197
  10  401.0212
  11  399.3793
  12  331.2299
  13  421.0165
  14  482.3044
  15  488.8903
  16  407.4756
  17  363.129
  18  195.4759
  19  287.4974
  20  236.9288
  21  186.9499
  22  240.4642
  23  191.3145
  24  156.9595
  25  344.2098
  26  281.9754
  27  195.6949
  28  321.7433
  29  208.5476
  30  272.3321
  31  237.1736
  32  282.3214
  33  304.8045
  34  248.7635
  35  296.3337
  36  344.8351
  37  242.7033
  38  247.4478
  39  249.05
  40  256.8652
  41  216.8306
  42  299.8214
  43  306.0795
  44  380.4214
  45  208.7799
  46  251.5924
  47  245.3876
  48  209.3086
  49  294.2528
  50  307.3751
  51  239.863
  52  220.8414
  53  238.5088
  54  271.9271
  55  220.5404
  56  229.558
  57  235.9018
  58  227.0139
  59  203.0601
  60  186.8999
  61  193.7609
  62  256.4314
  63  281.1088
  64  321.4553
  65  255.6484
  66  177.9757
  67  170.9756
  68  169.7482
  69  280.5662
  70  309.0702
  71  319.9659
  72  248.7616
  73  139.0924
  74  162.1726
  75  251.6989
  76  163.5169
  77  132.629
  78  129.9397
  79  268.5826
  80  271.5028
  81  358.2143
  82  251.4761
  83  230.7586
  84  267.9733
  85  386.7297
  86  299.8552
  87  211.783
  88  266.0803
  89  236.7728
  90  266.0162
  91  337.9054
  92  280.3907
  93  132.7243
  94  136.9395
  95  280.6282
  96  300.7379
  97  365.1944
  98  346.7421
  99  197.6383
 100  104.0509
 101  247.9068
 102  273.9122
 103  292.5427
 104  332.953
 105  215.8477
 106  215.3795
 107  167.1882
 108  259.7795
 109  289.6292
 110  294.9252
 111  274.4569
 112  161.0361
 113  169.6231
 114  140.6658
 115  192.5502
 116  282.8859
 117  251.3332
 118  100.2682
 119  271.7036
 120  224.2503
 121  134.204
 122  29.00809
 123  183.6293
 124  215.5305
 125  167.8143
 126  224.0105
 127  208.861
 128  225.7995
 129  213.7289
 130  244.7276
 131  336.2955
 132  355.3913
 133  201.0432
 134  186.0562
 135  170.1989
 136  259.5244
 137  257.5269
 138  281.0844
 139  227.9854
 140  238.8552
 141  208.0134
 142  93.19353
 143  171.1831
 144  331.213
 145  319.6587
 146  216.8955
 147  136.0643
 148  178.1804
 149  129.1974
 150  226.658
 151  204.839
 152  183.2045
 153  144.6472
 154  177.6903
 155  174.5844
 156  154.4931
 157  253.1118
 158  398.8126
 159  144.6004
 160  109.9929
 161  250.4208
 162  321.6449
 163  298.9098
 164  294.0802
 165  226.0947
 166  205.241
 167  235.861
 168  337.37
 169  212.8194
 170  243.2157
 171  337.8971
 172  219.3074
 173  193.129
 174  231.2886
 175  232.1357
 176  122.9378
 177  295.7222
 178  446.0204
 179  465.4703
 180  325.2472
 181  296.0966
 182  177.1483
 183  198.6709
 184  104.8208
 185  263.4126
 186  219.3333
 187  337.2267
 188  354.796
 189  148.3932
 190  108.881
 191  225.1855
 192  285.8767
 193  259.4915
 194  243.9094
 195  358.1908
 196  335.369
 197  303.6472
 198  348.9814
 199  216.3953
 200  105.3209
 201  127.8127
 202  427.4561
 203  259.119
 204  267.7281
 205  245.9952
 206  254.3183
 207  305.8626
 208  346.5986
 209  345.761
 210  325.8339
 211  377.2794
 212  384.5401
 213  332.3481
 214  264.9106
 215  179.8225
 216  66.32378
 217  129.3159
 218  232.555
 219  213.2646
 220  266.9564
 221  285.6277
 222  136.5859
 223  183.6229
 224  260.5968
 225  237.3612
 226  271.0922
 227  233.6693
 228  331.6873
 229  273.336
 230  182.4839
 231  213.3912
 232  309.7075
 233  261.7917
 234  219.8909
 235  209.6284
 236  99.60429
 237  250.4
 238  185.6762
 239  212.8035
 240  105.8272
 241  255.6554
 242  295.7075
 243  260.0575
 244  247.2382
 245  170.2117
 246  253.2645
 247  348.9537
 248  271.1688
 249  446.2516
 250  285.8168
 251  104.5083
 252  69.49292
 253  162.1819
 254  269.6923
 255  414.8241
 256  350.6697
 257  363.6293
 258  272.2465
 259  293.0891
 260  326.7247
 261  375.842
 262  374.3766
 263  324.0887
 264  331.2819
 265  244.1958
 266  290.5365
 267  417.6903
 268  493.3948
 269  401.0807
 270  378.8997
 271  268.3278
 272  264.644
 273  283.7328
 274  233.3061
 275  82.35898
 276  102.0623
 277  184.0472
 278  241.6349
 279  304.366
 280  367.6752
 281  197.5777
 282  167.2721
 283  275.9914
 284  211.7463
 285  310.7455
 286  265.5699
 287  194.284
 288  255.1944
 289  161.1975
 290  244.1492
 291  252.5783
 292  278.9247
 293  459.6133
 294  402.0188
 295  339.7686
 296  318.7876
 297  328.4446
 298  238.5811
 299  278.8944
 300  304.4626
 301  264.7963
 302  247.2117
 303  315.3575
 304  282.6657
 305  324.3125
 306  389.2423
 307  334.9998
 308  212.8664
 309  158.1967
 310  154.4815
 311  115.8129
 312  216.6981
 313  297.0992
 314  328.3823
 315  391.8622
 316  347.1281
 317  225.6616
 318  316.8008
 319  316.5403
 320  299.8586
 321  252.0091
 322  351.3213
 323  303.3096
 324  131.5866
 325  97.85384
 326  274.1212
 327  265.6448
 328  253.0143
 329  377.4955
 330  441.3155
 331  144.4279
 332  70.90487
 333  -14.69075
 334  117.4546
 335  213.04
 336  225.1751
 337  270.1736
 338  130.6221
 339  142.6809
 340  149.8275
 341  318.152
 342  277.3824
 343  243.0543
 344  164.5194
 345  124.2214
 346  218.8445
 347  230.0346
 348  252.5288
 349  319.5103
 350  218.6337
 351  227.7694
 352  193.6011
 353  219.5402
 354  357.6855
 355  279.3215
 356  295.0142
 357  325.6234
 358  331.7605
 359  435.1216
 360  442.8308
 361  338.167
 362  300.9761
 363  191.25
 364  104.4294
 365  102.4593
 366  196.3607
 367  226.0015
 368  139.5391
 369  173.8962
 370  255.6023
 371  220.4789
 372  147.4504
 373  211.281
 374  283.5329
 375  317.559
 376  324.196
 377  426.6221
 378  434.9151
 379  360.6263
 380  403.6696
 381  246.184
 382  108.028
 383  147.9547
 384  346.4176
 385  252.5071
 386  153.7175
 387  306.8815
 388  297.1703
 389  205.7896
 390  138.5832
 391  93.42045
 392  145.6591
 393  220.71
 394  282.2181
 395  277.3876
 396  180.4522
 397  265.833
 398  308.2338
 399  240.8983
 400  336.5237
 401  268.2741
 402  310.7134
 403  185.2014
 404  177.2036
 405  283.5225
 406  372.0753
 407  360.0187
 408  336.3541
 409  300.1184
 410  219.1558
 411  179.1379
 412  220.2777
 413  229.5968
 414  277.3542
 415  259.4757
 416  257.2456
 417  232.8586
 418  199.2206
 419  101.4266
 420  146.079
 421  147.8884
 422  208.6644
 423  216.7044
 424  220.9919
 425  189.3514
 426  219.9009
 427  177.6429
 428  125.8477
 429  158.2567
 430  251.8167
 431  292.0213
 432  319.1353
 433  260.9983
 434  262.7703
 435  201.0241
 436  155.3224
 437  172.5905
 438  310.3444
 439  302.7779
 440  223.8032
 441  301.3381
 442  167.5897
 443  248.8518
 444  370.3827
 445  258.844
 446  225.3088
 447  275.1516
 448  103.8152
 449  133.3566
 450  395.8454
 451  404.0721
 452  380.3277
 453  328.1852
 454  244.2993
 455  80.68828
 456  78.51685
 457  196.8827
 458  294.4708
 459  165.3261
 460  168.2017
 461  269.3805
 462  330.6852
 463  195.5772
 464  171.3682
 465  217.1434
 466  283.5276
 467  210.2971
 468  215.6373
 469  179.7248
 470  271.805
 471  267.9483
 472  131.1226
 473  146.6837
 474  221.8308
 475  165.6675
 476  243.0501
 477  204.3844
 478  214.1144
 479  125.4861
 480  264.7052
 481  268.201
 482  264.1382
 483  331.7715
 484  212.7786
 485  305.9291
 486  290.6465
 487  84.40254
 488  128.0999
 489  300.6725
 490  360.9271
 491  180.9389
 492  148.9573
 493  213.1599
 494  319.1844
 495  244.9333
 496  152.9956
 497  216.8129
 498  349.992
 499  420.0279
 500  456.212
 501  322.1194
 502  244.3571
 503  212.1511
 504  333.0683
 505  287.6592
 506  375.9486
 507  429.2827
 508  453.6395
 509  522.9034
 510  605.0063
 511  765.7485
