# Input file       =  1198705058.107936_cleaned.dat
# Candidate        =  PSR_0332+5434
# Telescope        =  AR
# Epoch_topo       =  58117.900927175186
# Epoch_bary       =  N/A
# T_sample         =  0.002
# Data Folded      =  7340032
# Data Avg         =  0.0261860044018333
# Data StdDev      =  1.00006713332878 
# Profile Bins     =  512
# Profile Avg      =  375.429527574186 
# Profile StdDev   =  119.741074454064 
# Reduced chi-sqr  =  0.824
# Prob(Noise)      <  0.999   (~0.0 sigma)
# P_topo (ms)      =  714.555161833092  +/- 0.000378
# P'_topo (s/s)    =  -0                +/- 2e-10
# P''_topo (s/s^2) =  0                 +/- 8.81e-14
# P_bary (ms)      =  N/A
# P'_bary (s/s)    =  N/A
# P''_bary (s/s^2) =  N/A
# P_orb (s)        =  N/A
# asin(i)/c (s)    =  N/A
# eccentricity     =  N/A
# w (rad)          =  N/A
# T_peri           =  N/A
######################################################
   0  615.1888
   1  666.2067
   2  662.311
   3  568.186
   4  452.9224
   5  315.6225
   6  418.6283
   7  468.2181
   8  450.4861
   9  535.7272
  10  436.788
  11  400.9679
  12  362.62
  13  445.0458
  14  321.8572
  15  322.1678
  16  372.8727
  17  315.6189
  18  344.3582
  19  391.9854
  20  430.9406
  21  394.6721
  22  258.1133
  23  315.8589
  24  352.0661
  25  446.2495
  26  385.8262
  27  173.1208
  28  303.1815
  29  457.52
  30  422.8595
  31  384.7644
  32  339.7323
  33  281.0628
  34  380.6518
  35  365.3618
  36  348.7688
  37  347.1961
  38  424.6045
  39  452.1359
  40  324.2633
  41  266.7012
  42  402.0678
  43  328.0276
  44  361.6348
  45  494.4891
  46  360.2533
  47  345.8631
  48  421.9032
  49  318.6565
  50  328.7141
  51  332.5445
  52  423.4593
  53  375.9209
  54  245.4398
  55  366.3373
  56  505.6175
  57  419.4207
  58  314.3171
  59  352.4187
  60  364.2763
  61  303.7162
  62  330.0642
  63  212.7103
  64  214.5245
  65  230.4525
  66  341.2891
  67  361.5957
  68  307.5468
  69  369.7923
  70  423.7317
  71  392.2056
  72  404.2008
  73  441.1933
  74  485.1699
  75  469.8952
  76  376.0902
  77  391.7711
  78  434.7773
  79  332.8096
  80  320.8464
  81  275.3696
  82  290.5416
  83  387.8163
  84  367.7891
  85  366.2721
  86  334.6588
  87  332.7281
  88  291.9473
  89  326.8172
  90  261.6265
  91  150.8414
  92  176.6044
  93  361.8754
  94  408.1484
  95  340.8856
  96  251.3949
  97  338.8863
  98  332.0032
  99  383.1101
 100  362.8966
 101  304.2399
 102  321.1278
 103  421.6946
 104  471.8698
 105  362.5385
 106  382.9423
 107  411.8231
 108  322.1134
 109  282.8976
 110  217.5712
 111  321.1139
 112  353.4014
 113  359.3217
 114  318.1449
 115  337.2456
 116  309.8207
 117  350.2711
 118  313.7465
 119  330.5442
 120  291.6987
 121  275.1221
 122  332.2497
 123  367.7422
 124  391.7336
 125  238.6288
 126  235.5061
 127  357.3709
 128  413.1205
 129  389.0268
 130  346.7071
 131  352.5224
 132  222.0155
 133  301.0244
 134  152.5114
 135  178.3884
 136  364.5824
 137  369.7022
 138  411.0105
 139  354.4266
 140  351.1204
 141  294.8022
 142  322.5897
 143  423.9978
 144  416.9026
 145  335.9254
 146  424.9598
 147  398.4362
 148  282.6629
 149  327.5862
 150  356.3944
 151  406.4641
 152  368.8243
 153  276.319
 154  217.473
 155  205.8286
 156  386.0595
 157  523.0485
 158  477.9802
 159  335.8454
 160  275.2091
 161  370.9182
 162  302.2506
 163  344.8536
 164  431.8727
 165  409.416
 166  343.9481
 167  396.259
 168  441.0723
 169  406.4427
 170  454.5025
 171  337.6561
 172  370.2974
 173  403.1219
 174  435.9953
 175  377.2612
 176  204.3148
 177  242.668
 178  240.4211
 179  241.7787
 180  257.091
 181  400.4934
 182  430.2084
 183  390.1027
 184  410.9274
 185  548.4656
 186  414.5337
 187  384.4572
 188  317.2784
 189  317.1556
 190  377.982
 191  314.9957
 192  299.2175
 193  213.5321
 194  236.6446
 195  409.6134
 196  456.7457
 197  418.3129
 198  320.3481
 199  315.1155
 200  317.61
 201  284.6759
 202  204.1432
 203  292.9354
 204  404.8151
 205  320.2793
 206  287.5691
 207  215.3849
 208  344.3257
 209  249.4499
 210  308.1575
 211  330.2116
 212  479.1951
 213  378.8075
 214  347.4675
 215  297.3762
 216  323.7338
 217  545.7073
 218  409.2087
 219  370.6175
 220  304.2904
 221  331.9578
 222  493.535
 223  437.9251
 224  409.3072
 225  353.8426
 226  286.9923
 227  220.1358
 228  285.9934
 229  433.0121
 230  498.7153
 231  482.4532
 232  466.2857
 233  330.8612
 234  263.5537
 235  421.9891
 236  440.8817
 237  411.9202
 238  513.8644
 239  459.5989
 240  285.705
 241  323.5967
 242  340.8411
 243  362.1803
 244  446.4287
 245  359.6883
 246  340.5597
 247  350.5476
 248  405.6552
 249  386.4328
 250  349.5221
 251  375.5699
 252  366.1461
 253  433.1884
 254  325.1248
 255  282.2908
 256  296.9813
 257  413.7066
 258  442.7654
 259  417.4753
 260  405.5283
 261  432.4672
 262  307.4868
 263  346.0575
 264  439.0871
 265  439.3718
 266  406.9372
 267  350.6679
 268  392.9113
 269  376.121
 270  271.3682
 271  380.7664
 272  407.4142
 273  336.2195
 274  448.5898
 275  481.5165
 276  523.3967
 277  465.4574
 278  498.6881
 279  427.752
 280  440.7186
 281  474.7047
 282  437.7993
 283  389.0299
 284  463.4938
 285  568.2108
 286  494.9239
 287  401.6717
 288  347.0542
 289  391.5956
 290  429.4275
 291  465.2427
 292  442.4258
 293  462.2332
 294  488.2368
 295  394.8591
 296  321.1085
 297  411.2884
 298  348.5454
 299  326.9774
 300  369.5182
 301  443.0411
 302  433.4715
 303  312.4693
 304  405.4135
 305  379.7781
 306  467.5173
 307  465.3204
 308  350.1742
 309  381.9499
 310  347.1703
 311  369.7224
 312  319.2768
 313  352.2276
 314  353.1802
 315  332.4651
 316  420.4385
 317  286.9449
 318  202.6933
 319  390.7674
 320  396.1436
 321  210.1974
 322  214.1586
 323  257.9628
 324  355.9831
 325  468.2542
 326  423.119
 327  328.441
 328  259.1107
 329  391.9399
 330  454.6115
 331  435.6676
 332  413.5374
 333  320.6255
 334  329.4785
 335  470.4019
 336  381.2658
 337  302.0666
 338  413.8045
 339  360.7482
 340  441.153
 341  374.3551
 342  301.0092
 343  314.2162
 344  324.0933
 345  310.7826
 346  315.3572
 347  385.2584
 348  276.8473
 349  315.6877
 350  410.4299
 351  526.0947
 352  481.2254
 353  361.1606
 354  366.3467
 355  426.8248
 356  415.9159
 357  386.2731
 358  428.6807
 359  454.8122
 360  444.2646
 361  254.5064
 362  234.2572
 363  233.9772
 364  354.8135
 365  349.5094
 366  253.5782
 367  298.1028
 368  294.9821
 369  189.5909
 370  314.2677
 371  423.7757
 372  408.8251
 373  319.3748
 374  367.5629
 375  540.6464
 376  511.9396
 377  360.7723
 378  287.383
 379  399.0433
 380  375.8878
 381  331.3331
 382  367.3559
 383  350.2492
 384  469.2365
 385  457.5862
 386  380.4754
 387  339.6146
 388  381.3188
 389  404.3268
 390  430.7213
 391  371.6606
 392  373.6407
 393  350.981
 394  461.8397
 395  480.5193
 396  337.5268
 397  329.9069
 398  287.6187
 399  331.2709
 400  442.9197
 401  415.8134
 402  357.8623
 403  350.2653
 404  345.4585
 405  284.1082
 406  281.7623
 407  334.585
 408  387.2301
 409  349.8575
 410  366.4458
 411  381.4863
 412  352.2989
 413  249.9983
 414  352.0508
 415  319.8849
 416  383.4352
 417  441.0688
 418  469.7781
 419  416.4485
 420  459.8572
 421  437.1283
 422  395.5352
 423  391.7405
 424  443.4789
 425  430.9894
 426  500.154
 427  371.9423
 428  254.1319
 429  381.31
 430  407.1567
 431  453.631
 432  537.0326
 433  582.5211
 434  459.4546
 435  366.6341
 436  371.8803
 437  360.1075
 438  368.6982
 439  422.4771
 440  425.1917
 441  421.3178
 442  377.2376
 443  335.9411
 444  370.1818
 445  372.7008
 446  481.0923
 447  515.0894
 448  448.8409
 449  462.7333
 450  423.4919
 451  394.2434
 452  384.179
 453  415.2487
 454  338.0204
 455  377.073
 456  346.3536
 457  389.1098
 458  363.5065
 459  249.6359
 460  250.6466
 461  345.3025
 462  432.5122
 463  360.1136
 464  433.6483
 465  461.5363
 466  417.0063
 467  415.2849
 468  453.9596
 469  347.5551
 470  355.7146
 471  459.8811
 472  382.8821
 473  372.8918
 474  443.7717
 475  471.9916
 476  509.8756
 477  330.8569
 478  355.223
 479  439.3598
 480  330.4361
 481  270.5128
 482  370.5485
 483  449.0587
 484  446.1202
 485  436.8253
 486  419.8006
 487  386.7261
 488  340.8297
 489  386.595
 490  372.122
 491  386.4953
 492  372.0709
 493  383.543
 494  383.85
 495  379.7956
 496  463.8788
 497  512.8631
 498  494.573
 499  563.0692
 500  519.8358
 501  514.4659
 502  444.5567
 503  416.3882
 504  346.277
 505  490.2794
 506  491.4983
 507  582.8353
 508  540.137
 509  457.4
 510  449.0901
 511  559.6439
