# Input file       =  1198761694.129448_cleaned.dat
# Candidate        =  PSR_0332+5434
# Telescope        =  AR
# Epoch_topo       =  58118.556436683422
# Epoch_bary       =  N/A
# T_sample         =  0.002
# Data Folded      =  7405568
# Data Avg         =  0.0205033125725189
# Data StdDev      =  1.00006110512915 
# Profile Bins     =  512
# Profile Avg      =  296.575725762334 
# Profile StdDev   =  120.273719919118 
# Reduced chi-sqr  =  1.347
# Prob(Noise)      <  2.4e-07   (~5.0 sigma)
# P_topo (ms)      =  714.55536618622   +/- 6.36e-05
# P'_topo (s/s)    =  -0                +/- 3.33e-11
# P''_topo (s/s^2) =  0                 +/- 1.45e-14
# P_bary (ms)      =  N/A
# P'_bary (s/s)    =  N/A
# P''_bary (s/s^2) =  N/A
# P_orb (s)        =  N/A
# asin(i)/c (s)    =  N/A
# eccentricity     =  N/A
# w (rad)          =  N/A
# T_peri           =  N/A
######################################################
   0  762.8967
   1  617.2183
   2  636.1356
   3  456.6562
   4  457.9946
   5  366.8454
   6  398.7363
   7  347.5956
   8  347.0706
   9  382.1376
  10  397.3244
  11  356.0416
  12  449.2849
  13  414.3844
  14  345.9961
  15  372.593
  16  326.4557
  17  427.8608
  18  418.7313
  19  412.386
  20  384.565
  21  282.4156
  22  317.3813
  23  176.3407
  24  203.527
  25  392.8884
  26  334.725
  27  339.4887
  28  214.7459
  29  309.2988
  30  369.7623
  31  315.9221
  32  276.9688
  33  330.8917
  34  338.9942
  35  475.9609
  36  504.9673
  37  338.0358
  38  215.4974
  39  66.80824
  40  149.0545
  41  274.4277
  42  451.4203
  43  542.9773
  44  461.4142
  45  376.9669
  46  369.3237
  47  282.5075
  48  323.1867
  49  369.6814
  50  308.9537
  51  338.776
  52  333.4814
  53  184.8474
  54  211.8264
  55  295.8391
  56  133.3634
  57  91.11098
  58  292.5178
  59  380.4041
  60  371.1286
  61  301.2126
  62  333.1898
  63  300.8758
  64  229.7048
  65  93.47771
  66  192.3108
  67  199.4949
  68  238.7053
  69  174.2064
  70  402.3578
  71  331.818
  72  213.9992
  73  172.6771
  74  346.9801
  75  207.8444
  76  371.1855
  77  428.0956
  78  345.811
  79  365.7521
  80  440.802
  81  440.2352
  82  432.6846
  83  422.713
  84  504.373
  85  427.8405
  86  498.2137
  87  440.5284
  88  416.598
  89  398.2199
  90  237.3345
  91  232.2372
  92  328.0676
  93  332.6758
  94  248.4331
  95  346.7966
  96  364.5236
  97  287.0358
  98  273.523
  99  391.9893
 100  351.1773
 101  292.5069
 102  405.1447
 103  475.4809
 104  284.4708
 105  270.2589
 106  336.9571
 107  304.1978
 108  162.5659
 109  262.3855
 110  375.8831
 111  479.485
 112  469.8059
 113  331.4481
 114  232.8555
 115  139.0449
 116  214.9973
 117  243.6167
 118  297.0786
 119  385.5004
 120  330.8142
 121  157.0924
 122  253.4519
 123  188.7099
 124  272.1067
 125  252.1618
 126  229.6988
 127  335.6095
 128  348.9796
 129  248.06
 130  168.2958
 131  174.032
 132  149.6608
 133  173.6062
 134  211.5308
 135  327.6235
 136  320.683
 137  325.0324
 138  240.815
 139  150.9606
 140  295.2187
 141  318.1529
 142  293.3698
 143  488.8292
 144  420.0885
 145  337.8005
 146  276.4304
 147  220.9666
 148  231.1336
 149  268.6872
 150  353.0819
 151  363.7359
 152  421.5885
 153  435.7981
 154  418.515
 155  399.7352
 156  185.2413
 157  355.4795
 158  480.8506
 159  411.1018
 160  266.3296
 161  237.8388
 162  278.149
 163  337.5515
 164  325.4464
 165  311.0236
 166  321.4804
 167  285.0724
 168  354.213
 169  266.6862
 170  207.0549
 171  347.5535
 172  346.2725
 173  408.1093
 174  392.5827
 175  425.0369
 176  355.2859
 177  296.5359
 178  328.5978
 179  171.7506
 180  103.8479
 181  217.2145
 182  278.1837
 183  291.0876
 184  420.3241
 185  327.0268
 186  394.9005
 187  432.0315
 188  271.8935
 189  79.71142
 190  358.0039
 191  301.8382
 192  245.4841
 193  448.2783
 194  373.556
 195  362.0919
 196  307.8618
 197  391.4501
 198  393.1033
 199  304.5802
 200  359.3152
 201  375.5404
 202  414.3122
 203  375.9381
 204  244.0409
 205  173.3247
 206  205.4261
 207  281.6064
 208  251.4556
 209  342.3805
 210  308.0979
 211  477.91
 212  359.2894
 213  242.8185
 214  276.9739
 215  237.4421
 216  365.9444
 217  380.8726
 218  381.0814
 219  400.6646
 220  366.2603
 221  324.1051
 222  318.2549
 223  322.5092
 224  437.7815
 225  499.7254
 226  407.4052
 227  351.2203
 228  108.9668
 229  190.0926
 230  329.3185
 231  418.3956
 232  300.3773
 233  460.7144
 234  438.1021
 235  363.6402
 236  429.9401
 237  87.58768
 238  234.3106
 239  269.8739
 240  319.2355
 241  242.0126
 242  368.5534
 243  424.128
 244  264.5114
 245  59.11776
 246  142.8006
 247  388.2223
 248  313.9071
 249  290.0438
 250  227.5831
 251  229.0216
 252  254.172
 253  413.1692
 254  351.5119
 255  277.1529
 256  359.1953
 257  176.7425
 258  180.2669
 259  322.9956
 260  355.6788
 261  259.7215
 262  287.4193
 263  275.4355
 264  347.459
 265  335.8364
 266  246.7394
 267  231.771
 268  280.2516
 269  359.9243
 270  226.9283
 271  260.7113
 272  319.0109
 273  320.5645
 274  273.8224
 275  166.1243
 276  273.8843
 277  322.9371
 278  223.783
 279  129.3827
 280  152.8982
 281  244.1404
 282  226.7918
 283  291.2653
 284  320.6335
 285  314.158
 286  231.2497
 287  214.2429
 288  295.6856
 289  320.0411
 290  299.0665
 291  276.6609
 292  319.3239
 293  248.7006
 294  335.6393
 295  198.8666
 296  68.34418
 297  145.8996
 298  183.8008
 299  228.9707
 300  249.7006
 301  537.566
 302  394.7666
 303  195.5449
 304  144.9566
 305  207.126
 306  366.4124
 307  237.7127
 308  301.9868
 309  341.4527
 310  321.2525
 311  263.8159
 312  28.31376
 313  173.1798
 314  347.0767
 315  364.5983
 316  387.797
 317  313.3347
 318  209.5437
 319  267.301
 320  261.2162
 321  196.9433
 322  211.1961
 323  224.2331
 324  246.6998
 325  199.4886
 326  255.1581
 327  193.722
 328  235.5069
 329  261.7453
 330  241.8822
 331  289.0225
 332  287.1247
 333  398.8116
 334  273.2161
 335  387.2252
 336  300.9138
 337  202.591
 338  219.4822
 339  322.9374
 340  364.3232
 341  394.913
 342  483.1813
 343  264.0153
 344  225.8933
 345  246.0076
 346  107.9145
 347  42.43546
 348  220.4448
 349  306.7446
 350  364.5367
 351  311.4869
 352  165.3547
 353  70.31913
 354  173.6078
 355  252.3324
 356  182.0442
 357  290.6837
 358  335.6972
 359  289.6327
 360  279.6982
 361  184.4031
 362  246.8706
 363  349.331
 364  217.8166
 365  275.1985
 366  265.632
 367  278.6165
 368  293.1113
 369  125.7968
 370  310.8076
 371  310.0707
 372  330.4841
 373  429.6529
 374  232.7577
 375  224.2581
 376  326.1648
 377  357.1239
 378  368.5118
 379  254.6801
 380  239.502
 381  256.3431
 382  291.9955
 383  269.3561
 384  205.3831
 385  215.4681
 386  57.44964
 387  -10.11979
 388  144.326
 389  263.7909
 390  249.2185
 391  196.9498
 392  193.5016
 393  249.5862
 394  186.6784
 395  197.3685
 396  237.8264
 397  248.1934
 398  221.1248
 399  160.2842
 400  283.1126
 401  444.3409
 402  286.7009
 403  149.0562
 404  214.6594
 405  268.6732
 406  284.2557
 407  376.5053
 408  436.8525
 409  302.9557
 410  358.0289
 411  334.7524
 412  421.2842
 413  338.5376
 414  383.2028
 415  338.6745
 416  283.3899
 417  325.7757
 418  355.6613
 419  245.3141
 420  274.3911
 421  302.1588
 422  323.8755
 423  289.1863
 424  376.87
 425  203.0589
 426  246.2946
 427  272.8636
 428  208.3452
 429  218.1566
 430  254.2134
 431  200.6517
 432  266.2755
 433  240.2724
 434  240.5429
 435  333.0291
 436  149.2076
 437  256.464
 438  266.9029
 439  275.9978
 440  230.2767
 441  275.314
 442  295.5372
 443  220.5469
 444  236.1515
 445  369.9084
 446  94.01817
 447  89.25369
 448  232.3306
 449  349.9577
 450  250.463
 451  224.6286
 452  302.5386
 453  270.3585
 454  160.0534
 455  118.1358
 456  251.6224
 457  294.5245
 458  333.5284
 459  348.1435
 460  211.0474
 461  105.8364
 462  93.3976
 463  170.605
 464  250.1498
 465  204.8181
 466  226.2487
 467  277.1745
 468  161.4331
 469  269.8686
 470  365.198
 471  388.2986
 472  232.2101
 473  272.7048
 474  246.4386
 475  201.3442
 476  146.9149
 477  206.1141
 478  312.7365
 479  235.0565
 480  275.0992
 481  252.6342
 482  296.5994
 483  327.6818
 484  220.9883
 485  211.011
 486  196.0208
 487  195.1156
 488  330.0753
 489  350.8118
 490  318.8295
 491  228.9087
 492  265.4733
 493  372.812
 494  238.6035
 495  193.2898
 496  228.3266
 497  315.4932
 498  482.3025
 499  513.127
 500  506.4344
 501  529.3113
 502  360.0858
 503  182.1433
 504  271.284
 505  273.2849
 506  291.8699
 507  503.7672
 508  611.2238
 509  441.1938
 510  508.2724
 511  722.9623
