# Input file       =  1198188690.116503_cleaned.dat
# Candidate        =  PSR_0332+5434
# Telescope        =  AR
# Epoch_topo       =  58111.924445792858
# Epoch_bary       =  N/A
# T_sample         =  0.002
# Data Folded      =  7340032
# Data Avg         =  0.0306962195422746
# Data StdDev      =  1.0001741430142  
# Profile Bins     =  512
# Profile Avg      =  440.081546123878 
# Profile StdDev   =  119.75388704862  
# Reduced chi-sqr  =  0.752
# Prob(Noise)      <  1   (~0.0 sigma)
# P_topo (ms)      =  714.549851159201  +/- 0.000222
# P'_topo (s/s)    =  -0                +/- 1.17e-10
# P''_topo (s/s^2) =  0                 +/- 5.17e-14
# P_bary (ms)      =  N/A
# P'_bary (s/s)    =  N/A
# P''_bary (s/s^2) =  N/A
# P_orb (s)        =  N/A
# asin(i)/c (s)    =  N/A
# eccentricity     =  N/A
# w (rad)          =  N/A
# T_peri           =  N/A
######################################################
   0  753.9894
   1  829.4205
   2  718.1142
   3  671.2308
   4  565.7689
   5  476.9688
   6  384.3395
   7  372.9255
   8  444.8397
   9  446.7838
  10  417.1456
  11  448.693
  12  397.9386
  13  413.0597
  14  521.5206
  15  543.6974
  16  435.0805
  17  356.6247
  18  380.4854
  19  348.6702
  20  313.086
  21  382.2797
  22  450.6503
  23  427.6075
  24  425.2794
  25  446.2292
  26  453.3866
  27  292.6912
  28  324.3726
  29  365.5306
  30  349.0771
  31  286.4274
  32  419.0169
  33  468.4434
  34  394.1472
  35  421.5628
  36  429.9484
  37  436.2112
  38  344.9112
  39  383.6586
  40  389.796
  41  432.7794
  42  461.1599
  43  472.4356
  44  387.6857
  45  417.0202
  46  543.063
  47  425.5589
  48  345.8713
  49  416.446
  50  401.6364
  51  420.2334
  52  480.4904
  53  400.5006
  54  360.0219
  55  363.1446
  56  363.6731
  57  417.3685
  58  442.8197
  59  408.4027
  60  357.9886
  61  431.4228
  62  489.5286
  63  423.6141
  64  387.7513
  65  554.5624
  66  407.8912
  67  404.2193
  68  428.4913
  69  456.952
  70  379.277
  71  383.6542
  72  421.8294
  73  427.2398
  74  371.0112
  75  336.6194
  76  351.8146
  77  424.5022
  78  438.2788
  79  349.3173
  80  372.4441
  81  380.2993
  82  464.2724
  83  466.1747
  84  469.7328
  85  416.1027
  86  400.7461
  87  418.5828
  88  440.8483
  89  306.1558
  90  367.6277
  91  461.0562
  92  484.3745
  93  485.7575
  94  398.9832
  95  371.6233
  96  421.9609
  97  415.8747
  98  404.1377
  99  346.6858
 100  378.4375
 101  377.9336
 102  515.8292
 103  403.1781
 104  496.2145
 105  477.7503
 106  466.4586
 107  489.3521
 108  493.2234
 109  438.449
 110  390.6324
 111  366.1412
 112  488.1911
 113  570.4157
 114  556.2979
 115  605.319
 116  568.8946
 117  473.7453
 118  470.0791
 119  508.2894
 120  508.7812
 121  547.2657
 122  469.7561
 123  434.2281
 124  394.1886
 125  462.2178
 126  420.4661
 127  398.8669
 128  354.2053
 129  448.3904
 130  463.5602
 131  487.8042
 132  425.8099
 133  478.2172
 134  412.9343
 135  419.7729
 136  497.5633
 137  434.2409
 138  490.2583
 139  438.907
 140  477.9156
 141  460.997
 142  359.1108
 143  401.6398
 144  425.2328
 145  472.7668
 146  507.9375
 147  432.5884
 148  365.7613
 149  423.8901
 150  483.0326
 151  496.1697
 152  424.5247
 153  504.7031
 154  466.1981
 155  472.9333
 156  507.1381
 157  414.5089
 158  502.052
 159  488.7791
 160  549.1029
 161  569.6066
 162  587.7409
 163  459.0521
 164  403.3508
 165  489.4423
 166  601.8524
 167  395.1663
 168  431.9251
 169  540.0181
 170  466.2855
 171  480.131
 172  503.9392
 173  611.2072
 174  573.2216
 175  517.9753
 176  479.051
 177  542.3824
 178  609.9451
 179  688.4103
 180  553.0198
 181  442.3757
 182  408.4587
 183  509.887
 184  417.4763
 185  432.0334
 186  546.7246
 187  484.8678
 188  416.3752
 189  290.8231
 190  341.4047
 191  357.4897
 192  371.0579
 193  522.2905
 194  527.8358
 195  523.1556
 196  472.3278
 197  506.8444
 198  482.8533
 199  389.5056
 200  381.3414
 201  414.7961
 202  500.3131
 203  474.4122
 204  519.1395
 205  464.4937
 206  487.0181
 207  470.0173
 208  446.1911
 209  466.7352
 210  407.8409
 211  508.009
 212  530.3003
 213  471.4654
 214  454.28
 215  588.3502
 216  533.2448
 217  487.6102
 218  454.6256
 219  479.6501
 220  503.9044
 221  407.4072
 222  439.0377
 223  413.8138
 224  337.3134
 225  344.5069
 226  327.6637
 227  339.2023
 228  422.2082
 229  394.8332
 230  481.5671
 231  545.4131
 232  572.1379
 233  596.6758
 234  494.2517
 235  385.9901
 236  391.0022
 237  454.8868
 238  465.3739
 239  458.1619
 240  535.5968
 241  519.5099
 242  406.1424
 243  440.6118
 244  432.6628
 245  488.5237
 246  458.3932
 247  464.3696
 248  478.9008
 249  451.9979
 250  494.1518
 251  459.8554
 252  453.3405
 253  454.9025
 254  387.5186
 255  463.1659
 256  459.8506
 257  475.3622
 258  478.1218
 259  427.2593
 260  541.8179
 261  556.9327
 262  510.6853
 263  495.4413
 264  450.8947
 265  429.0454
 266  388.5641
 267  497.6848
 268  407.5791
 269  313.9928
 270  495.916
 271  557.2979
 272  550.2967
 273  440.9338
 274  455.8637
 275  504.0974
 276  442.5883
 277  379.788
 278  384.9106
 279  474.9743
 280  537.453
 281  462.9076
 282  470.0496
 283  475.5397
 284  531.0454
 285  456.7198
 286  346.1799
 287  276.047
 288  340.614
 289  331.2785
 290  381.7833
 291  423.3401
 292  453.027
 293  480.7205
 294  361.9081
 295  355.4225
 296  314.1135
 297  439.7814
 298  461.6692
 299  346.6322
 300  311.6637
 301  429.406
 302  448.9326
 303  344.1884
 304  361.0329
 305  487.7269
 306  529.431
 307  487.671
 308  493.759
 309  299.6052
 310  357.5215
 311  294.8247
 312  417.0003
 313  564.0058
 314  509.368
 315  444.5657
 316  411.1941
 317  386.9612
 318  301.5346
 319  345.2018
 320  447.169
 321  411.3132
 322  330.4714
 323  421.0529
 324  483.5027
 325  418.7657
 326  374.6443
 327  381.6917
 328  445.8049
 329  491.2936
 330  455.8023
 331  403.398
 332  469.8872
 333  547.9502
 334  450.8452
 335  348.2687
 336  339.238
 337  394.1528
 338  474.3929
 339  429.346
 340  516.732
 341  461.8775
 342  471.6848
 343  429.8651
 344  493.9706
 345  483.1397
 346  392.6308
 347  337.9993
 348  343.0062
 349  417.1058
 350  361.1414
 351  388.4047
 352  358.2712
 353  415.4476
 354  488.0018
 355  460.5963
 356  385.7345
 357  384.1425
 358  396.8228
 359  411.3494
 360  504.8996
 361  527.5703
 362  537.6156
 363  530.5275
 364  373.9501
 365  398.8984
 366  532.4861
 367  536.9928
 368  400.6732
 369  451.8682
 370  390.9655
 371  244.815
 372  229.2296
 373  385.3537
 374  463.785
 375  376.3352
 376  354.9879
 377  346.1465
 378  305.8571
 379  447.6937
 380  456.7788
 381  360.2238
 382  343.5838
 383  406.1906
 384  499.9864
 385  473.2733
 386  403.5723
 387  384.9365
 388  354.7455
 389  417.3776
 390  350.2784
 391  363.8929
 392  424.2159
 393  378.3194
 394  384.3806
 395  379.7898
 396  400.4043
 397  508.5869
 398  423.5963
 399  425.6901
 400  467.8632
 401  430.8175
 402  335.0296
 403  386.5456
 404  437.2354
 405  605.2775
 406  466.5302
 407  463.5725
 408  503.762
 409  446.2293
 410  405.1451
 411  425.591
 412  508.072
 413  522.3842
 414  462.0253
 415  421.3474
 416  444.9945
 417  475.931
 418  446.3022
 419  359.9656
 420  315.6129
 421  256.2926
 422  415.2083
 423  466.5706
 424  465.0371
 425  419.9428
 426  370.1145
 427  484.5458
 428  410.2934
 429  391.7053
 430  372.9496
 431  500.4966
 432  479.2761
 433  386.0571
 434  240.894
 435  222.5029
 436  345.1207
 437  505.7694
 438  493.2454
 439  456.7637
 440  233.3581
 441  293.0915
 442  401.8892
 443  390.3538
 444  432.4652
 445  436.3297
 446  378.9951
 447  385.2912
 448  461.0252
 449  392.3333
 450  378.1169
 451  485.0028
 452  413.2891
 453  454.9111
 454  507.7663
 455  423.2382
 456  372.0363
 457  449.462
 458  359.0303
 459  386.4289
 460  283.2869
 461  374.55
 462  448.1595
 463  509.8584
 464  506.064
 465  316.4749
 466  329.5451
 467  367.453
 468  413.4882
 469  473.5044
 470  452.3548
 471  512.3161
 472  443.714
 473  422.7401
 474  446.5412
 475  464.9324
 476  512.3733
 477  458.3867
 478  458.8048
 479  450.5473
 480  305.7715
 481  358.8854
 482  413.6836
 483  502.3377
 484  552.5665
 485  499.3162
 486  461.8059
 487  573.7125
 488  543.0073
 489  412.8374
 490  290.3983
 491  392.586
 492  570.0509
 493  479.456
 494  492.0426
 495  520.9242
 496  396.1111
 497  440.9682
 498  517.2687
 499  461.8941
 500  431.1474
 501  451.11
 502  385.2911
 503  476.8848
 504  523.1155
 505  581.0494
 506  497.367
 507  413.948
 508  520.0901
 509  597.1896
 510  582.7963
 511  571.5787
