# Input file       =  1198618942.110888_cleaned.dat
# Candidate        =  PSR_0332+5434
# Telescope        =  AR
# Epoch_topo       =  58116.904214246388
# Epoch_bary       =  N/A
# T_sample         =  0.002
# Data Folded      =  7340032
# Data Avg         =  0.0333680542950508
# Data StdDev      =  1.00007749202154 
# Profile Bins     =  512
# Profile Avg      =  478.387243249908 
# Profile StdDev   =  119.7423147318   
# Reduced chi-sqr  =  0.835
# Prob(Noise)      <  0.997   (~0.0 sigma)
# P_topo (ms)      =  714.554300541191  +/- 0.000336
# P'_topo (s/s)    =  -0                +/- 1.77e-10
# P''_topo (s/s^2) =  0                 +/- 7.82e-14
# P_bary (ms)      =  N/A
# P'_bary (s/s)    =  N/A
# P''_bary (s/s^2) =  N/A
# P_orb (s)        =  N/A
# asin(i)/c (s)    =  N/A
# eccentricity     =  N/A
# w (rad)          =  N/A
# T_peri           =  N/A
######################################################
   0  717.8256
   1  846.268
   2  787.296
   3  659.5507
   4  625.4077
   5  565.1785
   6  535.9882
   7  481.4897
   8  549.8026
   9  542.888
  10  556.7599
  11  383.9576
  12  433.9977
  13  532.3718
  14  555.944
  15  597.0042
  16  510.395
  17  542.8569
  18  415.6411
  19  379.521
  20  528.5182
  21  538.4701
  22  498.7163
  23  579.5891
  24  524.0068
  25  463.9186
  26  520.0414
  27  507.6116
  28  476.2835
  29  608.3533
  30  522.9962
  31  460.3719
  32  422.1804
  33  385.2018
  34  385.0832
  35  474.3532
  36  520.8322
  37  536.8815
  38  567.4186
  39  529.4672
  40  490.426
  41  411.2164
  42  500.1047
  43  585.3024
  44  640.22
  45  618.6966
  46  454.3487
  47  422.9114
  48  400.0803
  49  517.0562
  50  628.6324
  51  501.7954
  52  386.7225
  53  449.4436
  54  371.5706
  55  381.3938
  56  497.977
  57  453.0681
  58  474.752
  59  536.5229
  60  415.2117
  61  481.8109
  62  507.2598
  63  525.6573
  64  523.5942
  65  634.5865
  66  571.0357
  67  476.17
  68  475.788
  69  469.0766
  70  569.7739
  71  452.1433
  72  428.2109
  73  351.396
  74  399.1851
  75  505.9186
  76  462.2209
  77  479.9169
  78  544.1987
  79  472.4556
  80  478.896
  81  456.3136
  82  447.1817
  83  394.7615
  84  361.0508
  85  410.51
  86  443.8594
  87  476.9702
  88  379.0446
  89  430.0789
  90  478.3824
  91  533.0664
  92  520.1658
  93  431.673
  94  533.8139
  95  495.2693
  96  419.7578
  97  454.866
  98  536.1049
  99  437.3759
 100  394.0538
 101  429.0892
 102  503.9794
 103  418.0343
 104  378.506
 105  299.5149
 106  345.9007
 107  520.1572
 108  516.8517
 109  467.0741
 110  468.5577
 111  438.1201
 112  392.0352
 113  291.3868
 114  323.4112
 115  390.1413
 116  335.1142
 117  375.3952
 118  371.9647
 119  432.6336
 120  446.0328
 121  412.5039
 122  503.0629
 123  626.5494
 124  628.7428
 125  514.1266
 126  527.6995
 127  510.5712
 128  445.3668
 129  538.4838
 130  534.0985
 131  510.8354
 132  467.8195
 133  442.8966
 134  528.5643
 135  593.3564
 136  580.6724
 137  529.3275
 138  415.8145
 139  496.3336
 140  470.2725
 141  520.4372
 142  583.275
 143  522.0485
 144  636.4075
 145  600.2043
 146  438.494
 147  394.9613
 148  387.9361
 149  412.6513
 150  396.458
 151  575.3007
 152  532.2441
 153  404.238
 154  358.3487
 155  412.5234
 156  455.2433
 157  279.6146
 158  357.9036
 159  484.7631
 160  499.636
 161  424.4019
 162  335.2604
 163  474.98
 164  413.4644
 165  463.5906
 166  463.8151
 167  486.8802
 168  408.6043
 169  453.939
 170  544.6975
 171  505.0644
 172  496.4702
 173  476.7382
 174  506.1559
 175  396.1995
 176  452.0804
 177  586.4641
 178  390.1014
 179  317.2429
 180  423.3164
 181  561.3726
 182  469.1368
 183  333.2886
 184  442.9812
 185  442.0294
 186  394.4185
 187  414.9311
 188  455.5124
 189  454.0905
 190  446.0312
 191  384.418
 192  362.0489
 193  407.5898
 194  378.6504
 195  231.8069
 196  287.7776
 197  299.8735
 198  338.7369
 199  420.6668
 200  406.0012
 201  477.1981
 202  468.0918
 203  443.2017
 204  463.0504
 205  453.5592
 206  402.9343
 207  481.1641
 208  434.6638
 209  469.6277
 210  555.4513
 211  456.8117
 212  403.3804
 213  419.3131
 214  376.0103
 215  367.9156
 216  390.9395
 217  471.9439
 218  508.6985
 219  527.9135
 220  458.8307
 221  442.5115
 222  437.1494
 223  496.724
 224  444.3341
 225  488.8287
 226  421.351
 227  482.0423
 228  410.7577
 229  298.719
 230  447.0195
 231  467.1089
 232  469.8681
 233  491.515
 234  436.4119
 235  521.9413
 236  538.717
 237  498.0448
 238  434.6101
 239  557.1829
 240  553.2592
 241  429.5047
 242  505.1269
 243  496.3661
 244  557.3535
 245  471.6857
 246  453.5534
 247  405.7795
 248  312.2902
 249  322.7039
 250  521.1127
 251  490.0818
 252  424.2183
 253  437.8049
 254  439.8214
 255  395.4093
 256  409.1593
 257  444.1514
 258  511.9012
 259  453.3352
 260  457.0157
 261  560.0175
 262  526.6732
 263  440.1638
 264  293.7579
 265  338.1266
 266  419.5276
 267  419.0104
 268  477.3706
 269  443.6069
 270  503.7253
 271  441.3452
 272  388.6243
 273  441.6509
 274  456.921
 275  561.0057
 276  522.5721
 277  450.5654
 278  509.0763
 279  573.4711
 280  466.1078
 281  480.1377
 282  439.0695
 283  410.0629
 284  444.567
 285  459.7597
 286  560.3221
 287  400.6813
 288  405.98
 289  469.0727
 290  621.0465
 291  553.3673
 292  622.9063
 293  484.8889
 294  467.2353
 295  543.8751
 296  445.2573
 297  570.4304
 298  561.0015
 299  472.757
 300  469.4035
 301  469.9285
 302  450.7984
 303  415.0979
 304  485.5516
 305  518.9632
 306  514.3602
 307  521.6464
 308  483.1567
 309  502.5796
 310  382.0349
 311  363.0177
 312  496.0363
 313  505.7083
 314  512.7558
 315  503.3115
 316  471.2421
 317  521.5289
 318  427.4352
 319  496.7698
 320  492.7488
 321  517.3552
 322  463.3369
 323  512.9756
 324  522.5499
 325  538.8235
 326  583.3597
 327  482.0634
 328  488.5278
 329  519.4075
 330  525.6317
 331  544.0922
 332  514.3542
 333  495.8564
 334  474.5543
 335  411.9559
 336  574.8415
 337  532.8911
 338  536.6282
 339  530.5425
 340  443.4276
 341  430.6489
 342  458.4794
 343  645.0465
 344  518.9594
 345  591.5063
 346  603.3926
 347  567.5503
 348  565.1227
 349  572.3527
 350  480.944
 351  478.2207
 352  603.3811
 353  604.2256
 354  649.6831
 355  593.719
 356  558.2183
 357  585.1568
 358  460.6519
 359  450.1346
 360  392.7616
 361  459.505
 362  567.2177
 363  499.4397
 364  479.0858
 365  434.7086
 366  558.2402
 367  461.6525
 368  411.5031
 369  611.2577
 370  599.9214
 371  572.0489
 372  606.7564
 373  581.5535
 374  385.7173
 375  373.3427
 376  546.9264
 377  430.3872
 378  452.5711
 379  430.8815
 380  566.7794
 381  567.6
 382  434.1072
 383  500.3412
 384  583.0479
 385  468.2296
 386  435.4615
 387  510.1393
 388  513.6952
 389  496.0356
 390  427.2287
 391  511.0835
 392  490.9246
 393  467.6714
 394  569.1778
 395  509.8355
 396  521.7535
 397  488.1182
 398  488.4663
 399  528.4694
 400  447.1667
 401  400.3773
 402  394.1043
 403  489.2863
 404  406.9458
 405  442.0583
 406  564.0623
 407  437.9992
 408  385.9906
 409  531.3513
 410  544.9532
 411  493.935
 412  454.4068
 413  527.1913
 414  607.0045
 415  505.5056
 416  414.465
 417  406.443
 418  361.9235
 419  418.3274
 420  429.3437
 421  400.3646
 422  380.5266
 423  505.5291
 424  552.2609
 425  501.1013
 426  511.1895
 427  567.0947
 428  583.6422
 429  506.0841
 430  423.2278
 431  464.5694
 432  585.6951
 433  508.8864
 434  358.1179
 435  436.8052
 436  424.7834
 437  444.154
 438  422.5848
 439  461.8702
 440  424.7523
 441  437.2252
 442  511.7266
 443  502.1312
 444  489.0143
 445  533.0263
 446  520.2498
 447  561.9039
 448  612.0227
 449  592.6204
 450  475.9705
 451  425.717
 452  442.1486
 453  415.5352
 454  396.2979
 455  397.8357
 456  268.0274
 457  375.7549
 458  510.8634
 459  587.0931
 460  546.8815
 461  457.9189
 462  353.4836
 463  341.0128
 464  317.0237
 465  378.8669
 466  392.0948
 467  345.3783
 468  404.656
 469  438.5947
 470  467.7398
 471  490.7289
 472  459.4859
 473  444.4857
 474  494.6219
 475  511.5725
 476  585.1278
 477  608.7789
 478  511.7526
 479  427.0034
 480  350.4989
 481  473.8758
 482  522.363
 483  384.7127
 484  397.0845
 485  443.3735
 486  445.6621
 487  479.485
 488  509.6837
 489  550.1862
 490  551.3781
 491  530.8202
 492  538.029
 493  490.5755
 494  463.7741
 495  530.689
 496  490.567
 497  523.3455
 498  431.7763
 499  402.5609
 500  398.3144
 501  422.763
 502  502.6896
 503  507.7487
 504  575.5242
 505  546.8434
 506  552.0485
 507  505.9444
 508  605.8864
 509  659.8459
 510  764.202
 511  826.3635
