# Input file       =  1198503255.12908_cleaned.dat
# Candidate        =  PSR_0332+5434
# Telescope        =  AR
# Epoch_topo       =  58115.565244549536
# Epoch_bary       =  N/A
# T_sample         =  0.002
# Data Folded      =  7471104
# Data Avg         =  0.0195309237148125
# Data StdDev      =  1.0000681900895  
# Profile Bins     =  512
# Profile Avg      =  284.950710076001 
# Profile StdDev   =  120.805588146506 
# Reduced chi-sqr  =  1.117
# Prob(Noise)      <  0.0337   (~1.8 sigma)
# P_topo (ms)      =  714.552766512222  +/- 0.00017
# P'_topo (s/s)    =  -0                +/- 8.84e-11
# P''_topo (s/s^2) =  0                 +/- 3.83e-14
# P_bary (ms)      =  N/A
# P'_bary (s/s)    =  N/A
# P''_bary (s/s^2) =  N/A
# P_orb (s)        =  N/A
# asin(i)/c (s)    =  N/A
# eccentricity     =  N/A
# w (rad)          =  N/A
# T_peri           =  N/A
######################################################
   0  753.3756
   1  655.338
   2  671.1604
   3  480.3265
   4  256.7
   5  84.85564
   6  196.8746
   7  301.7908
   8  367.5852
   9  380.7366
  10  375.4003
  11  364.5662
  12  327.0452
  13  353.7933
  14  384.8023
  15  324.8575
  16  272.6818
  17  201.5575
  18  158.5131
  19  262.3792
  20  265.7175
  21  324.4386
  22  244.2115
  23  212.3154
  24  173.9347
  25  239.1543
  26  340.281
  27  377.2241
  28  265.1925
  29  157.9032
  30  214.4415
  31  156.1851
  32  181.2058
  33  165.3392
  34  306.9431
  35  289.359
  36  395.5457
  37  374.151
  38  362.7774
  39  206.8453
  40  215.6204
  41  257.92
  42  235.5455
  43  234.2977
  44  262.4856
  45  356.9602
  46  367.0532
  47  253.829
  48  237.1047
  49  228.396
  50  343.1986
  51  250.7142
  52  411.2531
  53  377.618
  54  229.1139
  55  228.1212
  56  172.0813
  57  191.6655
  58  248.3704
  59  252.7367
  60  372.002
  61  379.8839
  62  210.8983
  63  287.3032
  64  321.3
  65  286.5353
  66  359.9085
  67  341.0027
  68  312.8158
  69  324.795
  70  332.4371
  71  415.5703
  72  243.3399
  73  308.5454
  74  180.1742
  75  147.2156
  76  198.4446
  77  225.0712
  78  290.7661
  79  356.5924
  80  279.2415
  81  183.1878
  82  305.2499
  83  324.2881
  84  443.1113
  85  495.1271
  86  359.9028
  87  436.7126
  88  364.2821
  89  223.1778
  90  221.0566
  91  139.7358
  92  165.223
  93  324.0179
  94  315.4675
  95  270.2438
  96  335.4177
  97  318.227
  98  366.9358
  99  284.1045
 100  408.8009
 101  383.4881
 102  335.7029
 103  314.1211
 104  317.7712
 105  366.2429
 106  271.3237
 107  301.1517
 108  319.6931
 109  391.1854
 110  204.5115
 111  261.3547
 112  363.9339
 113  354.4461
 114  189.0443
 115  175.3212
 116  383.6056
 117  278.96
 118  163.3047
 119  227.7845
 120  345.485
 121  204.7802
 122  32.77068
 123  206.0582
 124  236.6017
 125  282.5128
 126  345.3835
 127  311.1606
 128  285.0159
 129  349.7904
 130  266.209
 131  191.5116
 132  216.7907
 133  233.1963
 134  214.6026
 135  248.9921
 136  256.0203
 137  368.1077
 138  311.8773
 139  238.1185
 140  308.7409
 141  373.2101
 142  347.2791
 143  324.297
 144  289.8394
 145  294.2636
 146  356.7986
 147  311.6226
 148  255.0651
 149  352.1456
 150  350.1772
 151  401.4651
 152  501.3323
 153  397.4505
 154  181.9695
 155  181.5545
 156  216.445
 157  316.6172
 158  286.9931
 159  303.1663
 160  339.4128
 161  310.181
 162  232.8436
 163  194.2976
 164  157.5985
 165  263.7397
 166  232.5406
 167  414.6281
 168  265.971
 169  186.2487
 170  259.2245
 171  264.8044
 172  282.7584
 173  311.4928
 174  369.1159
 175  331.6391
 176  334.3653
 177  228.4031
 178  292.8221
 179  295.9594
 180  181.6108
 181  273.168
 182  339.111
 183  312.8216
 184  303.809
 185  415.7415
 186  402.343
 187  349.3881
 188  262.4001
 189  335.068
 190  92.63371
 191  146.6554
 192  168.0318
 193  323.2434
 194  407.5573
 195  378.4731
 196  342.1446
 197  389.1593
 198  419.6621
 199  318.7324
 200  335.8081
 201  270.283
 202  291.5307
 203  359.7941
 204  295.2091
 205  267.5549
 206  211.8327
 207  251.4586
 208  174.5795
 209  285.9832
 210  261.2747
 211  270.4771
 212  253.215
 213  306.0799
 214  305.1427
 215  248.8118
 216  343.5416
 217  415.7842
 218  253.5802
 219  170.0671
 220  328.5082
 221  314.8651
 222  141.7511
 223  325.7787
 224  372.5442
 225  382.122
 226  340.2474
 227  320.3476
 228  260.8835
 229  344.5661
 230  411.9523
 231  434.4922
 232  408.152
 233  354.4772
 234  177.185
 235  219.913
 236  346.6211
 237  480.4241
 238  392.6473
 239  175.942
 240  139.0075
 241  171.2516
 242  203.4003
 243  281.8666
 244  257.9312
 245  396.7378
 246  354.7874
 247  332.4084
 248  346.9143
 249  341.9312
 250  364.2581
 251  247.0687
 252  141.1871
 253  138.0685
 254  369.9811
 255  437.4238
 256  296.3807
 257  346.1475
 258  270.5231
 259  209.3859
 260  215.7505
 261  253.0693
 262  217.2562
 263  80.55825
 264  167.4116
 265  322.3565
 266  281.8144
 267  223.7164
 268  257.7481
 269  285.9565
 270  220.6408
 271  354.7064
 272  265.1316
 273  350.3299
 274  329.1812
 275  346.0496
 276  259.5307
 277  278.6665
 278  187.7021
 279  380.8133
 280  345.992
 281  265.1953
 282  214.0773
 283  364.656
 284  249.7225
 285  137.1738
 286  150.3977
 287  121.2573
 288  141.8222
 289  243.3372
 290  248.1936
 291  336.8009
 292  377.8376
 293  423.1223
 294  170.8437
 295  232.9638
 296  357.9441
 297  206.4231
 298  320.4928
 299  359.5206
 300  201.8819
 301  106.5757
 302  232.6961
 303  316.5701
 304  258.9912
 305  298.6458
 306  171.5551
 307  149.5285
 308  170.8147
 309  281.8814
 310  274.6013
 311  212.3676
 312  231.5631
 313  159.5285
 314  248.0186
 315  197.7646
 316  198.7113
 317  157.0319
 318  219.7737
 319  195.1149
 320  123.263
 321  156.5395
 322  297.2599
 323  304.6005
 324  241.9618
 325  303.6414
 326  251.9907
 327  163.5703
 328  253.9143
 329  258.078
 330  262.7834
 331  322.3864
 332  267.0027
 333  222.411
 334  161.2379
 335  254.5772
 336  264.1519
 337  374.2823
 338  206.7678
 339  368.6892
 340  301.4036
 341  153.517
 342  364.8846
 343  391.4601
 344  312.5092
 345  258.8314
 346  199.0513
 347  274.8455
 348  381.7825
 349  238.8655
 350  130.888
 351  100.3102
 352  289.1375
 353  243.5465
 354  104.6174
 355  76.84502
 356  182.7051
 357  185.8707
 358  167.7458
 359  267.7647
 360  249.8628
 361  437.6764
 362  337.5651
 363  155.6325
 364  173.4296
 365  332.8711
 366  312.3309
 367  313.3917
 368  435.2487
 369  352.1129
 370  303.2477
 371  273.9232
 372  195.6582
 373  324.3397
 374  285.6223
 375  274.8232
 376  375.9462
 377  229.852
 378  222.6863
 379  194.6311
 380  186.6026
 381  262.2046
 382  228.9078
 383  323.7207
 384  297.3065
 385  233.5641
 386  212.4893
 387  270.6524
 388  191.6299
 389  271.32
 390  378.3854
 391  299.1306
 392  334.5986
 393  299.0455
 394  161.2162
 395  244.55
 396  168.9003
 397  174.6552
 398  273.6268
 399  230.4272
 400  225.5193
 401  348.0121
 402  228.368
 403  236.1825
 404  246.3752
 405  418.3884
 406  301.2816
 407  232.6475
 408  166.296
 409  155.7296
 410  280.758
 411  395.5977
 412  316.7518
 413  292.3324
 414  243.3668
 415  248.2159
 416  432.3379
 417  527.6039
 418  362.0483
 419  322.1749
 420  358.7747
 421  343.1691
 422  299.3525
 423  296.3685
 424  288.0465
 425  211.2798
 426  343.7091
 427  310.1628
 428  313.3476
 429  313.2118
 430  222.8557
 431  304.8333
 432  279.9958
 433  267.9159
 434  323.06
 435  238.9376
 436  180.493
 437  152.4884
 438  207.3212
 439  179.8504
 440  100.5547
 441  181.8756
 442  290.0258
 443  312.8868
 444  172.5178
 445  277.877
 446  344.5331
 447  303.7182
 448  91.3372
 449  129.6968
 450  264.5909
 451  227.8289
 452  368.6848
 453  327.443
 454  260.8312
 455  245.3438
 456  361.6836
 457  383.3062
 458  385.3543
 459  224.7834
 460  284.0539
 461  291.5035
 462  90.53323
 463  145.9895
 464  255.5743
 465  269.8091
 466  273.012
 467  298.6154
 468  336.0469
 469  329.8584
 470  197.1889
 471  194.7713
 472  201.3247
 473  275.5137
 474  296.494
 475  271.6051
 476  257.1562
 477  352.9015
 478  335.689
 479  225.0836
 480  330.0642
 481  302.3611
 482  316.087
 483  207.8255
 484  217.358
 485  266.6931
 486  191.2853
 487  283.8323
 488  356.0989
 489  305.4839
 490  259.821
 491  278.1955
 492  383.0212
 493  401.9376
 494  400.4262
 495  363.739
 496  259.212
 497  327.4596
 498  364.1088
 499  288.4849
 500  269.3184
 501  479.207
 502  391.7704
 503  355.0381
 504  459.493
 505  454.4163
 506  511.0501
 507  415.743
 508  478.4301
 509  578.5978
 510  623.709
 511  762.5222
