# Input file       =  1198604022.114768_cleaned.dat
# Candidate        =  PSR_0332+5434
# Telescope        =  AR
# Epoch_topo       =  58116.731529106110
# Epoch_bary       =  N/A
# T_sample         =  0.002
# Data Folded      =  7340032
# Data Avg         =  0.0326707735638353
# Data StdDev      =  1.00012035660392 
# Profile Bins     =  512
# Profile Avg      =  468.110127531302 
# Profile StdDev   =  119.747447038402 
# Reduced chi-sqr  =  0.800
# Prob(Noise)      <  1   (~0.0 sigma)
# P_topo (ms)      =  714.553812152536  +/- 0.000173
# P'_topo (s/s)    =  -0                +/- 9.15e-11
# P''_topo (s/s^2) =  0                 +/- 4.04e-14
# P_bary (ms)      =  N/A
# P'_bary (s/s)    =  N/A
# P''_bary (s/s^2) =  N/A
# P_orb (s)        =  N/A
# asin(i)/c (s)    =  N/A
# eccentricity     =  N/A
# w (rad)          =  N/A
# T_peri           =  N/A
######################################################
   0  904.4656
   1  901.4482
   2  878.9866
   3  602.6779
   4  614.2329
   5  602.7402
   6  512.7031
   7  494.1115
   8  464.4169
   9  485.0966
  10  478.9765
  11  545.4129
  12  566.8295
  13  602.2417
  14  535.9401
  15  479.8471
  16  464.1048
  17  544.209
  18  535.439
  19  537.072
  20  530.5323
  21  385.5372
  22  381.4348
  23  414.142
  24  459.1942
  25  523.4459
  26  537.2495
  27  472.933
  28  471.0953
  29  495.2769
  30  476.89
  31  572.424
  32  506.226
  33  443.2802
  34  483.042
  35  509.7532
  36  526.5331
  37  555.4181
  38  427.8435
  39  456.5088
  40  453.9507
  41  545.7809
  42  560.9628
  43  504.7704
  44  471.144
  45  501.3234
  46  506.7714
  47  437.8127
  48  448.5046
  49  494.2952
  50  513.9385
  51  582.6562
  52  468.8031
  53  463.1941
  54  453.2643
  55  384.8351
  56  440.8893
  57  508.0503
  58  487.9345
  59  426.959
  60  409.6542
  61  504.0445
  62  481.1563
  63  519.2316
  64  645.0143
  65  547.4395
  66  473.9604
  67  385.6313
  68  299.9671
  69  436.8737
  70  505.1307
  71  389.8543
  72  428.7503
  73  496.9037
  74  412.1305
  75  331.8901
  76  310.9703
  77  473.3361
  78  364.1842
  79  466.1216
  80  471.6183
  81  369.6234
  82  312.4042
  83  412.5407
  84  485.1712
  85  577.4819
  86  454.2008
  87  420.3824
  88  427.8297
  89  423.9313
  90  483.7794
  91  514.0493
  92  432.8281
  93  450.5285
  94  403.0746
  95  371.1161
  96  358.486
  97  390.3337
  98  375.4659
  99  244.6489
 100  345.6608
 101  422.0013
 102  446.1206
 103  408.7178
 104  426.4796
 105  432.831
 106  342.5481
 107  445.5888
 108  440.5562
 109  453.6631
 110  441.9992
 111  363.0434
 112  495.2953
 113  573.019
 114  564.1566
 115  487.0984
 116  550.0667
 117  523.6148
 118  468.0879
 119  546.8359
 120  531.3921
 121  438.4469
 122  434.9726
 123  393.0053
 124  431.9609
 125  513.6987
 126  497.0423
 127  448.4868
 128  549.1823
 129  498.7085
 130  376.0133
 131  311.2208
 132  369.2593
 133  421.4556
 134  543.0135
 135  550.0265
 136  466.2409
 137  460.4909
 138  466.978
 139  330.377
 140  347.5499
 141  404.8669
 142  556.4097
 143  601.8654
 144  612.8063
 145  574.2153
 146  506.8222
 147  563.886
 148  581.2905
 149  656.6118
 150  589.6198
 151  494.6745
 152  543.5141
 153  494.5635
 154  451.6487
 155  393.5387
 156  359.8231
 157  426.3232
 158  469.7921
 159  528.3593
 160  534.3647
 161  468.0541
 162  364.7968
 163  428.2188
 164  497.1273
 165  440.1848
 166  464.3805
 167  518.6616
 168  468.7629
 169  489.81
 170  436.1246
 171  463.7484
 172  508.0247
 173  396.8227
 174  427.2551
 175  500.7468
 176  477.8071
 177  489.4905
 178  579.6385
 179  521.0842
 180  307.5511
 181  465.8185
 182  580.4942
 183  584.204
 184  518.9496
 185  479.9757
 186  496.0426
 187  494.6124
 188  535.628
 189  481.404
 190  430.0739
 191  464.3503
 192  411.1429
 193  405.3033
 194  537.2086
 195  497.419
 196  373.8677
 197  576.6147
 198  620.5159
 199  543.3448
 200  526.625
 201  520.4082
 202  473.5273
 203  460.6488
 204  487.6167
 205  560.0616
 206  580.4731
 207  450.5656
 208  509.1313
 209  515.9636
 210  468.4076
 211  424.0179
 212  495.4225
 213  469.6927
 214  415.3357
 215  501.2694
 216  573.2083
 217  589.6318
 218  558.9629
 219  551.8785
 220  501.0882
 221  441.7723
 222  475.5501
 223  501.2831
 224  538.9652
 225  526.9418
 226  501.1043
 227  515.3542
 228  468.2745
 229  476.6544
 230  561.2681
 231  542.4224
 232  506.0402
 233  417.4554
 234  478.1957
 235  487.8306
 236  449.3897
 237  393.5476
 238  383.6668
 239  456.534
 240  372.4894
 241  381.7469
 242  564.5529
 243  643.553
 244  600.7357
 245  525.689
 246  477.5793
 247  385.3619
 248  387.0764
 249  456.8073
 250  517.5723
 251  451.8831
 252  430.4865
 253  483.4512
 254  444.7837
 255  402.1672
 256  372.1252
 257  347.8809
 258  429.0408
 259  477.9294
 260  465.3727
 261  451.5138
 262  459.1479
 263  511.7738
 264  451.9555
 265  480.4565
 266  550.0088
 267  509.7273
 268  456.1865
 269  422.114
 270  533.0291
 271  529.0601
 272  492.9029
 273  463.0514
 274  479.6607
 275  501.4477
 276  508.7821
 277  563.3546
 278  541.7072
 279  483.4977
 280  535.3514
 281  517.8083
 282  432.6697
 283  440.795
 284  428.956
 285  465.7724
 286  469.9619
 287  424.0296
 288  425.8178
 289  508.2587
 290  467.425
 291  424.1667
 292  494.0202
 293  507.4717
 294  480.459
 295  419.0043
 296  452.551
 297  415.3597
 298  343.0602
 299  433.8411
 300  445.928
 301  546.4972
 302  523.8478
 303  494.3818
 304  369.7268
 305  417.1039
 306  395.1072
 307  348.725
 308  378.8285
 309  413.3412
 310  506.3681
 311  549.8256
 312  485.3212
 313  509.4413
 314  546.3686
 315  540.5456
 316  442.9752
 317  350.4877
 318  408.4747
 319  455.3443
 320  549.9766
 321  442.1887
 322  383.981
 323  375.3902
 324  429.9329
 325  523.579
 326  549.8798
 327  401.0552
 328  493.5553
 329  499.1392
 330  507.0931
 331  534.9832
 332  577.9114
 333  503.9182
 334  475.71
 335  381.3971
 336  412.9541
 337  397.2679
 338  365.9978
 339  341.9515
 340  355.9587
 341  387.4183
 342  478.841
 343  468.7349
 344  530.7722
 345  529.5443
 346  496.1715
 347  504.1797
 348  552.1567
 349  412.3887
 350  392.7536
 351  398.9223
 352  510.3361
 353  506.2799
 354  393.5566
 355  400.3234
 356  508.9681
 357  474.9258
 358  424.0677
 359  382.3079
 360  336.6191
 361  337.9392
 362  333.2875
 363  423.7191
 364  438.1375
 365  418.025
 366  483.3341
 367  534.557
 368  504.7157
 369  444.0808
 370  474.6424
 371  471.9565
 372  440.2385
 373  548.5613
 374  483.5961
 375  348.5457
 376  403.8216
 377  442.4043
 378  473.8041
 379  290.4193
 380  310.9191
 381  384.9159
 382  462.3647
 383  435.2488
 384  335.8294
 385  298.2719
 386  314.1534
 387  400.3487
 388  409.2198
 389  468.2363
 390  261.5409
 391  338.1883
 392  379.134
 393  454.0733
 394  503.1817
 395  454.3456
 396  499.9025
 397  606.7434
 398  527.6321
 399  436.6913
 400  446.9363
 401  516.8335
 402  474.6858
 403  356.3442
 404  374.8401
 405  394.4693
 406  473.8645
 407  431.1968
 408  383.4449
 409  366.9208
 410  418.6174
 411  479.3021
 412  458.9082
 413  381.1587
 414  390.6359
 415  418.9682
 416  495.3212
 417  562.9778
 418  553.6395
 419  414.697
 420  336.2626
 421  316.9049
 422  344.7091
 423  324.3695
 424  380.0083
 425  360.1512
 426  480.2653
 427  485.6221
 428  448.7578
 429  328.7028
 430  477.1248
 431  497.3201
 432  456.4444
 433  496.8255
 434  426.619
 435  484.5784
 436  428.4243
 437  382.4545
 438  452.1202
 439  450.8309
 440  362.102
 441  457.4376
 442  443.2036
 443  414.1149
 444  499.151
 445  458.3258
 446  432.2361
 447  410.7016
 448  543.097
 449  417.1647
 450  406.1662
 451  421.2244
 452  488.9149
 453  493.4897
 454  528.9036
 455  430.934
 456  389.6946
 457  396.0986
 458  455.9207
 459  469.542
 460  504.5552
 461  538.0507
 462  510.3611
 463  498.948
 464  495.224
 465  479.8791
 466  520.1028
 467  521.1628
 468  581.5519
 469  499.9716
 470  439.25
 471  435.7692
 472  491.7995
 473  415.7787
 474  371.6166
 475  406.1897
 476  408.4984
 477  372.7099
 478  437.4558
 479  437.1076
 480  575.2668
 481  535.1995
 482  501.8932
 483  564.3859
 484  464.9927
 485  479.7159
 486  481.7924
 487  376.9237
 488  505.9046
 489  535.6052
 490  448.3875
 491  434.2441
 492  507.8282
 493  447.9468
 494  361.6563
 495  437.9933
 496  574.1957
 497  561.8224
 498  494.01
 499  355.0674
 500  386.3998
 501  504.2708
 502  534.6571
 503  514.7386
 504  566.0388
 505  540.4959
 506  511.7915
 507  533.0908
 508  502.7405
 509  516.5236
 510  606.674
 511  779.9294
