# Input file       =  1198604022.114768_cleaned.dat
# Candidate        =  PSR_0332+5434
# Telescope        =  AR
# Epoch_topo       =  58116.731529106110
# Epoch_bary       =  N/A
# T_sample         =  0.002
# Data Folded      =  7340032
# Data Avg         =  0.0326707735638353
# Data StdDev      =  1.00012035660392 
# Profile Bins     =  512
# Profile Avg      =  468.11012754631  
# Profile StdDev   =  119.747447038402 
# Reduced chi-sqr  =  0.801
# Prob(Noise)      <  1   (~0.0 sigma)
# P_topo (ms)      =  714.553812076557  +/- 0.000171
# P'_topo (s/s)    =  -0                +/- 9.04e-11
# P''_topo (s/s^2) =  0                 +/- 3.99e-14
# P_bary (ms)      =  N/A
# P'_bary (s/s)    =  N/A
# P''_bary (s/s^2) =  N/A
# P_orb (s)        =  N/A
# asin(i)/c (s)    =  N/A
# eccentricity     =  N/A
# w (rad)          =  N/A
# T_peri           =  N/A
######################################################
   0  899.6763
   1  910.0989
   2  722.8584
   3  580.258
   4  631.5077
   5  543.3127
   6  485.2779
   7  489.6193
   8  467.5146
   9  486.671
  10  490.3622
  11  580.2852
  12  593.6414
  13  584.9211
  14  487.2611
  15  460.4515
  16  513.7759
  17  552.6877
  18  534.4484
  19  533.7737
  20  453.7342
  21  352.8673
  22  411.413
  23  437.1467
  24  502.2557
  25  541.5131
  26  498.4954
  27  464.554
  28  502.1528
  29  455.2132
  30  548.2062
  31  535.0646
  32  472.1896
  33  444.4733
  34  523.1858
  35  505.6032
  36  559.7663
  37  479.142
  38  429.3004
  39  458.8998
  40  501.8757
  41  558.5599
  42  544.069
  43  462.7821
  44  502.6899
  45  492.1159
  46  487.0627
  47  412.5561
  48  489.4107
  49  486.7028
  50  572.6971
  51  543.1013
  52  437.918
  53  479.8753
  54  388.9517
  55  406.14
  56  482.6832
  57  508.8106
  58  464.7794
  59  397.8002
  60  465.3076
  61  495.2438
  62  485.1252
  63  610.9657
  64  608.2214
  65  492.3883
  66  445.1044
  67  314.8224
  68  357.9223
  69  494.9227
  70  447.8689
  71  382.9643
  72  500.6542
  73  442.6922
  74  386.266
  75  271.0079
  76  435.3345
  77  414.8573
  78  399.4858
  79  486.4831
  80  417.4782
  81  306.2163
  82  387.8513
  83  435.8801
  84  572.1508
  85  494.648
  86  431.6005
  87  425.8293
  88  413.3439
  89  458.1919
  90  516.1658
  91  476.8943
  92  419.0724
  93  438.6812
  94  379.5677
  95  363.9179
  96  365.5771
  97  403.6555
  98  292.683
  99  281.2195
 100  398.6752
 101  445.8665
 102  421.2627
 103  417.3081
 104  440.6791
 105  372.8167
 106  395.082
 107  451.9119
 108  437.1779
 109  465.611
 110  384.6267
 111  416.3304
 112  549.8168
 113  584.1375
 114  522.8399
 115  515.5089
 116  561.2656
 117  463.5627
 118  511.5598
 119  538.8924
 120  501.1408
 121  418.8864
 122  429.4022
 123  376.6798
 124  491.9056
 125  504.6184
 126  466.4624
 127  488.504
 128  570.6806
 129  413.6688
 130  336.0292
 131  324.3559
 132  400.2441
 133  500.8191
 134  563.7719
 135  507.1834
 136  429.8562
 137  497.6104
 138  369.9907
 139  341.7933
 140  359.5446
 141  502.457
 142  598.2119
 143  604.1136
 144  610.3846
 145  507.1919
 146  544.5261
 147  566.6654
 148  632.9235
 149  642.3707
 150  515.5533
 151  508.3602
 152  536.0833
 153  452.7235
 154  441.8404
 155  350.1477
 156  407.0637
 157  437.4007
 158  513.5615
 159  529.1639
 160  517.4895
 161  395.0236
 162  389.3421
 163  470.825
 164  479.6973
 165  422.8287
 166  520.7383
 167  477.3443
 168  507.1538
 169  453.0349
 170  435.0334
 171  492.9469
 172  455.2537
 173  400.259
 174  476.1631
 175  498.1966
 176  469.3789
 177  535.3766
 178  588.6703
 179  370.8132
 180  372.825
 181  558.2399
 182  570.7023
 183  562.7237
 184  476.4305
 185  506.5631
 186  481.0603
 187  523.98
 188  525.7671
 189  425.9091
 190  457.8248
 191  448.7099
 192  388.4118
 193  467.472
 194  560.3742
 195  389.6439
 196  474.308
 197  628.1035
 198  579.4187
 199  525.2684
 200  535.821
 201  471.8911
 202  478.0383
 203  462.204
 204  532.7457
 205  588.9355
 206  508.3559
 207  463.3652
 208  523.5474
 209  504.7393
 210  420.5287
 211  477.2423
 212  478.1336
 213  435.3069
 214  451.2074
 215  556.8008
 216  594.4135
 217  554.8318
 218  567.3271
 219  508.2379
 220  466.1511
 221  451.6276
 222  496.9148
 223  530.6785
 224  537.9976
 225  507.2924
 226  506.4196
 227  495.1576
 228  450.3648
 229  543.0767
 230  547.3421
 231  542.2284
 232  434.1407
 233  437.2683
 234  501.3868
 235  464.5073
 236  426.1048
 237  363.145
 238  437.5681
 239  420.8296
 240  356.183
 241  489.6391
 242  623.8286
 243  628.7723
 244  543.6089
 245  507.6686
 246  433.9617
 247  368.2267
 248  423.8731
 249  498.1749
 250  492.8742
 251  415.3966
 252  467.5188
 253  457.8566
 254  436.2686
 255  385.2999
 256  351.1663
 257  386.4006
 258  466.0383
 259  479.5963
 260  447.4115
 261  466.9972
 262  472.0033
 263  498.8802
 264  428.2148
 265  546.9525
 266  522.3052
 267  498.3098
 268  396.4404
 269  495.1297
 270  542.124
 271  505.6569
 272  485.2379
 273  452.2483
 274  508.3739
 275  496.0964
 276  541.1898
 277  571.0693
 278  497.7381
 279  495.6963
 280  548.3198
 281  461.0303
 282  432.9354
 283  444.0164
 284  419.054
 285  493.4205
 286  440.6027
 287  425.2531
 288  465.7275
 289  513.5584
 290  418.9729
 291  478.2708
 292  479.9994
 293  522.2343
 294  423.5764
 295  441.3437
 296  456.8206
 297  339.2356
 298  401.6486
 299  424.9618
 300  522.7484
 301  541.0276
 302  527.9939
 303  406.1003
 304  377.9005
 305  418.3073
 306  358.3167
 307  366.7901
 308  389.2938
 309  461.9283
 310  538.866
 311  539.1904
 312  456.6753
 313  566.0045
 314  517.0156
 315  525.0668
 316  363.7827
 317  382.441
 318  432.7734
 319  508.8086
 320  524.1887
 321  385.7702
 322  378.8611
 323  391.8776
 324  467.4947
 325  590.8712
 326  440.685
 327  439.6699
 328  505.6049
 329  507.8292
 330  509.2806
 331  581.5941
 332  529.643
 333  487.8328
 334  426.6636
 335  377.0489
 336  434.3266
 337  357.8718
 338  361.3254
 339  334.6262
 340  383.77
 341  436.8811
 342  471.9883
 343  497.8049
 344  544.8843
 345  511.2617
 346  484.8163
 347  549.918
 348  471.5292
 349  403.539
 350  379.2488
 351  456.0782
 352  531.0945
 353  432.2802
 354  391.5206
 355  460.003
 356  523.688
 357  411.9407
 358  418.1451
 359  351.8128
 360  336.6776
 361  336.9852
 362  353.4561
 363  469.3145
 364  410.6392
 365  454.5574
 366  513.8439
 367  528.3616
 368  472.5759
 369  439.9075
 370  485.3515
 371  435.4183
 372  516.1802
 373  526.6571
 374  406.3977
 375  357.8799
 376  435.8663
 377  473.6342
 378  390.2348
 379  255.9103
 380  363.2904
 381  416.2926
 382  480.6679
 383  375.2772
 384  308.5127
 385  287.2502
 386  376.1307
 387  406.0745
 388  442.2534
 389  368.1654
 390  251.4107
 391  404.4463
 392  395.0134
 393  513.8079
 394  473.647
 395  472.4541
 396  556.2277
 397  576.4711
 398  469.7642
 399  422.3482
 400  497.4259
 401  501.3826
 402  399.1972
 403  352.3099
 404  393.0694
 405  435.2498
 406  480.1249
 407  383.3579
 408  377.8969
 409  375.5189
 410  468.8761
 411  490.8228
 412  404.3574
 413  378.0867
 414  401.6832
 415  455.9738
 416  541.7809
 417  574.4715
 418  475.2574
 419  360.1253
 420  304.6212
 421  354.8283
 422  325.1829
 423  362.2126
 424  360.9955
 425  416.76
 426  499.0029
 427  476.5358
 428  363.2271
 429  397.8838
 430  516.0955
 431  475.2645
 432  470.568
 433  469.9877
 434  436.3775
 435  472.2055
 436  393.4771
 437  400.0485
 438  499.3881
 439  375.1201
 440  422.0276
 441  459.4886
 442  398.5263
 443  476.4326
 444  472.9957
 445  469.2351
 446  374.3496
 447  511.4883
 448  483.5514
 449  408.4538
 450  398.3495
 451  470.5059
 452  461.2504
 453  548.564
 454  475.0069
 455  397.0712
 456  386.1069
 457  418.2673
 458  481.9301
 459  475.9924
 460  538.2969
 461  517.2871
 462  502.7017
 463  497.2392
 464  481.8722
 465  512.2849
 466  498.4439
 467  577.5021
 468  540.7803
 469  460.3733
 470  432.6129
 471  451.0071
 472  480.2845
 473  366.0928
 474  403.3364
 475  400.44
 476  398.445
 477  395.0688
 478  440.9204
 479  506.1861
 480  578.5259
 481  492.6176
 482  537.5031
 483  538.7151
 484  433.9913
 485  530.5632
 486  382.4529
 487  442.9918
 488  551.0508
 489  495.1346
 490  426.2541
 491  462.8723
 492  508.0189
 493  371.0709
 494  414.8336
 495  505.8616
 496  586.9979
 497  526.6641
 498  409.577
 499  347.2691
 500  454.5891
 501  536.3469
 502  515.431
 503  553.9636
 504  555.9677
 505  514.6755
 506  523.4542
 507  498.9555
 508  528.2352
 509  543.1936
 510  709.4586
 511  866.1345
