# Input file       =  1198518415.115674_cleaned.dat
# Candidate        =  PSR_0332+5434
# Telescope        =  AR
# Epoch_topo       =  58115.740707357341
# Epoch_bary       =  N/A
# T_sample         =  0.002
# Data Folded      =  7340032
# Data Avg         =  0.0287873449729789
# Data StdDev      =  1.00001633620296 
# Profile Bins     =  512
# Profile Avg      =  412.66603247404  
# Profile StdDev   =  119.734992359949 
# Reduced chi-sqr  =  1.066
# Prob(Noise)      <  0.147   (~1.1 sigma)
# P_topo (ms)      =  714.552951004358  +/- 0.00037
# P'_topo (s/s)    =  -0                +/- 1.95e-10
# P''_topo (s/s^2) =  0                 +/- 8.62e-14
# P_bary (ms)      =  N/A
# P'_bary (s/s)    =  N/A
# P''_bary (s/s^2) =  N/A
# P_orb (s)        =  N/A
# asin(i)/c (s)    =  N/A
# eccentricity     =  N/A
# w (rad)          =  N/A
# T_peri           =  N/A
######################################################
   0  729.8318
   1  760.3427
   2  784.828
   3  720.7458
   4  677.4191
   5  576.095
   6  582.4901
   7  606.6744
   8  519.329
   9  482.5351
  10  479.0572
  11  507.3934
  12  470.64
  13  565.1678
  14  663.8745
  15  641.3969
  16  538.8813
  17  535.0847
  18  603.1237
  19  533.3102
  20  354.6891
  21  299.7283
  22  310.2797
  23  410.9108
  24  504.7324
  25  512.7253
  26  430.0178
  27  466.8246
  28  478.9668
  29  437.7686
  30  412.1859
  31  391.8948
  32  472.8787
  33  391.9836
  34  401.2811
  35  313.6795
  36  245.9228
  37  229.6412
  38  399.3069
  39  478.2188
  40  449.4466
  41  348.5177
  42  334.1329
  43  336.7887
  44  356.7051
  45  427.8809
  46  312.2374
  47  410.4701
  48  463.3418
  49  401.6891
  50  446.1787
  51  576.42
  52  408.7483
  53  378.8896
  54  386.7704
  55  229.6197
  56  271.6352
  57  393.3058
  58  407.0912
  59  367.5667
  60  418.3839
  61  414.4156
  62  396.0722
  63  402.4893
  64  455.6073
  65  470.7301
  66  362.0945
  67  343.7117
  68  415.1212
  69  498.0139
  70  392.6038
  71  326.9099
  72  479.4648
  73  394.934
  74  427.3544
  75  452.6209
  76  520.163
  77  398.5686
  78  438.0692
  79  547.594
  80  441.6349
  81  502.8058
  82  464.7299
  83  491.2611
  84  520.283
  85  492.1613
  86  482.6309
  87  443.1519
  88  439.5411
  89  451.0129
  90  316.0033
  91  341.1455
  92  423.8682
  93  468.8157
  94  416.0714
  95  366.4806
  96  370.2734
  97  348.4453
  98  427.1023
  99  469.3475
 100  376.6789
 101  380.6482
 102  301.8137
 103  236.048
 104  400.8362
 105  342.1121
 106  410.1172
 107  541.191
 108  550.2108
 109  452.3225
 110  503.4937
 111  445.8221
 112  502.9197
 113  439.6871
 114  418.2561
 115  363.6179
 116  358.7268
 117  350.1319
 118  314.1424
 119  345.7967
 120  349.3632
 121  347.9819
 122  335.0269
 123  356.7935
 124  295.1626
 125  483.8129
 126  447.7365
 127  313.3247
 128  307.6006
 129  442.7492
 130  444.9926
 131  212.9604
 132  358.4873
 133  404.7654
 134  382.8133
 135  311.611
 136  298.5813
 137  333.4661
 138  367.2452
 139  494.7161
 140  411.1211
 141  391.3391
 142  404.6848
 143  389.3574
 144  380.1904
 145  427.2222
 146  484.377
 147  509.661
 148  444.5005
 149  446.9908
 150  438.1031
 151  418.2116
 152  361.9585
 153  339.4637
 154  400.825
 155  453.2246
 156  530.0291
 157  536.1669
 158  442.5068
 159  445.5686
 160  381.8586
 161  367.0085
 162  455.8625
 163  459.5716
 164  437.5178
 165  399.5229
 166  531.215
 167  438.7057
 168  337.4098
 169  453.7186
 170  533.8771
 171  493.1198
 172  507.8569
 173  346.1089
 174  300.0254
 175  307.5637
 176  464.1636
 177  480.5112
 178  404.5179
 179  475.732
 180  453.4634
 181  386.9347
 182  324.401
 183  362.1443
 184  461.2943
 185  419.8068
 186  421.0449
 187  401.3653
 188  316.7601
 189  515.9011
 190  511.3216
 191  503.1471
 192  398.7933
 193  394.6135
 194  516.6146
 195  516.145
 196  467.1202
 197  445.4042
 198  389.7585
 199  347.6053
 200  372.4862
 201  305.5636
 202  364.5313
 203  447.4696
 204  469.2131
 205  457.8211
 206  318.0257
 207  420.3638
 208  491.6585
 209  295.9922
 210  332.6052
 211  515.8722
 212  569.6373
 213  472.7033
 214  561.2982
 215  524.2141
 216  443.456
 217  434.6211
 218  458.9552
 219  433.6723
 220  383.1258
 221  428.1693
 222  390.3873
 223  284.2196
 224  337.4872
 225  373.8989
 226  430.7964
 227  492.304
 228  457.3983
 229  357.0566
 230  303.4352
 231  369.2759
 232  377.0479
 233  335.0967
 234  416.8617
 235  411.7061
 236  446.1988
 237  366.0867
 238  423.1996
 239  372.6914
 240  502.8633
 241  533.7604
 242  472.3265
 243  489.3953
 244  515.5113
 245  395.1303
 246  426.5696
 247  336.0872
 248  286.6184
 249  324.9735
 250  350.8257
 251  588.7819
 252  531.9994
 253  407.0185
 254  344.1724
 255  446.5325
 256  393.2995
 257  431.6554
 258  534.0493
 259  271.9006
 260  294.3109
 261  358.5513
 262  369.0785
 263  331.4594
 264  356.5052
 265  316.96
 266  361.5905
 267  347.5528
 268  385.8846
 269  381.3536
 270  362.9498
 271  356.233
 272  278.7201
 273  381.9068
 274  397.91
 275  350.5454
 276  456.1949
 277  348.2998
 278  364.2332
 279  396.4673
 280  307.4226
 281  245.9296
 282  313.6566
 283  342.005
 284  262.4547
 285  250.7651
 286  352.915
 287  357.7966
 288  280.4453
 289  345.7517
 290  340.0876
 291  337.9029
 292  343.9181
 293  344.7111
 294  365.9209
 295  265.6317
 296  278.3425
 297  460.2842
 298  367.4997
 299  442.5836
 300  407.5837
 301  505.145
 302  422.0936
 303  402.7157
 304  400.1648
 305  331.8662
 306  359.0134
 307  364.9787
 308  260.6004
 309  313.8481
 310  298.9527
 311  339.6108
 312  294.3889
 313  289.3599
 314  253.2226
 315  315.5056
 316  356.549
 317  337.8787
 318  358.7274
 319  320.1035
 320  346.9181
 321  366.1976
 322  354.5073
 323  378.0625
 324  361.31
 325  359.1466
 326  414.8565
 327  365.1243
 328  392.3019
 329  322.9606
 330  342.3174
 331  296.4125
 332  326.6123
 333  453.1284
 334  344.6877
 335  277.7855
 336  360.7567
 337  346.6787
 338  294.6761
 339  235.3883
 340  226.3852
 341  216.8065
 342  277.3102
 343  344.4782
 344  370.5843
 345  415.0458
 346  421.6603
 347  404.5267
 348  391.7362
 349  303.7433
 350  294.0895
 351  329.4205
 352  281.508
 353  336.1861
 354  406.1133
 355  262.7994
 356  247.5157
 357  286.9334
 358  358.1401
 359  350.7058
 360  424.6998
 361  486.362
 362  423.2751
 363  389.822
 364  423.5587
 365  435.1494
 366  322.0314
 367  448.0412
 368  382.7805
 369  308.8646
 370  395.0067
 371  340.7744
 372  351.6091
 373  334.3821
 374  321.2713
 375  452.7466
 376  388.0354
 377  459.3145
 378  485.7625
 379  382.9804
 380  402.0173
 381  437.5866
 382  407.2944
 383  306.0184
 384  419.2611
 385  394.2123
 386  414.788
 387  444.54
 388  376.4474
 389  357.1331
 390  374.3856
 391  488.58
 392  396.3936
 393  219.5441
 394  212.2648
 395  406.459
 396  448.3734
 397  440.5455
 398  463.934
 399  410.654
 400  446.6132
 401  500.7454
 402  524.126
 403  413.934
 404  414.0439
 405  496.7552
 406  421.149
 407  393.6139
 408  543.1245
 409  424.0715
 410  363.5255
 411  448.1917
 412  433.796
 413  269.7951
 414  403.1595
 415  381.299
 416  362.6096
 417  332.6615
 418  388.6003
 419  483.2988
 420  441.7256
 421  486.5981
 422  566.6797
 423  469.6389
 424  458.9463
 425  431.9605
 426  409.0058
 427  442.6105
 428  455.458
 429  381.9474
 430  285.184
 431  363.2415
 432  396.925
 433  363.7768
 434  334.4482
 435  374.9915
 436  373.6942
 437  442.4286
 438  455.7774
 439  498.9268
 440  385.3156
 441  412.6687
 442  507.4179
 443  624.1232
 444  536.3709
 445  381.351
 446  402.3974
 447  667.8372
 448  508.6662
 449  417.9303
 450  446.3759
 451  439.0515
 452  401.5528
 453  358.3646
 454  318.5456
 455  389.732
 456  465.9135
 457  368.7619
 458  327.6089
 459  425.5461
 460  432.2938
 461  468.9461
 462  474.8819
 463  367.399
 464  300.1042
 465  486.6508
 466  586.7073
 467  411.58
 468  364.985
 469  445.0269
 470  479.4414
 471  454.6205
 472  503.3426
 473  566.9462
 474  454.1305
 475  516.8357
 476  464.6915
 477  340.0024
 478  441.8511
 479  394.3496
 480  377.8598
 481  491.2279
 482  533.6641
 483  429.0813
 484  401.4326
 485  427.8754
 486  342.0105
 487  317.739
 488  523.9026
 489  563.2546
 490  520.2326
 491  433.0101
 492  476.3611
 493  354.4022
 494  431.5708
 495  438.5791
 496  528.0443
 497  447.9873
 498  428.9296
 499  316.7739
 500  523.5338
 501  582.8543
 502  476.4646
 503  485.4174
 504  415.1721
 505  531.4603
 506  517.1125
 507  558.8353
 508  576.3675
 509  667.3873
 510  769.8721
 511  799.9104
