# Input file       =  1198675532.112296_cleaned.dat
# Candidate        =  PSR_0332+5434
# Telescope        =  AR
# Epoch_topo       =  58117.559191114538
# Epoch_bary       =  N/A
# T_sample         =  0.002
# Data Folded      =  7143424
# Data Avg         =  0.0118946209428213
# Data StdDev      =  1.00004180936152 
# Profile Bins     =  512
# Profile Avg      =  165.929290426258 
# Profile StdDev   =  118.123522944468 
# Reduced chi-sqr  =  1.360
# Prob(Noise)      <  1.01e-07   (~5.2 sigma)
# P_topo (ms)      =  714.554509943309  +/- 0.000282
# P'_topo (s/s)    =  -0                +/- 1.53e-10
# P''_topo (s/s^2) =  0                 +/- 6.94e-14
# P_bary (ms)      =  N/A
# P'_bary (s/s)    =  N/A
# P''_bary (s/s^2) =  N/A
# P_orb (s)        =  N/A
# asin(i)/c (s)    =  N/A
# eccentricity     =  N/A
# w (rad)          =  N/A
# T_peri           =  N/A
######################################################
   0  633.5329
   1  649.3507
   2  671.7803
   3  498.7136
   4  261.8405
   5  49.34625
   6  247.1126
   7  364.9983
   8  300.5644
   9  178.3442
  10  168.8844
  11  144.7898
  12  262.3182
  13  347.6196
  14  230.8817
  15  192.1559
  16  188.3829
  17  176.4985
  18  244.5072
  19  191.4598
  20  236.9336
  21  93.80376
  22  209.1891
  23  304.7023
  24  227.5867
  25  205.6579
  26  198.8714
  27  193.8465
  28  213.137
  29  159.9935
  30  212.2107
  31  154.676
  32  205.6802
  33  229.5205
  34  206.3596
  35  160.0583
  36  218.0867
  37  241.0292
  38  236.9566
  39  123.0373
  40  111.0529
  41  134.2775
  42  213.2082
  43  206.7656
  44  1.695815
  45  70.11308
  46  105.9517
  47  148.5278
  48  154.3496
  49  221.2156
  50  233.3095
  51  106.0416
  52  117.4255
  53  183.4698
  54  139.8015
  55  159.7652
  56  136.2666
  57  174.1294
  58  93.75639
  59  152.5165
  60  146.0312
  61  130.5463
  62  90.46448
  63  -35.6977
  64  51.00077
  65  -20.61893
  66  144.1445
  67  117.7575
  68  45.75614
  69  104.1145
  70  199.8252
  71  333.8367
  72  312.432
  73  275.0804
  74  178.4145
  75  165.7379
  76  146.9285
  77  191.4032
  78  248.1639
  79  127.121
  80  25.88485
  81  62.42654
  82  23.72472
  83  143.8999
  84  200.9277
  85  154.3921
  86  129.9431
  87  198.8662
  88  250.3391
  89  248.6793
  90  214.9335
  91  267.0895
  92  229.3532
  93  80.43544
  94  -3.361367
  95  39.43471
  96  145.4281
  97  106.2124
  98  285.6363
  99  176.9675
 100  99.16181
 101  177.0784
 102  226.5916
 103  217.2101
 104  254.7433
 105  209.5334
 106  215.06
 107  217.326
 108  197.4552
 109  94.74341
 110  -84.21674
 111  33.05586
 112  111.3638
 113  242.6488
 114  191.8712
 115  133.3187
 116  183.5897
 117  249.6181
 118  257.0018
 119  272.4804
 120  296.2984
 121  402.8672
 122  231.7351
 123  104.8614
 124  167.9896
 125  341.5424
 126  278.4198
 127  271.0992
 128  207.5853
 129  51.83825
 130  63.95187
 131  211.6418
 132  237.4429
 133  155.1218
 134  120.53
 135  82.64432
 136  161.0306
 137  248.6444
 138  296.4837
 139  202.3666
 140  84.03766
 141  90.27802
 142  166.6252
 143  169.6247
 144  152.6575
 145  235.9949
 146  296.0596
 147  237.1426
 148  144.6538
 149  193.9742
 150  145.1164
 151  67.53568
 152  178.0361
 153  249.1777
 154  206.4442
 155  279.064
 156  288.127
 157  295.2833
 158  143.752
 159  26.63593
 160  41.24117
 161  164.3164
 162  242.7298
 163  284.1617
 164  267.1725
 165  158.8049
 166  112.082
 167  135.3753
 168  16.35921
 169  75.99852
 170  149.4283
 171  65.59599
 172  19.74146
 173  68.80118
 174  203.0556
 175  126.9028
 176  106.5557
 177  142.9597
 178  70.13558
 179  48.29472
 180  36.23256
 181  86.8362
 182  106.7797
 183  97.27995
 184  21.46465
 185  65.22453
 186  184.6454
 187  158.7247
 188  226.5915
 189  74.64819
 190  55.03067
 191  169.4181
 192  141.7371
 193  113.8963
 194  151.4472
 195  220.9684
 196  233.7265
 197  257.1587
 198  235.563
 199  254.3454
 200  188.5885
 201  119.0423
 202  88.44083
 203  12.11678
 204  97.37779
 205  101.6473
 206  207.4431
 207  238.2941
 208  179.1271
 209  100.757
 210  184.6426
 211  202.8223
 212  250.6759
 213  232.849
 214  152.8859
 215  197.118
 216  214.6161
 217  64.18359
 218  59.46153
 219  182.189
 220  265.7221
 221  133.3947
 222  242.9252
 223  301.4903
 224  233.6805
 225  37.11241
 226  22.3722
 227  200.6632
 228  209.6814
 229  159.654
 230  177.0056
 231  166.084
 232  184.0439
 233  161.8933
 234  134.2069
 235  -0.1654448
 236  242.7139
 237  249.7406
 238  59.09217
 239  36.50272
 240  30.05243
 241  26.7693
 242  -52.66359
 243  -23.05504
 244  111.1267
 245  206.6992
 246  191.1946
 247  102.0008
 248  106.5119
 249  156.0995
 250  216.683
 251  176.0619
 252  284.0376
 253  211.7571
 254  302.2067
 255  363.2981
 256  231.401
 257  113.0864
 258  183.9021
 259  76.50875
 260  79.87535
 261  110.7518
 262  210.7808
 263  180.7657
 264  93.96475
 265  146.1966
 266  165.9631
 267  300.8689
 268  379.9497
 269  340.744
 270  242.3757
 271  289.9785
 272  277.019
 273  352.9671
 274  348.3379
 275  105.4655
 276  64.39722
 277  213.7092
 278  194.1298
 279  26.39496
 280  19.52919
 281  0.1278315
 282  115.7658
 283  229.4821
 284  229.0587
 285  164.8366
 286  222.3733
 287  157.1151
 288  296.2196
 289  196.2371
 290  185.2637
 291  178.9253
 292  201.3261
 293  159.8989
 294  159.3629
 295  89.4384
 296  69.20931
 297  83.36959
 298  47.10471
 299  141.5658
 300  20.40788
 301  156.2384
 302  170.1935
 303  163.1303
 304  151.1753
 305  205.1973
 306  147.5169
 307  15.45847
 308  66.28334
 309  82.67306
 310  99.29697
 311  81.99687
 312  7.212317
 313  188.3115
 314  43.97677
 315  40.7375
 316  250.2591
 317  296.2012
 318  175.6945
 319  111.4379
 320  162.3245
 321  112.8681
 322  97.30558
 323  115.0568
 324  272.3898
 325  134.3593
 326  151.2933
 327  179.9341
 328  231.0604
 329  238.0499
 330  201.0015
 331  118.6562
 332  73.11633
 333  32.10461
 334  172.9954
 335  315.8491
 336  329.6663
 337  204.5604
 338  265.45
 339  231.8335
 340  162.0461
 341  163.6688
 342  100.8033
 343  120.5599
 344  154.8714
 345  94.69523
 346  149.8607
 347  163.0901
 348  302.7841
 349  212.528
 350  135.9325
 351  200.2073
 352  105.0152
 353  158.3882
 354  264.799
 355  220.5116
 356  143.5614
 357  138.6954
 358  171.4759
 359  140.5165
 360  65.48653
 361  101.0245
 362  145.99
 363  45.60377
 364  29.24806
 365  98.02099
 366  82.18374
 367  96.555
 368  114.1997
 369  141.6977
 370  274.1393
 371  178.9173
 372  83.1587
 373  51.03465
 374  86.19078
 375  22.20215
 376  73.94277
 377  114.4884
 378  92.12263
 379  250.6502
 380  174.315
 381  69.9912
 382  -24.45691
 383  6.235993
 384  44.37679
 385  286.9274
 386  135.2673
 387  77.92322
 388  108.0709
 389  74.38344
 390  228.905
 391  143.1373
 392  32.28628
 393  76.94487
 394  79.40239
 395  7.261219
 396  -164.9587
 397  -77.44057
 398  72.50334
 399  94.75361
 400  -15.45935
 401  138.6779
 402  102.071
 403  73.68538
 404  165.202
 405  175.0293
 406  140.0078
 407  154.5593
 408  135.6015
 409  108.0511
 410  75.96753
 411  -17.01918
 412  -47.94629
 413  -17.80572
 414  65.18686
 415  66.60373
 416  32.70809
 417  52.25553
 418  30.07166
 419  97.81333
 420  195.248
 421  125.1715
 422  138.216
 423  217.1125
 424  210.9454
 425  213.9358
 426  231.8776
 427  238.5375
 428  172.2505
 429  136.2919
 430  162.4265
 431  300.3392
 432  220.1207
 433  196.4398
 434  260.6606
 435  239.3904
 436  121.2234
 437  191.0798
 438  207.4725
 439  182.9426
 440  145.212
 441  144.9904
 442  74.97468
 443  187.4119
 444  130.3641
 445  200.6936
 446  154.1356
 447  181.5231
 448  247.0511
 449  255.1422
 450  309.9278
 451  244.6826
 452  223.3853
 453  36.91904
 454  28.67868
 455  66.49209
 456  133.4048
 457  182.1015
 458  149.9121
 459  118.4376
 460  30.94176
 461  68.08004
 462  134.301
 463  150.5554
 464  183.0303
 465  184.3679
 466  79.85137
 467  136.4267
 468  90.0445
 469  158.8523
 470  209.0442
 471  229.9398
 472  183.1671
 473  98.34692
 474  101.5578
 475  17.76551
 476  155.0548
 477  279.4984
 478  281.6392
 479  236.4038
 480  258.7884
 481  221.737
 482  230.8939
 483  160.1789
 484  192.4551
 485  286.8996
 486  276.3638
 487  202.4392
 488  254.9324
 489  188.8186
 490  281.4019
 491  277.5353
 492  316.5045
 493  200.5295
 494  247.268
 495  104.3203
 496  70.63091
 497  196.4944
 498  98.38172
 499  164.8558
 500  293.9376
 501  389.3727
 502  199.6079
 503  194.3407
 504  301.9921
 505  293.0539
 506  269.646
 507  235.835
 508  287.4073
 509  426.1318
 510  612.8061
 511  625.3024
