# Input file       =  1198188690.116503_cleaned.dat
# Candidate        =  PSR_0332+5434
# Telescope        =  AR
# Epoch_topo       =  58111.924445792858
# Epoch_bary       =  N/A
# T_sample         =  0.002
# Data Folded      =  7340032
# Data Avg         =  0.0306962195422746
# Data StdDev      =  1.0001741430142  
# Profile Bins     =  512
# Profile Avg      =  440.081546134318 
# Profile StdDev   =  119.75388704862  
# Reduced chi-sqr  =  0.749
# Prob(Noise)      <  1   (~0.0 sigma)
# P_topo (ms)      =  714.549851231536  +/- 0.000221
# P'_topo (s/s)    =  -0                +/- 1.17e-10
# P''_topo (s/s^2) =  0                 +/- 5.15e-14
# P_bary (ms)      =  N/A
# P'_bary (s/s)    =  N/A
# P''_bary (s/s^2) =  N/A
# P_orb (s)        =  N/A
# asin(i)/c (s)    =  N/A
# eccentricity     =  N/A
# w (rad)          =  N/A
# T_peri           =  N/A
######################################################
   0  818.9918
   1  768.6727
   2  676.2184
   3  637.0992
   4  498.5005
   5  415.292
   6  370.9859
   7  415.8485
   8  467.2846
   9  420.011
  10  440.6155
  11  432.4135
  12  382.5264
  13  465.1178
  14  561.9737
  15  480.0264
  16  389.3312
  17  357.4727
  18  384.2003
  19  308.1805
  20  342.6006
  21  427.8573
  22  444.18
  23  427.5975
  24  425.4901
  25  473.2865
  26  372.3892
  27  269.0512
  28  377.6304
  29  346.9847
  30  312.9236
  31  332.7723
  32  474.0643
  33  418.3836
  34  412.838
  35  423.6587
  36  446.3289
  37  381.4437
  38  370.9474
  39  387.4814
  40  415.6675
  41  439.7671
  42  487.6933
  43  410.0991
  44  384.9897
  45  494.2552
  46  515.9883
  47  342.192
  48  381.3002
  49  420.9524
  50  396.0528
  51  480.5079
  52  434.6302
  53  372.7126
  54  349.9511
  55  369.037
  56  392.0818
  57  431.6262
  58  440.3203
  59  362.2652
  60  384.2039
  61  485.4831
  62  473.3207
  63  364.5373
  64  499.0011
  65  485.899
  66  382.548
  67  416.617
  68  454.5341
  69  430.1963
  70  354.7107
  71  415.12
  72  418.7447
  73  413.2293
  74  337.241
  75  343.247
  76  378.0143
  77  466.01
  78  369.3224
  79  347.5955
  80  381.125
  81  429.2708
  82  485.1784
  83  453.6577
  84  459.6955
  85  389.7852
  86  415.2811
  87  436.7816
  88  365.7731
  89  316.98
  90  432.7182
  91  479.7487
  92  485.8816
  93  447.3973
  94  364.1483
  95  405.3824
  96  429.5937
  97  402.0264
  98  373.0889
  99  359.2684
 100  371.833
 101  469.7753
 102  463.3351
 103  430.554
 104  504.6557
 105  452.9817
 106  482.0988
 107  496.6099
 108  470.6562
 109  410.7176
 110  380.7392
 111  406.2483
 112  566.7597
 113  536.2195
 114  585.6774
 115  586.9886
 116  533.8062
 117  440.1265
 118  513.2758
 119  493.3953
 120  554.5674
 121  505.9492
 122  442.3736
 123  405.4466
 124  438.3777
 125  440.4034
 126  401.0562
 127  358.7218
 128  412.7066
 129  456.478
 130  498.3441
 131  436.3297
 132  460.6691
 133  459.259
 134  389.3287
 135  486.7561
 136  448.9055
 137  471.4268
 138  455.1323
 139  450.4059
 140  497.8119
 141  390.7019
 142  372.1945
 143  424.2241
 144  450.5045
 145  507.9095
 146  472.7123
 147  377.3601
 148  387.1928
 149  460.5981
 150  498.7277
 151  443.2562
 152  459.2264
 153  506.5862
 154  451.8081
 155  527.0344
 156  426.5166
 157  459.4789
 158  499.2951
 159  518.0872
 160  570.1131
 161  579.3868
 162  524.8767
 163  412.9641
 164  428.1029
 165  590.0497
 166  492.8468
 167  374.2806
 168  516.3525
 169  504.921
 170  452.6592
 171  500.1311
 172  558.1412
 173  607.9495
 174  540.6138
 175  489.1721
 176  519.5446
 177  562.7311
 178  690.3578
 179  611.1586
 180  500.4756
 181  388.2419
 182  477.3168
 183  472.1018
 184  386.6839
 185  521.7645
 186  516.1208
 187  463.2866
 188  320.3535
 189  323.3527
 190  346.5021
 191  362.7952
 192  436.1433
 193  553.6033
 194  516.6424
 195  496.2841
 196  493.827
 197  500.7932
 198  431.213
 199  367.0912
 200  394.4597
 201  472.2393
 202  489.6804
 203  507.6027
 204  474.7477
 205  484.03
 206  474.0545
 207  460.5177
 208  444.2518
 209  448.312
 210  441.086
 211  549.0458
 212  500.5875
 213  418.4101
 214  562.1921
 215  555.1737
 216  526.1128
 217  435.0788
 218  491.5376
 219  474.3786
 220  478.8579
 221  400.8859
 222  451.1564
 223  359.6625
 224  318.9647
 225  348.7694
 226  321.4525
 227  407.9755
 228  410.6274
 229  420.9836
 230  533.3815
 231  556.8907
 232  594.1058
 233  557.3061
 234  412.0311
 235  381.6684
 236  427.1973
 237  469.9282
 238  450.1382
 239  491.6853
 240  554.9402
 241  451.9025
 242  427.9924
 243  415.5198
 244  474.967
 245  473.778
 246  465.8687
 247  465.0262
 248  452.3806
 249  471.3069
 250  495.824
 251  426.3842
 252  482.1935
 253  398.1571
 254  441.8269
 255  464.8074
 256  454.3696
 257  494.3232
 258  437.6251
 259  482.0101
 260  566.1628
 261  543.9598
 262  497.2154
 263  466.2812
 264  433.9585
 265  398.7592
 266  457.6245
 267  472.6329
 268  324.8451
 269  390.3418
 270  574.9835
 271  546.2003
 272  510.2148
 273  402.3094
 274  510.6151
 275  466.6026
 276  410.8899
 277  371.061
 278  435.1854
 279  517.0525
 280  503.2135
 281  442.2901
 282  468.349
 283  518.2053
 284  517.4415
 285  393.5617
 286  287.8427
 287  310.8551
 288  334.3155
 289  363.3442
 290  394.9004
 291  446.9113
 292  484.6783
 293  396.749
 294  359.0397
 295  313.4745
 296  390.4645
 297  462.8492
 298  421.2893
 299  283.9878
 300  400.3178
 301  463.6782
 302  378.3008
 303  329.9328
 304  423.3418
 305  546.9867
 306  481.2041
 307  532.6401
 308  357.2855
 309  341.1613
 310  308.6429
 311  342.6255
 312  516.048
 313  557.5358
 314  462.8232
 315  421.7669
 316  410.2347
 317  334.371
 318  297.0038
 319  416.8432
 320  441.3473
 321  364.8678
 322  349.7939
 323  501.5198
 324  431.6062
 325  411.0654
 326  344.2019
 327  435.5623
 328  445.5454
 329  498.47
 330  401.7609
 331  441.1156
 332  528.7874
 333  504.1682
 334  392.2158
 335  327.5621
 336  357.7412
 337  444.872
 338  453.562
 339  483.0412
 340  491.0822
 341  458.9164
 342  444.3756
 343  467.369
 344  498.7034
 345  439.5058
 346  352.8123
 347  332.015
 348  392.2319
 349  372.8687
 350  389.2782
 351  370.015
 352  394.3726
 353  444.9535
 354  500.8964
 355  400.2998
 356  380.8274
 357  386.8391
 358  406.4045
 359  466.191
 360  524.2345
 361  525.8438
 362  550.7435
 363  437.1559
 364  366.2099
 365  468.2732
 366  585.2908
 367  428.1833
 368  422.1585
 369  429.319
 370  314.2634
 371  213.8141
 372  306.9487
 373  460.5661
 374  417.5692
 375  355.1489
 376  358.9739
 377  300.2113
 378  391.1937
 379  464.2408
 380  403.5041
 381  330.929
 382  381.5177
 383  464.2057
 384  496.7111
 385  428.4966
 386  415.4007
 387  338.8836
 388  398.8301
 389  375.4148
 390  335.79
 391  412.0447
 392  399.9256
 393  397.7455
 394  368.3192
 395  395.3793
 396  455.8226
 397  488.5781
 398  392.3615
 399  452.0162
 400  473.9796
 401  349.8732
 402  380.92
 403  385.3932
 404  561.1651
 405  541.2387
 406  428.8636
 407  505.3103
 408  466.8028
 409  439.0558
 410  386.5842
 411  484.7648
 412  496.2012
 413  528.3083
 414  406.9557
 415  452.793
 416  447.5305
 417  493.9395
 418  384.4152
 419  323.214
 420  277.7574
 421  319.9123
 422  481.6569
 423  444.2739
 424  474.2802
 425  355.1608
 426  442.7733
 427  462.8488
 428  382.644
 429  391.1667
 430  409.148
 431  528.4415
 432  417.5848
 433  326.4801
 434  200.3388
 435  277.3762
 436  449.6413
 437  495.4731
 438  512.824
 439  314.6654
 440  237.0453
 441  366.4662
 442  404.452
 443  398.9414
 444  455.082
 445  397.8595
 446  370.5344
 447  420.3404
 448  459.0257
 449  339.1781
 450  486.8961
 451  421.8362
 452  435.0044
 453  481.5726
 454  487.0057
 455  358.2747
 456  443.8489
 457  394.0618
 458  363.3416
 459  333.6042
 460  308.9397
 461  426.8791
 462  476.3885
 463  533.4673
 464  406.4956
 465  306.097
 466  345.4825
 467  399.9984
 468  446.3463
 469  473.7645
 470  468.2184
 471  485.8158
 472  429.761
 473  424.3038
 474  461.8113
 475  486.5247
 476  502.6017
 477  443.2362
 478  474.7069
 479  362.4162
 480  324.1857
 481  397.1869
 482  446.7498
 483  546.9197
 484  520.3722
 485  470.1685
 486  515.1596
 487  582.0377
 488  483.6792
 489  326.9178
 490  313.1668
 491  524.2556
 492  534.1685
 493  461.2575
 494  524.1923
 495  458.7387
 496  378.8971
 497  504.4373
 498  477.6089
 499  460.7664
 500  441.9353
 501  422.0164
 502  406.5704
 503  516.8793
 504  570.5005
 505  528.4524
 506  443.7391
 507  437.0871
 508  592.3743
 509  591.9811
 510  566.0209
 511  676.8062
