# Input file       =  1198431712.104709_cleaned.dat
# Candidate        =  PSR_0332+5434
# Telescope        =  AR
# Epoch_topo       =  58114.737200285985
# Epoch_bary       =  N/A
# T_sample         =  0.002
# Data Folded      =  7340032
# Data Avg         =  0.0291610975127903
# Data StdDev      =  1.0000720594832  
# Profile Bins     =  512
# Profile Avg      =  418.044233857009 
# Profile StdDev   =  119.741664277489 
# Reduced chi-sqr  =  0.919
# Prob(Noise)      <  0.904   (~0.0 sigma)
# P_topo (ms)      =  714.552051796655  +/- 0.000576
# P'_topo (s/s)    =  -0                +/- 3.04e-10
# P''_topo (s/s^2) =  0                 +/- 1.34e-13
# P_bary (ms)      =  N/A
# P'_bary (s/s)    =  N/A
# P''_bary (s/s^2) =  N/A
# P_orb (s)        =  N/A
# asin(i)/c (s)    =  N/A
# eccentricity     =  N/A
# w (rad)          =  N/A
# T_peri           =  N/A
######################################################
   0  916.7968
   1  915.492
   2  779.5727
   3  582.1835
   4  514.3986
   5  410.3221
   6  295.9357
   7  304.7714
   8  430.3224
   9  425.3961
  10  404.6732
  11  422.6676
  12  498.5959
  13  417.9377
  14  410.2368
  15  401.536
  16  354.0439
  17  386.995
  18  338.8535
  19  382.6779
  20  339.5442
  21  409.9568
  22  409.6629
  23  362.4708
  24  432.4633
  25  241.5541
  26  331.1049
  27  425.1453
  28  467.6075
  29  450.3202
  30  509.8805
  31  474.79
  32  509.1058
  33  405.8156
  34  358.9913
  35  353.0751
  36  372.853
  37  396.8471
  38  388.2812
  39  389.1445
  40  289.2052
  41  241.6744
  42  505.8219
  43  515.2508
  44  471.9432
  45  376.9379
  46  475.7059
  47  456.5956
  48  480.0297
  49  429.9738
  50  408.26
  51  420.9455
  52  371.2149
  53  309.9418
  54  377.3788
  55  528.2495
  56  436.3661
  57  382.3535
  58  365.4059
  59  371.5431
  60  405.083
  61  376.0071
  62  382.1807
  63  355.7063
  64  217.2882
  65  221.2643
  66  411.0472
  67  441.1111
  68  438.7695
  69  414.7816
  70  439.1282
  71  404.025
  72  438.6994
  73  405.7771
  74  422.2338
  75  474.046
  76  434.6757
  77  380.519
  78  379.2239
  79  378.2086
  80  417.0053
  81  451.3796
  82  367.8802
  83  344.2322
  84  435.1776
  85  495.8838
  86  374.9314
  87  449.4091
  88  384.5634
  89  368.2605
  90  380.6898
  91  397.0106
  92  395.3676
  93  386.0726
  94  324.8295
  95  449.7662
  96  334.5252
  97  268.7384
  98  311.8646
  99  337.4054
 100  285.1183
 101  320.4351
 102  338.6542
 103  270.2897
 104  472.5993
 105  509.2033
 106  486.2612
 107  366.7637
 108  387.6319
 109  353.1686
 110  453.4019
 111  480.6791
 112  350.6332
 113  345.3219
 114  256.9153
 115  285.2263
 116  459.7248
 117  448.8265
 118  302.2218
 119  305.3855
 120  368.9133
 121  327.2295
 122  420.6977
 123  401.4479
 124  390.7364
 125  357.9327
 126  468.3605
 127  457.2781
 128  372.0338
 129  343.0461
 130  398.4558
 131  431.0487
 132  462.818
 133  438.7154
 134  462.0082
 135  438.1919
 136  333.6616
 137  399.1955
 138  468.2854
 139  398.5228
 140  336.68
 141  326.8454
 142  340.1588
 143  373.7076
 144  386.9893
 145  321.8957
 146  415.6996
 147  409.7856
 148  433.9072
 149  465.4911
 150  372.5147
 151  343.9604
 152  426.7012
 153  560.8433
 154  422.3156
 155  386.3247
 156  455.6039
 157  396.313
 158  394.3438
 159  418.1433
 160  458.0971
 161  375.7449
 162  380.9017
 163  518.4075
 164  525.471
 165  434.5088
 166  535.0504
 167  418.7204
 168  434.6718
 169  404.8483
 170  344.1105
 171  431.6482
 172  411.9074
 173  431.8039
 174  479.3871
 175  443.8739
 176  440.085
 177  438.6509
 178  437.6592
 179  401.5492
 180  522.0742
 181  528.1337
 182  446.6836
 183  294.2003
 184  446.2814
 185  476.8267
 186  427.7899
 187  535.1269
 188  499.5346
 189  426.8741
 190  358.6384
 191  453.2776
 192  409.9676
 193  324.9516
 194  397.937
 195  289.2295
 196  235.4258
 197  451.7061
 198  473.6399
 199  359.1843
 200  339.5182
 201  473.0908
 202  442.1591
 203  373.3689
 204  461.2512
 205  433.4045
 206  407.8292
 207  305.1244
 208  367.0717
 209  405.4634
 210  441.2384
 211  326.8939
 212  341.8162
 213  391.1116
 214  483.8127
 215  428.5846
 216  488.4126
 217  382.5069
 218  291.6295
 219  413.1678
 220  424.3481
 221  464.4897
 222  358.2325
 223  216.7598
 224  347.3913
 225  434.4371
 226  454.6145
 227  368.3834
 228  336.5
 229  436.2762
 230  517.8774
 231  391.1237
 232  362.0877
 233  427.3424
 234  444.3737
 235  303.1958
 236  300.2527
 237  360.0843
 238  405.4685
 239  435.1349
 240  376.3066
 241  445.3156
 242  441.3364
 243  419.9449
 244  381.8238
 245  296.7761
 246  379.9555
 247  381.7253
 248  452.0131
 249  426.6837
 250  434.4478
 251  594.4451
 252  534.5336
 253  461.6595
 254  540.3516
 255  491.3463
 256  335.4476
 257  318.9301
 258  253.7779
 259  383.6298
 260  439.9005
 261  504.46
 262  496.8952
 263  424.3342
 264  476.233
 265  476.7695
 266  463.6067
 267  526.7656
 268  451.3595
 269  354.2921
 270  322.2672
 271  348.485
 272  362.897
 273  423.7285
 274  474.8268
 275  522.9863
 276  514.3589
 277  290.1065
 278  229.6797
 279  451.0219
 280  464.4193
 281  469.8291
 282  387.0501
 283  332.8675
 284  388.1079
 285  410.6499
 286  550.4294
 287  489.0276
 288  494.133
 289  490.3645
 290  517.3967
 291  548.5258
 292  364.4758
 293  273.4405
 294  266.4459
 295  354.2735
 296  302.2259
 297  439.3879
 298  542.7406
 299  442.6667
 300  423.9417
 301  336.3407
 302  362.548
 303  504.6341
 304  370.9666
 305  343.7249
 306  321.2228
 307  325.8778
 308  472.8707
 309  494.6125
 310  393.882
 311  382.2528
 312  315.7293
 313  372.7658
 314  381.5334
 315  326.0834
 316  488.2533
 317  392.623
 318  363.6949
 319  437.1682
 320  477.1002
 321  369.2108
 322  454.331
 323  473.789
 324  331.4884
 325  381.5733
 326  335.4488
 327  255.8821
 328  304.7094
 329  446.8487
 330  387.8132
 331  289.0774
 332  316.9207
 333  433.9012
 334  294.6802
 335  304.4106
 336  351.0994
 337  396.6167
 338  502.4518
 339  496.4449
 340  397.6005
 341  389.5157
 342  419.959
 343  447.3541
 344  474.9719
 345  499.1826
 346  422.143
 347  417.4568
 348  509.4234
 349  418.6667
 350  474.0774
 351  435.9109
 352  534.2316
 353  587.6876
 354  458.2798
 355  394.5163
 356  386.4214
 357  441.3369
 358  455.7104
 359  385.4376
 360  563.5554
 361  555.7242
 362  404.2724
 363  434.3148
 364  507.7835
 365  512.9619
 366  513.5163
 367  542.7879
 368  511.927
 369  435.9205
 370  358.6924
 371  334.6476
 372  414.5757
 373  366.6534
 374  353.5369
 375  386.462
 376  354.7414
 377  358.0529
 378  348.6582
 379  361.236
 380  481.3736
 381  419.128
 382  309.8459
 383  427.8861
 384  491.5846
 385  480.2964
 386  469.8188
 387  417.5696
 388  364.9631
 389  412.9031
 390  520.371
 391  489.8171
 392  435.1232
 393  375.8282
 394  536.485
 395  511.9749
 396  502.1606
 397  615.9778
 398  607.8309
 399  415.1309
 400  340.3669
 401  460.7594
 402  529.4908
 403  513.4844
 404  517.6872
 405  476.6866
 406  525.9263
 407  594.7034
 408  524.1978
 409  425.7443
 410  363.6074
 411  435.6724
 412  528.4412
 413  475.9273
 414  350.4973
 415  305.1517
 416  462.6688
 417  467.0714
 418  366.995
 419  362.4739
 420  480.7265
 421  477.3113
 422  401.4514
 423  413.1561
 424  414.7734
 425  382.2117
 426  331.5782
 427  275.1231
 428  337.8234
 429  433.6554
 430  462.4128
 431  361.5545
 432  371.1841
 433  429.6413
 434  387.8682
 435  427.8187
 436  431.3573
 437  485.1273
 438  416.2873
 439  394.2856
 440  397.8258
 441  490.6825
 442  497.7802
 443  466.5417
 444  485.4107
 445  521.7687
 446  374.991
 447  310.277
 448  424.9785
 449  494.4329
 450  424.329
 451  361.2201
 452  361.5694
 453  317.6737
 454  349.827
 455  374.8009
 456  388.9785
 457  431.329
 458  476.2305
 459  381.9094
 460  373.9254
 461  342.9823
 462  362.4763
 463  365.2957
 464  429.3093
 465  399.8351
 466  386.1365
 467  401.4697
 468  347.7715
 469  326.6612
 470  375.2644
 471  468.0827
 472  521.6084
 473  486.66
 474  423.5733
 475  290.1028
 476  424.3527
 477  400.9542
 478  373.6734
 479  347.8883
 480  397.0782
 481  477.9076
 482  440.2613
 483  415.3302
 484  422.4875
 485  498.5374
 486  541.7918
 487  594.9086
 488  581.2774
 489  413.2533
 490  403.2968
 491  387.0048
 492  319.806
 493  415.8445
 494  446.8527
 495  456.2245
 496  431.555
 497  316.1906
 498  315.9995
 499  376.2806
 500  490.6918
 501  443.3547
 502  385.7621
 503  406.0071
 504  488.9413
 505  452.9676
 506  603.2042
 507  551.9726
 508  526.4357
 509  643.2189
 510  744.8044
 511  794.2766
