# Input file       =  1198417033.10782_cleaned.dat
# Candidate        =  PSR_0332+5434
# Telescope        =  AR
# Epoch_topo       =  58114.567304488657
# Epoch_bary       =  N/A
# T_sample         =  0.002
# Data Folded      =  7208960
# Data Avg         =  0.0210685804963079
# Data StdDev      =  1.00013586987302 
# Profile Bins     =  512
# Profile Avg      =  296.706981595865 
# Profile StdDev   =  118.675298000678 
# Reduced chi-sqr  =  1.027
# Prob(Noise)      <  0.326   (~0.5 sigma)
# P_topo (ms)      =  714.551879282993  +/- 0.000137
# P'_topo (s/s)    =  -0                +/- 7.36e-11
# P''_topo (s/s^2) =  0                 +/- 3.31e-14
# P_bary (ms)      =  N/A
# P'_bary (s/s)    =  N/A
# P''_bary (s/s^2) =  N/A
# P_orb (s)        =  N/A
# asin(i)/c (s)    =  N/A
# eccentricity     =  N/A
# w (rad)          =  N/A
# T_peri           =  N/A
######################################################
   0  691.2455
   1  639.2169
   2  562.8923
   3  500.5112
   4  397.5998
   5  220.689
   6  163.7288
   7  140.9405
   8  198.4233
   9  55.01978
  10  151.9867
  11  137.3962
  12  240.5786
  13  399.3716
  14  339.9194
  15  353.307
  16  242.2749
  17  291.932
  18  428.083
  19  389.2514
  20  430.3374
  21  241.4436
  22  117.7965
  23  224.3539
  24  421.3545
  25  406.3492
  26  291.7635
  27  284.363
  28  286.3128
  29  252.7126
  30  288.6289
  31  344.2741
  32  350.4344
  33  321.5726
  34  281.1898
  35  299.2032
  36  393.3091
  37  486.8062
  38  386.0957
  39  406.8695
  40  255.6033
  41  171.7254
  42  302.9009
  43  408.5088
  44  388.7981
  45  329.216
  46  349.2279
  47  333.263
  48  242.3583
  49  310.4575
  50  298.5825
  51  363.6406
  52  330.3454
  53  373.763
  54  289.3326
  55  395.6432
  56  453.8335
  57  303.304
  58  334.1275
  59  269.4703
  60  155.7401
  61  157.3004
  62  250.1828
  63  394.2181
  64  327.5424
  65  239.891
  66  182.7354
  67  201.6524
  68  328.9173
  69  340.0039
  70  324.9128
  71  271.5125
  72  320.9058
  73  352.4466
  74  328.876
  75  339.5938
  76  340.7603
  77  229.7708
  78  212.2106
  79  255.1089
  80  266.6361
  81  230.9598
  82  225.0098
  83  233.3745
  84  248.2892
  85  255.8637
  86  166.3558
  87  279.7188
  88  417.6834
  89  307.1903
  90  268.5676
  91  230.5613
  92  372.0191
  93  176.8626
  94  143.5762
  95  255.037
  96  327.4329
  97  256.1946
  98  319.6086
  99  415.8775
 100  330.2505
 101  285.3984
 102  411.0006
 103  488.3925
 104  404.671
 105  350.5179
 106  182.7082
 107  230.0011
 108  195.4577
 109  229.7601
 110  327.6157
 111  311.9604
 112  262.8488
 113  303.1662
 114  99.08308
 115  272.1672
 116  375.5613
 117  400.0453
 118  318.6491
 119  301.7287
 120  378.1423
 121  326.487
 122  278.9142
 123  262.227
 124  284.4067
 125  316.7563
 126  246.0589
 127  251.2977
 128  261.2494
 129  279.186
 130  321.3493
 131  417.6525
 132  274.9629
 133  265.2626
 134  282.7477
 135  364.689
 136  367.1525
 137  392.328
 138  341.7858
 139  292.9172
 140  302.619
 141  386.8532
 142  355.378
 143  371.4319
 144  284.1204
 145  276.0408
 146  156.0869
 147  197.825
 148  263.773
 149  335.8535
 150  451.9856
 151  273.5903
 152  263.0101
 153  300.2302
 154  324.4518
 155  178.6656
 156  154.2704
 157  358.5022
 158  255.6254
 159  202.6185
 160  181.9477
 161  309.257
 162  424.7508
 163  336.4796
 164  237.7258
 165  273.6948
 166  130.4706
 167  181.0361
 168  205.6437
 169  144.765
 170  268.2433
 171  256.7195
 172  257.4814
 173  355.7249
 174  295.2003
 175  430.4239
 176  335.6553
 177  260.9034
 178  302.8045
 179  264.5746
 180  296.1427
 181  406.4099
 182  283.0416
 183  194.5416
 184  275.5274
 185  234.5988
 186  337.632
 187  289.7697
 188  321.6829
 189  306.8437
 190  306.8435
 191  298.3135
 192  238.1385
 193  116.6193
 194  235.563
 195  369.2109
 196  281.7619
 197  294.4145
 198  216.6831
 199  288.2015
 200  408.3195
 201  423.3714
 202  345.6323
 203  336.1432
 204  327.5917
 205  349.5717
 206  465.3458
 207  368.3668
 208  224.2322
 209  143.0985
 210  306.1406
 211  341.6264
 212  354.3391
 213  232.0205
 214  225.3616
 215  372.7809
 216  316.2493
 217  314.6643
 218  259.1717
 219  403.0549
 220  170.1973
 221  152.7574
 222  182.1391
 223  223.871
 224  377.9966
 225  304.2419
 226  256.8323
 227  173.3409
 228  175.6304
 229  284.1538
 230  212.7772
 231  144.0151
 232  270.9148
 233  277.1694
 234  270.5095
 235  176.2701
 236  196.4167
 237  231.5363
 238  224.4857
 239  223.4058
 240  196.1657
 241  126.3561
 242  115.4293
 243  191.2136
 244  334.7645
 245  258.0843
 246  238.8845
 247  179.9193
 248  277.943
 249  364.7697
 250  321.4825
 251  281.6145
 252  291.1166
 253  303.0147
 254  193.2182
 255  114.6236
 256  218.6282
 257  354.2386
 258  258.9834
 259  331.482
 260  194.9384
 261  208.6862
 262  396.5424
 263  462.0273
 264  369.5608
 265  256.5587
 266  277.8549
 267  248.4328
 268  288.1281
 269  302.5976
 270  323.4262
 271  230.6463
 272  231.2991
 273  194.1603
 274  150.6333
 275  169.9009
 276  192.5187
 277  308.8974
 278  261.5816
 279  256.9274
 280  242.6633
 281  152.9147
 282  293.6564
 283  294.6696
 284  276.568
 285  375.2402
 286  372.5506
 287  355.2164
 288  231.9541
 289  190.0589
 290  240.5993
 291  176.1628
 292  318.702
 293  297.1022
 294  206.2787
 295  328.2468
 296  340.9711
 297  216.9422
 298  262.7038
 299  355.0028
 300  332.4069
 301  180.498
 302  294.6906
 303  238.2191
 304  48.1214
 305  228.9611
 306  391.7141
 307  315.386
 308  237.981
 309  253.9269
 310  316.9903
 311  339.0426
 312  338.9825
 313  234.9851
 314  338.4524
 315  426.8549
 316  253.0628
 317  262.4804
 318  318.5651
 319  217.4048
 320  298.8787
 321  245.9099
 322  158.4779
 323  202.7522
 324  230.6992
 325  389.4534
 326  331.0316
 327  391.1408
 328  309.2889
 329  330.276
 330  311.2613
 331  236.343
 332  260.5407
 333  345.8927
 334  389.6355
 335  331.7661
 336  235.4667
 337  262.5306
 338  266.2905
 339  271.299
 340  256.4424
 341  210.5237
 342  410.9574
 343  401.5262
 344  276.0403
 345  241.3014
 346  274.434
 347  298.0144
 348  358.6049
 349  298.8317
 350  265.0896
 351  405.4106
 352  307.299
 353  326.5456
 354  379.689
 355  362.1605
 356  368.8434
 357  452.7368
 358  441.5046
 359  432.8847
 360  355.2263
 361  348.7738
 362  381.6925
 363  335.0273
 364  450.3979
 365  273.7261
 366  301.3878
 367  316.2227
 368  289.5338
 369  196.1552
 370  344.3113
 371  363.6612
 372  232.3529
 373  212.1946
 374  269.8527
 375  440.9522
 376  342.063
 377  331.9089
 378  218.0234
 379  94.9632
 380  249.1493
 381  420.3727
 382  464.4214
 383  392.5918
 384  268.3998
 385  294.0054
 386  417.9109
 387  284.1972
 388  164.2738
 389  222.1796
 390  222.41
 391  221.6158
 392  221.4095
 393  265.8216
 394  333.3233
 395  223.0226
 396  269.1812
 397  275.7902
 398  228.3817
 399  282.1557
 400  304.4097
 401  436.1829
 402  397.772
 403  352.7526
 404  248.0608
 405  198.9198
 406  314.5207
 407  457.1075
 408  530.9504
 409  352.0426
 410  381.6216
 411  299.0994
 412  317.2727
 413  379.4894
 414  325.8311
 415  334.0572
 416  328.7551
 417  363.8737
 418  303.5684
 419  227.7873
 420  204.3586
 421  349.1817
 422  278.0343
 423  362.5084
 424  291.198
 425  262.7755
 426  286.7106
 427  201.5119
 428  190.5838
 429  225.1065
 430  319.3401
 431  334.7794
 432  207.2395
 433  278.3053
 434  380.2995
 435  362.6803
 436  247.8377
 437  186.656
 438  177.3561
 439  266.1688
 440  219.5166
 441  130.932
 442  292.8953
 443  253.849
 444  257.9146
 445  308.5811
 446  345.0732
 447  273.8121
 448  277.4503
 449  231.4494
 450  306.4035
 451  327.888
 452  373.3254
 453  312.4955
 454  201.8616
 455  148.724
 456  274.3319
 457  284.5829
 458  368.1461
 459  219.7394
 460  284.3441
 461  319.6539
 462  237.514
 463  287.5598
 464  316.4719
 465  358.2651
 466  398.7798
 467  394.4934
 468  424.3369
 469  316.0921
 470  213.3265
 471  110.9545
 472  312.0674
 473  373.5815
 474  313.482
 475  396.3335
 476  292.8528
 477  328.8059
 478  208.8467
 479  270.0104
 480  299.8346
 481  416.4744
 482  406.7002
 483  298.994
 484  358.1794
 485  349.6707
 486  340.3655
 487  363.7223
 488  362.3426
 489  278.6031
 490  193.3079
 491  249.2068
 492  309.4858
 493  307.3423
 494  123.7035
 495  267.2832
 496  245.7239
 497  337.1494
 498  344.4596
 499  284.0687
 500  404.3557
 501  430.5079
 502  345.0928
 503  418.2844
 504  415.2693
 505  473.2284
 506  520.546
 507  376.0822
 508  471.2208
 509  558.3425
 510  522.841
 511  661.7247
