# Input file       =  1198015849.104194_cleaned.dat
# Candidate        =  PSR_0332+5434
# Telescope        =  AR
# Epoch_topo       =  58109.923971113356
# Epoch_bary       =  N/A
# T_sample         =  0.002
# Data Folded      =  7340032
# Data Avg         =  0.0265804391951145
# Data StdDev      =  1.00007676029261 
# Profile Bins     =  512
# Profile Avg      =  381.036164830761 
# Profile StdDev   =  119.742227119673 
# Reduced chi-sqr  =  0.797
# Prob(Noise)      <  1   (~0.0 sigma)
# P_topo (ms)      =  714.54797520999   +/- 0.000496
# P'_topo (s/s)    =  -0                +/- 2.62e-10
# P''_topo (s/s^2) =  0                 +/- 1.16e-13
# P_bary (ms)      =  N/A
# P'_bary (s/s)    =  N/A
# P''_bary (s/s^2) =  N/A
# P_orb (s)        =  N/A
# asin(i)/c (s)    =  N/A
# eccentricity     =  N/A
# w (rad)          =  N/A
# T_peri           =  N/A
######################################################
   0  625.1363
   1  719.4049
   2  559.6558
   3  427.2958
   4  370.2506
   5  505.7808
   6  410.4783
   7  278.2878
   8  323.7533
   9  355.2358
  10  415.3241
  11  315.3775
  12  340.7058
  13  353.5965
  14  353.0139
  15  417.6725
  16  507.3337
  17  365.056
  18  327.6798
  19  322.8424
  20  415.1072
  21  430.0939
  22  312.1787
  23  297.08
  24  353.5441
  25  470.443
  26  389.6015
  27  377.0027
  28  332.6454
  29  327.4483
  30  389.8615
  31  346.5454
  32  340.5894
  33  396.8063
  34  427.0688
  35  373.67
  36  360.5191
  37  433.0806
  38  298.928
  39  263.6213
  40  407.0813
  41  348.2463
  42  371.7467
  43  360.9346
  44  359.2567
  45  314.0192
  46  315.6535
  47  478.34
  48  343.7621
  49  314.5914
  50  350.5338
  51  314.0652
  52  370.9325
  53  408.3623
  54  318.0485
  55  410.3878
  56  386.9834
  57  432.4769
  58  356.9358
  59  303.0412
  60  361.9917
  61  404.4476
  62  425.2045
  63  356.6123
  64  357.8495
  65  298.5697
  66  319.6477
  67  371.3766
  68  412.9334
  69  387.3784
  70  411.811
  71  367.3922
  72  435.4149
  73  474.9446
  74  502.4721
  75  481.3835
  76  301.3277
  77  324.8339
  78  329.8587
  79  301.1925
  80  365.6876
  81  322.0065
  82  441.493
  83  462.7914
  84  445.5725
  85  411.0474
  86  356.9479
  87  223.6904
  88  330.9816
  89  377.856
  90  389.3181
  91  369.7388
  92  279.9904
  93  319.1431
  94  346.4643
  95  292.0826
  96  332.8574
  97  396.4675
  98  383.7766
  99  339.4114
 100  390.4514
 101  351.0361
 102  342.5483
 103  343.0759
 104  392.1988
 105  413.641
 106  367.2658
 107  244.7904
 108  269.3738
 109  201.573
 110  284.7995
 111  287.5786
 112  371.1194
 113  372.8805
 114  461.1291
 115  372.1456
 116  384.7238
 117  373.4194
 118  420.2725
 119  439.5201
 120  476.9578
 121  425.6657
 122  377.8952
 123  319.2739
 124  379.2016
 125  290.5331
 126  234.3567
 127  341.0584
 128  359.5663
 129  342.5518
 130  403.7883
 131  415.9399
 132  282.6873
 133  237.514
 134  238.7376
 135  365.9742
 136  309.9443
 137  292.0311
 138  223.4849
 139  264.6665
 140  341.1879
 141  398.4175
 142  228.1445
 143  324.5067
 144  473.3717
 145  465.4506
 146  485.8752
 147  495.2731
 148  473.3037
 149  399.9956
 150  225.7967
 151  283.7904
 152  383.3104
 153  340.0969
 154  350.0979
 155  428.809
 156  385.4226
 157  401.0362
 158  450.0341
 159  398.2818
 160  366.4353
 161  335.7399
 162  314.1444
 163  279.2612
 164  250.486
 165  292.2259
 166  288.6949
 167  465.4727
 168  477.2277
 169  494.6565
 170  422.4503
 171  376.0782
 172  355.9526
 173  450.1946
 174  460.8034
 175  385.5183
 176  332.7901
 177  393.8465
 178  360.2498
 179  199.863
 180  287.1467
 181  356.3569
 182  465.7362
 183  573.4801
 184  488.4124
 185  386.1391
 186  321.2873
 187  278.7607
 188  363.9662
 189  358.1056
 190  433.5457
 191  493.5144
 192  429.1207
 193  269.2469
 194  284.5035
 195  329.2688
 196  305.1133
 197  332.5097
 198  359.2868
 199  336.8246
 200  388.1161
 201  436.7455
 202  358.3437
 203  339.3564
 204  369.6986
 205  403.099
 206  363.2208
 207  373.2456
 208  481.1077
 209  499.0386
 210  455.6986
 211  393.3265
 212  369.8633
 213  409.8924
 214  454.6836
 215  392.558
 216  425.1007
 217  471.319
 218  470.2685
 219  502.7806
 220  386.9384
 221  408.2809
 222  382.5675
 223  429.0197
 224  423.8225
 225  427.8006
 226  469.3088
 227  440.5382
 228  423.5831
 229  475.7871
 230  573.8196
 231  633.6159
 232  511.3435
 233  355.9375
 234  391.135
 235  549.8721
 236  353.4564
 237  386.0931
 238  386.4861
 239  469.9337
 240  520.9257
 241  461.0571
 242  484.868
 243  470.3984
 244  453.184
 245  413.2062
 246  477.5606
 247  443.426
 248  418.4019
 249  395.194
 250  414.8413
 251  510.3024
 252  397.2973
 253  351.8381
 254  337.8816
 255  368.2101
 256  311.4998
 257  318.3974
 258  386.8241
 259  391.1436
 260  376.7054
 261  344.7952
 262  462.8135
 263  371.5945
 264  398.4609
 265  448.883
 266  448.822
 267  526.7349
 268  498.1898
 269  478.9631
 270  374.1859
 271  274.6351
 272  349.7996
 273  420.7637
 274  378.9404
 275  373.2905
 276  341.8211
 277  324.8932
 278  396.761
 279  319.2355
 280  391.2331
 281  573.6866
 282  461.6988
 283  355.7054
 284  404.1147
 285  355.2685
 286  191.4805
 287  375.2654
 288  510.5665
 289  505.1927
 290  496.4904
 291  372.265
 292  342.381
 293  248.4044
 294  327.8946
 295  399.571
 296  356.2104
 297  404.6281
 298  396.6683
 299  322.6335
 300  281.0039
 301  461.8388
 302  464.294
 303  397.0409
 304  343.7452
 305  330.4491
 306  468.3405
 307  516.7671
 308  492.0275
 309  468.2109
 310  313.2117
 311  398.2487
 312  435.6886
 313  430.2116
 314  535.0838
 315  386.4778
 316  482.7888
 317  423.7771
 318  344.899
 319  291.8875
 320  318.1277
 321  404.1578
 322  347.7837
 323  386.9614
 324  394.7969
 325  423.8498
 326  494.1978
 327  454.1843
 328  364.0633
 329  350.4982
 330  370.5305
 331  315.5059
 332  262.5925
 333  383.6651
 334  472.3782
 335  366.1883
 336  252.3724
 337  284.2701
 338  288.8506
 339  324.8382
 340  415.7581
 341  504.2032
 342  407.8898
 343  279.5176
 344  317.4206
 345  390.5786
 346  389.8464
 347  411.9511
 348  389.4999
 349  435.1814
 350  460.9383
 351  513.0615
 352  419.3727
 353  319.0959
 354  402.1578
 355  517.2051
 356  559.6298
 357  360.3297
 358  409.1837
 359  395.1418
 360  321.3724
 361  385.1593
 362  483.2323
 363  306.2742
 364  357.3251
 365  418.1775
 366  424.4605
 367  516.3504
 368  501.9156
 369  487.9746
 370  487.9647
 371  423.6696
 372  428.9882
 373  450.1505
 374  439.2508
 375  339.7685
 376  301.7307
 377  317.7499
 378  288.72
 379  406.5571
 380  407.7346
 381  418.2799
 382  488.7474
 383  462.6526
 384  350.0911
 385  223.2779
 386  233.677
 387  176.0163
 388  307.7455
 389  402.085
 390  403.7847
 391  426.3344
 392  323.054
 393  231.2141
 394  194.4173
 395  273.1986
 396  455.9013
 397  416.7234
 398  418.543
 399  462.4968
 400  415.7471
 401  416.5641
 402  351.9505
 403  318.6899
 404  356.7114
 405  392.1252
 406  453.8571
 407  378.5974
 408  401.0861
 409  387.2444
 410  341.198
 411  319.9931
 412  332.0182
 413  322.8251
 414  323.8459
 415  321.175
 416  348.7891
 417  434.5077
 418  460.2838
 419  398.0212
 420  351.6444
 421  358.0324
 422  325.0225
 423  471.8048
 424  425.931
 425  369.3076
 426  381.261
 427  417.665
 428  380.0938
 429  295.2736
 430  312.2578
 431  248.64
 432  280.8201
 433  357.5717
 434  290.2507
 435  334.6362
 436  232.8757
 437  200.3526
 438  299.4222
 439  356.0434
 440  334.0246
 441  306.8652
 442  291.0275
 443  410.3177
 444  254.1612
 445  352.0152
 446  275.5069
 447  273.6698
 448  353.6134
 449  375.1979
 450  447.5825
 451  420.79
 452  480.1825
 453  399.7002
 454  300.7044
 455  446.9877
 456  351.1784
 457  411.3047
 458  415.3992
 459  369.3433
 460  339.793
 461  265.8042
 462  365.9197
 463  398.1166
 464  369.5969
 465  326.5967
 466  281.1021
 467  395.8238
 468  340.2358
 469  344.6666
 470  330.9506
 471  367.67
 472  490.9258
 473  430.8109
 474  362.8308
 475  349.6328
 476  335.4274
 477  307.4602
 478  278.6635
 479  242.7733
 480  256.9335
 481  224.5885
 482  274.1736
 483  340.6439
 484  281.5204
 485  398.8281
 486  371.5078
 487  391.8885
 488  374.8302
 489  373.8731
 490  365.976
 491  388.9242
 492  443.7948
 493  300.1824
 494  299.0388
 495  462.1442
 496  354.7054
 497  279.9806
 498  346.8032
 499  496.456
 500  426.1576
 501  266.4596
 502  280.0505
 503  368.2766
 504  434.1316
 505  502.0539
 506  504.8067
 507  500.0302
 508  517.6448
 509  635.2137
 510  582.0928
 511  575.7781
