# Input file       =  1198158626.106533_cleaned.dat
# Candidate        =  PSR_0332+5434
# Telescope        =  AR
# Epoch_topo       =  58111.576482714503
# Epoch_bary       =  N/A
# T_sample         =  0.002
# Data Folded      =  7471104
# Data Avg         =  0.0369981825850552
# Data StdDev      =  1.00039229960193 
# Profile Bins     =  512
# Profile Avg      =  539.901385044656 
# Profile StdDev   =  120.84473971703  
# Reduced chi-sqr  =  0.841
# Prob(Noise)      <  0.996   (~0.0 sigma)
# P_topo (ms)      =  714.549155601746  +/- 5.84e-05
# P'_topo (s/s)    =  -0                +/- 3.03e-11
# P''_topo (s/s^2) =  0                 +/- 1.31e-14
# P_bary (ms)      =  N/A
# P'_bary (s/s)    =  N/A
# P''_bary (s/s^2) =  N/A
# P_orb (s)        =  N/A
# asin(i)/c (s)    =  N/A
# eccentricity     =  N/A
# w (rad)          =  N/A
# T_peri           =  N/A
######################################################
   0  927.9741
   1  876.4551
   2  816.668
   3  823.2528
   4  805.5862
   5  620.0585
   6  624.5648
   7  607.9828
   8  492.8937
   9  405.562
  10  449.0449
  11  601.4944
  12  505.6385
  13  596.1779
  14  688.0145
  15  513.9234
  16  486.3181
  17  457.9242
  18  575.2679
  19  514.8496
  20  440.6761
  21  563.4176
  22  652.4324
  23  557.2595
  24  519.4853
  25  544.5837
  26  593.3508
  27  483.8698
  28  559.0658
  29  571.2365
  30  598.2615
  31  571.0725
  32  625.2686
  33  645.1492
  34  580.9913
  35  468.0687
  36  515.6374
  37  515.9369
  38  588.3193
  39  592.0426
  40  516.3152
  41  397.2563
  42  536.0181
  43  696.9977
  44  672.0832
  45  525.9191
  46  555.1492
  47  563.2637
  48  484.6978
  49  603.2476
  50  701.2765
  51  656.1058
  52  483.4727
  53  374.9185
  54  468.3858
  55  503.154
  56  465.3021
  57  583.8192
  58  495.1105
  59  398.6106
  60  358.1413
  61  352.9622
  62  500.9824
  63  539.2136
  64  617.7672
  65  509.0149
  66  451.5708
  67  497.3989
  68  433.0442
  69  400.7079
  70  386.5474
  71  483.3282
  72  554.8287
  73  466.7512
  74  409.7732
  75  537.7956
  76  631.6775
  77  468.3481
  78  552.6938
  79  632.3564
  80  654.1196
  81  552.7422
  82  454.5289
  83  463.9155
  84  475.5022
  85  506.435
  86  606.6039
  87  473.2589
  88  581.7072
  89  549.5475
  90  567.8851
  91  477.9814
  92  505.9653
  93  515.2828
  94  415.1505
  95  520.6718
  96  648.4947
  97  593.3871
  98  504.5717
  99  517.8991
 100  449.5925
 101  490.873
 102  481.0903
 103  497.9403
 104  527.3704
 105  516.7092
 106  398.7057
 107  468.3221
 108  588.5294
 109  532.4695
 110  445.9708
 111  437.8086
 112  482.3604
 113  588.4467
 114  613.1459
 115  561.1793
 116  533.2849
 117  521.9006
 118  457.9171
 119  438.4066
 120  550.7103
 121  622.4744
 122  429.4554
 123  443.179
 124  551.4899
 125  536.2182
 126  647.8639
 127  604.4518
 128  526.0837
 129  609.0532
 130  591.4304
 131  486.8118
 132  544.7993
 133  517.2647
 134  494.9615
 135  586.803
 136  637.49
 137  482.0177
 138  507.8092
 139  559.1802
 140  614.1318
 141  528.7549
 142  396.7407
 143  464.6604
 144  444.8575
 145  479.5753
 146  563.512
 147  600.3856
 148  564.1279
 149  508.129
 150  592.9752
 151  635.7988
 152  427.0574
 153  435.4553
 154  566.8961
 155  551.1869
 156  583.9212
 157  628.7932
 158  432.8428
 159  350.9391
 160  425.2689
 161  587.6265
 162  523.7512
 163  552.7446
 164  539.9273
 165  583.2177
 166  498.3139
 167  453.3516
 168  525.5249
 169  599.769
 170  479.1615
 171  538.4026
 172  601.0723
 173  506.665
 174  458.742
 175  481.1104
 176  422.5979
 177  436.6112
 178  560.8578
 179  624.2107
 180  521.6743
 181  455.1502
 182  548.9996
 183  417.1312
 184  383.6087
 185  365.8429
 186  473.4232
 187  514.2958
 188  477.828
 189  402.1611
 190  534.5357
 191  497.0869
 192  452.933
 193  502.6297
 194  519.8981
 195  456.7356
 196  502.9304
 197  434.7105
 198  559.2914
 199  575.5089
 200  550.217
 201  555.5638
 202  498.8334
 203  530.9252
 204  605.9449
 205  611.1014
 206  601.6254
 207  451.8716
 208  540.2057
 209  717.7549
 210  684.8046
 211  592.5361
 212  612.3152
 213  667.3602
 214  604.1515
 215  610.1203
 216  631.6547
 217  645.3447
 218  661.9161
 219  572.6094
 220  497.5432
 221  522.9191
 222  497.0731
 223  536.5114
 224  632.4948
 225  522.1743
 226  490.4111
 227  439.0731
 228  486.0161
 229  627.6969
 230  619.2157
 231  564.8025
 232  618.3772
 233  688.0647
 234  550.4296
 235  481.5374
 236  539.1148
 237  583.139
 238  520.2613
 239  579.428
 240  597.1972
 241  549.3124
 242  532.5543
 243  591.9998
 244  644.632
 245  596.0493
 246  671.5757
 247  670.9205
 248  601.2397
 249  542.1522
 250  665.879
 251  752.927
 252  526.4931
 253  514.7753
 254  542.5765
 255  547.1149
 256  592.5397
 257  641.0352
 258  605.4365
 259  476.132
 260  501.7694
 261  592.8806
 262  576.8301
 263  544.578
 264  599.2781
 265  609.6153
 266  609.6248
 267  588.3081
 268  651.9031
 269  582.6436
 270  613.5617
 271  628.8339
 272  588.2714
 273  487.0793
 274  498.0966
 275  548.9756
 276  485.5757
 277  494.5006
 278  577.7782
 279  591.4731
 280  541.6677
 281  594.3735
 282  549.7496
 283  469.226
 284  466.7848
 285  460.5241
 286  572.4812
 287  579.0588
 288  494.3972
 289  429.8405
 290  540.5976
 291  658.2316
 292  547.6187
 293  503.7622
 294  534.7091
 295  528.1823
 296  500.1815
 297  677.6343
 298  631.4265
 299  576.5031
 300  697.7849
 301  672.4111
 302  496.5166
 303  496.0909
 304  524.2747
 305  581.1788
 306  454.8556
 307  487.7865
 308  605.5257
 309  526.6075
 310  452.5977
 311  416.9618
 312  492.3106
 313  511.175
 314  435.424
 315  578.4409
 316  653.7017
 317  536.1352
 318  522.1163
 319  562.3826
 320  571.2481
 321  537.792
 322  543.956
 323  532.5655
 324  449.7846
 325  434.822
 326  466.8051
 327  431.7897
 328  498.4275
 329  429.8365
 330  529.1096
 331  611.4156
 332  707.6777
 333  691.7023
 334  532.5026
 335  503.072
 336  479.004
 337  396.5078
 338  407.0821
 339  427.636
 340  509.4571
 341  533.6014
 342  493.9504
 343  476.4464
 344  477.192
 345  415.5272
 346  468.951
 347  520.455
 348  493.9772
 349  490.3434
 350  546.8035
 351  581.0581
 352  517.7765
 353  499.8784
 354  490.7367
 355  476.2031
 356  494.7395
 357  517.1322
 358  590.3962
 359  554.6613
 360  569.2735
 361  510.3882
 362  471.5681
 363  528.8381
 364  645.6791
 365  650.0659
 366  562.7847
 367  488.9601
 368  567.6669
 369  609.2635
 370  514.4886
 371  484.7414
 372  524.8799
 373  587.5245
 374  529.0378
 375  560.0798
 376  621.579
 377  662.4493
 378  494.822
 379  536.5383
 380  513.8027
 381  379.8249
 382  443.903
 383  577.884
 384  516.3601
 385  430.9989
 386  449.743
 387  587.6964
 388  651.2399
 389  558.1249
 390  503.0163
 391  551.0038
 392  478.4028
 393  508.6521
 394  555.9056
 395  653.7806
 396  639.8289
 397  664.5595
 398  610.2721
 399  557.8542
 400  486.0624
 401  512.2422
 402  564.7777
 403  463.3457
 404  533.1116
 405  512.8207
 406  539.8878
 407  613.6227
 408  656.5064
 409  682.1446
 410  684.3402
 411  723.3619
 412  604.4552
 413  508.7059
 414  496.7837
 415  705.4643
 416  652.5339
 417  468.3661
 418  554.4623
 419  594.142
 420  507.3966
 421  490.7008
 422  463.2121
 423  510.6788
 424  540.0281
 425  592.9993
 426  598.7772
 427  552.6561
 428  573.1341
 429  528.9835
 430  565.1274
 431  639.075
 432  590.2985
 433  496.4382
 434  479.4971
 435  392.2831
 436  361.4795
 437  399.7474
 438  486.0006
 439  465.0613
 440  552.1914
 441  487.1763
 442  473.8896
 443  498.9625
 444  439.4654
 445  428.6637
 446  392.4302
 447  466.733
 448  549.8179
 449  544.0479
 450  495.4109
 451  555.4357
 452  436.4797
 453  455.2718
 454  571.4705
 455  587.3972
 456  586.0101
 457  528.5738
 458  506.8154
 459  540.7075
 460  547.5323
 461  550.9951
 462  552.1718
 463  529.3682
 464  455.3807
 465  520.694
 466  599.4169
 467  516.9949
 468  446.5647
 469  530.0382
 470  579.6435
 471  512.7172
 472  489.8204
 473  564.4959
 474  540.179
 475  544.1446
 476  567.1097
 477  583.0529
 478  601.7188
 479  560.9367
 480  548.5374
 481  527.8283
 482  496.6196
 483  488.5914
 484  513.2507
 485  421.4362
 486  540.9041
 487  483.4614
 488  524.4547
 489  555.139
 490  440.8445
 491  508.8762
 492  462.3681
 493  598.5289
 494  569.3777
 495  438.6207
 496  490.3861
 497  539.9449
 498  538.3828
 499  543.5079
 500  527.8779
 501  593.8665
 502  513.5174
 503  523.2019
 504  559.1974
 505  546.483
 506  595.0647
 507  650.0421
 508  703.6846
 509  723.3114
 510  764.2051
 511  838.3157
