# Input file       =  1198000950.100848_cleaned.dat
# Candidate        =  PSR_0332+5434
# Telescope        =  AR
# Epoch_topo       =  58109.751528945002
# Epoch_bary       =  N/A
# T_sample         =  0.002
# Data Folded      =  7340032
# Data Avg         =  0.0333022100008965
# Data StdDev      =  0.999992031758397
# Profile Bins     =  512
# Profile Avg      =  477.541916516785 
# Profile StdDev   =  119.732082315004 
# Reduced chi-sqr  =  0.793
# Prob(Noise)      <  1   (~0.0 sigma)
# P_topo (ms)      =  714.547474320593  +/- 0.000428
# P'_topo (s/s)    =  -0                +/- 2.26e-10
# P''_topo (s/s^2) =  0                 +/- 9.97e-14
# P_bary (ms)      =  N/A
# P'_bary (s/s)    =  N/A
# P''_bary (s/s^2) =  N/A
# P_orb (s)        =  N/A
# asin(i)/c (s)    =  N/A
# eccentricity     =  N/A
# w (rad)          =  N/A
# T_peri           =  N/A
######################################################
   0  852.1755
   1  900.8518
   2  834.2455
   3  675.5538
   4  597.16
   5  521.2863
   6  585.9515
   7  552.3482
   8  501.7441
   9  455.0192
  10  460.4541
  11  403.442
  12  450.7664
  13  500.2327
  14  531.0214
  15  471.7961
  16  557.9197
  17  539.5392
  18  442.3339
  19  406.3929
  20  504.5701
  21  512.3836
  22  517.6392
  23  441.4702
  24  442.0744
  25  311.0533
  26  327.6224
  27  474.968
  28  524.8047
  29  486.5981
  30  385.8373
  31  416.0326
  32  460.99
  33  560.6418
  34  453.8846
  35  489.1126
  36  594.4072
  37  605.8227
  38  560.4028
  39  526.2127
  40  538.3946
  41  506.4383
  42  467.0767
  43  434.0523
  44  553.5875
  45  420.5468
  46  349.9206
  47  481.2841
  48  477.0937
  49  456.7494
  50  397.353
  51  446.1983
  52  382.6352
  53  409.4768
  54  475.0996
  55  464.3878
  56  411.521
  57  539.3871
  58  540.2921
  59  569.6864
  60  607.3007
  61  560.7017
  62  463.7736
  63  532.5141
  64  472.9583
  65  422.9568
  66  431.5216
  67  592.5993
  68  538.3568
  69  505.5586
  70  435.5054
  71  478.9433
  72  485.2802
  73  536.8879
  74  488.9193
  75  393.3717
  76  531.6161
  77  455.5496
  78  491.5035
  79  438.4518
  80  448.4573
  81  478.5311
  82  500.118
  83  550.9964
  84  537.3168
  85  543.1321
  86  449.6678
  87  416.2286
  88  450.6642
  89  531.8742
  90  485.1022
  91  367.2156
  92  399.636
  93  493.5505
  94  474.9403
  95  566.3399
  96  553.1647
  97  522.2211
  98  359.3876
  99  381.1935
 100  453.9311
 101  371.9127
 102  379.0504
 103  417.3259
 104  446.8015
 105  430.4562
 106  420.3815
 107  479.7399
 108  456.1457
 109  453.6646
 110  429.5324
 111  374.8358
 112  433.8406
 113  536.4743
 114  480.3027
 115  433.1198
 116  346.2454
 117  353.6187
 118  445.1686
 119  438.4392
 120  389.3531
 121  460.3147
 122  499.7762
 123  456.5162
 124  431.1996
 125  387.2202
 126  345.3699
 127  356.5841
 128  393.2404
 129  439.9022
 130  398.1339
 131  397.6428
 132  331.1827
 133  441.2923
 134  479.2309
 135  476.4145
 136  514.1235
 137  444.5227
 138  393.9501
 139  403.8523
 140  497.1464
 141  458.8462
 142  359.3589
 143  380.5104
 144  427.3059
 145  444.5489
 146  346.8015
 147  418.3136
 148  584.6022
 149  555.7853
 150  509.6591
 151  533.1099
 152  552.2528
 153  437.4418
 154  454.4894
 155  402.5108
 156  405.6693
 157  486.5057
 158  479.9327
 159  532.7703
 160  567.8589
 161  591.0582
 162  554.6866
 163  443.2487
 164  494.6333
 165  531.876
 166  497.3496
 167  551.0105
 168  444.3112
 169  418.8072
 170  497.4416
 171  518.1884
 172  495.3621
 173  439.8634
 174  485.8167
 175  455.1824
 176  580.5202
 177  626.5981
 178  526.743
 179  512.2166
 180  417.0246
 181  403.8289
 182  458.4995
 183  476.7126
 184  392.2345
 185  459.728
 186  564.6846
 187  474.4206
 188  456.6209
 189  467.7679
 190  447.1836
 191  479.9976
 192  409.1465
 193  469.3984
 194  514.8962
 195  520.1157
 196  600.6053
 197  477.138
 198  502.5014
 199  597.0624
 200  518.5293
 201  549.7391
 202  493.622
 203  500.5231
 204  451.2296
 205  417.2581
 206  504.0433
 207  525.7709
 208  445.1931
 209  507.7868
 210  445.8311
 211  439.4006
 212  513.3392
 213  521.6718
 214  486.9753
 215  426.478
 216  376.8143
 217  441.9855
 218  442.2358
 219  395.8372
 220  322.4985
 221  481.5387
 222  531.121
 223  387.019
 224  397.2506
 225  453.3991
 226  548.187
 227  479.4838
 228  440.3022
 229  458.077
 230  318.826
 231  309.0939
 232  431.8595
 233  589.0114
 234  586.5903
 235  575.1152
 236  501.496
 237  480.5054
 238  465.8971
 239  497.2459
 240  505.5027
 241  435.6719
 242  425.8732
 243  434.8087
 244  536.1676
 245  581.519
 246  504.4814
 247  488.1558
 248  439.1456
 249  560.3746
 250  613.7724
 251  557.069
 252  607.4532
 253  494.4627
 254  393.6025
 255  446.9169
 256  513.8315
 257  473.4423
 258  489.7715
 259  539.196
 260  497.1093
 261  502.3392
 262  529.0878
 263  621.0321
 264  477.6685
 265  449.0279
 266  482.6303
 267  587.2773
 268  621.2178
 269  590.551
 270  530.087
 271  504.8699
 272  604.2123
 273  502.9807
 274  473.9413
 275  455.299
 276  504.0672
 277  366.1527
 278  382.7704
 279  453.0599
 280  424.3135
 281  417.5799
 282  438.0384
 283  482.2127
 284  501.8429
 285  543.8487
 286  565.9984
 287  570.8558
 288  499.9828
 289  474.4685
 290  469.1598
 291  350.2465
 292  477.9245
 293  515.8824
 294  458.4298
 295  521.2783
 296  460.8309
 297  480.4197
 298  458.0625
 299  509.1252
 300  554.1154
 301  603.349
 302  546.6956
 303  446.1188
 304  511.421
 305  491.9979
 306  577.2999
 307  540.9739
 308  562.8574
 309  525.7501
 310  452.2844
 311  517.2982
 312  522.1679
 313  505.4154
 314  567.497
 315  563.6065
 316  386.8444
 317  328.971
 318  411.1819
 319  556.2508
 320  433.2653
 321  506.1047
 322  484.8616
 323  397.7144
 324  425.4323
 325  466.5531
 326  517.793
 327  551.1185
 328  518.5887
 329  445.5565
 330  451.103
 331  392.63
 332  349.5793
 333  371.774
 334  325.6064
 335  270.3659
 336  424.7155
 337  500.742
 338  394.4814
 339  475.4309
 340  497.4525
 341  403.2178
 342  321.0032
 343  394.1836
 344  464.2674
 345  435.1792
 346  454.3876
 347  447.026
 348  558.5311
 349  413.6541
 350  409.006
 351  314.1407
 352  394.1074
 353  513.0936
 354  643.3375
 355  497.7106
 356  528.5256
 357  499.3579
 358  500.4802
 359  473.6851
 360  428.7178
 361  597.4592
 362  571.5068
 363  556.1033
 364  593.2772
 365  537.1967
 366  604.5742
 367  500.9344
 368  390.367
 369  516.1255
 370  552.9675
 371  621.0959
 372  615.0933
 373  496.8072
 374  548.7321
 375  446.8522
 376  436.014
 377  518.3812
 378  547.1673
 379  471.0902
 380  388.3748
 381  435.9925
 382  486.3317
 383  463.419
 384  433.419
 385  563.0568
 386  483.4189
 387  493.7398
 388  428.856
 389  382.9984
 390  312.8472
 391  423.7101
 392  394.3676
 393  534.0671
 394  544.2747
 395  505.4203
 396  387.4554
 397  453.0708
 398  396.7622
 399  487.9135
 400  455.2081
 401  475.0448
 402  528.3466
 403  471.9423
 404  458.5956
 405  549.7118
 406  538.1766
 407  426.4509
 408  436.6367
 409  384.1965
 410  448.0912
 411  395.0045
 412  332.9445
 413  361.9276
 414  434.6705
 415  457.0423
 416  406.0392
 417  583.4082
 418  537.2295
 419  492.8969
 420  430.1244
 421  481.1251
 422  479.115
 423  498.0669
 424  435.6785
 425  387.5247
 426  512.3431
 427  463.5265
 428  359.8536
 429  371.4572
 430  431.6539
 431  448.6507
 432  428.1866
 433  364.8187
 434  320.298
 435  350.3245
 436  409.7837
 437  356.8565
 438  447.3305
 439  442.8035
 440  426.0684
 441  434.9606
 442  528.9044
 443  553.033
 444  509.9086
 445  473.7795
 446  533.3077
 447  471.5279
 448  400.5676
 449  322.4597
 450  441.6725
 451  432.6039
 452  468.2671
 453  532.9819
 454  592.9908
 455  562.7551
 456  535.9886
 457  525.1188
 458  466.0325
 459  541.8489
 460  458.1211
 461  432.404
 462  441.6283
 463  386.3915
 464  471.1519
 465  552.328
 466  537.3406
 467  638.1539
 468  579.1847
 469  528.8372
 470  525.1269
 471  475.5044
 472  515.5462
 473  531.2497
 474  478.3681
 475  417.6082
 476  428.1389
 477  435.5693
 478  522.1509
 479  562.511
 480  632.2385
 481  517.1923
 482  408.278
 483  489.8004
 484  377.3455
 485  441.332
 486  557.5997
 487  557.7512
 488  435.6626
 489  453.2918
 490  466.037
 491  400.7646
 492  412.2971
 493  476.1531
 494  476.9991
 495  464.0683
 496  470.724
 497  352.2221
 498  312.2954
 499  413.2527
 500  349.6198
 501  454.0009
 502  501.7671
 503  438.1875
 504  455.351
 505  433.8173
 506  486.2115
 507  632.6788
 508  549.202
 509  630.2145
 510  671.4431
 511  832.1197
