# Input file       =  1198761694.129448_cleaned.dat
# Candidate        =  PSR_0332+5434
# Telescope        =  AR
# Epoch_topo       =  58118.556436683422
# Epoch_bary       =  N/A
# T_sample         =  0.002
# Data Folded      =  7405568
# Data Avg         =  0.0205033125725189
# Data StdDev      =  1.00006110512915 
# Profile Bins     =  512
# Profile Avg      =  296.575725852489 
# Profile StdDev   =  120.273719919118 
# Reduced chi-sqr  =  1.340
# Prob(Noise)      <  3.84e-07   (~4.9 sigma)
# P_topo (ms)      =  714.555366048738  +/- 6.31e-05
# P'_topo (s/s)    =  -0                +/- 3.3e-11
# P''_topo (s/s^2) =  0                 +/- 1.44e-14
# P_bary (ms)      =  N/A
# P'_bary (s/s)    =  N/A
# P''_bary (s/s^2) =  N/A
# P_orb (s)        =  N/A
# asin(i)/c (s)    =  N/A
# eccentricity     =  N/A
# w (rad)          =  N/A
# T_peri           =  N/A
######################################################
   0  782.0807
   1  683.4288
   2  627.0781
   3  566.8831
   4  445.6828
   5  434.312
   6  345.4406
   7  399.2614
   8  336.1255
   9  375.2083
  10  379.8195
  11  376.916
  12  374.3957
  13  463.7652
  14  364.0246
  15  367.6215
  16  340.735
  17  367.8925
  18  445.9274
  19  403.5885
  20  433.9812
  21  315.383
  22  304.8852
  23  270.5309
  24  135.5382
  25  323.6228
  26  364.0317
  27  372.6357
  28  249.6377
  29  257.0991
  30  327.1544
  31  367.2885
  32  277.5421
  33  306.0508
  34  328.5168
  35  382.9396
  36  520.0704
  37  441.5547
  38  292.3468
  39  139.3606
  40  76.43726
  41  196.3779
  42  367.5811
  43  485.3322
  44  547.3733
  45  378.1992
  46  397.0313
  47  325.9544
  48  280.1253
  49  378.96
  50  336.815
  51  309.1945
  52  341.9175
  53  270.3336
  54  180.3621
  55  263.4182
  56  253.4896
  57  44.90557
  58  180.4917
  59  362.3825
  60  380.8229
  61  349.659
  62  288.9689
  63  344.7218
  64  281.881
  65  155.7563
  66  123.3063
  67  182.7446
  68  250.2105
  69  189.591
  70  269.0948
  71  399.028
  72  276.7993
  73  166.2398
  74  266.8332
  75  298.3867
  76  228.8054
  77  433.0473
  78  401.6565
  79  336.2565
  80  402.9871
  81  434.0347
  82  446.3297
  83  423.9592
  84  468.1204
  85  474.6184
  86  445.131
  87  485.0666
  88  419.3371
  89  417.8896
  90  340.0945
  91  217.7965
  92  247.529
  93  374.7393
  94  267.5954
  95  299.996
  96  345.8061
  97  353.1324
  98  241.0947
  99  356.4348
 100  374.0428
 101  312.3876
 102  326.3866
 103  467.1055
 104  413.5795
 105  232.5621
 106  321.0759
 107  339.786
 108  246.7627
 109  167.3306
 110  326.8623
 111  413.2292
 112  503.5037
 113  405.0593
 114  273.1972
 115  182.8705
 116  148.9408
 117  256.3061
 118  247.7155
 119  363.2255
 120  373.1795
 121  246.6155
 122  181.4848
 123  238.538
 124  196.7197
 125  294.5144
 126  224.6301
 127  277.8871
 128  360.5593
 129  301.3744
 130  210.3858
 131  160.526
 132  178.959
 133  152.0169
 134  169.9722
 135  272.8628
 136  327.7193
 137  331.5836
 138  305.8951
 139  176.8984
 140  202.3365
 141  339.1177
 142  274.88
 143  377.8122
 144  500.3969
 145  363.2616
 146  324.6853
 147  232.6116
 148  225.0806
 149  247.765
 150  290.4059
 151  368.0109
 152  372.2293
 153  453.7414
 154  418.8159
 155  435.5458
 156  292.6067
 157  221.7472
 158  446.8649
 159  468.978
 160  333.2172
 161  231.434
 162  253.5106
 163  312.5556
 164  349.5635
 165  304.6166
 166  326.0875
 167  296.4384
 168  310.2038
 169  335.7777
 170  238.9648
 171  244.3389
 172  385.0533
 173  327.8288
 174  435.8542
 175  378.6995
 176  434.8708
 177  293.6718
 178  329.1887
 179  262.5663
 180  124.259
 181  138.2768
 182  268.7679
 183  252.6219
 184  363.386
 185  406.8658
 186  320.711
 187  443.6953
 188  370.175
 189  164.7462
 190  165.6086
 191  420.822
 192  209.071
 193  343.4622
 194  423.4505
 195  362.2183
 196  346.6156
 197  323.9341
 198  429.5014
 199  334.5363
 200  330.2751
 201  366.2118
 202  391.5458
 203  416.1182
 204  336.7248
 205  194.8603
 206  173.3857
 207  225.489
 208  280.042
 209  271.3835
 210  359.8017
 211  341.7439
 212  498.3943
 213  249.8918
 214  271.5547
 215  247.2113
 216  280.4135
 217  405.3859
 218  365.2839
 219  402.0754
 220  395.8543
 221  326.37
 222  340.4395
 223  286.8648
 224  395.0224
 225  465.3543
 226  479.4249
 227  369.0077
 228  266.1884
 229  89.54279
 230  264.5564
 231  394.4093
 232  367.5107
 233  330.4308
 234  495.819
 235  365.1201
 236  444.3555
 237  273.1515
 238  112.5082
 239  258.8813
 240  307.7092
 241  284.696
 242  266.733
 243  430.884
 244  373.8967
 245  169.4851
 246  31.60194
 247  271.8549
 248  386.9281
 249  285.765
 250  266.7965
 251  223.4525
 252  221.4904
 253  334.7071
 254  397.3942
 255  306.3871
 256  322.8356
 257  312.6212
 258  124.4871
 259  236.3181
 260  381.6743
 261  306.5617
 262  264.1346
 263  280.5817
 264  279.6004
 265  392.3631
 266  273.2591
 267  252.8445
 268  211.8647
 269  355.7764
 270  289.2504
 271  232.2632
 272  281.3964
 273  333.2397
 274  320.2426
 275  211.2417
 276  199.4818
 277  298.9366
 278  293.9674
 279  171.0132
 280  128.0858
 281  204.6187
 282  239.1618
 283  249.2179
 284  306.6097
 285  340.4043
 286  275.2157
 287  211.7628
 288  229.3072
 289  306.4225
 290  323.7397
 291  272.8969
 292  336.0302
 293  254.9305
 294  310.5052
 295  290.0926
 296  137.6503
 297  69.99799
 298  171.8284
 299  197.5874
 300  215.405
 301  390.906
 302  518.5994
 303  293.1574
 304  172.0984
 305  133.9199
 306  302.867
 307  314.4207
 308  250.5776
 309  338.148
 310  314.2409
 311  322.4092
 312  145.4111
 313  52.32748
 314  284.4697
 315  348.4424
 316  377.0389
 317  374.3932
 318  245.0342
 319  236.5815
 320  268.332
 321  237.1336
 322  195.9266
 323  229.8561
 324  228.219
 325  232.6443
 326  222.0256
 327  230.9785
 328  203.5461
 329  247.7046
 330  255.4909
 331  259.5521
 332  259.328
 333  375.5446
 334  330.6517
 335  340.688
 336  335.9758
 337  271.8555
 338  171.744
 339  292.8668
 340  334.3032
 341  352.2625
 342  468.4651
 343  407.4938
 344  208.5814
 345  259.698
 346  194.647
 347  54.35542
 348  89.12141
 349  289.1849
 350  321.5092
 351  376.6858
 352  246.0828
 353  115.7801
 354  83.94617
 355  229.5579
 356  216.252
 357  200.3531
 358  344.5587
 359  303.5854
 360  301.7156
 361  233.2934
 362  185.528
 363  309.7484
 364  313.2111
 365  215.4626
 366  284.7899
 367  258.6275
 368  308.837
 369  223.876
 370  167.0995
 371  347.8008
 372  282.0899
 373  397.8776
 374  383.7474
 375  157.9699
 376  285.4304
 377  336.586
 378  393.0363
 379  316.7335
 380  239.4293
 381  220.9369
 382  295.454
 383  284.5158
 384  258.3296
 385  189.0181
 386  178.5988
 387  -25.34746
 388  63.96124
 389  200.9741
 390  292.2457
 391  191.2836
 392  195.0268
 393  214.9059
 394  253.4112
 395  170.3937
 396  215.1932
 397  231.7397
 398  265.4665
 399  177.4265
 400  187.8398
 401  379.768
 402  394.3983
 403  215.6383
 404  157.8566
 405  246.6202
 406  273.5038
 407  298.1262
 408  441.321
 409  366.6539
 410  329.4301
 411  360.9496
 412  357.959
 413  417.6644
 414  312.9405
 415  399.3596
 416  289.228
 417  302.4124
 418  361.3761
 419  292.1467
 420  250.63
 421  277.111
 422  342.5541
 423  274.3589
 424  354.8459
 425  301.0343
 426  203.3469
 427  262.7474
 428  273.6626
 429  169.5379
 430  258.7735
 431  224.5782
 432  215.7902
 433  295.9089
 434  200.7176
 435  316.251
 436  232.6967
 437  194.0575
 438  269.1691
 439  281.9928
 440  247.4761
 441  225.0462
 442  318.2303
 443  255.6292
 444  207.8723
 445  291.2497
 446  299.016
 447  31.30182
 448  170.2242
 449  288.0314
 450  322.8557
 451  226.2206
 452  252.9204
 453  301.8311
 454  207.4215
 455  131.5574
 456  167.2956
 457  291.8388
 458  287.9308
 459  364.6073
 460  306.7257
 461  143.5641
 462  101.4313
 463  110.8275
 464  232.2813
 465  231.3609
 466  182.4095
 467  299.9279
 468  197.0554
 469  197.04
 470  297.3397
 471  409.5554
 472  321.2856
 473  244.5821
 474  265.2898
 475  245.1201
 476  148.1445
 477  163.869
 478  262.9387
 479  282.5891
 480  247.3072
 481  274.999
 482  266.5876
 483  313.277
 484  291.4108
 485  195.3372
 486  225.5809
 487  171.9794
 488  252.2541
 489  356.0993
 490  330.3713
 491  295.8739
 492  201.9113
 493  343.3068
 494  322.3826
 495  198.5428
 496  192.1149
 497  262.4543
 498  394.13
 499  531.8405
 500  482.9583
 501  533.6389
 502  493.2503
 503  247.8772
 504  218.8622
 505  275.7715
 506  264.5151
 507  369.0228
 508  576.8336
 509  555.6025
 510  414.3638
 511  614.8439
