# Input file       =  1198589328.111569_cleaned.dat
# Candidate        =  PSR_0332+5434
# Telescope        =  AR
# Epoch_topo       =  58116.561459624638
# Epoch_bary       =  N/A
# T_sample         =  0.002
# Data Folded      =  7208960
# Data Avg         =  0.0181935924436561
# Data StdDev      =  1.00000807412398 
# Profile Bins     =  512
# Profile Avg      =  256.431399937633 
# Profile StdDev   =  118.660133862428 
# Reduced chi-sqr  =  1.212
# Prob(Noise)      <  0.000708   (~3.2 sigma)
# P_topo (ms)      =  714.553643565417  +/- 0.000137
# P'_topo (s/s)    =  -0                +/- 7.34e-11
# P''_topo (s/s^2) =  0                 +/- 3.3e-14
# P_bary (ms)      =  N/A
# P'_bary (s/s)    =  N/A
# P''_bary (s/s^2) =  N/A
# P_orb (s)        =  N/A
# asin(i)/c (s)    =  N/A
# eccentricity     =  N/A
# w (rad)          =  N/A
# T_peri           =  N/A
######################################################
   0  624.2544
   1  637.5642
   2  592.0447
   3  443.692
   4  375.2776
   5  272.1339
   6  224.7772
   7  233.69
   8  196.8461
   9  357.0264
  10  394.9272
  11  391.1997
  12  356.7595
  13  488.0901
  14  469.3775
  15  449.6099
  16  384.0137
  17  259.8641
  18  223.9477
  19  285.0623
  20  201.5959
  21  212.8719
  22  235.9842
  23  132.1418
  24  269.9796
  25  345.9284
  26  196.5424
  27  280.9047
  28  267.8938
  29  234.1437
  30  242.2021
  31  268.605
  32  291.0316
  33  291.1487
  34  241.1205
  35  358.5262
  36  292.3343
  37  230.7518
  38  253.8994
  39  237.1997
  40  245.6929
  41  250.148
  42  307.4075
  43  362.9765
  44  285.2139
  45  230.117
  46  239.6627
  47  229.6041
  48  231.5038
  49  338.8394
  50  259.3573
  51  243.9665
  52  201.1762
  53  267.8378
  54  230.3652
  55  238.6725
  56  242.8803
  57  226.0878
  58  212.8882
  59  189.4489
  60  182.1373
  61  227.6503
  62  281.7363
  63  288.8277
  64  308.9977
  65  195.0508
  66  193.1743
  67  156.2625
  68  225.5585
  69  285.9975
  70  322.4008
  71  307.978
  72  180.4117
  73  120.6663
  74  223.6907
  75  219.7023
  76  138.3319
  77  109.2273
  78  197.2347
  79  296.5002
  80  316.8287
  81  324.7323
  82  214.3164
  83  244.3334
  84  336.6114
  85  361.5816
  86  242.5857
  87  230.6986
  88  258.4892
  89  225.279
  90  321.5196
  91  343.0766
  92  200.5983
  93  89.54744
  94  238.8683
  95  278.6815
  96  352.3076
  97  362.4268
  98  282.2792
  99  99.39617
 100  187.3274
 101  273.3818
 102  292.4966
 103  314.2221
 104  281.898
 105  187.5576
 106  207.2988
 107  195.65
 108  274.7498
 109  303.4742
 110  293.8338
 111  232.391
 112  127.7478
 113  169.5606
 114  143.5126
 115  249.0786
 116  302.93
 117  135.4599
 118  200.536
 119  271.4082
 120  170.524
 121  64.50011
 122  86.49462
 123  231.3641
 124  168.2336
 125  206.7424
 126  224.8025
 127  207.2841
 128  209.4439
 129  240.1957
 130  285.1962
 131  391.9947
 132  236.1075
 133  190.7808
 134  171.7066
 135  223.9675
 136  270.0534
 137  263.9276
 138  264.3997
 139  214.9004
 140  229.3866
 141  159.8499
 142  78.93631
 143  297.1238
 144  312.1534
 145  302.2534
 146  143.2832
 147  169.6947
 148  145.3535
 149  184.8883
 150  227.4645
 151  173.6872
 152  160.8005
 153  168.8611
 154  189.0688
 155  163.9968
 156  153.1577
 157  393.8474
 158  273.6907
 159  81.08585
 160  204.4995
 161  305.4142
 162  300.2134
 163  307.5577
 164  229.2621
 165  235.8581
 166  174.6246
 167  323.3099
 168  281.0747
 169  196.6423
 170  315.1524
 171  287.6879
 172  181.5711
 173  222.8918
 174  262.927
 175  132.1756
 176  196.7953
 177  384.4152
 178  497.4341
 179  378.4275
 180  311.6785
 181  215.0111
 182  192.7615
 183  135.4869
 184  193.7156
 185  258.0534
 186  254.7834
 187  377.0958
 188  263.0451
 189  90.32343
 190  168.8896
 191  259.3503
 192  288.7149
 193  224.8809
 194  313.1437
 195  364.9372
 196  305.0488
 197  357.1717
 198  261.9725
 199  159.6262
 200  47.83736
 201  351.0946
 202  338.2199
 203  254.9172
 204  269.6038
 205  233.0502
 206  277.8694
 207  320.3602
 208  379.899
 209  317.0232
 210  344.7517
 211  389.6693
 212  361.1837
 213  324.1011
 214  200.8124
 215  120.3756
 216  54.14082
 217  209.6064
 218  222.736
 219  235.8878
 220  298.5929
 221  198.9307
 222  136.3771
 223  252.8172
 224  255.7682
 225  244.5354
 226  249.5051
 227  281.2627
 228  326.2848
 229  210.3178
 230  178.196
 231  285.6738
 232  286.0643
 233  232.2919
 234  226.8514
 235  135.297
 236  175.3518
 237  223.2052
 238  195.9457
 239  162.2166
 240  159.2674
 241  308.7135
 242  265.5735
 243  273.6387
 244  203.012
 245  159.8244
 246  355.414
 247  273.3612
 248  402.0337
 249  376.1564
 250  172.389
 251  62.19904
 252  140.8314
 253  191.2552
 254  372.5902
 255  386.0225
 256  349.8477
 257  328.5448
 258  258.5255
 259  322.4936
 260  344.9508
 261  377.5825
 262  355.1976
 263  328.1764
 264  294.8035
 265  231.6256
 266  356.1136
 267  505.0928
 268  434.6668
 269  395.1747
 270  319.2754
 271  226.5474
 272  303.6522
 273  263.2234
 274  148.8277
 275  62.32993
 276  145.3364
 277  222.5242
 278  284.039
 279  360.3326
 280  274.2132
 281  149.1339
 282  235.7804
 283  254.9966
 284  228.2583
 285  334.1469
 286  202.7186
 287  254.6074
 288  189.1241
 289  184.0182
 290  268.2902
 291  223.1301
 292  412.8585
 293  434.5879
 294  385.7841
 295  304.1543
 296  339.5646
 297  278.8073
 298  257.4423
 299  291.5792
 300  284.2706
 301  235.7982
 302  302.9464
 303  304.3503
 304  290.56
 305  358.1902
 306  383.0924
 307  247.5839
 308  181.7976
 309  152.4282
 310  132.002
 311  160.8631
 312  278.3416
 313  323.2007
 314  345.1267
 315  391.0323
 316  246.5134
 317  294.7856
 318  310.6933
 319  320.1078
 320  247.5899
 321  312.8707
 322  361.4294
 323  201.5398
 324  76.85799
 325  194.1341
 326  314.0359
 327  209.483
 328  324.632
 329  445.8256
 330  313.0809
 331  59.93913
 332  29.3599
 333  4.432559
 334  225.9987
 335  173.293
 336  309.6581
 337  177.8004
 338  151.1337
 339  109.3342
 340  252.1431
 341  306.2514
 342  272.8783
 343  191.4167
 344  141.5202
 345  149.3987
 346  256.317
 347  202.4279
 348  317.1234
 349  263.8015
 350  217.4314
 351  223.1333
 352  172.5134
 353  319.3532
 354  320.0972
 355  287.108
 356  318.4731
 357  322.9278
 358  360.3513
 359  466.6668
 360  389.7568
 361  312.9652
 362  260.81
 363  121.444
 364  108.4625
 365  142.1115
 366  213.7583
 367  193.4431
 368  111.5083
 369  265.1743
 370  214.568
 371  208.7858
 372  150.8493
 373  269.5966
 374  291.4448
 375  320.9709
 376  381.5803
 377  453.5447
 378  369.5178
 379  403.8931
 380  352.624
 381  147.6412
 382  82.0307
 383  265.4484
 384  332.3616
 385  172.5762
 386  222.1418
 387  348.9845
 388  230.1298
 389  172.4832
 390  89.06898
 391  127.4503
 392  183.3079
 393  261.4403
 394  288.0257
 395  238.6765
 396  198.9862
 397  327.2928
 398  239.3653
 399  305.5586
 400  281.8853
 401  296.9618
 402  245.9815
 403  185.8488
 404  213.0738
 405  349.8788
 406  356.6245
 407  349.2403
 408  322.2201
 409  256.8325
 410  188.3539
 411  198.2927
 412  243.1261
 413  226.3512
 414  303.7046
 415  241.4467
 416  262.0864
 417  194.955
 418  152.0797
 419  112.785
 420  173.0504
 421  144.7851
 422  235.325
 423  202.5313
 424  214.8332
 425  204.1758
 426  210.7717
 427  142.5509
 428  120.4733
 429  219.7139
 430  282.2384
 431  318.2599
 432  273.5485
 433  266.062
 434  232.7265
 435  181.6337
 436  145.3108
 437  231.3637
 438  348.6946
 439  219.7173
 440  287.0979
 441  234.498
 442  169.2739
 443  346.1587
 444  325.6563
 445  213.2156
 446  284.0335
 447  188.1359
 448  42.40977
 449  307.747
 450  435.7643
 451  407.6281
 452  326.0926
 453  308.6028
 454  129.226
 455  83.27728
 456  126.6575
 457  266.0969
 458  242.0001
 459  124.4301
 460  234.7096
 461  319.1239
 462  277.7152
 463  144.8869
 464  215.2357
 465  240.4201
 466  265.6868
 467  196.065
 468  185.9723
 469  236.5387
 470  282.6486
 471  208.8456
 472  87.07583
 473  218.158
 474  174.2369
 475  217.7522
 476  223.7048
 477  208.0736
 478  168.9151
 479  180.2403
 480  311.2776
 481  225.997
 482  328.8073
 483  253.3163
 484  244.6191
 485  349.0052
 486  164.6602
 487  74.87844
 488  213.6718
 489  380.5591
 490  255.178
 491  144.0334
 492  166.8793
 493  288.087
 494  311.3216
 495  173.0486
 496  179.7066
 497  287.2091
 498  396.1014
 499  442.5581
 500  401.0984
 501  249.1669
 502  219.3222
 503  267.368
 504  337.2088
 505  319.4046
 506  425.1054
 507  422.9379
 508  507.0421
 509  547.3313
 510  715.8357
 511  702.5762
