# Input file       =  1199795478.095342_cleaned.dat
# Candidate        =  PSR_0332+5434
# Telescope        =  AR
# Epoch_topo       =  58130.521528881269
# Epoch_bary       =  N/A
# T_sample         =  0.002
# Data Folded      =  7208960
# Data Avg         =  0.0161709544258618
# Data StdDev      =  0.999995859756647
# Profile Bins     =  512
# Profile Avg      =  227.655604530254 
# Profile StdDev   =  118.658684515667 
# Reduced chi-sqr  =  1.291
# Prob(Noise)      <  9.28e-06   (~4.3 sigma)
# P_topo (ms)      =  714.564821949077  +/- 0.00016
# P'_topo (s/s)    =  -0                +/- 8.57e-11
# P''_topo (s/s^2) =  0                 +/- 3.85e-14
# P_bary (ms)      =  N/A
# P'_bary (s/s)    =  N/A
# P''_bary (s/s^2) =  N/A
# P_orb (s)        =  N/A
# asin(i)/c (s)    =  N/A
# eccentricity     =  N/A
# w (rad)          =  N/A
# T_peri           =  N/A
######################################################
   0  867.9494
   1  737.2578
   2  472.8179
   3  512.457
   4  405.241
   5  305.8503
   6  270.4798
   7  161.481
   8  209.3924
   9  244.1681
  10  352.5031
  11  253.3245
  12  242.6807
  13  361.735
  14  242.732
  15  81.10474
  16  294.7491
  17  283.6083
  18  270.796
  19  185.1485
  20  144.1238
  21  295.5088
  22  234.8076
  23  163.0888
  24  143.4407
  25  220.3654
  26  299.071
  27  287.4346
  28  297.1391
  29  297.303
  30  388.131
  31  390.622
  32  367.9223
  33  340.0523
  34  395.6444
  35  350.6682
  36  287.2505
  37  335.7194
  38  247.2045
  39  169.3167
  40  196.9861
  41  138.2001
  42  143.8863
  43  277.2057
  44  303.1929
  45  250.1871
  46  319.3318
  47  334.8958
  48  210.6183
  49  267.7159
  50  177.8643
  51  162.7251
  52  113.3215
  53  202.9174
  54  244.289
  55  247.1745
  56  228.8102
  57  182.9257
  58  270.613
  59  256.7149
  60  206.7394
  61  258.3669
  62  197.5913
  63  301.07
  64  278.5485
  65  284.3424
  66  253.4311
  67  383.4676
  68  311.4808
  69  119.5182
  70  224.1511
  71  270.8075
  72  175.2459
  73  157.1971
  74  234.8293
  75  224.0085
  76  307.2847
  77  123.7815
  78  -67.25208
  79  78.36328
  80  252.6233
  81  209.1898
  82  400.6837
  83  301.0602
  84  189.246
  85  275.7141
  86  368.1781
  87  256.2729
  88  158.1319
  89  245.6702
  90  262.3854
  91  255.283
  92  298.6083
  93  180.3769
  94  125.8914
  95  283.274
  96  323.7542
  97  265.3385
  98  256.9312
  99  287.4364
 100  321.1767
 101  169.9111
 102  176.9227
 103  314.7986
 104  306.6785
 105  160.0391
 106  171.2124
 107  232.3684
 108  261.7729
 109  189.6395
 110  255.1182
 111  290.749
 112  388.776
 113  379.8438
 114  237.7259
 115  202.1285
 116  207.2178
 117  240.1055
 118  222.3976
 119  202.6039
 120  282.2423
 121  220.1713
 122  229.7789
 123  257.1985
 124  368.33
 125  393.6958
 126  297.7311
 127  274.8667
 128  221.7397
 129  295.2671
 130  381.0812
 131  200.7209
 132  227.7535
 133  375.4525
 134  258.2204
 135  11.9172
 136  68.47206
 137  179.0706
 138  160.7117
 139  238.2611
 140  214.0718
 141  248.6942
 142  276.5985
 143  261.9857
 144  227.1379
 145  352.5005
 146  394.4445
 147  340.6081
 148  150.7068
 149  268.0435
 150  244.7732
 151  183.384
 152  152.5835
 153  170.3006
 154  168.3559
 155  108.7512
 156  112.3737
 157  283.5787
 158  241.0339
 159  182.0743
 160  241.6056
 161  272.6924
 162  190.4499
 163  145.0611
 164  199.4283
 165  334.3573
 166  317.5278
 167  292.0667
 168  203.9186
 169  223.8121
 170  285.2889
 171  307.8977
 172  304.9852
 173  279.7471
 174  334.8107
 175  356.1611
 176  134.3606
 177  153.5105
 178  140.2323
 179  239.8871
 180  256.2723
 181  254.3548
 182  221.0584
 183  173.663
 184  306.3458
 185  276.6202
 186  224.0151
 187  193.418
 188  171.1192
 189  179.6875
 190  166.3487
 191  124.5158
 192  81.20525
 193  156.5344
 194  168.0175
 195  155.3759
 196  98.93322
 197  119.2854
 198  223.4257
 199  109.4076
 200  154.7859
 201  252.8791
 202  196.0613
 203  203.312
 204  316.8387
 205  199.7209
 206  155.3675
 207  32.56842
 208  25.02224
 209  100.1834
 210  225.921
 211  291.862
 212  347.5465
 213  178.578
 214  94.24477
 215  106.5221
 216  181.171
 217  169.2551
 218  304.3298
 219  329.5924
 220  222.2504
 221  37.74356
 222  86.08173
 223  144.0966
 224  200.6311
 225  170.0925
 226  228.3363
 227  93.22064
 228  231.2041
 229  157.9489
 230  223.0821
 231  287.5582
 232  314.6079
 233  248.7023
 234  143.204
 235  298.8989
 236  337.1119
 237  205.6674
 238  210.9124
 239  223.1741
 240  124.0499
 241  -2.07405
 242  107.7757
 243  223.4348
 244  168.2821
 245  197.7857
 246  309.3569
 247  301.7809
 248  236.7068
 249  307.5049
 250  236.8458
 251  298.097
 252  236.132
 253  243.2783
 254  341.7011
 255  358.5358
 256  384.4252
 257  273.8223
 258  232.1693
 259  200.2713
 260  230.1917
 261  143.5758
 262  109.5627
 263  443.3883
 264  390.4109
 265  233.7587
 266  298.2632
 267  305.1493
 268  260.3401
 269  242.3808
 270  268.5409
 271  302.4648
 272  244.9428
 273  235.4537
 274  268.0308
 275  276.6005
 276  276.2666
 277  194.8677
 278  175.0307
 279  158.6038
 280  163.4009
 281  351.0345
 282  269.1161
 283  175.9659
 284  322.9837
 285  318.0655
 286  243.6193
 287  289.1799
 288  258.2068
 289  265.7239
 290  298.6122
 291  246.4926
 292  198.3682
 293  11.50423
 294  199.2754
 295  319.6042
 296  282.0851
 297  453.2568
 298  184.5334
 299  83.39029
 300  146.8149
 301  147.4971
 302  214.659
 303  304.4265
 304  146.715
 305  163.4781
 306  129.3568
 307  152.1691
 308  204.0181
 309  304.4596
 310  234.7347
 311  88.3504
 312  232.0924
 313  170.0395
 314  183.7926
 315  305.0941
 316  295.6851
 317  195.1267
 318  229.1302
 319  157.8649
 320  57.04742
 321  131.8532
 322  81.15145
 323  162.6561
 324  200.8143
 325  323.2367
 326  67.71803
 327  -53.34637
 328  160.399
 329  230.7962
 330  176.0969
 331  150.7904
 332  201.2747
 333  86.5901
 334  221.6035
 335  310.3336
 336  168.7087
 337  114.9969
 338  172.9588
 339  268.9693
 340  165.202
 341  48.474
 342  105.5999
 343  165.3071
 344  167.8272
 345  203.731
 346  316.0492
 347  355.3144
 348  344.8119
 349  274.6768
 350  359.4719
 351  267.4348
 352  297.3429
 353  312.058
 354  256.7179
 355  359.9474
 356  351.2471
 357  390.2878
 358  328.5487
 359  280.2867
 360  200.615
 361  245.957
 362  236.3987
 363  240.2196
 364  335.1711
 365  230.7195
 366  226.7595
 367  261.6548
 368  270.4799
 369  300.7331
 370  190.4459
 371  84.69449
 372  45.06952
 373  130.5797
 374  191.2147
 375  195.661
 376  174.8193
 377  285.2119
 378  264.1036
 379  74.72807
 380  157.9577
 381  242.2515
 382  277.86
 383  236.439
 384  264.2101
 385  305.1033
 386  208.5687
 387  170.6118
 388  108.717
 389  122.4699
 390  90.65055
 391  73.86611
 392  177.0519
 393  250.2233
 394  178.0606
 395  308.2249
 396  317.6957
 397  205.1
 398  158.6368
 399  255.1826
 400  269.5129
 401  238.953
 402  236.2058
 403  172.9509
 404  250.0862
 405  394.1718
 406  324.3674
 407  170.4052
 408  184.9228
 409  268.1698
 410  204.9868
 411  183.4726
 412  235.0256
 413  264.0226
 414  238.9318
 415  51.40808
 416  151.9898
 417  121.2939
 418  122.7281
 419  114.1124
 420  288.7179
 421  244.3122
 422  166.533
 423  180.1571
 424  147.5328
 425  164.7416
 426  127.3157
 427  208.6911
 428  277.7774
 429  190.9808
 430  111.8906
 431  123.2643
 432  223.731
 433  219.8658
 434  136.2952
 435  294.8651
 436  277.7845
 437  218.1101
 438  124.657
 439  53.31073
 440  130.1076
 441  164.471
 442  185.2973
 443  257.3715
 444  108.4217
 445  82.85586
 446  54.26791
 447  115.0982
 448  106.442
 449  1.327468
 450  2.41748
 451  98.52657
 452  108.8071
 453  134.7407
 454  156.5099
 455  104.5714
 456  177.399
 457  46.39921
 458  98.51006
 459  288.7006
 460  263.023
 461  39.95703
 462  115.7429
 463  205.2292
 464  236.3134
 465  78.21031
 466  154.7308
 467  204.1702
 468  223.7391
 469  349.4268
 470  255.0936
 471  168.4548
 472  117.3027
 473  175.723
 474  136.8208
 475  182.1239
 476  174.6615
 477  252.8947
 478  249.6718
 479  261.2125
 480  256.1208
 481  212.1545
 482  240.52
 483  152.9678
 484  160.5556
 485  193.187
 486  249.4456
 487  232.6466
 488  206.2393
 489  143.6611
 490  254.9425
 491  236.7101
 492  207.5794
 493  224.9515
 494  343.5965
 495  328.2542
 496  269.0735
 497  246.5161
 498  177.9499
 499  233.6176
 500  201.3894
 501  245.2369
 502  354.4759
 503  405.2581
 504  275.6084
 505  307.0494
 506  302.3315
 507  290.185
 508  458.9256
 509  605.7389
 510  558.0053
 511  620.5978
