# Input file       =  1199810099.108133_cleaned.dat
# Candidate        =  PSR_0332+5434
# Telescope        =  AR
# Epoch_topo       =  58130.690753566356
# Epoch_bary       =  N/A
# T_sample         =  0.002
# Data Folded      =  7340032
# Data Avg         =  0.117179072778332
# Data StdDev      =  1.00023187653878 
# Profile Bins     =  512
# Profile Avg      =  1679.9146577385  
# Profile StdDev   =  119.760799658819 
# Reduced chi-sqr  =  0.901
# Prob(Noise)      <  0.948   (~0.0 sigma)
# P_topo (ms)      =  714.564958297464  +/- 4.09e-05
# P'_topo (s/s)    =  -0                +/- 2.16e-11
# P''_topo (s/s^2) =  0                 +/- 9.53e-15
# P_bary (ms)      =  N/A
# P'_bary (s/s)    =  N/A
# P''_bary (s/s^2) =  N/A
# P_orb (s)        =  N/A
# asin(i)/c (s)    =  N/A
# eccentricity     =  N/A
# w (rad)          =  N/A
# T_peri           =  N/A
######################################################
   0  2073.008
   1  2138.319
   2  2047.395
   3  1941.974
   4  1923.179
   5  1784.462
   6  1720.066
   7  1626.834
   8  1662.803
   9  1645.822
  10  1675.167
  11  1767.617
  12  1745.169
  13  1703.896
  14  1757.433
  15  1751.2
  16  1633.336
  17  1675.574
  18  1686.45
  19  1614.907
  20  1579.66
  21  1545.974
  22  1683.367
  23  1664.501
  24  1706.701
  25  1732.741
  26  1774.576
  27  1607.891
  28  1583.829
  29  1632.564
  30  1563.263
  31  1505.622
  32  1531.288
  33  1577.697
  34  1515.478
  35  1593.818
  36  1811.01
  37  1713.031
  38  1561.14
  39  1698.548
  40  1746.802
  41  1639.726
  42  1638.246
  43  1787.893
  44  1705.702
  45  1721.65
  46  1663.565
  47  1581.793
  48  1549.422
  49  1538.279
  50  1605.031
  51  1606.366
  52  1599.035
  53  1642.097
  54  1629.347
  55  1570.739
  56  1556.853
  57  1551.733
  58  1629.478
  59  1566.94
  60  1726.042
  61  1675.392
  62  1663.552
  63  1618.906
  64  1716.514
  65  1843.753
  66  1738.849
  67  1626.916
  68  1628.741
  69  1677.689
  70  1635.734
  71  1538.272
  72  1615.953
  73  1574.885
  74  1600.39
  75  1792.905
  76  1709.76
  77  1599.834
  78  1592.167
  79  1684.131
  80  1671.072
  81  1623.373
  82  1671.666
  83  1758.479
  84  1819.435
  85  1849.195
  86  1845.266
  87  1725.354
  88  1721.192
  89  1830.075
  90  1833.957
  91  1799.842
  92  1755.504
  93  1734.72
  94  1716.89
  95  1606.885
  96  1647.901
  97  1716.486
  98  1683.882
  99  1663.095
 100  1619.27
 101  1694.045
 102  1730.247
 103  1655.92
 104  1695.543
 105  1589.592
 106  1558.298
 107  1641.152
 108  1685.67
 109  1548.285
 110  1585.544
 111  1557.561
 112  1508.847
 113  1534.181
 114  1644.026
 115  1591.675
 116  1592.935
 117  1690.175
 118  1728.547
 119  1570.722
 120  1568.06
 121  1587.669
 122  1709.388
 123  1795.187
 124  1630.957
 125  1604.075
 126  1627.598
 127  1660.755
 128  1620.072
 129  1685.122
 130  1707.962
 131  1660.965
 132  1721.441
 133  1683.778
 134  1689.081
 135  1616.254
 136  1733.094
 137  1771.682
 138  1806.308
 139  1663.285
 140  1655.836
 141  1616.797
 142  1571.147
 143  1611.902
 144  1726.137
 145  1710.436
 146  1771.932
 147  1756.143
 148  1715.234
 149  1657.454
 150  1705.931
 151  1638.457
 152  1474.773
 153  1465.298
 154  1551.533
 155  1671.974
 156  1759.509
 157  1736.82
 158  1572.307
 159  1601.759
 160  1565.769
 161  1602.326
 162  1628.899
 163  1699.806
 164  1680.894
 165  1726.965
 166  1685.457
 167  1526.518
 168  1689.757
 169  1582.11
 170  1509.393
 171  1652.591
 172  1666.06
 173  1682.903
 174  1607.021
 175  1729.47
 176  1719.81
 177  1616.154
 178  1559.888
 179  1626.454
 180  1622.894
 181  1615.683
 182  1635.124
 183  1721.091
 184  1676.81
 185  1633.109
 186  1738.337
 187  1711.849
 188  1694.712
 189  1743.934
 190  1689.522
 191  1648.877
 192  1628.401
 193  1700.508
 194  1725.897
 195  1676.703
 196  1605.704
 197  1695.13
 198  1668.465
 199  1626.522
 200  1582.718
 201  1685.02
 202  1682.647
 203  1695.238
 204  1734.909
 205  1653.716
 206  1681.092
 207  1674.271
 208  1696.391
 209  1722.696
 210  1688.042
 211  1588.877
 212  1547.838
 213  1664.015
 214  1714.884
 215  1797.127
 216  1643.62
 217  1584.09
 218  1693.471
 219  1752.116
 220  1672.065
 221  1632.124
 222  1881.29
 223  1894.87
 224  1793.866
 225  1706.852
 226  1623.999
 227  1530.195
 228  1743.308
 229  1822.683
 230  1751.451
 231  1711.544
 232  1725.02
 233  1733.114
 234  1596.324
 235  1636.948
 236  1679.323
 237  1783.934
 238  1753.767
 239  1660.494
 240  1727.786
 241  1690.729
 242  1737.732
 243  1744.42
 244  1729.536
 245  1628.981
 246  1588.296
 247  1644.406
 248  1695.778
 249  1646.948
 250  1694.064
 251  1591.644
 252  1574.267
 253  1534.653
 254  1578.881
 255  1703.723
 256  1672.583
 257  1714.43
 258  1836.078
 259  1689.142
 260  1511.371
 261  1643.183
 262  1703.386
 263  1638.66
 264  1678.948
 265  1788.536
 266  1709.359
 267  1649.556
 268  1631.928
 269  1614.592
 270  1587.964
 271  1631.587
 272  1636.534
 273  1633.583
 274  1738.511
 275  1741.853
 276  1737.986
 277  1642.372
 278  1607.398
 279  1692.172
 280  1652.956
 281  1622.248
 282  1768.186
 283  1846.208
 284  1721.965
 285  1687.882
 286  1678.562
 287  1713.344
 288  1593.051
 289  1766.817
 290  1825.091
 291  1818.698
 292  1762.152
 293  1707.41
 294  1694.083
 295  1654.504
 296  1643.822
 297  1736.232
 298  1763.129
 299  1645.983
 300  1613.197
 301  1694.619
 302  1694.692
 303  1715.008
 304  1798.684
 305  1745.93
 306  1653.21
 307  1635.045
 308  1799.813
 309  1748.02
 310  1720.75
 311  1680.696
 312  1707.955
 313  1734.838
 314  1779.417
 315  1770.851
 316  1642.427
 317  1617.742
 318  1690.059
 319  1847.4
 320  1728.932
 321  1652.915
 322  1756.31
 323  1793.977
 324  1706.192
 325  1729.399
 326  1761.222
 327  1671.938
 328  1626.62
 329  1697.977
 330  1624.873
 331  1667.534
 332  1645.624
 333  1799.644
 334  1749.556
 335  1677.479
 336  1703.266
 337  1729.492
 338  1676.104
 339  1686.172
 340  1801.767
 341  1660.142
 342  1591.313
 343  1707.449
 344  1715.867
 345  1695.815
 346  1666.308
 347  1671.425
 348  1741.596
 349  1707.822
 350  1697.256
 351  1702.579
 352  1691.531
 353  1662.8
 354  1718.665
 355  1769.652
 356  1729.854
 357  1707.859
 358  1760.557
 359  1672.718
 360  1711.161
 361  1766.296
 362  1671.361
 363  1606.188
 364  1665.497
 365  1765.549
 366  1755.476
 367  1670.477
 368  1714.507
 369  1674.131
 370  1671.469
 371  1627.807
 372  1666.744
 373  1700.078
 374  1621.82
 375  1504.88
 376  1557.963
 377  1640.348
 378  1649.819
 379  1668.51
 380  1701.652
 381  1702.137
 382  1659.944
 383  1564.217
 384  1614.794
 385  1669.901
 386  1660.01
 387  1780.991
 388  1681.649
 389  1514.055
 390  1587.162
 391  1688.056
 392  1744.848
 393  1615.462
 394  1638.769
 395  1681.328
 396  1659.823
 397  1631.769
 398  1690.56
 399  1758.106
 400  1753.633
 401  1792.568
 402  1688.198
 403  1708.727
 404  1675.061
 405  1740.107
 406  1727.296
 407  1678.403
 408  1717.276
 409  1752.224
 410  1632.237
 411  1667.135
 412  1761.316
 413  1770.363
 414  1679.627
 415  1665.742
 416  1630.752
 417  1646.407
 418  1674.04
 419  1728.834
 420  1639.29
 421  1597.545
 422  1658.515
 423  1647.1
 424  1597.661
 425  1553.969
 426  1598.159
 427  1683.545
 428  1712.519
 429  1723.31
 430  1645.555
 431  1586.124
 432  1607.257
 433  1786.751
 434  1797.159
 435  1705.243
 436  1694.546
 437  1849.105
 438  1879.589
 439  1753.836
 440  1732.838
 441  1764.969
 442  1814.588
 443  1721.26
 444  1669.49
 445  1566.065
 446  1536.162
 447  1693.232
 448  1663.168
 449  1662.24
 450  1549.075
 451  1671.022
 452  1747.201
 453  1713.018
 454  1669.148
 455  1720.079
 456  1686.281
 457  1614.852
 458  1674.67
 459  1628.476
 460  1670.027
 461  1813.988
 462  1769.633
 463  1684.187
 464  1629.038
 465  1590.79
 466  1647.411
 467  1620.147
 468  1605.985
 469  1693.165
 470  1690.225
 471  1693.265
 472  1665.512
 473  1701.327
 474  1709.859
 475  1683.279
 476  1704.111
 477  1744.885
 478  1638.714
 479  1576.73
 480  1630.061
 481  1532.68
 482  1563.229
 483  1670.872
 484  1737.986
 485  1698.557
 486  1674.29
 487  1736.907
 488  1708.343
 489  1661.613
 490  1637.285
 491  1588.694
 492  1570.714
 493  1674.585
 494  1691.238
 495  1722.852
 496  1735.479
 497  1772.497
 498  1582.334
 499  1512.844
 500  1593.589
 501  1692.506
 502  1688.086
 503  1553.009
 504  1604.358
 505  1694.278
 506  1703.355
 507  1665.176
 508  1813.837
 509  1767.98
 510  1886.876
 511  1971.133
