# Input file       =  1199967776.101105_cleaned.dat
# Candidate        =  PSR_0332+5434
# Telescope        =  AR
# Epoch_topo       =  58132.515718762792
# Epoch_bary       =  N/A
# T_sample         =  0.002
# Data Folded      =  7405568
# Data Avg         =  0.0194517789624274
# Data StdDev      =  1.00015390933218 
# Profile Bins     =  512
# Profile Avg      =  281.201030933375 
# Profile StdDev   =  120.284881143831 
# Reduced chi-sqr  =  1.603
# Prob(Noise)      <  1.13e-16   (~8.2 sigma)
# P_topo (ms)      =  714.5662286254    +/- 0.000209
# P'_topo (s/s)    =  -0                +/- 1.09e-10
# P''_topo (s/s^2) =  0                 +/- 4.77e-14
# P_bary (ms)      =  N/A
# P'_bary (s/s)    =  N/A
# P''_bary (s/s^2) =  N/A
# P_orb (s)        =  N/A
# asin(i)/c (s)    =  N/A
# eccentricity     =  N/A
# w (rad)          =  N/A
# T_peri           =  N/A
######################################################
   0  1115.948
   1  1042.347
   2  680.6566
   3  387.6044
   4  345.9875
   5  351.2099
   6  295.012
   7  271.5353
   8  150.8436
   9  234.7698
  10  132.5968
  11  213.0527
  12  299.7415
  13  174.8897
  14  208.3527
  15  268.3896
  16  301.3405
  17  304.4064
  18  309.8939
  19  234.418
  20  295.741
  21  317.2148
  22  344.5858
  23  298.6714
  24  161.6702
  25  308.287
  26  303.7544
  27  326.1176
  28  237.3612
  29  233.2558
  30  341.255
  31  186.2856
  32  105.5916
  33  276.9882
  34  345.6238
  35  245.5628
  36  261.588
  37  176.7775
  38  156.5381
  39  197.9628
  40  194.8803
  41  240.7565
  42  301.8622
  43  303.2342
  44  184.1248
  45  172.1813
  46  370.1545
  47  430.673
  48  383.2829
  49  242.9054
  50  173.5958
  51  185.17
  52  287.4193
  53  293.0468
  54  329.9689
  55  342.1418
  56  224.0913
  57  170.131
  58  212.058
  59  444.4717
  60  436.8135
  61  275.8552
  62  278.4518
  63  361.231
  64  370.1093
  65  263.8234
  66  252.4292
  67  228.2808
  68  271.0741
  69  236.4958
  70  224.8172
  71  262.4838
  72  347.5468
  73  445.7185
  74  270.6957
  75  296.3088
  76  375.4546
  77  346.7773
  78  329.2362
  79  311.6068
  80  251.9152
  81  186.4273
  82  201.3572
  83  305.4459
  84  275.3347
  85  206.5288
  86  234.3698
  87  305.8501
  88  128.1408
  89  140.2112
  90  295.4228
  91  401.9305
  92  434.4849
  93  409.427
  94  363.2284
  95  416.0829
  96  292.8305
  97  238.3832
  98  309.0561
  99  381.0154
 100  381.179
 101  384.8474
 102  289.8735
 103  390.1395
 104  351.3728
 105  392.8518
 106  328.6297
 107  294.5738
 108  338.9207
 109  279.7591
 110  212.8325
 111  243.5645
 112  151.4809
 113  191.0233
 114  259.6334
 115  358.3594
 116  194.1174
 117  157.2348
 118  133.6851
 119  41.4167
 120  151.4875
 121  87.29419
 122  224.309
 123  248.6729
 124  190.556
 125  240.2956
 126  405.7027
 127  475.5672
 128  374.6652
 129  335.0435
 130  250.3364
 131  250.7977
 132  306.2381
 133  369.3805
 134  308.515
 135  255.2681
 136  312.0966
 137  332.2864
 138  240.0514
 139  348.0918
 140  222.3594
 141  121.8383
 142  138.3629
 143  346.131
 144  361.5742
 145  314.0614
 146  299.9798
 147  298.9529
 148  254.8487
 149  262.5854
 150  241.0133
 151  169.4814
 152  212.7626
 153  333.0094
 154  325.8442
 155  325.8476
 156  341.6867
 157  316.0752
 158  309.5349
 159  392.3008
 160  373.4143
 161  335.4968
 162  232.8266
 163  198.7762
 164  269.1412
 165  253.8607
 166  210.2447
 167  278.4112
 168  287.1042
 169  343.0854
 170  253.6391
 171  166.907
 172  185.1484
 173  273.7106
 174  307.8765
 175  227.5106
 176  306.9239
 177  309.1923
 178  442.5531
 179  409.9713
 180  307.0312
 181  161.6206
 182  219.3681
 183  460.8555
 184  264.94
 185  323.6828
 186  190.4136
 187  209.3845
 188  321.7702
 189  186.5692
 190  202.1055
 191  202.2695
 192  257.837
 193  306.5716
 194  225.3726
 195  175.9473
 196  128.9483
 197  142.6093
 198  224.5692
 199  320.4634
 200  408.1539
 201  387.3724
 202  328.157
 203  290.7016
 204  287.9303
 205  355.3299
 206  343.7588
 207  161.6137
 208  190.0973
 209  211.2843
 210  391.5101
 211  402.9141
 212  289.9152
 213  368.3402
 214  329.2292
 215  339.5938
 216  229.5709
 217  153.926
 218  211.4037
 219  373.7415
 220  327.5039
 221  354.506
 222  430.7056
 223  322.1401
 224  253.1211
 225  106.024
 226  151.7137
 227  152.679
 228  298.4061
 229  255.4384
 230  282.9139
 231  309.4073
 232  317.5405
 233  241.3062
 234  205.6914
 235  212.4239
 236  246.2761
 237  317.3728
 238  287.227
 239  243.0375
 240  385.9985
 241  486.8884
 242  377.8398
 243  320.58
 244  179.3906
 245  257.6666
 246  336.6296
 247  400.342
 248  339.8201
 249  295.3394
 250  207.133
 251  332.1624
 252  292.832
 253  323.6217
 254  358.5789
 255  232.6522
 256  187.8477
 257  265.2991
 258  358.7336
 259  387.3795
 260  368.3156
 261  292.5491
 262  250.0095
 263  231.757
 264  353.4855
 265  365.4802
 266  377.7692
 267  326.0855
 268  290.0312
 269  255.933
 270  268.1412
 271  295.1497
 272  272.749
 273  370.5956
 274  307.208
 275  205.3683
 276  326.0911
 277  424.842
 278  281.1186
 279  177.1518
 280  328.2458
 281  411.3441
 282  344.165
 283  385.2697
 284  389.8794
 285  236.1885
 286  405.1028
 287  388.8115
 288  304.0326
 289  308.6033
 290  232.8024
 291  232.3214
 292  239.7034
 293  247.8977
 294  371.4794
 295  341.5035
 296  301.8297
 297  253.3808
 298  61.56011
 299  99.64655
 300  144.996
 301  211.3852
 302  334.7438
 303  337.3976
 304  314.1357
 305  400.9609
 306  351.6349
 307  171.3078
 308  226.8775
 309  206.9873
 310  351.3019
 311  408.425
 312  255.7724
 313  248.5013
 314  286.8007
 315  298.5991
 316  426.8516
 317  510.7199
 318  507.8806
 319  394.9038
 320  335.3802
 321  295.2238
 322  294.7464
 323  271.862
 324  341.0012
 325  322.7899
 326  144.2833
 327  130.6229
 328  241.3869
 329  288.9082
 330  209.7701
 331  289.1529
 332  364.7168
 333  275.8162
 334  254.7551
 335  237.0635
 336  99.00235
 337  269.2086
 338  267.8095
 339  291.3209
 340  239.9175
 341  212.6463
 342  188.0127
 343  206.5099
 344  222.851
 345  215.0956
 346  154.236
 347  336.5079
 348  393.2227
 349  333.2696
 350  276.0517
 351  187.7226
 352  232.1773
 353  366.024
 354  215.1848
 355  219.1755
 356  137.6065
 357  217.5578
 358  304.8524
 359  339.7879
 360  485.1234
 361  320.5266
 362  333.0996
 363  252.3782
 364  129.6164
 365  92.54547
 366  295.0073
 367  433.878
 368  334.5283
 369  331.3671
 370  318.7485
 371  167.7244
 372  272.1793
 373  292.1279
 374  242.3199
 375  209.5253
 376  318.8974
 377  230.7602
 378  287.9806
 379  292.8301
 380  216.8528
 381  224.0918
 382  206.2189
 383  205.4662
 384  33.77034
 385  104.0734
 386  350.0224
 387  378.6449
 388  192.8183
 389  187.8373
 390  224.5045
 391  122.5458
 392  242.114
 393  304.5353
 394  416.6563
 395  148.2223
 396  162.8357
 397  263.5349
 398  151.6949
 399  219.6061
 400  326.2563
 401  366.7849
 402  299.1173
 403  131.3177
 404  302.754
 405  271.1867
 406  250.3614
 407  186.3083
 408  6.069583
 409  174.018
 410  234.5097
 411  183.5704
 412  159.712
 413  48.79227
 414  310.5663
 415  334.0138
 416  291.3833
 417  171.9463
 418  148.8685
 419  159.1479
 420  136.0021
 421  192.4465
 422  191.268
 423  302.0934
 424  222.0247
 425  324.0869
 426  351.0266
 427  224.0338
 428  173.8923
 429  205.9749
 430  382.3054
 431  206.7021
 432  220.7278
 433  243.0124
 434  232.4232
 435  245.3595
 436  174.4928
 437  192.3748
 438  151.3182
 439  162.0737
 440  258.5178
 441  298.459
 442  266.9541
 443  446.5187
 444  334.5689
 445  187.2219
 446  175.8169
 447  217.0425
 448  248.7607
 449  239.1956
 450  250.8533
 451  224.1846
 452  315.866
 453  228.405
 454  190.1984
 455  294.1794
 456  295.1659
 457  285.3914
 458  190.9487
 459  231.8348
 460  209.045
 461  179.4753
 462  256.5551
 463  297.9804
 464  228.4148
 465  234.3477
 466  256.1425
 467  341.3819
 468  378.2143
 469  395.7313
 470  287.9568
 471  259.7986
 472  301.0979
 473  295.5703
 474  285.726
 475  123.4375
 476  180.5121
 477  241.361
 478  382.3381
 479  359.8898
 480  355.6935
 481  151.0766
 482  232.0723
 483  256.9062
 484  114.9724
 485  99.44606
 486  94.95814
 487  196.7847
 488  264.6933
 489  182.0459
 490  82.65212
 491  260.4051
 492  372.0383
 493  363.3536
 494  316.1736
 495  317.6473
 496  250.5
 497  210.7809
 498  353.7323
 499  436.6884
 500  377.8811
 501  305.5074
 502  415.7462
 503  291.2668
 504  349.6644
 505  372.9718
 506  464.9183
 507  515.1899
 508  538.8188
 509  757.9364
 510  852.7544
 511  962.1766
