# Input file       =  1199566614.095435_cleaned.dat
# Candidate        =  PSR_0332+5434
# Telescope        =  AR
# Epoch_topo       =  58127.872639993460
# Epoch_bary       =  N/A
# T_sample         =  0.002
# Data Folded      =  7340032
# Data Avg         =  0.129003990744938
# Data StdDev      =  1.0006861894257  
# Profile Bins     =  512
# Profile Avg      =  1849.41061064287 
# Profile StdDev   =  119.815195920235 
# Reduced chi-sqr  =  0.466
# Prob(Noise)      <  1   (~0.0 sigma)
# P_topo (ms)      =  714.563223493675  +/- 5.5e-05
# P'_topo (s/s)    =  -0                +/- 2.9e-11
# P''_topo (s/s^2) =  0                 +/- 1.28e-14
# P_bary (ms)      =  N/A
# P'_bary (s/s)    =  N/A
# P''_bary (s/s^2) =  N/A
# P_orb (s)        =  N/A
# asin(i)/c (s)    =  N/A
# eccentricity     =  N/A
# w (rad)          =  N/A
# T_peri           =  N/A
######################################################
   0  2031.907
   1  2074.249
   2  1930.324
   3  1844.192
   4  1821.785
   5  1781.663
   6  1732.238
   7  1769.831
   8  1845.448
   9  1876.684
  10  1860.851
  11  1826.589
  12  1943.984
  13  1850.082
  14  1865.426
  15  1890.231
  16  1859.075
  17  1827.605
  18  1816.285
  19  1898.363
  20  1877.206
  21  1855.805
  22  1850.736
  23  1882.264
  24  1866.741
  25  1863.621
  26  1859.152
  27  1816.945
  28  1819.378
  29  1873.912
  30  1870.14
  31  1785.923
  32  1777.648
  33  1886.323
  34  1937.54
  35  1864.423
  36  1833.434
  37  1846.339
  38  1867.081
  39  1780.707
  40  1775.719
  41  1784.719
  42  1786.941
  43  1838.895
  44  1877.328
  45  1820.324
  46  1747.917
  47  1840.527
  48  1876.855
  49  1831.42
  50  1770.267
  51  1781.393
  52  1864.924
  53  1843.27
  54  1813.133
  55  1819.498
  56  1710.06
  57  1790.63
  58  1859.135
  59  1919.162
  60  1901.366
  61  1897.306
  62  1897.915
  63  1869.461
  64  1857.247
  65  1765.843
  66  1774.212
  67  1769.279
  68  1823.774
  69  1777.803
  70  1874.834
  71  1895.039
  72  1853.659
  73  1875.272
  74  1824.384
  75  1848.986
  76  1871.561
  77  1921.458
  78  1861.535
  79  1822.026
  80  1888.814
  81  1890.401
  82  1795.159
  83  1835.853
  84  1829.047
  85  1832.281
  86  1933.968
  87  1911.968
  88  1933.742
  89  1877.726
  90  1797.421
  91  1791.675
  92  1833.181
  93  1811.34
  94  1774.93
  95  1832.546
  96  1800.059
  97  1792.359
  98  1860.927
  99  1809.552
 100  1852.693
 101  1770.496
 102  1881.334
 103  1849.715
 104  1828.659
 105  1901.279
 106  1836.302
 107  1789.696
 108  1746.103
 109  1780.026
 110  1759.288
 111  1763.411
 112  1857.395
 113  1835.866
 114  1837.502
 115  1890.971
 116  1883.734
 117  1877.745
 118  1838.447
 119  1972.425
 120  1955.624
 121  1870.543
 122  1788.485
 123  1887.172
 124  1904.394
 125  1848.168
 126  1829.942
 127  1836.216
 128  1859.057
 129  1948.322
 130  1933.484
 131  1944.964
 132  1860.472
 133  1890.634
 134  1855.827
 135  1810.814
 136  1761.901
 137  1764.902
 138  1799.703
 139  1858.926
 140  1879.555
 141  1854.77
 142  1842.114
 143  1929.243
 144  1947.355
 145  1882.072
 146  1802.794
 147  1880.15
 148  1879.231
 149  1902.241
 150  1855.847
 151  1942.025
 152  1947.862
 153  1956.692
 154  1940.807
 155  1859.902
 156  1801.207
 157  1843.326
 158  1879.047
 159  1877.302
 160  1838.1
 161  1826.493
 162  1841.369
 163  1799.256
 164  1760.191
 165  1806.602
 166  1862.388
 167  1858.714
 168  1851.075
 169  1841.958
 170  1852.979
 171  1809.486
 172  1896.668
 173  1922.002
 174  1830.328
 175  1830.276
 176  1958.693
 177  1899.928
 178  1826.769
 179  1796.313
 180  1846.513
 181  1867.674
 182  1925.713
 183  1934.945
 184  1957.316
 185  1839.715
 186  1903.777
 187  1919.75
 188  1875.47
 189  1816.029
 190  1833.907
 191  1879.344
 192  1834.911
 193  1751.57
 194  1841.742
 195  1925.696
 196  2016.411
 197  1973.897
 198  1906.466
 199  1852.28
 200  1916.567
 201  1934.04
 202  1993.89
 203  1947.858
 204  1911.881
 205  1921.953
 206  1845.582
 207  1863.115
 208  1823.692
 209  1779.957
 210  1849.75
 211  1863.828
 212  1920.6
 213  1940.383
 214  1881.579
 215  1913.147
 216  1929.477
 217  1862.111
 218  1834.942
 219  1854.577
 220  1942.146
 221  1867.921
 222  1801.652
 223  1794.188
 224  1903.095
 225  1880.668
 226  1820.849
 227  1843.803
 228  1753.918
 229  1813.445
 230  1860.267
 231  1914.499
 232  1872.705
 233  1869.688
 234  1913.089
 235  1890.066
 236  1850.098
 237  1812.157
 238  1902.03
 239  1832.794
 240  1784.819
 241  1898.672
 242  1859.046
 243  1821.439
 244  1818.727
 245  1821.968
 246  1792.837
 247  1777.15
 248  1869.844
 249  1883.334
 250  1881.8
 251  1841.637
 252  1916.212
 253  1921.505
 254  1792.288
 255  1861.929
 256  1897.45
 257  1820.64
 258  1902.968
 259  1978.204
 260  1921.93
 261  1813.057
 262  1863.95
 263  1965.576
 264  1965.502
 265  1835.531
 266  1784.74
 267  1796.02
 268  1907.787
 269  1821.372
 270  1827.604
 271  1867.555
 272  1890.978
 273  1888.42
 274  1901.344
 275  1846.645
 276  1882.522
 277  1927.355
 278  1909.873
 279  1901.259
 280  1930.1
 281  1909.593
 282  1922.098
 283  1908.156
 284  1926.611
 285  1915.337
 286  1916.303
 287  1938.139
 288  1938.042
 289  1846.938
 290  1818.37
 291  1844.303
 292  1853.638
 293  1748.307
 294  1744.018
 295  1829.335
 296  1856.544
 297  1858.196
 298  1809.007
 299  1786.143
 300  1765.062
 301  1864.28
 302  1879.962
 303  1835.529
 304  1743.644
 305  1775.335
 306  1840.504
 307  1823.986
 308  1676.153
 309  1650.151
 310  1799.992
 311  1899.782
 312  1834.973
 313  1852.502
 314  1815.504
 315  1818.208
 316  1885.123
 317  1924.01
 318  1827.836
 319  1819.523
 320  1899.938
 321  1926.868
 322  1886.35
 323  1891.935
 324  1881.857
 325  1818.124
 326  1779.251
 327  1853.831
 328  1942.34
 329  1912.149
 330  1862.282
 331  1818.74
 332  1837.516
 333  1804.063
 334  1779.586
 335  1827.912
 336  1844.77
 337  1887.412
 338  1815.926
 339  1749.3
 340  1796.494
 341  1781.545
 342  1856.208
 343  1787.656
 344  1775.209
 345  1820.61
 346  1850.812
 347  1841.531
 348  1792.045
 349  1893.512
 350  1787.987
 351  1754.835
 352  1832.563
 353  1904.515
 354  1880.143
 355  1846.658
 356  1841.592
 357  1724.409
 358  1775.964
 359  1862.516
 360  1819.522
 361  1702.558
 362  1763.476
 363  1829.228
 364  1781.854
 365  1703.808
 366  1726.241
 367  1813.387
 368  1908.757
 369  1859.28
 370  1817.139
 371  1783.888
 372  1820.979
 373  1885.027
 374  1892.156
 375  1838.646
 376  1856.613
 377  1876.206
 378  1874.927
 379  1883.399
 380  1989.214
 381  1887.244
 382  1772.663
 383  1813.336
 384  1864.498
 385  1841.07
 386  1777.593
 387  1840.636
 388  1927.742
 389  1887.799
 390  1822.036
 391  1862.183
 392  1869.55
 393  1873.702
 394  1865.472
 395  1835.084
 396  1832.237
 397  1957.457
 398  1896.226
 399  1901.32
 400  1807.966
 401  1821.431
 402  1867.624
 403  1871.293
 404  1829.616
 405  1782.431
 406  1819.5
 407  1841.551
 408  1788.535
 409  1744.643
 410  1833.971
 411  1813.647
 412  1736.772
 413  1831.847
 414  1851.909
 415  1794.129
 416  1883.843
 417  1920.787
 418  1862.93
 419  1787.259
 420  1909.61
 421  1911.038
 422  1836.88
 423  1784.969
 424  1725.921
 425  1762.417
 426  1890.036
 427  1858.543
 428  1791.513
 429  1774.137
 430  1868.683
 431  1823.584
 432  1858.498
 433  1809.782
 434  1879.087
 435  1898.509
 436  1829.437
 437  1713.067
 438  1720.873
 439  1830.721
 440  1899.969
 441  1923.781
 442  1948.977
 443  1851.666
 444  1791.342
 445  1733.679
 446  1820.613
 447  1799.693
 448  1768.608
 449  1845.03
 450  1878.012
 451  1803.12
 452  1717.996
 453  1783.876
 454  1911.133
 455  1909.93
 456  1868.306
 457  1882.566
 458  1884.516
 459  1801.046
 460  1799.504
 461  1771.094
 462  1775.832
 463  1827.689
 464  1985.285
 465  1879.073
 466  1840.787
 467  1876.58
 468  1803.876
 469  1791.406
 470  1891.74
 471  1834.389
 472  1728.935
 473  1827.41
 474  1899.467
 475  1820.045
 476  1726.719
 477  1825.67
 478  1847.318
 479  1831.277
 480  1763.818
 481  1776.174
 482  1842.526
 483  1822.952
 484  1811.705
 485  1900.08
 486  1839.848
 487  1841.045
 488  1856.865
 489  1835.878
 490  1778.304
 491  1762.223
 492  1851.394
 493  1931.552
 494  1960.652
 495  1884.983
 496  1901.911
 497  1938.612
 498  1818.481
 499  1852.15
 500  1763.291
 501  1720.862
 502  1748.256
 503  1806.467
 504  1932.443
 505  1786.802
 506  1853.301
 507  1890.28
 508  1943.53
 509  1931.174
 510  1986.277
 511  1976.557
