# Input file       =  1199911133.099623_cleaned.dat
# Candidate        =  PSR_0332+5434
# Telescope        =  AR
# Epoch_topo       =  58131.860128467859
# Epoch_bary       =  N/A
# T_sample         =  0.002
# Data Folded      =  7340032
# Data Avg         =  0.148039466593468
# Data StdDev      =  1.00097667593988 
# Profile Bins     =  512
# Profile Avg      =  2122.28842513526 
# Profile StdDev   =  119.849976752604 
# Reduced chi-sqr  =  0.760
# Prob(Noise)      <  1   (~0.0 sigma)
# P_topo (ms)      =  714.566121362699  +/- 3.12e-05
# P'_topo (s/s)    =  -0                +/- 1.65e-11
# P''_topo (s/s^2) =  0                 +/- 7.27e-15
# P_bary (ms)      =  N/A
# P'_bary (s/s)    =  N/A
# P''_bary (s/s^2) =  N/A
# P_orb (s)        =  N/A
# asin(i)/c (s)    =  N/A
# eccentricity     =  N/A
# w (rad)          =  N/A
# T_peri           =  N/A
######################################################
   0  2430.626
   1  2405.781
   2  2169.785
   3  2167.224
   4  2155.196
   5  2194.938
   6  2203.212
   7  2032.884
   8  1965.369
   9  2018.061
  10  2079.413
  11  2098.534
  12  2109.073
  13  2073.862
  14  2100.688
  15  2267.392
  16  2281.602
  17  2089.494
  18  2067.483
  19  2157.726
  20  2191.225
  21  2056.444
  22  2013.789
  23  2033.25
  24  2145.986
  25  2194.204
  26  2106.643
  27  2071.608
  28  2101.112
  29  2212.576
  30  2169.429
  31  2040.897
  32  2083.424
  33  2171.209
  34  2113.938
  35  2072.338
  36  2055.026
  37  2136.419
  38  2172.354
  39  2209.25
  40  2266.699
  41  2230.755
  42  2122.898
  43  2171.921
  44  2102.636
  45  2085.681
  46  2052.074
  47  2091.643
  48  2055.027
  49  2134.668
  50  2126.31
  51  2102.926
  52  2128.965
  53  2062.247
  54  2082.877
  55  2090.32
  56  1975.171
  57  2040.567
  58  2218.067
  59  2103.996
  60  2035.613
  61  2100.904
  62  2175.658
  63  2123.011
  64  2058.474
  65  2118.763
  66  2053.721
  67  2234.011
  68  2290.402
  69  2049.702
  70  1984.631
  71  1998.621
  72  2138.552
  73  2097.668
  74  2023.194
  75  2049.521
  76  2081.086
  77  2237.301
  78  2186.446
  79  2116.577
  80  2221.127
  81  2142.555
  82  2200.409
  83  2122.636
  84  2073.516
  85  2076.491
  86  2102.907
  87  2134.392
  88  2128.971
  89  2075.686
  90  2095.212
  91  2132.678
  92  2081.268
  93  2074.847
  94  2047.932
  95  2194.099
  96  2282.219
  97  2290.774
  98  2246.874
  99  2073.334
 100  2125.026
 101  2323.234
 102  2262.895
 103  2136.362
 104  2172.358
 105  2204.046
 106  2135.698
 107  2134.981
 108  2139.119
 109  2149.95
 110  2167.875
 111  2152.404
 112  2109.669
 113  2046.026
 114  2114.035
 115  2112.524
 116  2120.535
 117  1896.233
 118  1977.72
 119  2167.012
 120  2202.091
 121  2144.025
 122  2155.863
 123  2162.211
 124  2122.28
 125  2256.412
 126  2246.635
 127  2145.397
 128  2198.096
 129  2163.739
 130  2052.372
 131  2023.95
 132  2071.9
 133  2111.408
 134  2136.461
 135  2049.512
 136  2012.257
 137  2050.47
 138  2108.823
 139  2123.753
 140  2199.234
 141  2157.631
 142  2138.042
 143  2134.146
 144  2251.881
 145  2240.459
 146  2113.177
 147  2055.081
 148  2122.067
 149  2089.58
 150  2028.688
 151  2021.95
 152  2014.844
 153  2102.597
 154  2117.829
 155  2192.296
 156  2166.264
 157  2047.596
 158  2121.354
 159  2063.48
 160  2028.007
 161  2054.851
 162  2057.802
 163  2114.948
 164  2079.855
 165  2031.069
 166  2030.061
 167  2043.094
 168  2010.768
 169  2075.022
 170  2043.391
 171  2025.784
 172  2087.293
 173  2095.808
 174  2132.79
 175  2111.697
 176  2173.666
 177  2194.393
 178  2150.625
 179  2069.01
 180  2079.415
 181  2170.858
 182  2213.83
 183  2261.895
 184  2207.774
 185  2082.143
 186  2095.74
 187  2040.036
 188  2167.315
 189  2015.633
 190  1916.446
 191  2055.972
 192  2148.012
 193  2181.829
 194  2052.381
 195  2095.568
 196  2183.218
 197  2065.238
 198  2021.283
 199  2045.662
 200  2085.855
 201  2160.237
 202  2131.061
 203  2113.162
 204  2112.732
 205  2049.091
 206  2129.112
 207  2045.857
 208  2064.928
 209  2095.995
 210  2137.881
 211  2267.778
 212  2168.008
 213  2060.245
 214  2024.183
 215  2039.816
 216  2148.771
 217  2131.011
 218  2116.254
 219  2037.882
 220  2113.073
 221  2203.422
 222  2220.542
 223  2136.829
 224  2153.897
 225  2198.813
 226  2239.925
 227  2221.569
 228  2106.574
 229  2047.625
 230  2088.993
 231  2130.01
 232  2103.004
 233  2083.103
 234  2130.681
 235  2115.919
 236  2080.845
 237  2086.161
 238  2086.691
 239  2226.722
 240  2153.789
 241  2129.043
 242  2044.179
 243  1968.178
 244  2088.106
 245  2138.826
 246  2106.398
 247  2032.574
 248  2043.896
 249  2133.028
 250  2204.708
 251  2115.635
 252  2089.221
 253  2120.275
 254  2160.462
 255  2036.61
 256  2082.916
 257  2161.891
 258  2138.172
 259  2051.078
 260  2108.357
 261  2106.74
 262  2102.985
 263  2109.789
 264  2126.707
 265  2173.831
 266  2114.689
 267  2167.26
 268  2105.411
 269  2182.131
 270  2217.686
 271  2165.531
 272  2214.842
 273  2172.498
 274  2136.23
 275  2056.169
 276  2071.823
 277  2114.67
 278  2122.825
 279  2118.881
 280  2081.99
 281  2063.529
 282  2005.208
 283  2141.832
 284  2179.356
 285  2030.243
 286  2013.569
 287  2110.618
 288  2114.389
 289  2084.125
 290  2154.065
 291  2256.881
 292  2251.586
 293  2140.19
 294  2133.642
 295  2128.127
 296  2059.684
 297  2082.645
 298  2102.037
 299  1918.433
 300  1941.828
 301  2128.042
 302  2175.473
 303  2135.6
 304  2069.699
 305  2092.978
 306  2165.312
 307  2109.397
 308  2120.373
 309  2075.711
 310  2114.488
 311  2164.878
 312  2139.635
 313  2159.992
 314  2011.601
 315  2013.861
 316  2158.045
 317  2055.331
 318  2060.794
 319  2099.944
 320  2145.832
 321  2184.261
 322  2103.896
 323  2153.393
 324  2178.567
 325  2178.475
 326  2235.417
 327  2213.375
 328  2170.581
 329  2166.999
 330  2195.557
 331  2211.917
 332  2185.037
 333  2100.047
 334  2114.189
 335  2161.733
 336  2184.849
 337  2075.612
 338  2055.412
 339  2026.022
 340  2060.119
 341  2038.085
 342  1974.324
 343  1994.993
 344  2058.529
 345  2096.454
 346  2021.157
 347  2066.554
 348  2075.252
 349  2208.96
 350  2239.216
 351  2092.324
 352  2050.523
 353  2073.077
 354  2166.269
 355  2255.204
 356  2164.419
 357  2047.835
 358  2106.732
 359  2131.14
 360  2115.144
 361  2089.216
 362  2079.913
 363  2224.732
 364  2218.109
 365  2107.862
 366  2043.337
 367  1982.041
 368  2087.549
 369  2192.067
 370  2126.665
 371  2120.563
 372  2134.573
 373  2188.358
 374  2131.035
 375  1968.08
 376  2041.45
 377  2140.284
 378  2162.052
 379  2169.546
 380  2146.068
 381  2000.205
 382  1979.522
 383  2110.449
 384  2052.363
 385  2144.881
 386  2122.636
 387  2210.057
 388  2210.939
 389  2182.582
 390  2015.458
 391  1968.864
 392  2102.743
 393  2200.094
 394  2119.118
 395  2075.48
 396  2067.887
 397  2182.437
 398  2203.301
 399  2020.607
 400  1954.939
 401  2041.88
 402  2172.038
 403  2123.034
 404  2015.677
 405  1979.577
 406  2057.143
 407  2255.941
 408  2188.294
 409  2103.737
 410  2085.042
 411  2055.861
 412  2140.984
 413  2177.633
 414  2102.346
 415  1994.705
 416  2121.694
 417  2153.45
 418  2066.729
 419  2052.124
 420  2083.074
 421  2142.922
 422  2165.826
 423  2135.479
 424  2039.787
 425  2123.062
 426  2240.636
 427  2225.152
 428  2077.788
 429  1969.635
 430  1960.009
 431  2076.553
 432  2200.417
 433  2239.758
 434  2200.483
 435  2061.188
 436  2156.626
 437  2278.979
 438  2172.963
 439  2051.627
 440  2157.155
 441  2180.831
 442  2039.818
 443  1951.05
 444  2059.188
 445  2134.593
 446  2118.5
 447  2067.399
 448  2099.47
 449  2049.247
 450  2146.015
 451  2270.799
 452  2233.809
 453  2195.719
 454  2144.058
 455  2169.652
 456  2167.638
 457  2065.547
 458  2048.682
 459  2182.385
 460  2185.028
 461  2114.946
 462  2046.802
 463  2056.549
 464  2126.281
 465  2134.351
 466  2085.263
 467  2113.807
 468  2184.111
 469  2259.301
 470  2192.764
 471  2165.737
 472  2062.31
 473  2185.809
 474  2122.249
 475  2079.55
 476  2117.105
 477  2160.771
 478  2223.088
 479  2256.708
 480  2274.767
 481  2065.214
 482  2121.832
 483  2201.49
 484  2233.004
 485  2192.61
 486  2168.317
 487  2183.941
 488  2200.557
 489  2151.8
 490  2172.647
 491  2100.239
 492  2141.423
 493  2219.992
 494  2231.552
 495  2212.981
 496  2159.555
 497  2139.626
 498  2132.565
 499  2094.084
 500  2070.886
 501  2055.979
 502  2187.177
 503  2171.903
 504  2144.216
 505  2113.845
 506  2154.183
 507  2205.363
 508  2312.839
 509  2368.879
 510  2378.036
 511  2332.821
