# Input file       =  1199652744.097252_cleaned.dat
# Candidate        =  PSR_0332+5434
# Telescope        =  AR
# Epoch_topo       =  58128.869515014492
# Epoch_bary       =  N/A
# T_sample         =  0.002
# Data Folded      =  7340032
# Data Avg         =  0.128903984850321
# Data StdDev      =  1.00063892104181 
# Profile Bins     =  512
# Profile Avg      =  1847.96309304349 
# Profile StdDev   =  119.809536333107 
# Reduced chi-sqr  =  0.672
# Prob(Noise)      <  1   (~0.0 sigma)
# P_topo (ms)      =  714.56396782151   +/- 3.42e-05
# P'_topo (s/s)    =  -0                +/- 1.81e-11
# P''_topo (s/s^2) =  0                 +/- 7.98e-15
# P_bary (ms)      =  N/A
# P'_bary (s/s)    =  N/A
# P''_bary (s/s^2) =  N/A
# P_orb (s)        =  N/A
# asin(i)/c (s)    =  N/A
# eccentricity     =  N/A
# w (rad)          =  N/A
# T_peri           =  N/A
######################################################
   0  2028.278
   1  2024.473
   2  1886.626
   3  1955.182
   4  1921.491
   5  1859.105
   6  1895.593
   7  1986.952
   8  1808.886
   9  1810.084
  10  1855.178
  11  1843.625
  12  1777.855
  13  1706.894
  14  1788.896
  15  1912.776
  16  1848.063
  17  1854.005
  18  1787.119
  19  1814.18
  20  1894.598
  21  2084.574
  22  1942.417
  23  1881.543
  24  1855.699
  25  1911.601
  26  1832.05
  27  1715.533
  28  1854.614
  29  1890.611
  30  1817.941
  31  1940.344
  32  1965.87
  33  1911.216
  34  1824.955
  35  1820.388
  36  1860.055
  37  1934.516
  38  1774.621
  39  1777.28
  40  1837.764
  41  1792.21
  42  1795.111
  43  1893.107
  44  1885.438
  45  1834.858
  46  1871.871
  47  1905.359
  48  1786.11
  49  1779.62
  50  1913.328
  51  1894.286
  52  1825.184
  53  1955.622
  54  1987.031
  55  1873.431
  56  1881.096
  57  1974.693
  58  1983.991
  59  1891.614
  60  1843.77
  61  1899.601
  62  1896.458
  63  1924.936
  64  2012.092
  65  1968.225
  66  1923.65
  67  1809.741
  68  1788.093
  69  1720.079
  70  1743.775
  71  1916.563
  72  2001.05
  73  1981.294
  74  1966.014
  75  1930.06
  76  1810.085
  77  1766.257
  78  1913.966
  79  2025.356
  80  1876.694
  81  1861.892
  82  1938.686
  83  1955.093
  84  1799.67
  85  1808.164
  86  2008.077
  87  1950.302
  88  1838.95
  89  1864.724
  90  2017.933
  91  1895.794
  92  1856.861
  93  1958.628
  94  1943.003
  95  1938.514
  96  1916.055
  97  1887.426
  98  1841.895
  99  1841.721
 100  1973.77
 101  1930.421
 102  1899.662
 103  1894.12
 104  1843.144
 105  1769.242
 106  1864.574
 107  1898.83
 108  1866.13
 109  1826.446
 110  1891.293
 111  1854.895
 112  1857.065
 113  1843.443
 114  1949.536
 115  1940.99
 116  1838.511
 117  1909.225
 118  1866.62
 119  1759.019
 120  1800.918
 121  1801.478
 122  1832.908
 123  1799.11
 124  1857.903
 125  1807.602
 126  1786.253
 127  1831.117
 128  1793.532
 129  1779.837
 130  1814.207
 131  1880.924
 132  1941.148
 133  1871.057
 134  1814.938
 135  1807.84
 136  1767.018
 137  1756.918
 138  1790.856
 139  1817.508
 140  1828.052
 141  1792.17
 142  1877.119
 143  1876.599
 144  1843.622
 145  1817.17
 146  1823.459
 147  1781.5
 148  1788.479
 149  1768.716
 150  1890.932
 151  1887.016
 152  1817.641
 153  1826.773
 154  1836.736
 155  1811.771
 156  1803.172
 157  1786.624
 158  1880.811
 159  1828.132
 160  1872.777
 161  1959.566
 162  1853.039
 163  1813.275
 164  1822.236
 165  1831.647
 166  1769.803
 167  1831.909
 168  1920.988
 169  1894.671
 170  1871.875
 171  1887.315
 172  1872.881
 173  1846.44
 174  1879.162
 175  1935.647
 176  1804.467
 177  1837.208
 178  1832.004
 179  1982.003
 180  1818.764
 181  1706.554
 182  1826.318
 183  1871.708
 184  1846.672
 185  1812.138
 186  1948.867
 187  1887.545
 188  1843.165
 189  1870.366
 190  1771.798
 191  1764.406
 192  1744.477
 193  1899.196
 194  1884.294
 195  1930.151
 196  1896.369
 197  1889.076
 198  1915.45
 199  1794.244
 200  1771.023
 201  1801.817
 202  1777.623
 203  1767.849
 204  1777.587
 205  1816.659
 206  1876.783
 207  1853.511
 208  1832.204
 209  1815
 210  1733.863
 211  1737.156
 212  1690.456
 213  1761.898
 214  1860.34
 215  1950.597
 216  1848.141
 217  1863.458
 218  1909.565
 219  1794.716
 220  1779.918
 221  1794.706
 222  1845.114
 223  1756.063
 224  1749.534
 225  1826.447
 226  1842.126
 227  1836.375
 228  1862.753
 229  1834.484
 230  1872.258
 231  1879.931
 232  1884.851
 233  1859.188
 234  1847.227
 235  1703.353
 236  1788.062
 237  1793.649
 238  1795.795
 239  1844.187
 240  1864.439
 241  1863.892
 242  1749.251
 243  1760.837
 244  1886.567
 245  1892.783
 246  1891.615
 247  1872.904
 248  1789.064
 249  1746.23
 250  1849.335
 251  1855.031
 252  1745.337
 253  1739.674
 254  1847.756
 255  1796.535
 256  1729.886
 257  1770.708
 258  1846.626
 259  1855.189
 260  1843.772
 261  1913.235
 262  1831.668
 263  1726.738
 264  1777.941
 265  1911.664
 266  1796.856
 267  1771.487
 268  1787.5
 269  1873.487
 270  1813.54
 271  1801.408
 272  1806.421
 273  1858.54
 274  1760.25
 275  1872.593
 276  1878.222
 277  1837.367
 278  1805.169
 279  1850.005
 280  1775.203
 281  1817.929
 282  1920.291
 283  1972.832
 284  1866.591
 285  1737.432
 286  1843.272
 287  1836.317
 288  1878.046
 289  1902.448
 290  1881.076
 291  1952.089
 292  1923.151
 293  1918.878
 294  1846.62
 295  1835.168
 296  1807.116
 297  1913.621
 298  1895.571
 299  1912.542
 300  1886.226
 301  2028.104
 302  2019.974
 303  1932.669
 304  1920.359
 305  1869.94
 306  1803.653
 307  1792.807
 308  1873.26
 309  1836.847
 310  1809.274
 311  1774.57
 312  1855.725
 313  1871.275
 314  1792.016
 315  1917.962
 316  1894.886
 317  1890.911
 318  1923.801
 319  1899.636
 320  1891.107
 321  1789.493
 322  1931.944
 323  1843.619
 324  1762.483
 325  1768.076
 326  1811.568
 327  1820.549
 328  1816.198
 329  1874.753
 330  1838.583
 331  1804.469
 332  1782.75
 333  1841.102
 334  1790.683
 335  1742.086
 336  1848.422
 337  1959.773
 338  1983.189
 339  1896.889
 340  1822.64
 341  1774.567
 342  1732.503
 343  1803.512
 344  1871.434
 345  1832.406
 346  1919.831
 347  2051.676
 348  1924.201
 349  1877.344
 350  1849.527
 351  1805.821
 352  1767.963
 353  1753.986
 354  1866.935
 355  1923.5
 356  1847.205
 357  1896.222
 358  1851.251
 359  1839.71
 360  1836.649
 361  1905.727
 362  1871.295
 363  1795.562
 364  1720.581
 365  1841.536
 366  1814.916
 367  1788.547
 368  1833.861
 369  1856.568
 370  1929.112
 371  2023.201
 372  2003.441
 373  1893.032
 374  1863.861
 375  1904.651
 376  1895.501
 377  1851.767
 378  1820.788
 379  1827.492
 380  1807.483
 381  1805.275
 382  1869.367
 383  1887.374
 384  1852.431
 385  1833.218
 386  1814.656
 387  1851.055
 388  1836.807
 389  1804.944
 390  1903.615
 391  1800.632
 392  1777.252
 393  1772.174
 394  1828.718
 395  1822.144
 396  1787.076
 397  1834.669
 398  1903.459
 399  1823.293
 400  1745.912
 401  1767.833
 402  1726.236
 403  1625.79
 404  1761.585
 405  1643.539
 406  1644.987
 407  1637.203
 408  1739.629
 409  1740.729
 410  1717.829
 411  1746.566
 412  1685.018
 413  1712.643
 414  1731.253
 415  1770.702
 416  1939.275
 417  1921.152
 418  1891.185
 419  1957.709
 420  1806.204
 421  1866.401
 422  1932.926
 423  1911.408
 424  1886.482
 425  1778.082
 426  1791.696
 427  1813.496
 428  1744.916
 429  1750.407
 430  1822.083
 431  1788.652
 432  1841.972
 433  1861.312
 434  1809.851
 435  1809.51
 436  1810.863
 437  1867.377
 438  1852.175
 439  1816.229
 440  1808.103
 441  1801.794
 442  1796.199
 443  1862.339
 444  1853.853
 445  1817.668
 446  1759.199
 447  1802.084
 448  1803.042
 449  1785.649
 450  1727.586
 451  1772.441
 452  1724.797
 453  1655.473
 454  1754.104
 455  1768.536
 456  1788.884
 457  1836.798
 458  1826.913
 459  1859.822
 460  1749.697
 461  1724.348
 462  1825.244
 463  1804.111
 464  1824.744
 465  1794.149
 466  1902.495
 467  1809.795
 468  1890.211
 469  1945.677
 470  1888.916
 471  1913.549
 472  1877.898
 473  1865.307
 474  1817.435
 475  1952.246
 476  1957.798
 477  1801.322
 478  1741.235
 479  1856.406
 480  1934.709
 481  1849.568
 482  1826.228
 483  1946.494
 484  1989.776
 485  1836.862
 486  1804.129
 487  1837.862
 488  1998.542
 489  1923.459
 490  1975.764
 491  1901.056
 492  1867.381
 493  1912.568
 494  1892.277
 495  1837.934
 496  1786.274
 497  1916.266
 498  1852.876
 499  1831.875
 500  1870.641
 501  1819.11
 502  1850.166
 503  1872.027
 504  1940.136
 505  1981.628
 506  1845.14
 507  1869.983
 508  1962.865
 509  1968.609
 510  1961.44
 511  1939.666
