# Input file       =  1199377074.114452_cleaned.dat
# Candidate        =  PSR_0332+5434
# Telescope        =  AR
# Epoch_topo       =  58125.678890213567
# Epoch_bary       =  N/A
# T_sample         =  0.002
# Data Folded      =  7340032
# Data Avg         =  0.185848948957965
# Data StdDev      =  1.00018412749931 
# Profile Bins     =  512
# Profile Avg      =  2664.30682563468 
# Profile StdDev   =  119.755082521339 
# Reduced chi-sqr  =  0.561
# Prob(Noise)      <  1   (~0.0 sigma)
# P_topo (ms)      =  714.561175990027  +/- 0.000607
# P'_topo (s/s)    =  -0                +/- 3.21e-10
# P''_topo (s/s^2) =  0                 +/- 1.42e-13
# P_bary (ms)      =  N/A
# P'_bary (s/s)    =  N/A
# P''_bary (s/s^2) =  N/A
# P_orb (s)        =  N/A
# asin(i)/c (s)    =  N/A
# eccentricity     =  N/A
# w (rad)          =  N/A
# T_peri           =  N/A
######################################################
   0  2797.808
   1  2745.361
   2  2753.852
   3  2700.229
   4  2719.038
   5  2715.642
   6  2749.963
   7  2740.302
   8  2734.375
   9  2581.819
  10  2588.67
  11  2585.273
  12  2613.979
  13  2683.932
  14  2733.256
  15  2708.402
  16  2707.926
  17  2629.574
  18  2662.349
  19  2602.218
  20  2598.189
  21  2619.583
  22  2773.366
  23  2678.476
  24  2707.257
  25  2711.034
  26  2665.342
  27  2633.606
  28  2642.3
  29  2621.578
  30  2580.56
  31  2589.215
  32  2630.135
  33  2689.386
  34  2712.631
  35  2707.855
  36  2603.837
  37  2604.309
  38  2639.887
  39  2672.66
  40  2720.454
  41  2619.505
  42  2592.326
  43  2652.54
  44  2681.255
  45  2672.172
  46  2678.195
  47  2639.116
  48  2663.84
  49  2705.808
  50  2623.393
  51  2674.309
  52  2679.869
  53  2691.093
  54  2729.129
  55  2766.813
  56  2797.142
  57  2748.348
  58  2649.11
  59  2732.924
  60  2667.18
  61  2643.232
  62  2616.978
  63  2668.653
  64  2727.498
  65  2707.638
  66  2640.811
  67  2657.577
  68  2675.715
  69  2652.595
  70  2664.774
  71  2673.206
  72  2647.844
  73  2644.055
  74  2618.253
  75  2553.729
  76  2551.722
  77  2663.983
  78  2766.173
  79  2700.766
  80  2635.392
  81  2622.298
  82  2662.634
  83  2715.505
  84  2672.579
  85  2642.624
  86  2576.094
  87  2642.33
  88  2560.172
  89  2609.902
  90  2643.376
  91  2602.057
  92  2612.819
  93  2610.187
  94  2645.284
  95  2613.703
  96  2682.802
  97  2574.642
  98  2572.316
  99  2565.43
 100  2613.118
 101  2587.319
 102  2629.748
 103  2655.76
 104  2690.288
 105  2739.679
 106  2686.891
 107  2590.183
 108  2577.817
 109  2649.569
 110  2751.531
 111  2693.56
 112  2688.406
 113  2600.448
 114  2598.711
 115  2576.485
 116  2589.055
 117  2670.413
 118  2611.064
 119  2653.822
 120  2638.401
 121  2758.84
 122  2673.853
 123  2657.869
 124  2640.507
 125  2622.048
 126  2604.261
 127  2720.16
 128  2701.386
 129  2665.717
 130  2641.25
 131  2679.244
 132  2664.863
 133  2629.422
 134  2553.712
 135  2674.242
 136  2671.978
 137  2594.444
 138  2609.015
 139  2708.154
 140  2598.589
 141  2609.146
 142  2569.656
 143  2625.817
 144  2658.924
 145  2623.577
 146  2620.145
 147  2611.268
 148  2616.902
 149  2749.47
 150  2630.1
 151  2586.893
 152  2587.924
 153  2638.049
 154  2542.992
 155  2598.269
 156  2650.645
 157  2663.186
 158  2693.385
 159  2703.086
 160  2703.504
 161  2595.773
 162  2635.274
 163  2757.978
 164  2762.28
 165  2712.627
 166  2724.999
 167  2734.821
 168  2694.984
 169  2713.367
 170  2651.489
 171  2724.326
 172  2766.281
 173  2715.831
 174  2702.184
 175  2656.049
 176  2608.471
 177  2712.887
 178  2877.416
 179  2855.646
 180  2841.486
 181  2769.375
 182  2743.168
 183  2679.315
 184  2766.697
 185  2815.573
 186  2750.102
 187  2820.538
 188  2753.79
 189  2712.319
 190  2680.546
 191  2559.961
 192  2688.304
 193  2702.938
 194  2785.421
 195  2751.058
 196  2753.021
 197  2700.294
 198  2725.038
 199  2729.078
 200  2656.01
 201  2541.337
 202  2665.3
 203  2701.243
 204  2648.603
 205  2636.083
 206  2620.222
 207  2722.334
 208  2757.221
 209  2737.941
 210  2788.634
 211  2788.677
 212  2692.176
 213  2683.626
 214  2696.27
 215  2706.147
 216  2659.263
 217  2736.185
 218  2696.669
 219  2714.741
 220  2755.968
 221  2742.419
 222  2713.972
 223  2682.085
 224  2683.665
 225  2811.735
 226  2798.588
 227  2769.466
 228  2628.584
 229  2657.774
 230  2754.671
 231  2759.707
 232  2731.519
 233  2725.244
 234  2696.597
 235  2664.313
 236  2681.712
 237  2743.979
 238  2701.986
 239  2612.39
 240  2693.649
 241  2781.898
 242  2658.535
 243  2602.788
 244  2591.369
 245  2597.252
 246  2682.878
 247  2714.208
 248  2718.039
 249  2651.782
 250  2667.88
 251  2594.26
 252  2625.355
 253  2601.687
 254  2591.224
 255  2620.841
 256  2618.771
 257  2602.969
 258  2706.916
 259  2759.218
 260  2826.864
 261  2701.218
 262  2680.018
 263  2738.912
 264  2695.961
 265  2662.162
 266  2724.466
 267  2763.039
 268  2748.299
 269  2653.25
 270  2653.345
 271  2701.351
 272  2665.756
 273  2579.377
 274  2636.6
 275  2633.16
 276  2584.802
 277  2615.796
 278  2714.956
 279  2693.181
 280  2666.847
 281  2688.256
 282  2774.579
 283  2733.982
 284  2689.85
 285  2677.733
 286  2740.18
 287  2707.826
 288  2708.354
 289  2761.901
 290  2751.743
 291  2712.034
 292  2689.425
 293  2699.014
 294  2656.871
 295  2672.152
 296  2683.5
 297  2588.697
 298  2593.727
 299  2614.164
 300  2694.797
 301  2681.722
 302  2755.235
 303  2609.931
 304  2526.418
 305  2544.684
 306  2634.617
 307  2640.638
 308  2625.385
 309  2586.556
 310  2547.213
 311  2620.735
 312  2686.22
 313  2662.854
 314  2645.175
 315  2660.403
 316  2694.584
 317  2662.786
 318  2620.188
 319  2715.179
 320  2645.715
 321  2657.9
 322  2556.593
 323  2644.505
 324  2545.573
 325  2588.229
 326  2672.807
 327  2691.8
 328  2730.32
 329  2714.423
 330  2703.387
 331  2654.179
 332  2619.444
 333  2725.571
 334  2718.705
 335  2635.796
 336  2691.549
 337  2642.003
 338  2646.496
 339  2603.348
 340  2675.055
 341  2638.161
 342  2719.517
 343  2688.326
 344  2529.491
 345  2546.676
 346  2656.479
 347  2626.994
 348  2567.384
 349  2659.685
 350  2643.41
 351  2628.089
 352  2512.33
 353  2511.659
 354  2565.624
 355  2671.021
 356  2683.904
 357  2711.109
 358  2590.917
 359  2597.91
 360  2636.701
 361  2710.99
 362  2786.685
 363  2739.413
 364  2658.728
 365  2579.485
 366  2589.861
 367  2557.54
 368  2680.583
 369  2724.041
 370  2761.637
 371  2740.961
 372  2622.7
 373  2539.959
 374  2603.244
 375  2699.49
 376  2702.616
 377  2673.791
 378  2609.784
 379  2532.223
 380  2522.952
 381  2627.48
 382  2620.941
 383  2604.273
 384  2639.803
 385  2696.015
 386  2595.04
 387  2574.312
 388  2666.457
 389  2764.209
 390  2797.402
 391  2723.268
 392  2685.656
 393  2670.089
 394  2660.643
 395  2712.898
 396  2695.077
 397  2749.608
 398  2740.418
 399  2666.781
 400  2617.689
 401  2624.752
 402  2595.609
 403  2608.489
 404  2696.265
 405  2793.257
 406  2717.423
 407  2744.829
 408  2696.274
 409  2676.572
 410  2617.589
 411  2676.057
 412  2611.769
 413  2651.02
 414  2590.502
 415  2596.006
 416  2575.883
 417  2600.618
 418  2625.335
 419  2665.783
 420  2701.343
 421  2696.386
 422  2617.644
 423  2559.016
 424  2551.87
 425  2527.552
 426  2558.136
 427  2498.194
 428  2538.246
 429  2603.382
 430  2592.306
 431  2594.306
 432  2675.864
 433  2611.465
 434  2661.327
 435  2767.187
 436  2712.237
 437  2643.01
 438  2686.795
 439  2738.393
 440  2662.048
 441  2755.986
 442  2719.17
 443  2597.491
 444  2600.923
 445  2683.817
 446  2637.732
 447  2599.431
 448  2654.41
 449  2760.846
 450  2867.388
 451  2712.84
 452  2641.418
 453  2636.605
 454  2640.226
 455  2657.858
 456  2672.316
 457  2809.539
 458  2694.998
 459  2609.269
 460  2678.353
 461  2677.868
 462  2653.198
 463  2685.129
 464  2662.423
 465  2636.245
 466  2652.045
 467  2657.294
 468  2693.627
 469  2664.935
 470  2698.705
 471  2751.222
 472  2627.479
 473  2569.951
 474  2582.51
 475  2636.177
 476  2605.377
 477  2555.355
 478  2574.335
 479  2592.335
 480  2600.475
 481  2685.838
 482  2664.36
 483  2629.058
 484  2548.927
 485  2552.139
 486  2584.8
 487  2605.458
 488  2637.866
 489  2593.358
 490  2651.793
 491  2692.472
 492  2609.148
 493  2615.158
 494  2584.728
 495  2616.985
 496  2657.534
 497  2604.592
 498  2563.937
 499  2634.799
 500  2674.929
 501  2595.365
 502  2647.843
 503  2629.733
 504  2717.481
 505  2679.955
 506  2754.681
 507  2709.601
 508  2701.856
 509  2734.616
 510  2779.22
 511  2827.548
