# Input file       =  1199810099.108133_cleaned.dat
# Candidate        =  PSR_0332+5434
# Telescope        =  AR
# Epoch_topo       =  58130.690753566356
# Epoch_bary       =  N/A
# T_sample         =  0.002
# Data Folded      =  7340032
# Data Avg         =  0.117179072778332
# Data StdDev      =  1.00023187653878 
# Profile Bins     =  512
# Profile Avg      =  1679.91465761507 
# Profile StdDev   =  119.760799658819 
# Reduced chi-sqr  =  0.901
# Prob(Noise)      <  0.947   (~0.0 sigma)
# P_topo (ms)      =  714.564958121491  +/- 3.84e-05
# P'_topo (s/s)    =  -0                +/- 2.03e-11
# P''_topo (s/s^2) =  0                 +/- 8.95e-15
# P_bary (ms)      =  N/A
# P'_bary (s/s)    =  N/A
# P''_bary (s/s^2) =  N/A
# P_orb (s)        =  N/A
# asin(i)/c (s)    =  N/A
# eccentricity     =  N/A
# w (rad)          =  N/A
# T_peri           =  N/A
######################################################
   0  2141.219
   1  2082.836
   2  1978.636
   3  1917.63
   4  1879.374
   5  1733.461
   6  1671.375
   7  1610.668
   8  1683.292
   9  1641.434
  10  1736.464
  11  1772.451
  12  1696.191
  13  1745.502
  14  1765.106
  15  1683.484
  16  1630.437
  17  1714.403
  18  1630.187
  19  1599.591
  20  1533.831
  21  1647.375
  22  1679.057
  23  1685.463
  24  1703.368
  25  1784.556
  26  1686.02
  27  1568.663
  28  1618.765
  29  1614.198
  30  1519.275
  31  1522.291
  32  1541.509
  33  1575.97
  34  1483.411
  35  1776.828
  36  1764.493
  37  1612.219
  38  1599.018
  39  1773.967
  40  1688.259
  41  1616.617
  42  1719.482
  43  1760.297
  44  1703.518
  45  1699.225
  46  1613.704
  47  1560.167
  48  1539.866
  49  1559.052
  50  1617.896
  51  1595.215
  52  1626.47
  53  1650.513
  54  1590.402
  55  1556.67
  56  1558.399
  57  1595.608
  58  1599.947
  59  1630.126
  60  1733.684
  61  1651.319
  62  1639.75
  63  1653.677
  64  1819.551
  65  1804.67
  66  1660.414
  67  1609.575
  68  1662.584
  69  1671.292
  70  1572.902
  71  1566.443
  72  1610.772
  73  1560.65
  74  1718.439
  75  1775.585
  76  1628.345
  77  1581.987
  78  1654.994
  79  1690.306
  80  1627.606
  81  1641.103
  82  1726.715
  83  1796.392
  84  1839.481
  85  1839.026
  86  1801.465
  87  1686.33
  88  1796.942
  89  1839.963
  90  1815.175
  91  1789.486
  92  1726.515
  93  1738.952
  94  1654.014
  95  1605.988
  96  1717.433
  97  1675.653
  98  1687.703
  99  1619.455
 100  1656.447
 101  1736.038
 102  1669.386
 103  1685.54
 104  1643.486
 105  1562.123
 106  1590.587
 107  1701.808
 108  1601.629
 109  1554.344
 110  1585.197
 111  1520.131
 112  1510.275
 113  1603.279
 114  1630.723
 115  1566.787
 116  1640.007
 117  1739.455
 118  1639.821
 119  1551.044
 120  1581.67
 121  1637.435
 122  1791.628
 123  1715.99
 124  1589.427
 125  1633.989
 126  1642.424
 127  1635.642
 128  1636.449
 129  1726.358
 130  1662.074
 131  1694.857
 132  1702.18
 133  1689.486
 134  1653.072
 135  1654.333
 136  1771.733
 137  1795.764
 138  1748.887
 139  1632.769
 140  1662.09
 141  1571.028
 142  1583.915
 143  1679.267
 144  1724.391
 145  1726.27
 146  1781.665
 147  1736.359
 148  1676.408
 149  1678.318
 150  1688.983
 151  1541.666
 152  1455.327
 153  1493.4
 154  1634.985
 155  1719.727
 156  1787.466
 157  1620.077
 158  1575.368
 159  1578.921
 160  1592.918
 161  1624.854
 162  1665.873
 163  1691.214
 164  1695.289
 165  1744.469
 166  1570.827
 167  1603.464
 168  1676.037
 169  1480.663
 170  1615.62
 171  1637.643
 172  1720.074
 173  1614.933
 174  1677.769
 175  1733.242
 176  1671.567
 177  1555.833
 178  1612.235
 179  1623.046
 180  1611.102
 181  1618.078
 182  1688.235
 183  1718.981
 184  1627.953
 185  1695.226
 186  1742.702
 187  1681.541
 188  1731.976
 189  1709.043
 190  1668.012
 191  1631.656
 192  1668.761
 193  1723.311
 194  1721.186
 195  1606.886
 196  1654.379
 197  1684.208
 198  1662.376
 199  1580.293
 200  1639.808
 201  1692.238
 202  1676.265
 203  1745.836
 204  1674.48
 205  1662.263
 206  1680.332
 207  1682.065
 208  1723.39
 209  1696.945
 210  1651.812
 211  1535.98
 212  1625.276
 213  1666.646
 214  1783.836
 215  1727.039
 216  1583.18
 217  1643.8
 218  1729.816
 219  1738.323
 220  1609.643
 221  1769.363
 222  1920.161
 223  1834.761
 224  1743.825
 225  1674.485
 226  1538.126
 227  1639.249
 228  1822.954
 229  1779.275
 230  1725.171
 231  1706.008
 232  1754.931
 233  1650.37
 234  1596.763
 235  1674.026
 236  1730.288
 237  1802.961
 238  1670.431
 239  1694.041
 240  1714.687
 241  1703.511
 242  1760.962
 243  1742.723
 244  1672.897
 245  1600.749
 246  1597.617
 247  1702.066
 248  1654.052
 249  1674.781
 250  1659.37
 251  1559.863
 252  1562.471
 253  1526.417
 254  1664.501
 255  1712.969
 256  1648.695
 257  1824.517
 258  1759.334
 259  1588.171
 260  1535.265
 261  1724.417
 262  1649.997
 263  1646.633
 264  1747.597
 265  1763.852
 266  1657.353
 267  1654.794
 268  1610.3
 269  1603.127
 270  1594.944
 271  1652.607
 272  1615.487
 273  1697.788
 274  1739.061
 275  1761.196
 276  1687.148
 277  1610.563
 278  1646.507
 279  1686.672
 280  1626.203
 281  1683.475
 282  1842.941
 283  1783.972
 284  1689.262
 285  1683.935
 286  1695.874
 287  1648.471
 288  1653.335
 289  1857.044
 290  1799.869
 291  1805.739
 292  1704.598
 293  1712.44
 294  1662.173
 295  1654.65
 296  1684.187
 297  1780.04
 298  1697.118
 299  1601.345
 300  1663.313
 301  1702.295
 302  1696.962
 303  1765.782
 304  1766.775
 305  1719.692
 306  1606.448
 307  1733.254
 308  1787.868
 309  1717.889
 310  1706.999
 311  1686.035
 312  1715.164
 313  1769.215
 314  1790.09
 315  1704.45
 316  1603.213
 317  1642.206
 318  1800.899
 319  1811.56
 320  1650.191
 321  1701.607
 322  1803.759
 323  1744.401
 324  1699.07
 325  1766.848
 326  1715.788
 327  1619.86
 328  1682.022
 329  1655.165
 330  1648.663
 331  1652.712
 332  1729.737
 333  1791.513
 334  1689.064
 335  1688.514
 336  1739.02
 337  1701.811
 338  1649.696
 339  1769.345
 340  1750.048
 341  1570.185
 342  1655.854
 343  1726.236
 344  1715.278
 345  1682.621
 346  1648.09
 347  1710.542
 348  1748.161
 349  1686.337
 350  1701.737
 351  1703.054
 352  1662.612
 353  1716.047
 354  1726.952
 355  1781.521
 356  1671.74
 357  1774.179
 358  1696.99
 359  1677.861
 360  1751.469
 361  1730.847
 362  1620.869
 363  1620.424
 364  1729.824
 365  1789.718
 366  1694.766
 367  1697.064
 368  1692.274
 369  1665.403
 370  1652.31
 371  1633.491
 372  1693.785
 373  1680.925
 374  1542.579
 375  1525.924
 376  1594.542
 377  1664.496
 378  1648.298
 379  1704.693
 380  1707.508
 381  1663.466
 382  1613.597
 383  1563.534
 384  1676.84
 385  1632.807
 386  1731.75
 387  1778.691
 388  1553.785
 389  1539.85
 390  1622.591
 391  1761.047
 392  1667.725
 393  1602.342
 394  1672.661
 395  1677.685
 396  1643.674
 397  1660.108
 398  1735.448
 399  1755.109
 400  1785.082
 401  1733.685
 402  1691.457
 403  1683.334
 404  1710.433
 405  1745.735
 406  1700.108
 407  1669.206
 408  1766.069
 409  1696.196
 410  1616.276
 411  1739.151
 412  1767.029
 413  1734.233
 414  1656.596
 415  1648.167
 416  1636.188
 417  1655.558
 418  1725.407
 419  1674.019
 420  1613.256
 421  1607.376
 422  1689.022
 423  1608.679
 424  1567.885
 425  1565.802
 426  1649.22
 427  1710.575
 428  1721.314
 429  1682.386
 430  1608.145
 431  1586.885
 432  1686.511
 433  1827.037
 434  1742.397
 435  1687.801
 436  1775.717
 437  1881.634
 438  1817.939
 439  1726.903
 440  1744.563
 441  1810.373
 442  1755.832
 443  1697.622
 444  1614.399
 445  1524.599
 446  1627.15
 447  1681.119
 448  1685.502
 449  1573.673
 450  1614.061
 451  1716.66
 452  1759.083
 453  1664.244
 454  1697.163
 455  1710.123
 456  1639.369
 457  1646.649
 458  1673.718
 459  1612.186
 460  1761.175
 461  1819.537
 462  1697.694
 463  1666.665
 464  1592.198
 465  1629.521
 466  1633.201
 467  1606.764
 468  1635.688
 469  1720.955
 470  1669.245
 471  1690.619
 472  1669.854
 473  1730.663
 474  1699.031
 475  1683.649
 476  1725.772
 477  1707.756
 478  1581.572
 479  1615.011
 480  1574.934
 481  1516.361
 482  1648.565
 483  1707.124
 484  1733.079
 485  1660.042
 486  1713.865
 487  1744.196
 488  1667.886
 489  1649.84
 490  1616.725
 491  1560.619
 492  1618.667
 493  1689.215
 494  1713.654
 495  1722.58
 496  1780.569
 497  1677.117
 498  1514.657
 499  1555.413
 500  1652.221
 501  1712.97
 502  1605.23
 503  1553.43
 504  1669.418
 505  1717.552
 506  1660.66
 507  1747.866
 508  1811.599
 509  1801.627
 510  1952.133
 511  2012.906
