# Input file       =  1199881642.101681_cleaned.dat
# Candidate        =  PSR_0332+5434
# Telescope        =  AR
# Epoch_topo       =  58131.518797473160
# Epoch_bary       =  N/A
# T_sample         =  0.002
# Data Folded      =  7143424
# Data Avg         =  0.0151838315687156
# Data StdDev      =  1.0000271500648  
# Profile Bins     =  512
# Profile Avg      =  211.900472091207 
# Profile StdDev   =  118.12179140909  
# Reduced chi-sqr  =  1.891
# Prob(Noise)      <  1.95e-30   (~11.4 sigma)
# P_topo (ms)      =  714.565532171372  +/- 0.000124
# P'_topo (s/s)    =  -0                +/- 6.72e-11
# P''_topo (s/s^2) =  0                 +/- 3.05e-14
# P_bary (ms)      =  N/A
# P'_bary (s/s)    =  N/A
# P''_bary (s/s^2) =  N/A
# P_orb (s)        =  N/A
# asin(i)/c (s)    =  N/A
# eccentricity     =  N/A
# w (rad)          =  N/A
# T_peri           =  N/A
######################################################
   0  1059.761
   1  1047.899
   2  907.1604
   3  524.3712
   4  206.7142
   5  334.63
   6  380.0248
   7  272.3852
   8  343.6435
   9  242.6584
  10  207.045
  11  270.9275
  12  248.6013
  13  276.4187
  14  295.0806
  15  388.0911
  16  298.5704
  17  281.7424
  18  312.1721
  19  163.1206
  20  90.6509
  21  135.6373
  22  181.4787
  23  152.1409
  24  242.6842
  25  275.2385
  26  153.59
  27  57.78903
  28  142.1236
  29  190.8642
  30  184.6856
  31  302.7638
  32  356.3411
  33  315.5396
  34  94.92639
  35  115.4632
  36  83.82546
  37  120.1711
  38  153.481
  39  271.4166
  40  231.4738
  41  138.2464
  42  152.5235
  43  145.5274
  44  225.8649
  45  265.3845
  46  370.6393
  47  340.1949
  48  306.7227
  49  168.9464
  50  219.2891
  51  254.6898
  52  -10.14473
  53  -14.70136
  54  218.8362
  55  255.945
  56  291.5149
  57  204.675
  58  204.1448
  59  159.5898
  60  36.91433
  61  179.7277
  62  238.4577
  63  336.8829
  64  312.1685
  65  300.8062
  66  271.5845
  67  107.848
  68  182.0724
  69  236.2555
  70  252.9738
  71  174.7961
  72  164.9768
  73  184.1286
  74  251.4313
  75  289.4279
  76  254.1049
  77  100.4976
  78  62.59253
  79  181.9455
  80  235.9084
  81  142.5407
  82  112.9476
  83  201.6388
  84  230.4811
  85  54.51506
  86  69.02617
  87  118.047
  88  139.9252
  89  197.6321
  90  49.99091
  91  135.3857
  92  132.9501
  93  233.9283
  94  306.6058
  95  201.5818
  96  196.9526
  97  374.3158
  98  188.8456
  99  107.7318
 100  185.1302
 101  116.7941
 102  272.8507
 103  296.2086
 104  210.3384
 105  72.29029
 106  51.59554
 107  110.0429
 108  61.18202
 109  -42.05619
 110  113.4432
 111  113.0091
 112  123.6567
 113  222.8759
 114  311.7125
 115  239.0506
 116  151.0475
 117  227.7719
 118  270.33
 119  127.0515
 120  184.5487
 121  317.8386
 122  317.4178
 123  297.6601
 124  206.9026
 125  62.8998
 126  156.2119
 127  226.579
 128  204.6511
 129  172.4958
 130  246.4058
 131  223.7568
 132  261.8875
 133  184.023
 134  82.99287
 135  149.3404
 136  101.7707
 137  178.2643
 138  155.8995
 139  224.6201
 140  169.8413
 141  90.56771
 142  101.3577
 143  271.418
 144  163.254
 145  23.71392
 146  77.67326
 147  125.1373
 148  318.2734
 149  90.18915
 150  74.92531
 151  98.51661
 152  150.0184
 153  278.4543
 154  280.3611
 155  165.7272
 156  130.387
 157  172.5496
 158  112.7259
 159  66.17363
 160  55.09025
 161  163.0511
 162  158.1158
 163  188.8432
 164  88.20004
 165  222.907
 166  130.1454
 167  229.8909
 168  184.12
 169  122.7688
 170  160.3633
 171  98.1334
 172  146.8019
 173  244.8143
 174  176.3612
 175  35.7832
 176  32.06113
 177  196.4227
 178  163.2577
 179  53.3398
 180  242.1513
 181  367.849
 182  213.7961
 183  270.8415
 184  235.3736
 185  262.1492
 186  143.13
 187  206.5503
 188  234.3272
 189  201.6131
 190  158.8391
 191  148.6442
 192  118.8186
 193  227.4157
 194  179.3574
 195  210.5258
 196  227.4559
 197  326.3387
 198  310.5589
 199  263.9619
 200  250.6135
 201  212.0521
 202  228.708
 203  243.4553
 204  191.5804
 205  236.7822
 206  217.2228
 207  290.295
 208  183.7107
 209  285.2256
 210  243.1164
 211  247.3311
 212  234.7894
 213  358.9322
 214  355.8007
 215  281.3012
 216  100.3595
 217  235.4279
 218  245.6755
 219  201.1004
 220  184.6811
 221  276.7487
 222  356.1761
 223  406.8427
 224  265.4539
 225  186.8922
 226  181.6353
 227  329.8608
 228  196.3457
 229  234.4178
 230  390.2282
 231  310.5744
 232  170.2055
 233  128.6738
 234  161.6832
 235  265.6846
 236  189.382
 237  41.10671
 238  99.70151
 239  96.19312
 240  123.5387
 241  109.5143
 242  100.3698
 243  130.3824
 244  124.8593
 245  114.9355
 246  83.14332
 247  17.32976
 248  103.4278
 249  126.555
 250  245.4462
 251  221.6585
 252  89.99418
 253  62.11683
 254  174.5522
 255  351.152
 256  173.0093
 257  113.3644
 258  108.7473
 259  41.4769
 260  169.896
 261  295.2443
 262  393.5912
 263  339.8731
 264  249.6161
 265  170.2713
 266  139.8172
 267  117.5635
 268  134.7104
 269  132.9931
 270  258.2308
 271  242.6235
 272  279.0008
 273  352.665
 274  323.8817
 275  232.0019
 276  263.7987
 277  276.279
 278  166.6028
 279  179.0778
 280  237.8669
 281  228.152
 282  210.3795
 283  243.6137
 284  283.255
 285  223.4912
 286  115.0923
 287  164.5643
 288  94.80704
 289  91.29408
 290  51.00736
 291  158.039
 292  196.3916
 293  307.0209
 294  217.6911
 295  273.0639
 296  322.0417
 297  293.8091
 298  171.0264
 299  164.6718
 300  109.8605
 301  168.1815
 302  145.2747
 303  241.0706
 304  179.721
 305  134.216
 306  50.06312
 307  -52.19416
 308  47.75686
 309  251.9326
 310  224.4275
 311  139.0581
 312  322.7409
 313  405.7507
 314  372.6421
 315  369.3006
 316  315.5634
 317  316.9271
 318  322.3463
 319  299.9857
 320  369.6393
 321  383.3812
 322  170.5582
 323  122.6868
 324  199.9994
 325  328.01
 326  304.8064
 327  211.3965
 328  197.5789
 329  303.9634
 330  252.8235
 331  178.1815
 332  261.2439
 333  227.2516
 334  201.8987
 335  68.82742
 336  154.1384
 337  167.0773
 338  235.6327
 339  148.272
 340  51.25038
 341  181.5414
 342  132.6485
 343  124.9931
 344  172.6683
 345  115.8617
 346  249.6001
 347  147.9494
 348  184.4199
 349  81.18397
 350  138.1626
 351  100.5908
 352  147.5424
 353  223.5571
 354  321.6198
 355  262.6545
 356  161.89
 357  245.426
 358  147.4567
 359  97.97038
 360  104.5805
 361  72.42785
 362  158.1357
 363  341.9877
 364  226.3072
 365  223.4862
 366  249.9344
 367  298.9584
 368  228.5162
 369  143.2964
 370  260.7405
 371  249.4257
 372  179.979
 373  137.9757
 374  231.2616
 375  306.3091
 376  202.9904
 377  227.3429
 378  269.3164
 379  280.0774
 380  297.7571
 381  316.8355
 382  234.6921
 383  202.1386
 384  363.6234
 385  349.5599
 386  240.9565
 387  260.0763
 388  266.4738
 389  71.51012
 390  198.158
 391  309.0323
 392  302.3889
 393  402.8981
 394  375.3611
 395  280.232
 396  172.4826
 397  259.7396
 398  300.4377
 399  199.462
 400  186.5896
 401  348.1143
 402  291.5782
 403  153.3896
 404  206.6115
 405  167.024
 406  185.4267
 407  188.1227
 408  226.0334
 409  169.0828
 410  212.7737
 411  157.6876
 412  321.6049
 413  375.2563
 414  279.5814
 415  223.5766
 416  129.598
 417  131.3483
 418  63.96334
 419  70.77902
 420  298.8288
 421  333.7867
 422  147.9452
 423  160.2395
 424  186.5408
 425  168.3319
 426  196.5396
 427  211.2656
 428  368.6241
 429  271.8053
 430  211.0574
 431  50.13795
 432  -7.457687
 433  169.6164
 434  263.9303
 435  211.7057
 436  68.42516
 437  234.6863
 438  232.6994
 439  90.18527
 440  101.8165
 441  218.1042
 442  313.9573
 443  192.3332
 444  293.9386
 445  350.9203
 446  289.6449
 447  220.0569
 448  219.4269
 449  204.0896
 450  93.81494
 451  164.4506
 452  88.96917
 453  192.5529
 454  204.5679
 455  134.9231
 456  118.0921
 457  46.21412
 458  68.85937
 459  171.3306
 460  150.777
 461  289.2703
 462  235.8896
 463  369.9975
 464  285.0498
 465  300.0908
 466  235.8167
 467  153.5491
 468  225.956
 469  333.8703
 470  134.1235
 471  165.8446
 472  227.1378
 473  133.3055
 474  110.4727
 475  120.4181
 476  251.9759
 477  241.4226
 478  352.5762
 479  257.5327
 480  60.5058
 481  217.0518
 482  62.27597
 483  13.47046
 484  63.78993
 485  6.24163
 486  132.806
 487  260.4856
 488  152.1386
 489  139.2501
 490  194.7067
 491  226.4869
 492  207.7547
 493  192.0841
 494  317.7022
 495  272.183
 496  192.9351
 497  342.7761
 498  331.5216
 499  282.5404
 500  242.8721
 501  264.0826
 502  361.468
 503  361.9958
 504  399.222
 505  263.5875
 506  303.1804
 507  280.2534
 508  261.6574
 509  479.6039
 510  798.6337
 511  1039.542
