# Input file       =  1199709341.112284_cleaned.dat
# Candidate        =  PSR_0332+5434
# Telescope        =  AR
# Epoch_topo       =  58129.524573058843
# Epoch_bary       =  N/A
# T_sample         =  0.002
# Data Folded      =  7208960
# Data Avg         =  0.0168452755392681
# Data StdDev      =  1.00024223867798 
# Profile Bins     =  512
# Profile Avg      =  237.204189237305 
# Profile StdDev   =  118.687919635405 
# Reduced chi-sqr  =  1.502
# Prob(Noise)      <  1.31e-12   (~7.0 sigma)
# P_topo (ms)      =  714.564097919073  +/- 0.000184
# P'_topo (s/s)    =  -0                +/- 9.9e-11
# P''_topo (s/s^2) =  0                 +/- 4.45e-14
# P_bary (ms)      =  N/A
# P'_bary (s/s)    =  N/A
# P''_bary (s/s^2) =  N/A
# P_orb (s)        =  N/A
# asin(i)/c (s)    =  N/A
# eccentricity     =  N/A
# w (rad)          =  N/A
# T_peri           =  N/A
######################################################
   0  1058.051
   1  891.6437
   2  642.5096
   3  425.3235
   4  314.5477
   5  203.3197
   6  291.7734
   7  291.5947
   8  218.3433
   9  393.8192
  10  339.8601
  11  131.7721
  12  228.9369
  13  164.2849
  14  155.1375
  15  255.3514
  16  204.7233
  17  199.8535
  18  250.2876
  19  342.3007
  20  361.201
  21  300.5437
  22  193.7416
  23  142.6336
  24  269.5469
  25  224.2844
  26  180.1472
  27  238.3008
  28  319.162
  29  260.8008
  30  239.4478
  31  290.0017
  32  368.6671
  33  202.3345
  34  69.33453
  35  87.29414
  36  275.0041
  37  206.7639
  38  171.4851
  39  248.0064
  40  231.6602
  41  222.9005
  42  294.4326
  43  372.5686
  44  309.2436
  45  298.1228
  46  229.4189
  47  241.6876
  48  331.9578
  49  246.134
  50  234.4471
  51  229.7602
  52  241.1125
  53  138.4383
  54  46.3016
  55  154.075
  56  136.9887
  57  191.7104
  58  209.8804
  59  111.8718
  60  264.5119
  61  278.7411
  62  341.4692
  63  351.8744
  64  159.5403
  65  57.99722
  66  139.5027
  67  246.948
  68  208.9858
  69  264.4158
  70  330.3739
  71  331.0663
  72  211.457
  73  158.2598
  74  298.9973
  75  314.0696
  76  170.6108
  77  140.2493
  78  209.396
  79  237.5422
  80  342.2675
  81  212.8018
  82  198.7252
  83  375.0193
  84  399.3946
  85  239.9469
  86  216.2662
  87  343.46
  88  278.343
  89  342.7302
  90  253.5471
  91  368.1718
  92  299.1315
  93  318.5915
  94  375.3339
  95  344.7463
  96  173.5243
  97  193.1566
  98  270.7236
  99  261.5085
 100  212.3772
 101  178.9828
 102  277.7495
 103  413.0421
 104  377.3869
 105  250.7848
 106  197.911
 107  151.9702
 108  62.6308
 109  213.894
 110  345.485
 111  408.1205
 112  377.9585
 113  299.7689
 114  104.7285
 115  268.9242
 116  299.4356
 117  137.2427
 118  174.513
 119  205.684
 120  177.0081
 121  163.3078
 122  220.7307
 123  99.27064
 124  139.7331
 125  255.2371
 126  251.518
 127  196.2405
 128  191.5833
 129  128.3782
 130  154.6922
 131  211.7495
 132  178.1244
 133  191.1965
 134  286.0757
 135  250.424
 136  208.6418
 137  156.8611
 138  151.0535
 139  166.819
 140  175.3289
 141  197.2577
 142  305.7146
 143  336.5602
 144  266.2029
 145  345.2822
 146  216.6884
 147  208.8438
 148  158.0502
 149  135.2731
 150  235.0518
 151  332.0118
 152  298.329
 153  232.0234
 154  125.0606
 155  -1.521973
 156  174.7955
 157  172.8613
 158  187.4963
 159  99.87766
 160  139.0193
 161  222.2848
 162  139.2758
 163  220.7567
 164  290.9063
 165  297.5731
 166  336.3248
 167  304.0519
 168  344.4111
 169  377.4246
 170  270.8081
 171  289.549
 172  215.7499
 173  173.9659
 174  162.2594
 175  280.44
 176  274.5735
 177  220.9341
 178  20.19324
 179  157.6245
 180  192.0347
 181  114.3617
 182  185.5944
 183  220.9951
 184  170.5806
 185  219.5018
 186  237.6307
 187  344.9185
 188  371.0702
 189  355.5919
 190  238.0643
 191  220.3624
 192  228.1528
 193  245.447
 194  240.6075
 195  251.1803
 196  221.2525
 197  285.8426
 198  302.2937
 199  256.8748
 200  247.4079
 201  280.6245
 202  203.595
 203  276.4125
 204  201.0102
 205  153.8434
 206  87.62998
 207  141.8129
 208  222.9603
 209  336.1726
 210  213.2336
 211  209.5976
 212  62.5725
 213  223.664
 214  247.5525
 215  270.1784
 216  132.0087
 217  118.1939
 218  304.9924
 219  244.3969
 220  214.7528
 221  204.8218
 222  264.0003
 223  213.2367
 224  372.861
 225  317.9733
 226  259.8291
 227  270.5751
 228  188.0184
 229  127.9932
 230  302.8731
 231  413.4926
 232  326.6739
 233  246.7293
 234  190.3403
 235  165.7316
 236  69.55698
 237  134.2259
 238  85.55913
 239  66.76323
 240  107.0411
 241  248.7198
 242  186.0059
 243  201.9679
 244  82.47256
 245  130.885
 246  158.6019
 247  138.5688
 248  185.2323
 249  141.2719
 250  304.4984
 251  201.0208
 252  144.5394
 253  146.1546
 254  202.4349
 255  47.30854
 256  115.3042
 257  203.1422
 258  253.5469
 259  258.1007
 260  271.5635
 261  319.0833
 262  238.5672
 263  173.8098
 264  107.1448
 265  78.22142
 266  270.8738
 267  284.1896
 268  53.36508
 269  59.38816
 270  28.9999
 271  180.7324
 272  262.0025
 273  364.9766
 274  283.4398
 275  209.5965
 276  229.5332
 277  188.7442
 278  239.9592
 279  150.0335
 280  132.7828
 281  22.96305
 282  120.3798
 283  343.7422
 284  367.9149
 285  384.6548
 286  246.1214
 287  227.12
 288  201.5428
 289  180.3834
 290  215.3116
 291  168.1016
 292  293.5276
 293  328.4901
 294  214.5256
 295  266.5198
 296  224.9925
 297  144.0494
 298  202.5349
 299  225.2816
 300  106.1325
 301  280.4679
 302  274.5898
 303  264.185
 304  268.4776
 305  178.2464
 306  242.704
 307  272.153
 308  181.6036
 309  272.5761
 310  193.9524
 311  225.1336
 312  204.5473
 313  122.0757
 314  135.5368
 315  202.1474
 316  346.6149
 317  178.11
 318  208.498
 319  210.6876
 320  115.8155
 321  154.5125
 322  207.046
 323  108.6813
 324  86.91152
 325  212.6184
 326  281.5905
 327  203.4447
 328  234.9121
 329  204.933
 330  212.0434
 331  251.395
 332  260.5702
 333  234.2202
 334  304.2543
 335  376.2437
 336  395.4128
 337  222.5394
 338  233.439
 339  405.3864
 340  331.0711
 341  388.5493
 342  462.963
 343  223.034
 344  120.1367
 345  21.92156
 346  197.304
 347  260.2227
 348  232.3
 349  251.635
 350  288.3364
 351  227.7883
 352  209.5135
 353  172.8744
 354  132.3889
 355  40.34658
 356  115.0033
 357  108.0337
 358  225.6387
 359  195.2937
 360  202.5002
 361  273.0625
 362  326.619
 363  281.1192
 364  257.2898
 365  139.5999
 366  62.21626
 367  209.3147
 368  272.4364
 369  278.3318
 370  295.5945
 371  272.4786
 372  221.2527
 373  222.5839
 374  240.1859
 375  130.0453
 376  162.9046
 377  245.7094
 378  271.9937
 379  293.274
 380  265.6869
 381  103.1585
 382  309.6675
 383  417.9289
 384  223.8409
 385  137.1545
 386  208.827
 387  143.4388
 388  133.1454
 389  169.6025
 390  339.347
 391  314.4427
 392  207.4019
 393  320.0507
 394  290.6222
 395  130.0588
 396  140.0061
 397  316.7092
 398  328.5335
 399  428.4265
 400  379.1029
 401  346.6313
 402  333.4106
 403  183.7195
 404  297.7586
 405  265.8086
 406  225.5365
 407  299.4229
 408  283.0706
 409  311.4615
 410  207.6029
 411  144.898
 412  215.0293
 413  292.3963
 414  252.3265
 415  349.669
 416  286.4227
 417  192.7676
 418  113.2658
 419  96.76956
 420  180.9366
 421  127.4771
 422  108.7159
 423  170.0207
 424  176.2753
 425  134.7255
 426  249.9462
 427  331.6579
 428  310.2243
 429  170.3185
 430  124.6026
 431  85.09847
 432  178.6989
 433  214.1005
 434  291.3159
 435  284.2464
 436  182.8859
 437  180.2408
 438  221.9448
 439  301.5925
 440  299.8254
 441  222.3236
 442  210.1958
 443  167.3697
 444  246.7573
 445  351.8672
 446  166.7404
 447  179.67
 448  234.5935
 449  377.805
 450  308.5223
 451  272.9736
 452  361.3232
 453  146.9967
 454  184.6169
 455  196.4276
 456  203.3305
 457  169.1194
 458  290.0617
 459  338.5235
 460  189.9623
 461  105.8285
 462  106.4911
 463  348.8884
 464  317.8954
 465  325.5541
 466  249.3817
 467  197.6253
 468  257.5959
 469  204.3344
 470  227.6202
 471  280.2039
 472  210.3999
 473  330.4446
 474  276.7249
 475  191.3584
 476  255.2568
 477  330.6441
 478  395.7781
 479  372.1915
 480  312.5181
 481  220.1243
 482  141.138
 483  136.9224
 484  250.341
 485  265.2033
 486  286.6862
 487  133.817
 488  139.7523
 489  225.8502
 490  328.0831
 491  436.8284
 492  367.5974
 493  292.8794
 494  200.2835
 495  257.3846
 496  308.7195
 497  279.8633
 498  340.7455
 499  141.0977
 500  104.7883
 501  138.2935
 502  272.2237
 503  370.8389
 504  243.5397
 505  177.3909
 506  323.4579
 507  307.8614
 508  351.3181
 509  481.6973
 510  706.5349
 511  1031.119
