# Input file       =  1199566614.095435_cleaned.dat
# Candidate        =  PSR_0332+5434
# Telescope        =  AR
# Epoch_topo       =  58127.872639993460
# Epoch_bary       =  N/A
# T_sample         =  0.002
# Data Folded      =  7340032
# Data Avg         =  0.129003990744938
# Data StdDev      =  1.0006861894257  
# Profile Bins     =  512
# Profile Avg      =  1849.41061062888 
# Profile StdDev   =  119.815195920235 
# Reduced chi-sqr  =  0.467
# Prob(Noise)      <  1   (~0.0 sigma)
# P_topo (ms)      =  714.563223501722  +/- 5.6e-05
# P'_topo (s/s)    =  -0                +/- 2.95e-11
# P''_topo (s/s^2) =  0                 +/- 1.3e-14
# P_bary (ms)      =  N/A
# P'_bary (s/s)    =  N/A
# P''_bary (s/s^2) =  N/A
# P_orb (s)        =  N/A
# asin(i)/c (s)    =  N/A
# eccentricity     =  N/A
# w (rad)          =  N/A
# T_peri           =  N/A
######################################################
   0  1998.528
   1  2054.509
   2  2024.642
   3  1876.47
   4  1826.809
   5  1804.832
   6  1761.33
   7  1731.236
   8  1829.192
   9  1862.691
  10  1878.477
  11  1824.805
  12  1875.293
  13  1935.584
  14  1831.105
  15  1882.587
  16  1875.801
  17  1854.838
  18  1811.891
  19  1846.086
  20  1905.641
  21  1858.128
  22  1872.484
  23  1849.116
  24  1878.744
  25  1867.897
  26  1855.936
  27  1852.208
  28  1783.626
  29  1878.391
  30  1864.672
  31  1851.82
  32  1738.13
  33  1830.856
  34  1929.372
  35  1903.551
  36  1835.568
  37  1840.081
  38  1863.632
  39  1844.272
  40  1744.393
  41  1802.644
  42  1777.269
  43  1804.089
  44  1858.897
  45  1863.392
  46  1777.831
  47  1772.048
  48  1880.047
  49  1852.495
  50  1813.535
  51  1751.456
  52  1835.752
  53  1854.099
  54  1823.837
  55  1825.968
  56  1773.74
  57  1732.139
  58  1814.036
  59  1908.498
  60  1901.373
  61  1909.086
  62  1881.451
  63  1899.666
  64  1871.439
  65  1818.791
  66  1749.857
  67  1768.213
  68  1806.339
  69  1811.02
  70  1800.87
  71  1889.473
  72  1885.75
  73  1853.618
  74  1866.985
  75  1808.022
  76  1869.5
  77  1896.081
  78  1907.016
  79  1825.616
  80  1834.65
  81  1930.098
  82  1835.14
  83  1796.502
  84  1857.968
  85  1805.584
  86  1894.969
  87  1914.569
  88  1933.886
  89  1911.211
  90  1839.718
  91  1778.151
  92  1810.782
  93  1845.98
  94  1774.422
  95  1818.688
  96  1802.721
  97  1795.614
  98  1816.759
  99  1858.706
 100  1830.661
 101  1802.225
 102  1805.765
 103  1905.075
 104  1818.767
 105  1873.932
 106  1871.535
 107  1824.563
 108  1758.468
 109  1752.262
 110  1773.051
 111  1757.593
 112  1804.753
 113  1862.122
 114  1807.474
 115  1879.327
 116  1897.562
 117  1878.114
 118  1849.307
 119  1879.689
 120  2009.721
 121  1905.545
 122  1823.252
 123  1803.085
 124  1930.173
 125  1885.22
 126  1820.062
 127  1847.602
 128  1825.628
 129  1908.527
 130  1947.377
 131  1937.714
 132  1913.305
 133  1857.551
 134  1889.471
 135  1830.299
 136  1793.013
 137  1754.868
 138  1780.5
 139  1826.247
 140  1868.761
 141  1880.786
 142  1839.343
 143  1879.273
 144  1941.458
 145  1933.946
 146  1839.818
 147  1837.381
 148  1869.238
 149  1894.525
 150  1883.392
 151  1888.645
 152  1954.69
 153  1920.392
 154  1988.859
 155  1894.674
 156  1843.051
 157  1778.919
 158  1885.349
 159  1878.009
 160  1866.567
 161  1816.316
 162  1841.768
 163  1832.411
 164  1769.77
 165  1761.163
 166  1841.393
 167  1869.527
 168  1867.558
 169  1826.213
 170  1865.075
 171  1822.609
 172  1831.974
 173  1932.039
 174  1885.846
 175  1809.014
 176  1893.174
 177  1951.476
 178  1857.409
 179  1811.149
 180  1813.676
 181  1866.856
 182  1884.466
 183  1925.681
 184  1954.168
 185  1901.028
 186  1854.592
 187  1917.035
 188  1916.928
 189  1852.968
 190  1820.809
 191  1840.991
 192  1876.173
 193  1793.455
 194  1771.043
 195  1881.122
 196  1959.534
 197  2032.126
 198  1945.036
 199  1859.097
 200  1873.911
 201  1939.4
 202  1961.366
 203  1987.914
 204  1909.396
 205  1925.984
 206  1891.279
 207  1834.573
 208  1858.927
 209  1796.73
 210  1811.373
 211  1866.894
 212  1869.269
 213  1946.784
 214  1912.41
 215  1882.662
 216  1919.573
 217  1913.656
 218  1841.964
 219  1841.05
 220  1902.852
 221  1923.727
 222  1824.423
 223  1789.513
 224  1841.128
 225  1921.813
 226  1830.021
 227  1834.85
 228  1817.886
 229  1762.748
 230  1832.824
 231  1880.551
 232  1915.307
 233  1862.62
 234  1886.253
 235  1914.32
 236  1876.889
 237  1828.315
 238  1835.669
 239  1896.656
 240  1797.335
 241  1831.399
 242  1903.94
 243  1806.853
 244  1840.907
 245  1810.775
 246  1825.23
 247  1758.622
 248  1828.589
 249  1882.418
 250  1872.8
 251  1860.249
 252  1855.193
 253  1975.585
 254  1842.098
 255  1798.273
 256  1900.926
 257  1856.883
 258  1842.055
 259  1936.929
 260  1982.655
 261  1868.078
 262  1813.759
 263  1915.454
 264  1968.28
 265  1923.895
 266  1800.87
 267  1779.48
 268  1863.217
 269  1872.833
 270  1812.211
 271  1850.413
 272  1887.153
 273  1879.758
 274  1895.67
 275  1888.795
 276  1846.963
 277  1903.905
 278  1919.361
 279  1906.61
 280  1921.806
 281  1924.608
 282  1897.452
 283  1935.511
 284  1903.484
 285  1927.872
 286  1891.932
 287  1948.085
 288  1943.31
 289  1906.994
 290  1803.728
 291  1827.422
 292  1875.615
 293  1800.06
 294  1725.217
 295  1777.136
 296  1853.794
 297  1861.736
 298  1830.927
 299  1811.818
 300  1761.53
 301  1801.332
 302  1887.952
 303  1864.711
 304  1788.644
 305  1743.851
 306  1804.702
 307  1849.042
 308  1765.947
 309  1642.395
 310  1715.302
 311  1861.808
 312  1872.451
 313  1836.434
 314  1857.422
 315  1794.001
 316  1841.827
 317  1917.067
 318  1899.671
 319  1796.389
 320  1844.02
 321  1925.672
 322  1915.3
 323  1889.572
 324  1891.1
 325  1850.403
 326  1799.5
 327  1792.625
 328  1904.788
 329  1928.324
 330  1909.03
 331  1825.332
 332  1830.028
 333  1816.179
 334  1796.185
 335  1809.711
 336  1824.188
 337  1867.957
 338  1865.277
 339  1782.003
 340  1767.199
 341  1775.492
 342  1825.611
 343  1835.375
 344  1776.466
 345  1782.117
 346  1840.208
 347  1856.698
 348  1811.827
 349  1837.901
 350  1861.329
 351  1751.284
 352  1782.588
 353  1889.27
 354  1889.723
 355  1862.119
 356  1844.405
 357  1816.139
 358  1710.181
 359  1818.765
 360  1869.042
 361  1759.432
 362  1720.577
 363  1787.035
 364  1824.085
 365  1737.492
 366  1703.118
 367  1758.052
 368  1847.164
 369  1931.908
 370  1820.074
 371  1812.1
 372  1765.086
 373  1870.599
 374  1898.505
 375  1863.838
 376  1824.342
 377  1879.908
 378  1879.257
 379  1866.627
 380  1928.306
 381  1975.743
 382  1821.287
 383  1783.366
 384  1829.766
 385  1879.634
 386  1785.683
 387  1808.359
 388  1879.046
 389  1935.577
 390  1845.18
 391  1835.755
 392  1876.289
 393  1857.427
 394  1870.446
 395  1858.126
 396  1826.163
 397  1896.852
 398  1931.922
 399  1886.538
 400  1874.226
 401  1794.439
 402  1856.87
 403  1865.183
 404  1871.697
 405  1795.854
 406  1787.054
 407  1832.158
 408  1841.615
 409  1750.128
 410  1778.106
 411  1837.337
 412  1780.24
 413  1759.25
 414  1876.824
 415  1792.285
 416  1837.835
 417  1912.79
 418  1910.456
 419  1808.786
 420  1827.78
 421  1945.365
 422  1868.385
 423  1810.383
 424  1751.935
 425  1726.258
 426  1827.88
 427  1885.064
 428  1840.275
 429  1756.559
 430  1831.335
 431  1835.518
 432  1843.816
 433  1842.687
 434  1822.073
 435  1914.796
 436  1862.837
 437  1780.851
 438  1690.036
 439  1779.99
 440  1867.338
 441  1901.967
 442  1944.74
 443  1923.192
 444  1830.127
 445  1740.026
 446  1777.063
 447  1817.108
 448  1798.291
 449  1763.338
 450  1882.58
 451  1859.528
 452  1761.526
 453  1721.601
 454  1829.236
 455  1941.442
 456  1883.308
 457  1874.484
 458  1882.001
 459  1864.26
 460  1785.862
 461  1797.501
 462  1747.796
 463  1796.69
 464  1901.541
 465  1971.349
 466  1820.793
 467  1875.804
 468  1852.469
 469  1782.143
 470  1830.311
 471  1901.13
 472  1764.063
 473  1763.117
 474  1865.039
 475  1888.91
 476  1756.896
 477  1760.351
 478  1864.157
 479  1823.091
 480  1813.61
 481  1745.074
 482  1823.982
 483  1846.744
 484  1801.647
 485  1842.113
 486  1908.389
 487  1808.063
 488  1861.123
 489  1833.223
 490  1837
 491  1754.052
 492  1792.503
 493  1878.966
 494  1972.737
 495  1933.296
 496  1863.833
 497  1931.834
 498  1894.489
 499  1825.284
 500  1820.842
 501  1711.576
 502  1749.573
 503  1759.671
 504  1886.664
 505  1870.988
 506  1789.644
 507  1890.311
 508  1913.801
 509  1927.102
 510  1964.083
 511  1979.976
