# Input file       =  1199623241.089426_cleaned.dat
# Candidate        =  PSR_0332+5434
# Telescope        =  AR
# Epoch_topo       =  58128.528045016508
# Epoch_bary       =  N/A
# T_sample         =  0.002
# Data Folded      =  7143424
# Data Avg         =  0.0339090090505623
# Data StdDev      =  1.0006106479969  
# Profile Bins     =  512
# Profile Avg      =  473.160417845024 
# Profile StdDev   =  118.190713358878 
# Reduced chi-sqr  =  1.619
# Prob(Noise)      <  2.27e-17   (~8.4 sigma)
# P_topo (ms)      =  714.563360684601  +/- 0.000209
# P'_topo (s/s)    =  -0                +/- 1.13e-10
# P''_topo (s/s^2) =  0                 +/- 5.13e-14
# P_bary (ms)      =  N/A
# P'_bary (s/s)    =  N/A
# P''_bary (s/s^2) =  N/A
# P_orb (s)        =  N/A
# asin(i)/c (s)    =  N/A
# eccentricity     =  N/A
# w (rad)          =  N/A
# T_peri           =  N/A
######################################################
   0  1366.783
   1  1166.516
   2  827.328
   3  841.2188
   4  649.954
   5  623.025
   6  531.9826
   7  521.0465
   8  473.2572
   9  408.6827
  10  508.1808
  11  518.8881
  12  561.3764
  13  636.0831
  14  612.2465
  15  626.2164
  16  615.8248
  17  628.0779
  18  560.9329
  19  499.2884
  20  396.4565
  21  562.5854
  22  414.5969
  23  310.61
  24  346.4633
  25  354.0659
  26  473.7996
  27  494.1117
  28  488.3808
  29  448.0566
  30  474.7757
  31  461.9964
  32  411.891
  33  486.4349
  34  518.1422
  35  493.8559
  36  464.2982
  37  476.0676
  38  544.0907
  39  495.7198
  40  338.9445
  41  453.7514
  42  526.988
  43  482.9854
  44  528.3688
  45  529.5262
  46  480.2421
  47  411.3286
  48  421.2295
  49  370.9774
  50  356.0969
  51  402.021
  52  435.4319
  53  338.1194
  54  367.49
  55  486.886
  56  511.9174
  57  518.6837
  58  470.2082
  59  522.6896
  60  373.9693
  61  395.451
  62  432.4165
  63  491.2624
  64  498.9606
  65  436.8458
  66  539.0425
  67  395.8305
  68  284.8771
  69  317.7621
  70  360.9829
  71  432.4115
  72  539.5518
  73  384.7659
  74  376.1838
  75  401.903
  76  406.8132
  77  413.7928
  78  465.937
  79  483.4727
  80  432.9197
  81  419.2811
  82  335.7787
  83  384.5904
  84  561.1442
  85  511.3634
  86  420.213
  87  357.4991
  88  426.783
  89  436.0019
  90  504.3537
  91  510.5984
  92  477.5085
  93  424.3094
  94  527.7021
  95  574.0117
  96  435.8811
  97  346.3674
  98  567.0065
  99  533.1246
 100  479.706
 101  441.244
 102  426.4121
 103  352.6348
 104  289.7543
 105  377.1968
 106  388.8169
 107  513.6135
 108  455.8434
 109  458.8508
 110  445.6154
 111  500.6042
 112  475.8036
 113  546.9169
 114  482.0736
 115  331.5448
 116  513.2518
 117  477.6128
 118  457.2664
 119  476.0349
 120  524.485
 121  518.4355
 122  451.5219
 123  437.5354
 124  507.2428
 125  496.7805
 126  477.5533
 127  466.1631
 128  415.5936
 129  517.4757
 130  531.6017
 131  439.5715
 132  512.6572
 133  556.6865
 134  486.3291
 135  401.4572
 136  353.7176
 137  521.9388
 138  445.0347
 139  349.8478
 140  434.601
 141  383.2409
 142  309.3177
 143  330.8092
 144  416.939
 145  482.8611
 146  531.7419
 147  461.8545
 148  511.2492
 149  496.1151
 150  533.5674
 151  563.3339
 152  667.611
 153  441.3935
 154  375.7521
 155  459.7123
 156  467.4678
 157  506.4388
 158  452.1058
 159  359.1715
 160  406.36
 161  552.3545
 162  624.3854
 163  507.6744
 164  464.1617
 165  483.9582
 166  506.719
 167  543.6168
 168  508.4901
 169  480.9787
 170  495.7804
 171  536.9617
 172  463.5246
 173  365.0894
 174  408.4537
 175  644.496
 176  483.6053
 177  405.8354
 178  343.7538
 179  536.3555
 180  612.6773
 181  544.1248
 182  463.2475
 183  514.3193
 184  460.9247
 185  402.4564
 186  419.259
 187  339.1894
 188  412.2347
 189  590.3553
 190  526.327
 191  451.4115
 192  422.8709
 193  462.0493
 194  465.0149
 195  507.1264
 196  481.6627
 197  415.7774
 198  551.9986
 199  436.4143
 200  436.8945
 201  482.7775
 202  447.4839
 203  457.153
 204  680.33
 205  426.7932
 206  418.1497
 207  489.5852
 208  539.5259
 209  548.7025
 210  517.2999
 211  483.7703
 212  506.6143
 213  498.0901
 214  546.0389
 215  604.4962
 216  714.1381
 217  487.8213
 218  497.6139
 219  490.0102
 220  486.1613
 221  444.3405
 222  452.4103
 223  406.9566
 224  504.2216
 225  450.9264
 226  490.6087
 227  386.3532
 228  281.7656
 229  371.5224
 230  367.6796
 231  449.4263
 232  607.8806
 233  501.7009
 234  488.2342
 235  575.6815
 236  523.7789
 237  562.449
 238  647.3325
 239  556.6012
 240  595.6174
 241  435.5372
 242  586.4097
 243  704.3967
 244  757.04
 245  475.1212
 246  358.7329
 247  418.7646
 248  444.165
 249  490.3529
 250  496.3428
 251  492.2542
 252  425.0429
 253  393.8911
 254  471.9298
 255  543.7454
 256  588.9019
 257  385.5315
 258  435.5378
 259  578.4291
 260  570.5432
 261  527.2943
 262  566.8636
 263  426.9501
 264  362.2134
 265  373.2535
 266  444.805
 267  361.5813
 268  425.474
 269  463.2755
 270  412.5844
 271  429.5467
 272  438.9537
 273  397.1315
 274  464.126
 275  521.8693
 276  524.546
 277  460.6914
 278  542.7797
 279  529.0034
 280  539.0336
 281  452.5684
 282  315.2486
 283  333.2594
 284  334.8924
 285  398.9739
 286  543.6491
 287  502.5159
 288  375.5467
 289  335.2787
 290  498.2081
 291  454.0306
 292  483.1369
 293  449.8674
 294  540.3331
 295  478.2591
 296  461.8703
 297  583.8757
 298  475.7483
 299  394.1303
 300  389.5872
 301  555.1055
 302  648.5209
 303  473.4518
 304  391.4909
 305  353.3568
 306  465.8846
 307  425.4641
 308  400.8317
 309  453.2182
 310  512.7528
 311  472.8911
 312  470.0135
 313  445.6211
 314  416.6718
 315  484.9908
 316  579.1915
 317  601.6782
 318  515.2015
 319  462.3953
 320  420.2456
 321  397.5939
 322  405.3354
 323  328.8902
 324  321.8722
 325  452.4014
 326  521.876
 327  464.9792
 328  372.5043
 329  495.8148
 330  558.5228
 331  490.5834
 332  534.7288
 333  506.9017
 334  473.0999
 335  359.5581
 336  414.2558
 337  508.5656
 338  548.1772
 339  403.6164
 340  350.366
 341  292.6791
 342  347.5418
 343  357.2395
 344  376.1146
 345  415.9471
 346  419.1046
 347  374.2639
 348  492.1894
 349  458.7353
 350  454.4614
 351  571.416
 352  489.554
 353  450.3642
 354  497.728
 355  415.9703
 356  487.4265
 357  500.0555
 358  576.734
 359  618.5251
 360  651.5892
 361  545.1384
 362  417.8472
 363  453.5729
 364  448.8019
 365  406.148
 366  533.6368
 367  443.3143
 368  489.1387
 369  363.7506
 370  360.7011
 371  412.7285
 372  444.9198
 373  321.5091
 374  244.128
 375  467.4578
 376  445.3267
 377  433.5984
 378  445.2494
 379  488.19
 380  302.4601
 381  266.8072
 382  408.421
 383  440.056
 384  405.7922
 385  527.7522
 386  564.8497
 387  454.3604
 388  397.4348
 389  379.4198
 390  495.9919
 391  505.1826
 392  570.4946
 393  434.8208
 394  451.7349
 395  387.2832
 396  374.0865
 397  425.4594
 398  463.6518
 399  490.9171
 400  527.9189
 401  580.7764
 402  652.6031
 403  589.7561
 404  536.1968
 405  432.8825
 406  494.7991
 407  521.6758
 408  345.9478
 409  251.4388
 410  400.0028
 411  440.0683
 412  433.5504
 413  421.8655
 414  412.7971
 415  416.7301
 416  452.9641
 417  486.3698
 418  501.2198
 419  416.6703
 420  449.4486
 421  627.9238
 422  588.1851
 423  458.4906
 424  405.9439
 425  515.6859
 426  449.1242
 427  341.4696
 428  407.0012
 429  443.7889
 430  501.2958
 431  437.6935
 432  356.738
 433  395.9076
 434  461.0722
 435  523.4914
 436  302.6098
 437  272.934
 438  390.3406
 439  355.8695
 440  406.5646
 441  468.3761
 442  540.6907
 443  577.4545
 444  476.6624
 445  619.4176
 446  615.8613
 447  501.6452
 448  450.6754
 449  382.8292
 450  597.3612
 451  488.7208
 452  387.9754
 453  497.5916
 454  441.9569
 455  377.941
 456  488.3411
 457  489.741
 458  406.8826
 459  440.4192
 460  494.6495
 461  504.9628
 462  503.9359
 463  417.6109
 464  424.3581
 465  596.3115
 466  605.4816
 467  498.9619
 468  333.0905
 469  363.2681
 470  373.824
 471  578.6462
 472  561.1848
 473  395.3952
 474  488.9402
 475  450.0845
 476  397.7122
 477  367.0987
 478  471.7074
 479  535.4597
 480  519.8247
 481  521.716
 482  476.5071
 483  403.5928
 484  421.3
 485  466.4698
 486  298.8177
 487  275.548
 488  406.9698
 489  429.9467
 490  308.6294
 491  272.4536
 492  393.4608
 493  405.0377
 494  543.6569
 495  635.033
 496  573.2286
 497  542.3857
 498  354.1449
 499  424.5579
 500  550.3936
 501  475.359
 502  480.4677
 503  518.1373
 504  359.6238
 505  470.3187
 506  502.0822
 507  506.9245
 508  771.5428
 509  965.0744
 510  1033.334
 511  1226.028
