# Input file       =  1199911133.099623_cleaned.dat
# Candidate        =  PSR_0332+5434
# Telescope        =  AR
# Epoch_topo       =  58131.860128467859
# Epoch_bary       =  N/A
# T_sample         =  0.002
# Data Folded      =  7340032
# Data Avg         =  0.148039466593468
# Data StdDev      =  1.00097667593988 
# Profile Bins     =  512
# Profile Avg      =  2122.28842533132 
# Profile StdDev   =  119.849976752604 
# Reduced chi-sqr  =  0.769
# Prob(Noise)      <  1   (~0.0 sigma)
# P_topo (ms)      =  714.566121478529  +/- 3.1e-05
# P'_topo (s/s)    =  -0                +/- 1.63e-11
# P''_topo (s/s^2) =  0                 +/- 7.22e-15
# P_bary (ms)      =  N/A
# P'_bary (s/s)    =  N/A
# P''_bary (s/s^2) =  N/A
# P_orb (s)        =  N/A
# asin(i)/c (s)    =  N/A
# eccentricity     =  N/A
# w (rad)          =  N/A
# T_peri           =  N/A
######################################################
   0  2477.775
   1  2253.559
   2  2144.885
   3  2170.045
   4  2158.935
   5  2247.729
   6  2095.446
   7  1979.027
   8  1978.679
   9  2063.635
  10  2104.708
  11  2093.014
  12  2108.032
  13  2054.979
  14  2199.103
  15  2298.813
  16  2181.777
  17  2042.201
  18  2113.496
  19  2200.071
  20  2128.674
  21  2007.544
  22  2026.131
  23  2071.204
  24  2218.778
  25  2142.228
  26  2081.563
  27  2067.275
  28  2179.172
  29  2212.62
  30  2091.384
  31  2035.702
  32  2143.605
  33  2150.508
  34  2077.404
  35  2062.262
  36  2093.727
  37  2174.262
  38  2175.111
  39  2248.579
  40  2255.753
  41  2172.503
  42  2128.337
  43  2162.783
  44  2066.278
  45  2068.063
  46  2075.364
  47  2084.121
  48  2092.499
  49  2142.672
  50  2084.756
  51  2144.474
  52  2088.776
  53  2048.556
  54  2112.382
  55  2018.741
  56  1979.191
  57  2166.426
  58  2174.038
  59  2045.033
  60  2064.751
  61  2154.864
  62  2163.294
  63  2059.68
  64  2099.523
  65  2077.578
  66  2142.743
  67  2307.024
  68  2168.289
  69  1984.081
  70  1970.292
  71  2090.674
  72  2130.433
  73  2064.375
  74  2003.783
  75  2083.117
  76  2140.779
  77  2272.972
  78  2094.466
  79  2198.245
  80  2175.828
  81  2156.156
  82  2202.396
  83  2050.006
  84  2100.862
  85  2049.099
  86  2154.426
  87  2131.688
  88  2104.582
  89  2075.414
  90  2126.85
  91  2108.365
  92  2060.785
  93  2066.517
  94  2098.431
  95  2280.194
  96  2267.633
  97  2295.193
  98  2145.858
  99  2049.688
 100  2261.615
 101  2321.421
 102  2179.743
 103  2143.515
 104  2193.031
 105  2169.929
 106  2115.069
 107  2161.351
 108  2124.343
 109  2172.302
 110  2165.192
 111  2136.318
 112  2077.784
 113  2060.891
 114  2130.331
 115  2113.552
 116  2025.206
 117  1865.627
 118  2132.857
 119  2185.589
 120  2192.531
 121  2118.68
 122  2179.982
 123  2108.173
 124  2190.375
 125  2290.216
 126  2174.447
 127  2159
 128  2212.098
 129  2082.836
 130  2042.89
 131  2031.125
 132  2100.102
 133  2134.465
 134  2090.268
 135  2013.596
 136  2028.747
 137  2094.931
 138  2116.036
 139  2158.197
 140  2188.121
 141  2154.887
 142  2121.531
 143  2186.731
 144  2265.374
 145  2165.226
 146  2076.671
 147  2086.745
 148  2121.69
 149  2048.307
 150  2025.186
 151  2012.141
 152  2048.339
 153  2134.751
 154  2142.126
 155  2215.647
 156  2064.843
 157  2098.076
 158  2099.489
 159  2041.44
 160  2028.332
 161  2072.992
 162  2077.161
 163  2120.779
 164  2043.207
 165  2018.611
 166  2047.094
 167  2007.714
 168  2057.046
 169  2056.908
 170  2033.86
 171  2048.853
 172  2106.463
 173  2110.934
 174  2116.708
 175  2135.402
 176  2212.162
 177  2168.481
 178  2109.125
 179  2046.586
 180  2135.007
 181  2200.23
 182  2228.672
 183  2262.732
 184  2121.142
 185  2104.221
 186  2046.959
 187  2111.129
 188  2125.053
 189  1906.921
 190  1997.607
 191  2103.514
 192  2192.96
 193  2114.179
 194  2037.811
 195  2180.655
 196  2116.025
 197  2031.664
 198  2031.912
 199  2067.022
 200  2129.23
 201  2148.026
 202  2113.104
 203  2122.709
 204  2077.498
 205  2090.979
 206  2109.688
 207  2019.793
 208  2102.452
 209  2094.138
 210  2213.586
 211  2245.462
 212  2080.161
 213  2060.345
 214  2008.72
 215  2114.782
 216  2138.137
 217  2118.082
 218  2070.917
 219  2071.437
 220  2162.9
 221  2222.412
 222  2162.9
 223  2148.294
 224  2183.98
 225  2220.794
 226  2241.867
 227  2165.391
 228  2060.585
 229  2062.131
 230  2122.046
 231  2126.385
 232  2073.011
 233  2111.547
 234  2118.744
 235  2108.661
 236  2072.15
 237  2074.429
 238  2164.432
 239  2217.521
 240  2127.989
 241  2109.788
 242  1966.389
 243  2023.826
 244  2133.494
 245  2126.838
 246  2065.696
 247  2021.684
 248  2091.391
 249  2181.151
 250  2173.349
 251  2087.564
 252  2104.557
 253  2152.679
 254  2095.152
 255  2035.292
 256  2141.972
 257  2158.541
 258  2076.201
 259  2083.385
 260  2109.632
 261  2095.727
 262  2127.252
 263  2094.112
 264  2179.441
 265  2127.058
 266  2153.99
 267  2130.836
 268  2126.991
 269  2223.85
 270  2184.881
 271  2187.674
 272  2204.946
 273  2141.004
 274  2104.925
 275  2030.674
 276  2110.337
 277  2119.425
 278  2121.139
 279  2112.91
 280  2063.238
 281  2033.559
 282  2044.307
 283  2208.133
 284  2104.95
 285  1984.081
 286  2091.879
 287  2101.834
 288  2102.604
 289  2095.969
 290  2227.386
 291  2275.07
 292  2183.748
 293  2129.085
 294  2132.86
 295  2093.181
 296  2049.36
 297  2134.804
 298  1998.139
 299  1889.501
 300  2053.356
 301  2173.079
 302  2168.798
 303  2080.407
 304  2068.102
 305  2149.417
 306  2141.636
 307  2099.042
 308  2111.892
 309  2068.379
 310  2173.553
 311  2128.008
 312  2152.365
 313  2114.046
 314  1956.965
 315  2123.941
 316  2102.159
 317  2044.139
 318  2095.372
 319  2097.901
 320  2195.871
 321  2126.783
 322  2140.997
 323  2167.248
 324  2168.203
 325  2229.568
 326  2210.468
 327  2199.014
 328  2142.664
 329  2203.623
 330  2203.05
 331  2204.704
 332  2144.543
 333  2083.461
 334  2155.441
 335  2175.249
 336  2136.51
 337  2042.739
 338  2045.424
 339  2028.513
 340  2078.286
 341  1975.803
 342  1995.886
 343  2015.012
 344  2097.61
 345  2055.135
 346  2031.619
 347  2086.439
 348  2129.3
 349  2253.313
 350  2159.633
 351  2042.505
 352  2077.378
 353  2109.375
 354  2227.091
 355  2225.269
 356  2086.856
 357  2064.263
 358  2131.626
 359  2100.633
 360  2127.605
 361  2064.022
 362  2156.073
 363  2251.088
 364  2155.905
 365  2068.186
 366  2001.052
 367  2009.876
 368  2176.564
 369  2171.042
 370  2104.453
 371  2141.69
 372  2157.339
 373  2194.548
 374  2013.935
 375  1977.948
 376  2122.719
 377  2146.139
 378  2167.208
 379  2176.71
 380  2066.667
 381  1960.208
 382  2057.86
 383  2075.455
 384  2087.167
 385  2153.32
 386  2154.225
 387  2240.415
 388  2200.652
 389  2089.727
 390  1965.062
 391  2028.346
 392  2178.205
 393  2165.66
 394  2077.6
 395  2074.992
 396  2114.246
 397  2231.424
 398  2099.095
 399  1958.386
 400  2002.34
 401  2110.787
 402  2180.925
 403  2033.594
 404  2009.268
 405  1980.282
 406  2194.895
 407  2241.628
 408  2117.846
 409  2107.753
 410  2056.927
 411  2110.055
 412  2155.634
 413  2161.275
 414  2012.422
 415  2060.933
 416  2163.643
 417  2097.884
 418  2059.356
 419  2058.712
 420  2123.821
 421  2151.955
 422  2167.961
 423  2076.131
 424  2059.743
 425  2193.762
 426  2259.581
 427  2146.823
 428  2003.479
 429  1942.936
 430  2019.784
 431  2161.575
 432  2234.095
 433  2237.375
 434  2113.93
 435  2082.349
 436  2243.946
 437  2241.421
 438  2075.839
 439  2090.691
 440  2202.655
 441  2103.299
 442  1981.132
 443  1992.396
 444  2127.858
 445  2128.42
 446  2084.282
 447  2090.78
 448  2066.862
 449  2085.342
 450  2229.816
 451  2247.708
 452  2219.081
 453  2143.388
 454  2176.147
 455  2167.659
 456  2132.628
 457  2012.659
 458  2134.869
 459  2196.589
 460  2162.82
 461  2061.11
 462  2041.413
 463  2093.406
 464  2151.835
 465  2104.42
 466  2091.2
 467  2144.084
 468  2227.471
 469  2235.643
 470  2196.094
 471  2086.346
 472  2133.774
 473  2152.906
 474  2098.461
 475  2080.929
 476  2150.488
 477  2196.441
 478  2223.654
 479  2306.019
 480  2141.537
 481  2075.914
 482  2178.558
 483  2219.448
 484  2220.427
 485  2181.41
 486  2163.494
 487  2201.948
 488  2166.288
 489  2169.596
 490  2136.267
 491  2103.081
 492  2194.811
 493  2236.316
 494  2217.407
 495  2199.317
 496  2121.18
 497  2160.407
 498  2085.495
 499  2108.425
 500  2023.631
 501  2156.568
 502  2172.594
 503  2169.323
 504  2104.481
 505  2142.115
 506  2170.852
 507  2268.509
 508  2359.25
 509  2373.736
 510  2351.248
 511  2362.42
