# Input file       =  1199967776.101105_cleaned.dat
# Candidate        =  PSR_0332+5434
# Telescope        =  AR
# Epoch_topo       =  58132.515718762792
# Epoch_bary       =  N/A
# T_sample         =  0.002
# Data Folded      =  7405568
# Data Avg         =  0.0194517789624274
# Data StdDev      =  1.00015390933218 
# Profile Bins     =  512
# Profile Avg      =  281.201030808782 
# Profile StdDev   =  120.284881143831 
# Reduced chi-sqr  =  1.594
# Prob(Noise)      <  2.68e-16   (~8.1 sigma)
# P_topo (ms)      =  714.566228627374  +/- 0.000208
# P'_topo (s/s)    =  -0                +/- 1.09e-10
# P''_topo (s/s^2) =  0                 +/- 4.77e-14
# P_bary (ms)      =  N/A
# P'_bary (s/s)    =  N/A
# P''_bary (s/s^2) =  N/A
# P_orb (s)        =  N/A
# asin(i)/c (s)    =  N/A
# eccentricity     =  N/A
# w (rad)          =  N/A
# T_peri           =  N/A
######################################################
   0  1036.881
   1  1129.413
   2  883.6313
   3  549.2286
   4  324.7329
   5  377.8368
   6  304.5826
   7  290.6972
   8  212.8845
   9  181.7002
  10  213.5463
  11  128.1045
  12  289.6778
  13  255.0512
  14  171.0958
  15  240.5468
  16  277.6708
  17  289.1331
  18  326.2474
  19  269.2227
  20  242.5074
  21  322.0437
  22  306.8255
  23  376.1191
  24  211.1339
  25  205.103
  26  326.2135
  27  315.7602
  28  289.3989
  29  233.3578
  30  264.8659
  31  336.8221
  32  80.58739
  33  189.7545
  34  321.0254
  35  311.4865
  36  232.8421
  37  239.1411
  38  148.8583
  39  185.3999
  40  206.0069
  41  196.559
  42  268.1503
  43  334.5625
  44  239.1666
  45  165.4461
  46  244.2733
  47  434.7593
  48  405.6416
  49  322.6891
  50  188.0274
  51  171.0443
  52  224.3102
  53  299.7905
  54  314.8437
  55  353.8847
  56  287.4787
  57  202.851
  58  146.2098
  59  326.5572
  60  455.4933
  61  374.7117
  62  239.5946
  63  344.981
  64  374.1126
  65  323.3291
  66  250.066
  67  227.331
  68  273.3214
  69  251.7287
  70  222.5192
  71  227.7076
  72  297.7789
  73  422.4781
  74  387.9959
  75  223.1505
  76  357.8451
  77  365.2849
  78  351.1326
  79  304.5338
  80  313.6295
  81  194.8762
  82  194.4671
  83  241.6872
  84  300.1515
  85  247.3302
  86  193.6665
  87  285.7463
  88  251.0229
  89  95.65478
  90  200.578
  91  373.5623
  92  397.8164
  93  464.9441
  94  345.821
  95  400.4614
  96  364.4722
  97  266.0151
  98  250.4699
  99  365.378
 100  352.3774
 101  418.9513
 102  328.3351
 103  331.2184
 104  391.0752
 105  357.4615
 106  386.4702
 107  284.5577
 108  314.5598
 109  325.9799
 110  229.1227
 111  248.662
 112  190.3835
 113  170.0297
 114  185.8029
 115  328.3698
 116  305.9999
 117  158.396
 118  182.2919
 119  64.07728
 120  83.21798
 121  139.3502
 122  117.6684
 123  276.8502
 124  206.4395
 125  199.0906
 126  306.693
 127  460.8764
 128  425.2567
 129  350.2166
 130  305.6509
 131  243.3783
 132  271.1615
 133  335.1572
 134  353.1214
 135  281.718
 136  273.3865
 137  355.0382
 138  256.0721
 139  283.6554
 140  315.027
 141  172.6777
 142  121.8964
 143  221.1457
 144  389.7959
 145  319.9728
 146  299.8387
 147  293.3943
 148  301.6111
 149  242.5052
 150  274.5736
 151  195.641
 152  169.2995
 153  282.2172
 154  323.6443
 155  342.5764
 156  305.4123
 157  373.3305
 158  271.8989
 159  380.0908
 160  370.2458
 161  359.4185
 162  297.3416
 163  195.035
 164  232.4404
 165  266.4277
 166  232.3752
 167  244.619
 168  284.8882
 169  310.7427
 170  315.2095
 171  227.5204
 172  145.4326
 173  236.1644
 174  281.1815
 175  283.1164
 176  244.8942
 177  324.9618
 178  332.6983
 179  460.2355
 180  358.8907
 181  264.4463
 182  125.6725
 183  373.6783
 184  373.0662
 185  275.771
 186  285.236
 187  171.2987
 188  270.3568
 189  294.7411
 190  143.4843
 191  237.5208
 192  191.051
 193  305.3479
 194  276.9603
 195  198.5943
 196  154.8919
 197  124.254
 198  173.8777
 199  271.4426
 200  373.7602
 201  399.9474
 202  369.0975
 203  285.9269
 204  300.3833
 205  300.1581
 206  393.5186
 207  260.8632
 208  135.4885
 209  210.8913
 210  261.5905
 211  450.9825
 212  316.5196
 213  327.6741
 214  364.9547
 215  341.8489
 216  303.0563
 217  175.3474
 218  151.4889
 219  298.0577
 220  388.2731
 221  300.4232
 222  414.4562
 223  372.5428
 224  308.6051
 225  181.5637
 226  109.4549
 227  151.1129
 228  206.2434
 229  322.8696
 230  228.9751
 231  317.3456
 232  291.9311
 233  319.356
 234  195.7063
 235  224.2166
 236  207.8365
 237  278.0525
 238  312.106
 239  264.7362
 240  277.1248
 241  483.4099
 242  412.6753
 243  375.1766
 244  240.0445
 245  210.9195
 246  295.4857
 247  371.2267
 248  374.8499
 249  314.6026
 250  254.8594
 251  235.2926
 252  358.8885
 253  254.8969
 254  391.7453
 255  298.6684
 256  208.7993
 257  191.3879
 258  322.7253
 259  372.7821
 260  390.5123
 261  331.439
 262  281.0666
 263  224.6596
 264  267.7038
 265  382.837
 266  369.3734
 267  368.0994
 268  303.3079
 269  273.8985
 270  249.7953
 271  295.1939
 272  259.9602
 273  320.8634
 274  366.5593
 275  248.7274
 276  245.5345
 277  371.3689
 278  396.9386
 279  182.8723
 280  259.1147
 281  378.542
 282  393.8867
 283  324.5648
 284  434.9101
 285  300.9157
 286  297.9297
 287  435.0222
 288  329.7784
 289  320.58
 290  259.0201
 291  225.2587
 292  242.54
 293  237.187
 294  296.8399
 295  383.8662
 296  301.5875
 297  328.2342
 298  137.3581
 299  53.88729
 300  118.1152
 301  169.4232
 302  273.9629
 303  348.7245
 304  331.1198
 305  329.8711
 306  418.9965
 307  242.8834
 308  193.236
 309  226.6786
 310  247.6978
 311  414.3197
 312  341.8022
 313  218.8539
 314  278.3232
 315  278.0659
 316  360.7436
 317  475.4661
 318  523.4023
 319  456.4686
 320  375.1912
 321  306.2353
 322  306.7686
 323  270.1711
 324  287.1009
 325  359.389
 326  254.2405
 327  110.881
 328  177.1767
 329  272.4511
 330  262.3897
 331  212.7117
 332  347.7829
 333  338.4444
 334  234.9741
 335  284.5661
 336  155.0976
 337  140.1125
 338  315.0885
 339  257.0401
 340  294.5857
 341  226.5874
 342  189.0663
 343  219.9603
 344  186.0496
 345  239.4986
 346  140.9726
 347  233.9993
 348  398.2823
 349  371.41
 350  305.8151
 351  241.2168
 352  165.9743
 353  322.5888
 354  295.8316
 355  211.1211
 356  174.9055
 357  161.3721
 358  277.9823
 359  326.1475
 360  398.7635
 361  446.1288
 362  283.7515
 363  340.8337
 364  178.1091
 365  94.46306
 366  154.3575
 367  392.8378
 368  392.0492
 369  306.525
 370  348.3715
 371  257.8314
 372  186.322
 373  312.4551
 374  274.6954
 375  200.5443
 376  274.0225
 377  279.5625
 378  251.6216
 379  293.59
 380  258.9158
 381  217.0919
 382  209.2984
 383  245.0247
 384  112.3447
 385  37.33196
 386  195.6643
 387  405.6816
 388  298.8267
 389  148.841
 390  235.3154
 391  168.9142
 392  174.0328
 393  250.231
 394  394.6381
 395  303.4277
 396  108.6764
 397  230.1763
 398  227.9021
 399  155.8473
 400  275.5249
 401  337.4727
 402  364.5594
 403  193.1161
 404  210.0057
 405  325.6517
 406  242.3065
 407  249.1852
 408  69.85312
 409  61.65147
 410  224.0924
 411  211.782
 412  181.8684
 413  116.5274
 414  104.5582
 415  396.4483
 416  263.296
 417  275.2616
 418  133.5795
 419  177.437
 420  134.5548
 421  182.1022
 422  174.4109
 423  254.2517
 424  253.8166
 425  249.2209
 426  363.911
 427  301.353
 428  194.1226
 429  156.8484
 430  312.0435
 431  316.7263
 432  177.079
 433  250.8733
 434  220.4902
 435  259.2757
 436  190.0552
 437  209.0629
 438  161.9484
 439  170.3023
 440  169.2309
 441  310.5023
 442  246.8148
 443  352.7742
 444  433.8823
 445  251.8288
 446  193.6802
 447  179.424
 448  253.0654
 449  218.4606
 450  265.3767
 451  226.2288
 452  266.3553
 453  299.1339
 454  186.294
 455  240.5115
 456  306.676
 457  285.1345
 458  247.6416
 459  170.8592
 460  272.5831
 461  168.7364
 462  226.1644
 463  257.7072
 464  275.8603
 465  228.8916
 466  228.5962
 467  310.2734
 468  342.5518
 469  408.1012
 470  352.2587
 471  246.9485
 472  309.2238
 473  275.8175
 474  327.7345
 475  191.5493
 476  147.5788
 477  185.8243
 478  310.9173
 479  367.8948
 480  390.3702
 481  259.9217
 482  157.1086
 483  280.1961
 484  187.7399
 485  91.87542
 486  79.11214
 487  143.2322
 488  247.3202
 489  259.7961
 490  102.2362
 491  128.7004
 492  346.7118
 493  373.3869
 494  350.4851
 495  304.8002
 496  300.9447
 497  213.4446
 498  254.2768
 499  418.4745
 500  413.6038
 501  330.8609
 502  352.4391
 503  388.5277
 504  294.3299
 505  362.8809
 506  400.8919
 507  509.9856
 508  502.0211
 509  606.7824
 510  827.5686
 511  893.7462
