# Input file       =  1199709341.112284_cleaned.dat
# Candidate        =  PSR_0332+5434
# Telescope        =  AR
# Epoch_topo       =  58129.524573058843
# Epoch_bary       =  N/A
# T_sample         =  0.002
# Data Folded      =  7208960
# Data Avg         =  0.0168452755392681
# Data StdDev      =  1.00024223867798 
# Profile Bins     =  512
# Profile Avg      =  237.204189109154 
# Profile StdDev   =  118.687919635405 
# Reduced chi-sqr  =  1.498
# Prob(Noise)      <  1.81e-12   (~7.0 sigma)
# P_topo (ms)      =  714.564097917289  +/- 0.000186
# P'_topo (s/s)    =  -0                +/- 9.98e-11
# P''_topo (s/s^2) =  0                 +/- 4.48e-14
# P_bary (ms)      =  N/A
# P'_bary (s/s)    =  N/A
# P''_bary (s/s^2) =  N/A
# P_orb (s)        =  N/A
# asin(i)/c (s)    =  N/A
# eccentricity     =  N/A
# w (rad)          =  N/A
# T_peri           =  N/A
######################################################
   0  1121.424
   1  956.8558
   2  827.6391
   3  495.527
   4  420.0458
   5  220.4295
   6  250.9921
   7  290.0933
   8  258.6986
   9  262.6786
  10  436.863
  11  203.19
  12  162.4403
  13  236.8613
  14  123.3378
  15  214.0123
  16  245.8929
  17  197.1712
  18  207.2787
  19  304.0528
  20  351.5264
  21  341.3589
  22  248.8302
  23  139.3265
  24  194.6008
  25  280.7118
  26  187.6322
  27  210.968
  28  265.2638
  29  321.4539
  30  231.0936
  31  268.0676
  32  337.4341
  33  316.076
  34  135.4751
  35  34.45637
  36  175.0647
  37  273.5754
  38  182.223
  39  198.032
  40  250.1724
  41  221.0138
  42  231.2484
  43  370.8205
  44  329.8004
  45  312.779
  46  279.2566
  47  196.3788
  48  306.1052
  49  294.0356
  50  243.6021
  51  211.358
  52  246.7827
  53  209.5882
  54  84.14189
  55  84.95212
  56  157.6922
  57  137.8436
  58  228.5033
  59  151.149
  60  165.0697
  61  288.69
  62  293.3276
  63  379.0789
  64  276.0102
  65  94.32137
  66  70.12642
  67  201.8893
  68  247.1216
  69  211.131
  70  294.8069
  71  353.3751
  72  263.5067
  73  199.3537
  74  183.1046
  75  348.0838
  76  245.657
  77  134.0549
  78  174.0385
  79  211.176
  80  278.3047
  81  333.4724
  82  162.2055
  83  276.8504
  84  421.6603
  85  314.6388
  86  225.9252
  87  254.8508
  88  348.2446
  89  278.8795
  90  335.5036
  91  277.3667
  92  370.7472
  93  282.266
  94  341.3797
  95  383.2059
  96  255.6037
  97  162.0005
  98  244.4805
  99  272.367
 100  242.8521
 101  177.2173
 102  221.8172
 103  333.9601
 104  428.9805
 105  310.7226
 106  217.8419
 107  191.5658
 108  107.5257
 109  92.73717
 110  290.658
 111  376.3279
 112  408.2839
 113  354.8354
 114  202.8622
 115  138.3037
 116  342.5162
 117  200.4572
 118  145.7986
 119  188.9186
 120  208.6898
 121  155.6477
 122  201.5491
 123  181.9712
 124  63.79403
 125  230.5245
 126  243.1577
 127  235.611
 128  189.5054
 129  174.2743
 130  131.2777
 131  183.9145
 132  211.6218
 133  162.1163
 134  245.0313
 135  272.252
 136  233.7787
 137  176.9661
 138  148.4467
 139  164.1914
 140  147.5743
 141  208.6956
 142  197.399
 143  384.8671
 144  272.4663
 145  323.0863
 146  282.0842
 147  189.5321
 148  210.4451
 149  139.0356
 150  175.6781
 151  275.4685
 152  328.1352
 153  260.5108
 154  207.2688
 155  44.76709
 156  57.54732
 157  204.8075
 158  168.8352
 159  161.2546
 160  87.85226
 161  205.9019
 162  189.9733
 163  158.012
 164  255.524
 165  299.4099
 166  300.49
 167  342.1551
 168  302.0641
 169  379.7254
 170  317.6595
 171  268.7409
 172  286.3755
 173  176.1317
 174  174.5582
 175  188.2312
 176  298.1701
 177  252.761
 178  134.8951
 179  43.71626
 180  228.5275
 181  145.5793
 182  130.2889
 183  230.228
 184  170.8103
 185  181.8452
 186  225.8805
 187  290.8329
 188  365.8095
 189  383.2029
 190  282.9178
 191  229.7593
 192  219.7211
 193  252.1032
 194  234.0076
 195  259.7945
 196  225.6035
 197  255.4042
 198  289.5314
 199  287.065
 200  240.7793
 201  275.0745
 202  252.9223
 203  200.2075
 204  284.0644
 205  158.9109
 206  130.926
 207  100.4565
 208  164.4921
 209  303.1541
 210  291.0223
 211  203.7893
 212  136.1785
 213  101.0618
 214  258.4147
 215  252.7113
 216  246.1176
 217  72.36379
 218  211.8886
 219  298.0451
 220  226.3221
 221  194.8905
 222  261.5518
 223  205.122
 224  293.379
 225  376.1821
 226  277.3954
 227  271.2731
 228  230.9423
 229  143.868
 230  190.9878
 231  381.3236
 232  382.4195
 233  283.0436
 234  206.8373
 235  193.6677
 236  111.732
 237  95.35439
 238  133.5817
 239  68.05019
 240  79.61365
 241  173.8006
 242  252.0614
 243  162.4321
 244  167.1487
 245  70.77464
 246  176.5167
 247  133.2737
 248  176.1355
 249  133.3183
 250  223.4177
 251  263.3936
 252  175.6088
 253  127.1263
 254  193.8574
 255  143.4835
 256  34.51875
 257  183.235
 258  230.8973
 259  252.0472
 260  264.6161
 261  284.1728
 262  308.808
 263  187.041
 264  164.6701
 265  68.18986
 266  155.0819
 267  322.4568
 268  168.5548
 269  45.948
 270  24.77063
 271  102.6759
 272  210.4834
 273  337.2772
 274  313.0955
 275  255.4484
 276  201.3889
 277  241.7511
 278  192.5524
 279  226.4334
 280  135.3107
 281  71.22681
 282  33.05919
 283  223.9984
 284  373.6042
 285  388.0641
 286  321.9561
 287  246.2171
 288  205.6158
 289  193.1733
 290  184.1341
 291  203.1082
 292  195.4554
 293  356.3349
 294  251.5436
 295  243.9664
 296  262.5593
 297  207.3283
 298  113.8236
 299  255.0728
 300  149.1141
 301  167.488
 302  321.7072
 303  235.9485
 304  297.7267
 305  211.9052
 306  182.7856
 307  296.5399
 308  207.021
 309  223.1255
 310  238.7774
 311  200.021
 312  248.1336
 313  152.4741
 314  132.0892
 315  122.3184
 316  313.127
 317  269.7525
 318  198.073
 319  194.7959
 320  176.2034
 321  94.08846
 322  213.1296
 323  168.2804
 324  77.98396
 325  121.7658
 326  287.7363
 327  232.137
 328  234.2084
 329  196.8285
 330  221.0091
 331  197.6727
 332  295.0067
 333  225.3887
 334  282.8799
 335  311.7875
 336  408.9147
 337  320.1486
 338  182.8138
 339  349.0694
 340  386.3192
 341  316.103
 342  460.9178
 343  354.9286
 344  184.684
 345  54.08112
 346  80.52474
 347  247.0962
 348  240.1829
 349  248.7036
 350  264.7563
 351  276.7063
 352  209.9564
 353  180.5605
 354  182.1438
 355  63.06558
 356  90.42062
 357  84.11015
 358  168.4108
 359  235.9014
 360  177.3283
 361  245.9588
 362  292.6694
 363  327.8725
 364  251.1637
 365  238.2996
 366  67.03906
 367  117.3118
 368  245.4954
 369  287.0013
 370  278.324
 371  310.9229
 372  218.1199
 373  226.6561
 374  241.1127
 375  195.8748
 376  129.6682
 377  187.2288
 378  276.6713
 379  267.3403
 380  301.3859
 381  198.4258
 382  125.1196
 383  428.1094
 384  320.1821
 385  178.9363
 386  182.821
 387  187.4208
 388  125.3345
 389  125.5257
 390  244.8945
 391  369.4511
 392  244.001
 393  237.6127
 394  341.2722
 395  201.2038
 396  111.5113
 397  225.7133
 398  330.1017
 399  372.4004
 400  414.2773
 401  353.2714
 402  368.2272
 403  264.4171
 404  209.2077
 405  306.7787
 406  221.1148
 407  261.4997
 408  298.4888
 409  310.7165
 410  276.6999
 411  181.5856
 412  136.7208
 413  279.7548
 414  254.7154
 415  287.1497
 416  357.7366
 417  244.8455
 418  161.3387
 419  89.08266
 420  124.3144
 421  179.0603
 422  97.21074
 423  140.699
 424  181.2665
 425  153.6407
 426  161.701
 427  301.8824
 428  343.3492
 429  238.1362
 430  159.2218
 431  70.61834
 432  149.0075
 433  172.5835
 434  273.7719
 435  289.8347
 436  234.2324
 437  168.9112
 438  194.2139
 439  254.3691
 440  332.4196
 441  254.633
 442  236.2475
 443  167.634
 444  182.8002
 445  325.203
 446  276.6321
 447  145.247
 448  193.8067
 449  309.7057
 450  389.5471
 451  251.2995
 452  335.403
 453  268.4017
 454  144.5128
 455  193.1352
 456  212.5238
 457  168.5481
 458  214.6179
 459  346.1307
 460  253.8481
 461  162.6207
 462  53.44125
 463  230.8592
 464  366.6307
 465  304.3946
 466  332.1692
 467  186.491
 468  239.0986
 469  232.9654
 470  204.5764
 471  269.9313
 472  237.6255
 473  255.8404
 474  319.7805
 475  225.9635
 476  212.0359
 477  300.4165
 478  353.1221
 479  402.4064
 480  333.7546
 481  303.081
 482  159.6578
 483  130.1408
 484  178.1054
 485  262.3792
 486  292.7364
 487  220.345
 488  116.4139
 489  190.8068
 490  250.6616
 491  394.9567
 492  410.1024
 493  342.94
 494  250.5509
 495  197.6716
 496  316.898
 497  264.7793
 498  343.5157
 499  246.9606
 500  112.9434
 501  94.49657
 502  191.4943
 503  326.3215
 504  355.7378
 505  176.8299
 506  250.9853
 507  336.4108
 508  301.2422
 509  395.1945
 510  561.2875
 511  844.6808
