# Input file       =  1199623241.089426_cleaned.dat
# Candidate        =  PSR_0332+5434
# Telescope        =  AR
# Epoch_topo       =  58128.528045016508
# Epoch_bary       =  N/A
# T_sample         =  0.002
# Data Folded      =  7143424
# Data Avg         =  0.0339090090505623
# Data StdDev      =  1.0006106479969  
# Profile Bins     =  512
# Profile Avg      =  473.160417895592 
# Profile StdDev   =  118.190713358878 
# Reduced chi-sqr  =  1.626
# Prob(Noise)      <  1.2e-17   (~8.5 sigma)
# P_topo (ms)      =  714.563360613598  +/- 0.000204
# P'_topo (s/s)    =  -0                +/- 1.11e-10
# P''_topo (s/s^2) =  0                 +/- 5.02e-14
# P_bary (ms)      =  N/A
# P'_bary (s/s)    =  N/A
# P''_bary (s/s^2) =  N/A
# P_orb (s)        =  N/A
# asin(i)/c (s)    =  N/A
# eccentricity     =  N/A
# w (rad)          =  N/A
# T_peri           =  N/A
######################################################
   0  1322.35
   1  1319.326
   2  994.7581
   3  829.6025
   4  767.6111
   5  622.3351
   6  578.0253
   7  528.6638
   8  493.939
   9  447.359
  10  430.5332
  11  536.7084
  12  532.3896
  13  601.5881
  14  634.0676
  15  600.8904
  16  638.7968
  17  619.1279
  18  598.7599
  19  534.0386
  20  446.2665
  21  453.0875
  22  559.6774
  23  301.6003
  24  345.5557
  25  334.3722
  26  402.3386
  27  496.7827
  28  500.2082
  29  478.8057
  30  441.2512
  31  484.8054
  32  414.4489
  33  444.1557
  34  523.1675
  35  497.4373
  36  505.8187
  37  430.4346
  38  540.2054
  39  530.0034
  40  421.3909
  41  355.3305
  42  503.6009
  43  504.9337
  44  492.5258
  45  551.1346
  46  502.7962
  47  460.2095
  48  405.2088
  49  409.0701
  50  339.4618
  51  369.781
  52  425.2192
  53  408.3282
  54  336.8766
  55  411.8073
  56  521.2714
  57  517.2672
  58  490.2668
  59  501.7782
  60  461.0089
  61  366.2077
  62  400.9707
  63  479.5186
  64  489.1034
  65  478.7659
  66  465.3884
  67  510.4872
  68  307.209
  69  297.8673
  70  351.3642
  71  361.117
  72  514.0347
  73  478.0133
  74  359.6339
  75  418.6241
  76  370.766
  77  422.9564
  78  408.1375
  79  501.8627
  80  463.3678
  81  419.5913
  82  405.7002
  83  320.6266
  84  493.1184
  85  535.6519
  86  475.5533
  87  361.213
  88  416.1951
  89  417.1706
  90  461.8642
  91  518.7635
  92  494.2266
  93  470.3313
  94  422.7548
  95  596.9945
  96  517.5831
  97  372.9956
  98  421.5258
  99  605.3558
 100  476.6247
 101  483.3444
 102  403.5353
 103  428.9059
 104  283.4877
 105  350.008
 106  366.1024
 107  458.5333
 108  502.1974
 109  437.5526
 110  466.1554
 111  450.6584
 112  511.2022
 113  485.9959
 114  572.3344
 115  366.8169
 116  392.1806
 117  529.962
 118  450.6099
 119  467.6306
 120  494.388
 121  537.3114
 122  489.225
 123  440.3778
 124  460.9059
 125  523.7845
 126  473.2853
 127  490.1995
 128  417.1226
 129  482.8827
 130  522.5733
 131  514.1284
 132  429.4185
 133  559.1051
 134  520.2712
 135  459.3102
 136  358.4275
 137  410.8268
 138  546.1215
 139  348.9998
 140  405.8404
 141  400.2251
 142  378.0555
 143  287.7536
 144  372.7468
 145  442.3531
 146  504.4448
 147  513.7683
 148  442.8159
 149  533.5116
 150  504.1307
 151  563.1708
 152  614.9189
 153  599.5594
 154  355.1746
 155  436.818
 156  456.424
 157  499.5388
 158  476.7021
 159  403.3594
 160  355.3197
 161  473.8907
 162  607.0949
 163  588.1168
 164  473.9463
 165  484.1158
 166  483.7221
 167  530.0372
 168  518.0658
 169  500.0985
 170  479.4985
 171  509.5469
 172  536.9795
 173  396.2001
 174  351.7133
 175  524.6168
 176  616.9904
 177  435.1093
 178  371.7729
 179  407.0493
 180  596.3843
 181  600.6666
 182  488.4457
 183  476.085
 184  503.5496
 185  426.7638
 186  400.511
 187  396.6883
 188  351.7422
 189  490.4753
 190  598.9478
 191  458.0498
 192  447.3632
 193  443.7919
 194  460.1958
 195  488.799
 196  491.3154
 197  455.1111
 198  448.7403
 199  556.2678
 200  384.2509
 201  482.285
 202  498.6669
 203  401.7836
 204  602.2
 205  559.0264
 206  407.5966
 207  433.0031
 208  550.7615
 209  524.4147
 210  540.28
 211  486.9669
 212  501.1444
 213  508.72
 214  517.3046
 215  544.7436
 216  678.4769
 217  634.4283
 218  455.7251
 219  527.3153
 220  472.6948
 221  474.0456
 222  435.0945
 223  428.8034
 224  456.3958
 225  473.9041
 226  484.9628
 227  450.6686
 228  326.2507
 229  300.3808
 230  382.3299
 231  391.2477
 232  528.104
 233  604.1645
 234  438.9604
 235  555.4979
 236  554.595
 237  524.5374
 238  621.7074
 239  592.9495
 240  597.4651
 241  508.7412
 242  492.4427
 243  618.6156
 244  779.7766
 245  625.7633
 246  400.7763
 247  376.5847
 248  432.004
 249  487.7043
 250  475.2535
 251  504.3069
 252  457.9627
 253  406.4994
 254  428.2059
 255  491.7331
 256  586.8296
 257  499.6635
 258  389.1642
 259  504.295
 260  602.3507
 261  514.1523
 262  566.0134
 263  528.7917
 264  373.8976
 265  358.9572
 266  395.7522
 267  439.8828
 268  343.8311
 269  480.1523
 270  423.092
 271  414.8493
 272  461.8715
 273  397.8116
 274  432.5992
 275  471.5257
 276  549.4472
 277  479.141
 278  502.0069
 279  543.6943
 280  518.2955
 281  531.0584
 282  377.7499
 283  319.6134
 284  336.6528
 285  339.9426
 286  459.6191
 287  545.4809
 288  453.218
 289  334.2508
 290  408.8939
 291  499.2348
 292  463.4103
 293  458.4267
 294  484.6099
 295  538.0923
 296  446.6055
 297  519.0438
 298  566.1201
 299  415.6624
 300  396.8267
 301  428.1455
 302  648.147
 303  585.6227
 304  413.3027
 305  357.8336
 306  400.2638
 307  476.813
 308  394.9404
 309  418.6379
 310  485.9609
 311  506.4018
 312  458.6273
 313  467.2826
 314  421.596
 315  441.1683
 316  513.1891
 317  627.2411
 318  553.4288
 319  505.5099
 320  425.1277
 321  415.9465
 322  376.8283
 323  402.1015
 324  301.0495
 325  374.1926
 326  507.5874
 327  497.1769
 328  431.0997
 329  387.5966
 330  542.946
 331  532.3368
 332  498.0968
 333  547.7789
 334  481.6139
 335  429.2172
 336  362.1779
 337  454.8251
 338  545.9728
 339  496.1926
 340  373.4844
 341  318.7685
 342  305.0918
 343  361.0919
 344  356.8361
 345  389.2501
 346  427.2914
 347  408.4738
 348  419.0883
 349  509.8447
 350  413.5074
 351  529.4548
 352  542.6603
 353  458.1342
 354  468.6829
 355  470.5928
 356  424.2325
 357  499.1004
 358  520.8826
 359  612.5319
 360  644.3961
 361  606.6928
 362  502.6571
 363  387.1142
 364  503.696
 365  375.1826
 366  481.2332
 367  510.3878
 368  429.1667
 369  493.2923
 370  294.4778
 371  439.3472
 372  388.6246
 373  447.4112
 374  208.2841
 375  371.208
 376  466.6824
 377  439.2709
 378  433.2139
 379  478.3357
 380  417.951
 381  244.8593
 382  319.6859
 383  470.9019
 384  373.7345
 385  499.7607
 386  524.6561
 387  586.3871
 388  355.0551
 389  421.3918
 390  401.5297
 391  514.5374
 392  534.928
 393  514.3581
 394  446.4526
 395  409.8252
 396  391.9127
 397  379.7387
 398  447.0121
 399  478.0286
 400  492.9937
 401  568.8679
 402  601.2344
 403  662.5406
 404  541.1705
 405  513.1354
 406  421.099
 407  550.0626
 408  444.5873
 409  280.3579
 410  296.4789
 411  438.2244
 412  435.6443
 413  432.1663
 414  411.4868
 415  419.7061
 416  412.9677
 417  491.0669
 418  486.8941
 419  494.7458
 420  369.74
 421  570.127
 422  602.5526
 423  556.7101
 424  391.3951
 425  452.5502
 426  535.4749
 427  363.5759
 428  379.4778
 429  386.3481
 430  509.4128
 431  459.0248
 432  417.4249
 433  351.2864
 434  439.7076
 435  500.4859
 436  460.2666
 437  226.6105
 438  337.4306
 439  372.1209
 440  366.7236
 441  456.8309
 442  483.3003
 443  589.1401
 444  516.9265
 445  518.6538
 446  650.9232
 447  549.1415
 448  487.0713
 449  400.0865
 450  461.7401
 451  615.2578
 452  391.1899
 453  444.8956
 454  496.1783
 455  383.8857
 456  417.2184
 457  515.4164
 458  445.0292
 459  404.22
 460  480.1525
 461  498.4218
 462  534.4775
 463  451.5847
 464  408.6885
 465  482.6197
 466  627.8257
 467  564.1106
 468  428.1395
 469  332.9625
 470  374.8127
 471  430.4539
 472  626.7524
 473  448.8984
 474  425.1648
 475  488.7883
 476  431.4406
 477  374.3957
 478  415.7915
 479  492.6017
 480  541.5721
 481  492.0973
 482  551.5881
 483  402.0051
 484  435.3465
 485  422.5033
 486  423.6269
 487  257.4206
 488  331.3369
 489  458.3927
 490  373.243
 491  268.5639
 492  320.8236
 493  401.5927
 494  455.6059
 495  605.5301
 496  618.5662
 497  560.5473
 498  466.6156
 499  325.8979
 500  526.3299
 501  507.7008
 502  472.7544
 503  508.7791
 504  460.3882
 505  377.9231
 506  513.5829
 507  476.8387
 508  589.9862
 509  887.78
 510  994.6379
 511  1089.563
