# Input file       =  1200671680.103016_cleaned.dat
# Candidate        =  PSR_0332+5434
# Telescope        =  AR
# Epoch_topo       =  58140.662755821941
# Epoch_bary       =  N/A
# T_sample         =  0.002
# Data Folded      =  7340032
# Data Avg         =  0.0321318478315595
# Data StdDev      =  1.00008715960745 
# Profile Bins     =  512
# Profile Avg      =  460.2130988179   
# Profile StdDev   =  119.743472261215 
# Reduced chi-sqr  =  0.987
# Prob(Noise)      <  0.576   (~0.0 sigma)
# P_topo (ms)      =  714.571364665331  +/- 0.000388
# P'_topo (s/s)    =  -0                +/- 2.05e-10
# P''_topo (s/s^2) =  0                 +/- 9.04e-14
# P_bary (ms)      =  N/A
# P'_bary (s/s)    =  N/A
# P''_bary (s/s^2) =  N/A
# P_orb (s)        =  N/A
# asin(i)/c (s)    =  N/A
# eccentricity     =  N/A
# w (rad)          =  N/A
# T_peri           =  N/A
######################################################
   0  1040.682
   1  1081.351
   2  897.8074
   3  714.7641
   4  517.9249
   5  427.8979
   6  448.8274
   7  450.0969
   8  462.3837
   9  536.5615
  10  523.7574
  11  509.136
  12  530.1455
  13  526.5968
  14  463.8085
  15  532.655
  16  615.4093
  17  518.842
  18  446.3045
  19  375.5837
  20  341.9435
  21  428.6572
  22  534.4266
  23  505.7122
  24  479.2708
  25  438.4485
  26  446.5653
  27  345.9641
  28  377.8904
  29  462.6611
  30  560.2697
  31  478.14
  32  434.309
  33  465.6793
  34  525.2175
  35  539.8448
  36  504.2192
  37  488.7032
  38  438.2499
  39  395.3309
  40  443.2552
  41  393.7257
  42  446.5157
  43  413.8073
  44  577.0125
  45  486.4168
  46  494.6838
  47  504.7975
  48  478.5166
  49  468.7643
  50  482.7464
  51  450.7587
  52  448.5746
  53  455.0311
  54  396.6422
  55  426.7072
  56  482.9851
  57  382.2593
  58  357.7989
  59  386.4723
  60  392.2658
  61  421.1441
  62  476.4437
  63  426.1541
  64  445.5135
  65  433.0917
  66  381.238
  67  499.9164
  68  560.88
  69  445.7411
  70  382.8063
  71  379.7251
  72  394.7739
  73  388.5741
  74  335.2474
  75  411.81
  76  538.5669
  77  557.4579
  78  434.558
  79  402.9767
  80  468.4982
  81  438.0641
  82  403.375
  83  535.0831
  84  550.7225
  85  479.135
  86  487.8358
  87  514.5884
  88  456.8387
  89  414.805
  90  472.3055
  91  607.1674
  92  600.0082
  93  504.0843
  94  445.8209
  95  484.0194
  96  487.3021
  97  562.4887
  98  465.9865
  99  488.1266
 100  572.0375
 101  622.7289
 102  465.0375
 103  429.2987
 104  419.1194
 105  492.2493
 106  503.2755
 107  491.6878
 108  502.3329
 109  471.5351
 110  360.9997
 111  480.7227
 112  467.1985
 113  402.9656
 114  433.6388
 115  524.6937
 116  537.7589
 117  500.4051
 118  558.8062
 119  466.7928
 120  514.9095
 121  504.9651
 122  389.8831
 123  336.9972
 124  417.0395
 125  399.6366
 126  477.6862
 127  498.1014
 128  500.5353
 129  519.2073
 130  599.2365
 131  558.5848
 132  492.0346
 133  495.1658
 134  449.9265
 135  356.0843
 136  450.9426
 137  480.951
 138  491.5689
 139  525.2623
 140  468.3304
 141  543.1736
 142  559.3307
 143  496.8352
 144  545.2454
 145  590.8253
 146  539.8906
 147  524.5209
 148  616.9276
 149  530.1064
 150  506.3115
 151  487.8115
 152  452.4847
 153  538.1571
 154  428.8398
 155  468.1507
 156  418.6535
 157  381.2599
 158  411.0604
 159  475.4149
 160  453.1297
 161  385.8018
 162  499.0076
 163  507.1716
 164  534.3388
 165  471.7804
 166  472.1447
 167  417.4302
 168  492.9169
 169  514.165
 170  443.9338
 171  474.8193
 172  493.0962
 173  498.5848
 174  466.174
 175  463.3021
 176  467.3042
 177  465.6872
 178  398.4006
 179  382.0555
 180  445.9263
 181  467.1667
 182  327.5426
 183  363.1494
 184  366.1392
 185  339.4534
 186  550.055
 187  496.0148
 188  367.9609
 189  364.0462
 190  392.7854
 191  470.7073
 192  375.6402
 193  405.9772
 194  469.8308
 195  414.4032
 196  394.3491
 197  357.6748
 198  336.2903
 199  323.7435
 200  389.4729
 201  501.2333
 202  518.8333
 203  527.6752
 204  491.219
 205  551.0095
 206  545.7465
 207  442.0027
 208  402.3111
 209  410.0488
 210  412.7863
 211  433.3996
 212  444.5265
 213  441.0277
 214  436.8372
 215  413.9844
 216  529.1183
 217  490.8495
 218  502.7715
 219  518.6876
 220  533.2053
 221  514.7383
 222  523.3628
 223  472.9423
 224  505.4891
 225  498.6635
 226  490.0656
 227  422.092
 228  459.8203
 229  508.9427
 230  571.6099
 231  491.7443
 232  358.6212
 233  430.257
 234  515.2891
 235  551.5176
 236  569.7136
 237  512.5575
 238  359.2333
 239  363.0121
 240  426.2411
 241  457.6454
 242  382.7076
 243  387.8095
 244  487.3931
 245  409.3286
 246  396.3589
 247  455.7806
 248  423.0584
 249  471.1486
 250  460.755
 251  410.8694
 252  480.1802
 253  344.8837
 254  456.8443
 255  513.2507
 256  511.6555
 257  437.4315
 258  519.6735
 259  514.0043
 260  369.3779
 261  388.5399
 262  446.9874
 263  442.3574
 264  455.1986
 265  469.1126
 266  474.1548
 267  400.4663
 268  457.1158
 269  579.3828
 270  545.2048
 271  459.0279
 272  460.9137
 273  501.1115
 274  446.2704
 275  412.7249
 276  412.3443
 277  408.9609
 278  373.3992
 279  406.0796
 280  413.5052
 281  422.833
 282  440.1118
 283  539.0628
 284  537.6281
 285  524.6774
 286  458.7879
 287  522.7458
 288  516.2922
 289  484.3383
 290  483.1815
 291  516.294
 292  470.7026
 293  426.8425
 294  518.4207
 295  466.0888
 296  482.1333
 297  461.5309
 298  495.7678
 299  556.7625
 300  501.6564
 301  421.1017
 302  445.1
 303  347.5323
 304  366.8399
 305  441.112
 306  520.1479
 307  577.646
 308  639.756
 309  638.8724
 310  514.7535
 311  490.211
 312  548.4954
 313  560.6436
 314  572.7389
 315  502.5453
 316  560.8619
 317  524.0587
 318  475.2121
 319  440.057
 320  526.8755
 321  483.688
 322  495.2559
 323  517.306
 324  540.7241
 325  484.2851
 326  474.0283
 327  496.9184
 328  464.4535
 329  308.4235
 330  442.3268
 331  485.5138
 332  403.0583
 333  342.6544
 334  367.9908
 335  331.6677
 336  367.5675
 337  338.4652
 338  466.6832
 339  500.6678
 340  332.1534
 341  380.463
 342  343.226
 343  311.3138
 344  333.1611
 345  380.9508
 346  394.922
 347  382.5501
 348  337.295
 349  372.7363
 350  380.5093
 351  312.7743
 352  260.1633
 353  411.2726
 354  530.9606
 355  532.1165
 356  390.6758
 357  357.3709
 358  324.2759
 359  388.0701
 360  421.056
 361  443.4902
 362  480.5747
 363  472.2265
 364  445.4497
 365  470.503
 366  503.5018
 367  506.0385
 368  449.4329
 369  434.6604
 370  463.961
 371  386.6777
 372  304.3225
 373  471.0738
 374  451.0823
 375  349.7978
 376  399.6128
 377  439.3307
 378  351.5779
 379  350.8687
 380  348.0403
 381  354.8682
 382  405.6326
 383  448.4868
 384  416.7915
 385  348.0898
 386  398.747
 387  486.5306
 388  514.2001
 389  361.2167
 390  340.7345
 391  435.9276
 392  342.7705
 393  268.2146
 394  356.3539
 395  499.5053
 396  479.576
 397  394.9937
 398  364.3232
 399  449.9454
 400  320.2426
 401  334.8536
 402  490.5697
 403  453.4456
 404  409.7083
 405  468.5919
 406  454.1485
 407  374.436
 408  373.8693
 409  439.1902
 410  367.999
 411  347.2794
 412  346.9561
 413  480.3651
 414  574.4617
 415  532.4973
 416  594.2584
 417  548.6219
 418  464.3686
 419  452.5874
 420  439.8324
 421  452.9854
 422  400.2571
 423  344.718
 424  370.1147
 425  395.9359
 426  495.0099
 427  493.6019
 428  370.0702
 429  319.9969
 430  386.6142
 431  530.968
 432  544.1423
 433  592.5236
 434  600.9246
 435  486.3071
 436  483.5183
 437  452.6739
 438  500.2037
 439  625.1431
 440  594.5101
 441  536.4966
 442  514.7816
 443  436.2658
 444  432.6845
 445  420.0756
 446  388.6394
 447  391.9901
 448  419.4738
 449  479.946
 450  495.6414
 451  506.6531
 452  512.0468
 453  508.4068
 454  507.5655
 455  564.9499
 456  519.3171
 457  431.3611
 458  369.7453
 459  360.7987
 460  374.3068
 461  440.6238
 462  546.4854
 463  468.455
 464  471.1451
 465  402.8738
 466  272.372
 467  329.5648
 468  389.5618
 469  287.434
 470  391.8153
 471  462.2256
 472  453.0786
 473  442.2357
 474  465.6227
 475  363.2922
 476  372.1217
 477  371.7775
 478  378.7017
 479  411.5023
 480  356.0974
 481  410.5554
 482  478.9842
 483  272.7076
 484  444.3583
 485  458.6992
 486  411.6693
 487  461.4594
 488  381.3938
 489  442.0415
 490  482.1258
 491  491.9473
 492  410.0452
 493  361.1257
 494  596.1026
 495  617.0303
 496  531.0506
 497  503.2541
 498  549.9432
 499  476.0124
 500  371.3193
 501  385.3719
 502  282.5491
 503  494.6729
 504  458.6736
 505  512.5861
 506  484.2305
 507  532.2776
 508  570.9047
 509  681.5638
 510  733.1196
 511  899.6943
