# Input file       =  1200930286.110481_cleaned.dat
# Candidate        =  PSR_0332+5434
# Telescope        =  AR
# Epoch_topo       =  58143.655880908344
# Epoch_bary       =  N/A
# T_sample         =  0.002
# Data Folded      =  7340032
# Data Avg         =  0.0159301739583522
# Data StdDev      =  1.00005718525943 
# Profile Bins     =  512
# Profile Avg      =  228.542859883088 
# Profile StdDev   =  119.739883341513 
# Reduced chi-sqr  =  1.300
# Prob(Noise)      <  5.28e-06   (~4.4 sigma)
# P_topo (ms)      =  714.572976514267  +/- 0.00019
# P'_topo (s/s)    =  -0                +/- 1e-10
# P''_topo (s/s^2) =  0                 +/- 4.43e-14
# P_bary (ms)      =  N/A
# P'_bary (s/s)    =  N/A
# P''_bary (s/s^2) =  N/A
# P_orb (s)        =  N/A
# asin(i)/c (s)    =  N/A
# eccentricity     =  N/A
# w (rad)          =  N/A
# T_peri           =  N/A
######################################################
   0  836.0991
   1  801.8072
   2  584.833
   3  367.8951
   4  347.2193
   5  261.6305
   6  168.341
   7  295.7919
   8  338.2315
   9  270.7799
  10  221.9009
  11  219.3855
  12  114.6398
  13  141.1863
  14  236.2384
  15  302.022
  16  258.6233
  17  202.4554
  18  275.367
  19  248.9389
  20  235.6885
  21  284.5086
  22  290.6949
  23  234.8061
  24  202.1206
  25  191.8722
  26  244.5832
  27  175.2504
  28  80.09907
  29  155.9307
  30  433.6609
  31  408.1987
  32  262.1144
  33  133.3105
  34  250.1708
  35  250.3247
  36  320.485
  37  305.9621
  38  245.644
  39  243.531
  40  195.5529
  41  266.2491
  42  306.5962
  43  245.4959
  44  215.4902
  45  259.532
  46  288.8109
  47  302.6261
  48  311.0812
  49  270.6041
  50  355.1014
  51  275.5783
  52  185.842
  53  98.41646
  54  138.9189
  55  266.4517
  56  297.2069
  57  245.5312
  58  200.0656
  59  308.782
  60  167.8646
  61  175.276
  62  193.6204
  63  171.2477
  64  203.6904
  65  177.2578
  66  160.3923
  67  216.6399
  68  271.4147
  69  189.6326
  70  150.6514
  71  212.6621
  72  240.241
  73  131.1903
  74  276.2746
  75  162.5356
  76  116.1596
  77  89.5115
  78  171.3995
  79  228.2597
  80  178.245
  81  235.9324
  82  194.6039
  83  67.7188
  84  -13.49906
  85  88.7372
  86  311.9453
  87  325.8801
  88  218.4363
  89  310.7903
  90  236.8025
  91  152.7707
  92  164.2724
  93  164.883
  94  204.1572
  95  166.943
  96  197.9412
  97  217.4644
  98  -43.18692
  99  109.5737
 100  137.6069
 101  83.87855
 102  90.24519
 103  223.7138
 104  304.4207
 105  269.4581
 106  304.9353
 107  207.6903
 108  268.7291
 109  154.3948
 110  46.14091
 111  71.15689
 112  164.4957
 113  154.806
 114  146.0518
 115  120.8166
 116  276.858
 117  209.2493
 118  226.5601
 119  226.2402
 120  197.0544
 121  230.4955
 122  258.8225
 123  303.8104
 124  284.8325
 125  173.2699
 126  193.9429
 127  173.9528
 128  166.8541
 129  234.7996
 130  212.1019
 131  248.4172
 132  142.7541
 133  130.1763
 134  228.375
 135  211.7303
 136  233.7101
 137  269.472
 138  226.2328
 139  257.135
 140  166.7095
 141  164.7805
 142  118.7309
 143  207.7693
 144  111.5251
 145  154.3964
 146  199.675
 147  105.5895
 148  131.1627
 149  211.9023
 150  165.5211
 151  161.5451
 152  159.49
 153  151.2441
 154  143.7725
 155  199.5939
 156  247.9133
 157  256.0472
 158  204.4449
 159  269.1855
 160  366.0481
 161  205.4812
 162  294.018
 163  367.6351
 164  327.8051
 165  324.1561
 166  412.4899
 167  390.9506
 168  290.3886
 169  323.6363
 170  290.6323
 171  382.2242
 172  440.2044
 173  346.8413
 174  221.2604
 175  190.5465
 176  262.7029
 177  282.5921
 178  289.5782
 179  294.0965
 180  201.3314
 181  147.4812
 182  187.1833
 183  285.7036
 184  189.1248
 185  127.4498
 186  184.9211
 187  177.1864
 188  237.6027
 189  219.9105
 190  237.0229
 191  237.8445
 192  214.9074
 193  332.22
 194  454.3796
 195  419.6016
 196  282.6849
 197  347.5156
 198  279.3689
 199  279.6343
 200  207.2275
 201  287.609
 202  205.1157
 203  208.0419
 204  301.5484
 205  308.4266
 206  261.1303
 207  306.0069
 208  303.6042
 209  285.0561
 210  282.0418
 211  273.7078
 212  204.1409
 213  195.5415
 214  257.1891
 215  341.9606
 216  415.7349
 217  393.4107
 218  264.3231
 219  144.8209
 220  153.6649
 221  239.5079
 222  186.7784
 223  152.7806
 224  151.5731
 225  189.5173
 226  199.0024
 227  280.3303
 228  250.9677
 229  283.4737
 230  118.008
 231  227.4489
 232  283.0307
 233  110.4354
 234  90.5074
 235  248.9687
 236  338.5612
 237  260.1938
 238  355.0561
 239  289.1288
 240  212.3932
 241  137.5422
 242  158.1643
 243  41.89745
 244  161.1606
 245  283.2823
 246  220.29
 247  225.1665
 248  175.87
 249  104.66
 250  192.7076
 251  142.7429
 252  143.8048
 253  140.3272
 254  101.9395
 255  127.0374
 256  198.6404
 257  129.6283
 258  101.4884
 259  111.7627
 260  240.8822
 261  225.303
 262  102.3232
 263  165.7111
 264  224.9894
 265  229.9751
 266  132.265
 267  151.3598
 268  214.6741
 269  222.0417
 270  279.7113
 271  233.8867
 272  264.4078
 273  212.528
 274  214.4545
 275  219.1175
 276  162.4469
 277  190.3681
 278  121.4162
 279  70.53943
 280  153.0435
 281  253.7362
 282  191.3711
 283  198.9169
 284  180.0675
 285  102.0186
 286  22.52415
 287  44.00306
 288  84.65124
 289  209.9446
 290  185.3959
 291  93.5577
 292  176.6073
 293  111.3564
 294  56.39828
 295  42.07461
 296  48.34469
 297  113.0558
 298  268.4177
 299  362.6561
 300  226.4886
 301  71.32818
 302  86.92424
 303  132.2735
 304  99.12227
 305  214.218
 306  220.5796
 307  248.0266
 308  127.8245
 309  186.3143
 310  128.8948
 311  41.92046
 312  107.3478
 313  138.9045
 314  213.5582
 315  134.0279
 316  229.3259
 317  279.8798
 318  228.3967
 319  172.9416
 320  123.2422
 321  154.7562
 322  233.4511
 323  200.6754
 324  199.1997
 325  159.9357
 326  176.2358
 327  207.2034
 328  167.6722
 329  327.1551
 330  358.9267
 331  213.3592
 332  268.2568
 333  240.2831
 334  153.9324
 335  269.4023
 336  190.4162
 337  132.8326
 338  236.7831
 339  249.8893
 340  449.4268
 341  250.9015
 342  201.1646
 343  150.6894
 344  157.5796
 345  229.3129
 346  235.465
 347  226.4186
 348  247.4092
 349  138.0902
 350  54.44555
 351  169.202
 352  272.8124
 353  258.2944
 354  242.2186
 355  132.0334
 356  178.3689
 357  209.464
 358  147.7699
 359  169.1568
 360  210.5184
 361  274.5893
 362  232.6113
 363  262.4884
 364  267.7737
 365  281.1388
 366  281.8926
 367  217.8716
 368  256.3652
 369  292.8839
 370  281.1248
 371  229.3139
 372  260.6277
 373  319.3528
 374  231.4963
 375  249.8974
 376  298.4955
 377  300.6994
 378  272.7742
 379  314.6089
 380  275.8256
 381  343.0211
 382  302.8747
 383  161.6546
 384  257.8448
 385  320.7783
 386  236.1253
 387  274.1039
 388  312.6044
 389  237.5524
 390  280.9964
 391  201.3608
 392  122.9001
 393  112.3026
 394  258.83
 395  379.9683
 396  348.0893
 397  262.0061
 398  225.0759
 399  274.1447
 400  215.877
 401  240.3989
 402  373.066
 403  252.6916
 404  157.4307
 405  126.3778
 406  149.1211
 407  179.1816
 408  308.1338
 409  373.2021
 410  175.0706
 411  221.4726
 412  202.5165
 413  192.3184
 414  299.5304
 415  334.6259
 416  301.0384
 417  333.8825
 418  252.4866
 419  227.9143
 420  233.6773
 421  318.5255
 422  386.5287
 423  309.0073
 424  191.8646
 425  116.8297
 426  295.4438
 427  337.6947
 428  248.3697
 429  219.0649
 430  146.9545
 431  121.7325
 432  294.2219
 433  328.393
 434  266.8543
 435  223.2884
 436  245.4697
 437  249.491
 438  263.6769
 439  322.1046
 440  348.7135
 441  237.6938
 442  191.6446
 443  244.1572
 444  247.9394
 445  176.2407
 446  145.6345
 447  215.2578
 448  283.5592
 449  255.4569
 450  217.9321
 451  222.7749
 452  252.3195
 453  297.7652
 454  250.2483
 455  195.7831
 456  160.4451
 457  117.8748
 458  185.257
 459  249.5111
 460  240.1311
 461  234.8152
 462  156.8403
 463  135.852
 464  123.0728
 465  203.7273
 466  182.8707
 467  163.1982
 468  337.3863
 469  317.4089
 470  222.1851
 471  174.9646
 472  329.2659
 473  151.9494
 474  131.0588
 475  225.6911
 476  144.5541
 477  189.1852
 478  241.1331
 479  241.4694
 480  237.8406
 481  68.27061
 482  180.0881
 483  397.0706
 484  349.5942
 485  155.4761
 486  157.7038
 487  200.1605
 488  152.6904
 489  246.7813
 490  173.5736
 491  238.3504
 492  245.0871
 493  313.0881
 494  335.7461
 495  313.3441
 496  238.4487
 497  239.0764
 498  314.7457
 499  354.8454
 500  312.6291
 501  233.2265
 502  240.6141
 503  184.013
 504  267.2245
 505  260.6584
 506  246.1977
 507  315.552
 508  389.735
 509  613.3814
 510  916.2087
 511  889.3314
