# Input file       =  1200398598.099281_cleaned.dat
# Candidate        =  PSR_0332+5434
# Telescope        =  AR
# Epoch_topo       =  58137.502084482418
# Epoch_bary       =  N/A
# T_sample         =  0.002
# Data Folded      =  7143424
# Data Avg         =  0.0181290680941087
# Data StdDev      =  1.0001481868349  
# Profile Bins     =  512
# Profile Avg      =  252.865718042053 
# Profile StdDev   =  118.136088101045 
# Reduced chi-sqr  =  1.314
# Prob(Noise)      <  2.23e-06   (~4.6 sigma)
# P_topo (ms)      =  714.569488710148  +/- 0.000151
# P'_topo (s/s)    =  -0                +/- 8.2e-11
# P''_topo (s/s^2) =  0                 +/- 3.72e-14
# P_bary (ms)      =  N/A
# P'_bary (s/s)    =  N/A
# P''_bary (s/s^2) =  N/A
# P_orb (s)        =  N/A
# asin(i)/c (s)    =  N/A
# eccentricity     =  N/A
# w (rad)          =  N/A
# T_peri           =  N/A
######################################################
   0  888.2578
   1  700.3318
   2  553.7978
   3  331.5348
   4  301.1607
   5  281.3671
   6  208.7233
   7  324.3563
   8  248.4581
   9  282.7087
  10  222.3574
  11  237.135
  12  271.9795
  13  318.1651
  14  408.1644
  15  445.9694
  16  386.2363
  17  369.8155
  18  308.4353
  19  276.7275
  20  200.7863
  21  219.8633
  22  273.6552
  23  147.3813
  24  174.1714
  25  187.3663
  26  263.7307
  27  196.5233
  28  113.0379
  29  276.6278
  30  267.9674
  31  179.332
  32  260.825
  33  250.3165
  34  200.2373
  35  216.7907
  36  287.4548
  37  217.0663
  38  172.865
  39  301.5247
  40  262.8795
  41  317.1902
  42  343.0553
  43  274.1762
  44  256.2127
  45  156.1901
  46  132.8542
  47  283.2387
  48  285.9769
  49  137.7506
  50  171.2212
  51  294.9075
  52  209.3303
  53  296.6113
  54  304.5417
  55  287.9409
  56  296.2
  57  285.2151
  58  404.7796
  59  267.2492
  60  164.2913
  61  106.5794
  62  205.3322
  63  216.6305
  64  254.7461
  65  348.7812
  66  315.3114
  67  320.4461
  68  252.9579
  69  228.4348
  70  186.3945
  71  169.1253
  72  316.9857
  73  200.6871
  74  229.628
  75  206.9757
  76  184.3526
  77  163.282
  78  127.6712
  79  168.2725
  80  130.3835
  81  168.5234
  82  144.4906
  83  137.0953
  84  75.52839
  85  -13.03342
  86  60.35341
  87  186.3804
  88  340.1504
  89  270.9858
  90  126.8122
  91  196.5961
  92  156.523
  93  220.5216
  94  131.4118
  95  231.9613
  96  357.7674
  97  326.9234
  98  215.192
  99  82.96359
 100  125.1972
 101  320.9146
 102  272.5921
 103  90.69331
 104  165.1271
 105  158.4464
 106  204.4166
 107  268.2989
 108  325.5033
 109  251.2805
 110  293.4878
 111  272.1999
 112  309.699
 113  266.3469
 114  214.762
 115  247.0991
 116  322.6394
 117  355.528
 118  323.547
 119  280.9554
 120  269.6978
 121  303.7549
 122  312.0929
 123  352.4955
 124  218.7368
 125  144.6802
 126  215.0122
 127  166.519
 128  306.6155
 129  334.1401
 130  249.1465
 131  219.8645
 132  358.9031
 133  419.672
 134  291.5641
 135  200.6344
 136  163.7028
 137  135.5955
 138  190.7165
 139  279.2799
 140  344.2755
 141  302.9925
 142  384.2128
 143  187.4758
 144  151.9953
 145  200.2518
 146  270.6792
 147  348.4775
 148  272.5958
 149  263.5103
 150  219.937
 151  151.6231
 152  87.56255
 153  124.064
 154  241.7903
 155  255.0423
 156  290.0688
 157  361.9163
 158  250.2648
 159  99.54644
 160  114.4126
 161  215.0515
 162  331.7242
 163  367.0844
 164  275.3871
 165  364.437
 166  251.4164
 167  220.792
 168  168.7694
 169  245.909
 170  208.5404
 171  278.53
 172  270.3975
 173  191.6351
 174  97.93051
 175  215.3658
 176  227.8672
 177  237.9514
 178  221.8344
 179  222.7242
 180  148.9102
 181  255.0626
 182  225.3305
 183  279.696
 184  279.3178
 185  221.435
 186  298.1257
 187  274.2572
 188  263.2744
 189  327.0247
 190  336.7371
 191  401.0758
 192  267.5971
 193  218.5533
 194  197.1941
 195  102.5484
 196  260.8675
 197  208.7506
 198  199.5322
 199  309.4417
 200  186.383
 201  169.9849
 202  156.5477
 203  244.4099
 204  312.1469
 205  310.3038
 206  308.0615
 207  240.398
 208  145.1866
 209  30.40282
 210  103.2778
 211  208.7284
 212  271.9348
 213  234.8256
 214  223.4083
 215  284.7829
 216  300.2227
 217  302.8938
 218  241.9044
 219  158.069
 220  174.7931
 221  142.6427
 222  150.619
 223  280.4836
 224  366.3226
 225  219.9754
 226  102.2807
 227  192.0022
 228  293.7322
 229  242.678
 230  342.0805
 231  268.7793
 232  210.0864
 233  292.5508
 234  172.4724
 235  206.4807
 236  286.8979
 237  292.907
 238  236.9074
 239  122.4336
 240  366.8372
 241  367.0993
 242  234.8016
 243  158.5509
 244  177.0759
 245  250.3065
 246  273.3284
 247  229.2433
 248  171.513
 249  159.3114
 250  194.16
 251  260.6913
 252  189.2765
 253  279.8207
 254  225.9276
 255  274.2569
 256  276.303
 257  242.348
 258  283.9771
 259  323.2079
 260  304.3935
 261  368.3867
 262  282.768
 263  141.8739
 264  154.5683
 265  357.2755
 266  380.7918
 267  226.1343
 268  237.1648
 269  145.9625
 270  339.6161
 271  322.1358
 272  383.9138
 273  479.3323
 274  341.0196
 275  140.3894
 276  219.7882
 277  439.1784
 278  345.6031
 279  147.5659
 280  371.3929
 281  357.8262
 282  264.2663
 283  361.0606
 284  288.9157
 285  199.1698
 286  254.3358
 287  226.512
 288  205.1704
 289  224.6528
 290  421.1513
 291  225.7379
 292  100.5919
 293  191.2582
 294  138.2397
 295  152.3299
 296  216.4762
 297  264.3199
 298  315.2869
 299  293.7708
 300  279.7694
 301  292.3967
 302  331.1471
 303  330.4734
 304  279.0747
 305  313.0657
 306  347.6571
 307  386.9554
 308  416.8594
 309  326.5497
 310  199.4009
 311  196.0167
 312  204.7342
 313  361.6883
 314  455.3889
 315  351.686
 316  241.465
 317  118.9406
 318  167.4268
 319  339.8292
 320  439.3964
 321  290.7806
 322  287.7725
 323  231.3843
 324  130.0689
 325  139.8025
 326  208.4625
 327  281.1591
 328  177.0827
 329  245.2394
 330  292.5993
 331  387.9362
 332  290.8561
 333  362.1461
 334  265.9695
 335  303.9852
 336  368.2524
 337  337.1896
 338  289.7176
 339  365.2988
 340  301.5778
 341  219.9125
 342  245.8051
 343  345.7895
 344  286.5406
 345  194.7744
 346  158.893
 347  277.8894
 348  155.4737
 349  72.68987
 350  164.6431
 351  268.1329
 352  226.806
 353  253.1658
 354  219.7656
 355  330.0254
 356  293.2216
 357  156.866
 358  204.2649
 359  294.286
 360  319.782
 361  331.3308
 362  258.2915
 363  180.0735
 364  208.5511
 365  311.7151
 366  418.0993
 367  315.5097
 368  223.8983
 369  197.931
 370  217.5562
 371  358.8368
 372  279.8091
 373  278.8921
 374  246.6413
 375  282.9047
 376  317.3124
 377  288.8338
 378  287.8782
 379  406.3434
 380  343.9981
 381  219.0252
 382  250.23
 383  339.7253
 384  255.0394
 385  188.5158
 386  183.4845
 387  229.7819
 388  252.7061
 389  137.3303
 390  153.052
 391  222.0401
 392  317.9102
 393  280.8988
 394  288.4953
 395  231.442
 396  161.9925
 397  164.6557
 398  250.2853
 399  206.4739
 400  65.14083
 401  154.4626
 402  170.4531
 403  179.2819
 404  166.207
 405  58.58287
 406  173.3973
 407  227.115
 408  177.2314
 409  173.8308
 410  216.9262
 411  343.6717
 412  234.6524
 413  253.72
 414  175.0684
 415  159.9505
 416  307.5436
 417  348.1123
 418  329.4763
 419  300.1371
 420  292.6657
 421  340.0096
 422  268.9256
 423  181.5268
 424  362.9615
 425  341.6089
 426  323.9959
 427  244.7394
 428  262.7804
 429  189.1035
 430  202.4435
 431  174.4694
 432  101.7674
 433  143.7055
 434  165.4454
 435  357.4807
 436  406.6297
 437  224.0298
 438  197.0008
 439  210.1048
 440  194.9446
 441  152.7057
 442  137.8093
 443  280.1766
 444  291.8099
 445  257.5788
 446  190.0929
 447  181.5871
 448  223.2397
 449  252.8158
 450  253.689
 451  196.0674
 452  273.6592
 453  285.1238
 454  246.7794
 455  91.13744
 456  173.781
 457  226.7761
 458  261.9631
 459  334.6886
 460  209.8334
 461  162.5752
 462  122.0546
 463  65.23354
 464  72.30482
 465  83.42529
 466  196.6287
 467  157.862
 468  164.1649
 469  156.8738
 470  183.9528
 471  213.3813
 472  168.9085
 473  193.2782
 474  337.2823
 475  299.9767
 476  232.5631
 477  285.7921
 478  307.9008
 479  381.1833
 480  331.7701
 481  347.4989
 482  239.4735
 483  266.5028
 484  237.2347
 485  202.7451
 486  173.8923
 487  154.0776
 488  229.3385
 489  303.1922
 490  329.404
 491  218.3121
 492  177.0856
 493  247.8395
 494  320.6774
 495  391.8659
 496  404.1296
 497  187.3228
 498  180.2993
 499  376.0489
 500  152.1537
 501  222.0705
 502  357.3756
 503  303.0524
 504  276.8811
 505  413.4783
 506  527.7585
 507  328.4604
 508  255.2686
 509  527.9219
 510  809.6107
 511  986.2926
