# Input file       =  1200859475.122465_cleaned.dat
# Candidate        =  PSR_0332+5434
# Telescope        =  AR
# Epoch_topo       =  58142.836309287792
# Epoch_bary       =  N/A
# T_sample         =  0.002
# Data Folded      =  7340032
# Data Avg         =  0.0187300835456958
# Data StdDev      =  1.00004054491284 
# Profile Bins     =  512
# Profile Avg      =  268.423600919585 
# Profile StdDev   =  119.73789094229  
# Reduced chi-sqr  =  1.033
# Prob(Noise)      <  0.294   (~0.5 sigma)
# P_topo (ms)      =  714.572898112636  +/- 0.000216
# P'_topo (s/s)    =  -0                +/- 1.14e-10
# P''_topo (s/s^2) =  0                 +/- 5.02e-14
# P_bary (ms)      =  N/A
# P'_bary (s/s)    =  N/A
# P''_bary (s/s^2) =  N/A
# P_orb (s)        =  N/A
# asin(i)/c (s)    =  N/A
# eccentricity     =  N/A
# w (rad)          =  N/A
# T_peri           =  N/A
######################################################
   0  687.5541
   1  715.5775
   2  661.0829
   3  456.9903
   4  290.2563
   5  147.7508
   6  256.6793
   7  275.9038
   8  342.0176
   9  470.7296
  10  358.6764
  11  482.8151
  12  347.385
  13  209.9823
  14  268.4737
  15  326.1905
  16  350.0191
  17  143.8591
  18  254.7358
  19  356.3342
  20  381.1287
  21  308.8154
  22  153.3967
  23  161.5015
  24  193.577
  25  292.2611
  26  319.3886
  27  294.7555
  28  404.9229
  29  477.1611
  30  486.6975
  31  358.9834
  32  216.351
  33  51.68279
  34  200.6287
  35  305.2641
  36  293.3574
  37  284.4672
  38  272.5287
  39  314.7401
  40  360.6009
  41  314.3775
  42  278.8913
  43  225.4691
  44  274.2749
  45  360.5403
  46  320.2072
  47  289.5141
  48  366.317
  49  334.8029
  50  215.7769
  51  208.8974
  52  259.2224
  53  243.4578
  54  201.2009
  55  284.0282
  56  339.0418
  57  306.2849
  58  340.913
  59  406.8915
  60  342.8662
  61  202.2626
  62  173.4919
  63  224.8782
  64  253.8954
  65  301.4839
  66  167.0475
  67  253.9627
  68  263.3795
  69  326.2981
  70  300.0287
  71  123.2994
  72  170.5974
  73  262.2302
  74  331.8819
  75  220.9551
  76  259.0019
  77  260.5362
  78  235.9359
  79  154.7626
  80  252.3792
  81  258.7518
  82  353.7254
  83  401.0466
  84  324.9276
  85  207.337
  86  243.9249
  87  200.1373
  88  260.4621
  89  203.9743
  90  265.5761
  91  355.7728
  92  410.3215
  93  480.4771
  94  430.6399
  95  339.6017
  96  297.4321
  97  257.9453
  98  218.3781
  99  200.0706
 100  254.924
 101  386.9076
 102  355.8815
 103  231.6871
 104  86.3243
 105  137.8482
 106  197.2193
 107  252.7386
 108  304.4558
 109  281.3865
 110  289.815
 111  84.65527
 112  221.5621
 113  324.8621
 114  256.8414
 115  186.0651
 116  167.8121
 117  151.1275
 118  181.0057
 119  192.8041
 120  194.1918
 121  224.3853
 122  153.6999
 123  152.9819
 124  210.6936
 125  242.251
 126  289.7149
 127  352.8413
 128  278.5685
 129  221.9206
 130  105.3334
 131  205.1332
 132  259.4736
 133  330.3633
 134  402.9307
 135  298.573
 136  237.1506
 137  271.5512
 138  311.5227
 139  289.6192
 140  243.1671
 141  207.4686
 142  167.3008
 143  198.0869
 144  236.3883
 145  278.0006
 146  287.9769
 147  299.2846
 148  279.257
 149  226.169
 150  273.5776
 151  317.6436
 152  299.1011
 153  279.3936
 154  238.4027
 155  241.4975
 156  281.5704
 157  214.0483
 158  169.6161
 159  194.4758
 160  243.8195
 161  275.1198
 162  294.325
 163  188.9458
 164  181.7221
 165  246.8718
 166  259.5721
 167  160.2318
 168  145.4973
 169  234.5305
 170  167.6481
 171  257.1562
 172  355.3943
 173  268.3929
 174  180.6377
 175  258.6066
 176  392.826
 177  226.6549
 178  221.1068
 179  278.6989
 180  176.5763
 181  141.2137
 182  195.73
 183  217.9908
 184  132.2214
 185  230.7457
 186  360.1753
 187  268.4646
 188  214.8699
 189  305.0197
 190  194.424
 191  172.9597
 192  3.825548
 193  185.3124
 194  337.3336
 195  184.2626
 196  288.9271
 197  345.899
 198  372.0555
 199  289.9702
 200  157.9417
 201  219.0791
 202  279.547
 203  239.6628
 204  245.9092
 205  240.8105
 206  317.5227
 207  292.964
 208  161.7092
 209  202.013
 210  263.0499
 211  235.293
 212  216.0819
 213  262.2439
 214  277.2155
 215  270.6701
 216  259.6507
 217  328.0009
 218  274.4187
 219  273.2252
 220  241.5002
 221  329.5206
 222  242.2286
 223  333.0486
 224  221.206
 225  227.2606
 226  171.9731
 227  174.0281
 228  259.4611
 229  260.4792
 230  293.3527
 231  228.486
 232  210.6354
 233  234.652
 234  229.569
 235  161.3725
 236  377.3115
 237  362.388
 238  310.2721
 239  277.9319
 240  212.958
 241  267.071
 242  275.0796
 243  177.7126
 244  245.418
 245  265.1029
 246  296.5489
 247  306.7634
 248  252.2088
 249  242.7172
 250  241.6248
 251  264.4235
 252  182.5006
 253  271.3919
 254  331.7701
 255  342.4285
 256  296.8459
 257  338.7336
 258  220.7147
 259  267.4941
 260  300.6842
 261  339.5096
 262  337.5172
 263  286.3865
 264  307.2464
 265  224.8667
 266  234.6409
 267  213.2069
 268  246.4353
 269  307.823
 270  261.7599
 271  257.3583
 272  310.246
 273  329.4366
 274  239.623
 275  237.0792
 276  310.5286
 277  274.0737
 278  248.7756
 279  340.695
 280  286.9328
 281  246.8889
 282  232.0359
 283  184.682
 284  227.5338
 285  289.4708
 286  363.4976
 287  311.1681
 288  311.1196
 289  310.13
 290  413.5585
 291  353.7847
 292  252.8647
 293  149.9161
 294  229.422
 295  262.5789
 296  188.3312
 297  169.1537
 298  317.7396
 299  419.4364
 300  384.9347
 301  411.439
 302  316.1987
 303  205.4916
 304  127.2157
 305  208.6596
 306  164.3629
 307  362.9441
 308  162.2165
 309  179.7332
 310  221.6832
 311  168.0185
 312  216.9331
 313  277.7966
 314  242.2216
 315  177.0706
 316  274.4669
 317  400.6412
 318  307.5018
 319  220.3533
 320  179.9703
 321  161.798
 322  237.822
 323  318.4794
 324  302.5283
 325  172.181
 326  231.2825
 327  325.5454
 328  328.8299
 329  339.2214
 330  262.0815
 331  216.4995
 332  96.56911
 333  37.10668
 334  127.5731
 335  138.5446
 336  185.3415
 337  179.561
 338  218.1238
 339  306.2148
 340  272.1128
 341  289.555
 342  344.9774
 343  313.252
 344  180.3856
 345  341.3797
 346  307.4598
 347  234.6567
 348  417.6171
 349  453.0188
 350  354.8109
 351  284.0196
 352  315.2174
 353  384.8097
 354  319.6901
 355  211.4224
 356  324.5874
 357  346.8086
 358  309.7116
 359  283.3851
 360  363.335
 361  349.8296
 362  230.4932
 363  349.3674
 364  263.9541
 365  215.2797
 366  298.0513
 367  290.5901
 368  222.9102
 369  107.0595
 370  159.2974
 371  137.4356
 372  213.3296
 373  299.9229
 374  281.8849
 375  175.2577
 376  326.403
 377  262.0976
 378  321.8536
 379  250.85
 380  279.3054
 381  319.5101
 382  286.7686
 383  332.5328
 384  231.4115
 385  332.5106
 386  248.1485
 387  228.265
 388  382.894
 389  364.9798
 390  336.9425
 391  311.7897
 392  153.4482
 393  224.1911
 394  189.8593
 395  307.7346
 396  278.7767
 397  108.5195
 398  139.3894
 399  184.7412
 400  277.9377
 401  278.962
 402  190.2281
 403  249.9117
 404  287.7701
 405  364.6128
 406  348.9685
 407  264.9604
 408  285.8114
 409  373.5466
 410  244.1795
 411  158.1596
 412  200.7148
 413  245.108
 414  266.342
 415  256.5338
 416  234.0132
 417  277.4587
 418  192.99
 419  178.8573
 420  163.2186
 421  226.7691
 422  296.429
 423  319.8223
 424  329.059
 425  417.8591
 426  251.2189
 427  221.0667
 428  287.8329
 429  407.7055
 430  316.1724
 431  186.2348
 432  280.2174
 433  273.5262
 434  262.1026
 435  225.6794
 436  260.4415
 437  253.1121
 438  265.8326
 439  260.1352
 440  197.3575
 441  118.4169
 442  253.9123
 443  236.8249
 444  254.8388
 445  304.3167
 446  287.2404
 447  261.1995
 448  211.7953
 449  226.6258
 450  205.9655
 451  152.0408
 452  241.026
 453  194.4633
 454  207.6341
 455  121.365
 456  97.4024
 457  159.2537
 458  250.401
 459  196.3559
 460  230.8856
 461  266.6806
 462  348.6772
 463  308.733
 464  258.6891
 465  174.0551
 466  240.2657
 467  131.439
 468  103.1386
 469  82.04292
 470  159.8193
 471  268.313
 472  319.316
 473  259.5048
 474  230.1
 475  389.714
 476  374.4126
 477  181.975
 478  291.9647
 479  247.0979
 480  236.3498
 481  308.3855
 482  350.0858
 483  283.2053
 484  280.4965
 485  336.4464
 486  275.3815
 487  216.7069
 488  217.6674
 489  251.1407
 490  245.6936
 491  295.6257
 492  380.0757
 493  350.4842
 494  369.2533
 495  418.0836
 496  413.777
 497  437.8816
 498  343.199
 499  259.6515
 500  269.7907
 501  342.8295
 502  231.6267
 503  281.4499
 504  298.7184
 505  446.3926
 506  411.1583
 507  233.1682
 508  385.8311
 509  524.2912
 510  709.3442
 511  801.6492
