# Input file       =  1200240925.108405_cleaned.dat
# Candidate        =  PSR_0332+5434
# Telescope        =  AR
# Epoch_topo       =  58135.677165606539
# Epoch_bary       =  N/A
# T_sample         =  0.002
# Data Folded      =  7340032
# Data Avg         =  0.0336169167777175
# Data StdDev      =  1.00013404714026 
# Profile Bins     =  512
# Profile Avg      =  482.022849443143 
# Profile StdDev   =  119.749086247887 
# Reduced chi-sqr  =  0.772
# Prob(Noise)      <  1   (~0.0 sigma)
# P_topo (ms)      =  714.56835464437   +/- 0.000103
# P'_topo (s/s)    =  -0                +/- 5.44e-11
# P''_topo (s/s^2) =  0                 +/- 2.4e-14
# P_bary (ms)      =  N/A
# P'_bary (s/s)    =  N/A
# P''_bary (s/s^2) =  N/A
# P_orb (s)        =  N/A
# asin(i)/c (s)    =  N/A
# eccentricity     =  N/A
# w (rad)          =  N/A
# T_peri           =  N/A
######################################################
   0  861.062
   1  825.1198
   2  594.7371
   3  547.5656
   4  457.6934
   5  407.9681
   6  374.4044
   7  594.1447
   8  551.1691
   9  389.2928
  10  376.5555
  11  421.5724
  12  510.4236
  13  543.9949
  14  617.4825
  15  507.3472
  16  435.52
  17  364.0242
  18  410.8287
  19  483.6734
  20  453.4514
  21  416.3775
  22  353.4527
  23  316.8741
  24  264.0271
  25  426.1743
  26  372.9502
  27  330.3651
  28  375.2734
  29  380.5198
  30  368.9695
  31  361.3127
  32  513.7429
  33  537.1709
  34  426.1459
  35  462.8561
  36  494.6024
  37  452.0736
  38  431.5195
  39  455.3237
  40  479.5057
  41  473.6145
  42  393.7181
  43  418.9975
  44  399.4146
  45  513.3747
  46  527.6674
  47  500.8584
  48  509.6938
  49  360.6647
  50  361.3593
  51  390.7853
  52  340.8431
  53  514.9776
  54  582.3999
  55  527.3379
  56  450.9038
  57  391.2913
  58  456.7647
  59  406.6172
  60  454.8096
  61  537.3342
  62  447.6179
  63  424.3702
  64  416.5024
  65  425.768
  66  427.5678
  67  433.3777
  68  449.2689
  69  468.1873
  70  385.023
  71  371.7197
  72  456.4747
  73  471.1853
  74  411.42
  75  434.6411
  76  535.2821
  77  446.3019
  78  458.0765
  79  416.9359
  80  380.7015
  81  514.434
  82  610.4364
  83  548.3875
  84  350.8679
  85  339.4418
  86  337.3645
  87  463.7163
  88  509.1951
  89  537.7742
  90  526.9822
  91  456.8845
  92  455.0993
  93  451.1318
  94  393.7343
  95  476.7482
  96  456.1356
  97  501.6431
  98  415.7736
  99  480.2035
 100  558.88
 101  512.8216
 102  479.2126
 103  513.597
 104  588.9745
 105  454.8746
 106  525.6907
 107  509.0006
 108  438.3298
 109  473.8419
 110  481.9752
 111  444.2867
 112  479.2872
 113  428.2892
 114  414.0406
 115  406.636
 116  534.4932
 117  450.4343
 118  469.5079
 119  520.5512
 120  552.207
 121  513.4023
 122  501.1606
 123  553.9821
 124  476.0141
 125  531.8592
 126  495.6845
 127  485.4092
 128  489.7897
 129  416.9391
 130  466.0081
 131  516.1004
 132  466.0368
 133  416.6194
 134  373.3831
 135  410.663
 136  622.5884
 137  528.9333
 138  367.4318
 139  370.2337
 140  457.252
 141  492.0603
 142  527.8531
 143  485.2911
 144  512.9954
 145  535.4426
 146  520.5508
 147  438.9486
 148  441.4368
 149  488.1571
 150  459.7841
 151  531.0286
 152  459.5616
 153  411.8854
 154  411.2106
 155  341.388
 156  440.8365
 157  471.3971
 158  552.2443
 159  605.7416
 160  599.4847
 161  582.4636
 162  529.3262
 163  477.1801
 164  430.285
 165  558.295
 166  568.3158
 167  502.0008
 168  397.4945
 169  408.1659
 170  452.7119
 171  497.8273
 172  497.2248
 173  516.503
 174  606.338
 175  532.6828
 176  535.9293
 177  489.4902
 178  472.763
 179  523.6091
 180  418.6469
 181  454.7323
 182  556.8977
 183  593.9629
 184  537.8445
 185  468.7711
 186  536.6959
 187  521.9648
 188  377.3849
 189  394.7022
 190  394.2536
 191  480.665
 192  451.8865
 193  507.9235
 194  457.268
 195  418.6431
 196  366.0781
 197  421.2528
 198  458.2036
 199  506.1661
 200  456.7473
 201  487.6707
 202  450.6765
 203  352.0154
 204  461.1082
 205  455.0032
 206  455.3014
 207  522.1143
 208  348.1748
 209  348.4595
 210  463.4429
 211  450.0784
 212  514.1706
 213  480.2831
 214  468.9411
 215  453.0222
 216  472.7944
 217  402.2674
 218  531.8343
 219  624.8215
 220  536.8184
 221  425.8523
 222  493.1572
 223  490.9815
 224  527.7653
 225  570.5493
 226  638.2172
 227  505.5301
 228  349.2498
 229  337.1802
 230  399.9911
 231  463.8018
 232  567.665
 233  544.4727
 234  476.4077
 235  435.4994
 236  465.9641
 237  659.5927
 238  590.1657
 239  567.0322
 240  687.8986
 241  617.3404
 242  482.8723
 243  518.16
 244  564.5526
 245  496.9379
 246  586.5845
 247  590.1959
 248  484.4941
 249  508.0821
 250  649.0474
 251  701.4214
 252  547.1067
 253  512.0005
 254  554.0753
 255  649.95
 256  583.4058
 257  575.563
 258  500.076
 259  549.522
 260  471.7204
 261  380.2722
 262  424.1172
 263  419.0462
 264  472.0378
 265  484.7238
 266  352.9722
 267  374.0623
 268  480.3123
 269  483.6841
 270  321.8106
 271  378.5807
 272  363.8357
 273  386.535
 274  445.6228
 275  428.4617
 276  449.9844
 277  459.0311
 278  511.502
 279  548.2493
 280  588.4138
 281  545.7696
 282  559.4477
 283  486.2288
 284  453.7511
 285  487.4531
 286  495.3324
 287  466.7777
 288  539.0468
 289  544.8724
 290  519.5874
 291  540.5154
 292  536.5436
 293  438.5861
 294  404.5433
 295  457.8279
 296  390.9246
 297  347.6387
 298  498.0831
 299  537.4913
 300  489.5923
 301  490.0278
 302  609.2073
 303  545.4207
 304  436.3595
 305  491.1675
 306  530.3208
 307  487.8481
 308  422.6745
 309  440.5088
 310  513.2687
 311  512.526
 312  555.3347
 313  562.4658
 314  460.7554
 315  527.5804
 316  507.7861
 317  393.477
 318  470.1538
 319  403.4517
 320  449.9206
 321  427.6244
 322  507.3492
 323  554.9171
 324  548.4293
 325  465.324
 326  437.539
 327  442.9441
 328  505.5811
 329  457.6313
 330  435.4612
 331  431.2847
 332  512.0897
 333  521.3576
 334  414.8183
 335  498.5907
 336  499.7758
 337  452.871
 338  450.9644
 339  409.331
 340  434.1407
 341  554.9451
 342  528.3187
 343  344.8885
 344  398.3762
 345  407.0282
 346  401.9623
 347  482.7652
 348  571.9565
 349  488.1647
 350  488.058
 351  460.429
 352  454.8333
 353  428.8053
 354  513.8405
 355  532.3519
 356  445.9651
 357  517.3488
 358  476.905
 359  472.4179
 360  473.5358
 361  419.8972
 362  427.8313
 363  376.4158
 364  380.089
 365  483.5284
 366  578.144
 367  621.0787
 368  468.6624
 369  598.3787
 370  592.5805
 371  536.8234
 372  490.8553
 373  515.4848
 374  603.0266
 375  510.4854
 376  628.8157
 377  625.1824
 378  616.8737
 379  594.744
 380  682.2433
 381  594.4897
 382  509.8548
 383  586.8677
 384  557.6226
 385  526.5338
 386  434.2435
 387  455.2575
 388  526.967
 389  444.0439
 390  536.5512
 391  583.6926
 392  605.193
 393  508.9046
 394  625.2288
 395  544.0498
 396  572.0748
 397  480.3166
 398  380.6424
 399  481.3259
 400  541.7823
 401  553.0857
 402  512.8091
 403  574.4222
 404  545.7545
 405  430.2825
 406  329.2897
 407  498.047
 408  594.9168
 409  577.951
 410  570.4045
 411  465.184
 412  548.6471
 413  437.8051
 414  444.7148
 415  531.7062
 416  556.318
 417  538.9994
 418  451.5629
 419  438.0294
 420  477.0807
 421  399.4923
 422  375.3955
 423  479.6229
 424  445.8754
 425  451.3081
 426  354.2568
 427  412.0723
 428  524.4704
 429  514.0609
 430  553.9023
 431  496.3939
 432  597.5712
 433  535.7844
 434  476.8403
 435  529.8917
 436  518.6335
 437  535.2865
 438  496.8519
 439  459.896
 440  433.7753
 441  494.7887
 442  445.7237
 443  492.5538
 444  591.5291
 445  575.9434
 446  471.1143
 447  469.7565
 448  477.6669
 449  473.5714
 450  437.1268
 451  478.8784
 452  478.5741
 453  376.3076
 454  457.5174
 455  495.8692
 456  463.0335
 457  371.216
 458  358.5232
 459  430.8942
 460  453.5978
 461  472.7309
 462  514.7205
 463  511.662
 464  521.8112
 465  536.6079
 466  360.4802
 467  377.4649
 468  435.8238
 469  454.7287
 470  482.8535
 471  422.3616
 472  383.5417
 473  446.0623
 474  438.9835
 475  519.2062
 476  477.3828
 477  329.8079
 478  370.9526
 479  449.2249
 480  495.8587
 481  509.4583
 482  417.059
 483  421.7276
 484  411.1295
 485  346.618
 486  487.3706
 487  408.0822
 488  355.5583
 489  440.5382
 490  518.7337
 491  490.1696
 492  480.9396
 493  502.474
 494  498.8784
 495  491.7714
 496  438.7347
 497  459.131
 498  500.6812
 499  530.6581
 500  507.5886
 501  518.9189
 502  418.5543
 503  386.9867
 504  503.4922
 505  566.1851
 506  627.8914
 507  560.171
 508  527.6219
 509  649.5384
 510  733.2096
 511  770.5873
