# Input file       =  1200240925.108405_cleaned.dat
# Candidate        =  PSR_0332+5434
# Telescope        =  AR
# Epoch_topo       =  58135.677165606539
# Epoch_bary       =  N/A
# T_sample         =  0.002
# Data Folded      =  7340032
# Data Avg         =  0.0336169167777175
# Data StdDev      =  1.00013404714026 
# Profile Bins     =  512
# Profile Avg      =  482.022849387159 
# Profile StdDev   =  119.749086247887 
# Reduced chi-sqr  =  0.766
# Prob(Noise)      <  1   (~0.0 sigma)
# P_topo (ms)      =  714.568354656319  +/- 0.000105
# P'_topo (s/s)    =  -0                +/- 5.54e-11
# P''_topo (s/s^2) =  0                 +/- 2.45e-14
# P_bary (ms)      =  N/A
# P'_bary (s/s)    =  N/A
# P''_bary (s/s^2) =  N/A
# P_orb (s)        =  N/A
# asin(i)/c (s)    =  N/A
# eccentricity     =  N/A
# w (rad)          =  N/A
# T_peri           =  N/A
######################################################
   0  874.6091
   1  690.256
   2  555.5128
   3  490.2781
   4  443.3338
   5  349.9067
   6  496.8135
   7  613.791
   8  449.1863
   9  370.4461
  10  386.4512
  11  487.5147
  12  510.227
  13  605.8232
  14  568.0863
  15  469.0019
  16  384.1095
  17  363.4703
  18  448.6732
  19  489.9204
  20  432.2745
  21  390.1642
  22  330.5081
  23  268.0913
  24  354.5333
  25  425.8441
  26  327.1408
  27  357.0325
  28  377.9711
  29  377.1903
  30  351.6837
  31  444.1761
  32  558.6832
  33  474.3981
  34  432.6678
  35  489.5796
  36  465.1667
  37  422.2421
  38  446.252
  39  472.0171
  40  500.8647
  41  404.9172
  42  426.397
  43  380.6798
  44  474.0289
  45  526.8557
  46  514.283
  47  508.8563
  48  442.6323
  49  328.669
  50  409.8505
  51  338.3439
  52  418.2844
  53  590.4727
  54  555.0341
  55  474.5284
  56  397.7401
  57  427.977
  58  458.8979
  59  405.2721
  60  518.7105
  61  479.3319
  62  445.1487
  63  407.8115
  64  431.1526
  65  416.1078
  66  439.3216
  67  435.4304
  68  460.684
  69  431.4479
  70  356.1068
  71  429.2575
  72  465.1475
  73  456.0388
  74  393.6531
  75  510.2168
  76  485.3197
  77  435.9408
  78  462.3651
  79  362.84
  80  465.4724
  81  566.7841
  82  615.5777
  83  422.0428
  84  324.9734
  85  341.5392
  86  395.2024
  87  505.4666
  88  520.6071
  89  547.2765
  90  484.0576
  91  440.8323
  92  466.7354
  93  413.245
  94  442.1471
  95  466.9333
  96  482.0788
  97  462.4206
  98  423.0464
  99  540.5932
 100  535.1622
 101  484.6058
 102  494.1778
 103  573.4731
 104  517.8994
 105  468.1373
 106  546.1362
 107  460.8852
 108  441.7505
 109  500.9975
 110  437.9636
 111  482.1917
 112  449.4977
 113  429.5891
 114  385.8438
 115  487.2566
 116  503.78
 117  430.1461
 118  508.5454
 119  545.0764
 120  530.1775
 121  505.6129
 122  523.2891
 123  519.6985
 124  486.822
 125  544.0872
 126  465.1639
 127  512.1994
 128  435.3842
 129  446.4569
 130  496.616
 131  496.431
 132  419.8508
 133  409.0479
 134  353.3827
 135  549.2969
 136  603.3429
 137  442.3334
 138  316.805
 139  455.338
 140  450.5868
 141  550.0651
 142  478.9393
 143  491.5447
 144  541.8324
 145  526.4509
 146  483.3933
 147  410.8687
 148  491.5467
 149  461.8792
 150  498.7379
 151  507.9702
 152  410.3579
 153  424.8014
 154  353.504
 155  411.443
 156  454.9021
 157  513.2018
 158  581.7466
 159  599.5486
 160  612.5428
 161  536.7899
 162  525.1169
 163  411.721
 164  520.6989
 165  564.4304
 166  544.3539
 167  429.4576
 168  398.7981
 169  419.7687
 170  485.6274
 171  501.1056
 172  511.3265
 173  572.808
 174  573.5396
 175  513.8835
 176  542.9012
 177  439.106
 178  523.2534
 179  464.8773
 180  418.9029
 181  529.8539
 182  586.4536
 183  567.0369
 184  486.3658
 185  484.2466
 186  565.8039
 187  428.4253
 188  380.5743
 189  389.6675
 190  442.1223
 191  464.1362
 192  486.5855
 193  489.6339
 194  431.3152
 195  376.8776
 196  404.3421
 197  428.8912
 198  501.6025
 199  467.5376
 200  483.8973
 201  477.0286
 202  385.0939
 203  402.706
 204  468.2108
 205  435.5944
 206  504.282
 207  455.6333
 208  298.7166
 209  440.6906
 210  443.0963
 211  486.5344
 212  513.3276
 213  463.5545
 214  465.455
 215  458.2292
 216  447.9822
 217  438.3815
 218  617.4866
 219  579.3459
 220  454.2661
 221  458.4212
 222  502.7747
 223  514.3696
 224  536.5642
 225  628.3333
 226  574.1321
 227  417.0262
 228  309.1718
 229  383.5998
 230  437.6884
 231  533.0658
 232  566.7531
 233  489.2243
 234  471.38
 235  410.3947
 236  594.0269
 237  623.6244
 238  570.3593
 239  627.5409
 240  687.5385
 241  510.3279
 242  510.8
 243  539.9006
 244  536.813
 245  517.0917
 246  625.9523
 247  515.8217
 248  485.835
 249  573.1991
 250  719.2617
 251  614.902
 252  508.4798
 253  529.0152
 254  617.9471
 255  612.9212
 256  578.6088
 257  541.7006
 258  529.8886
 259  520.1146
 260  396.3687
 261  399.2148
 262  434.8899
 263  433.0743
 264  500.6541
 265  405.1123
 266  363.3937
 267  407.5865
 268  535.4374
 269  354.3975
 270  361.7668
 271  371.0147
 272  364.9073
 273  423.3058
 274  431.9681
 275  440.9286
 276  453.4735
 277  497.7944
 278  533.7904
 279  569.6524
 280  566.4067
 281  533.7388
 282  549.0533
 283  444.962
 284  484.9866
 285  484.4321
 286  477.7164
 287  502.2828
 288  552.8637
 289  541.8349
 290  509.9381
 291  555.3586
 292  472.9861
 293  410.3968
 294  441.8619
 295  439.3545
 296  345.6603
 297  424.5964
 298  548.0876
 299  489.345
 300  501.3765
 301  542.4973
 302  614.1545
 303  456.2115
 304  459.5086
 305  530.8961
 306  502.6189
 307  457.4437
 308  415.3347
 309  480.6592
 310  515.5344
 311  526.9761
 312  585.8634
 313  501.2077
 314  468.5626
 315  546.148
 316  414.9982
 317  456.5852
 318  433.6154
 319  421.5385
 320  432.8137
 321  469.556
 322  538.3975
 323  566.2933
 324  506.3517
 325  438.9326
 326  432.1644
 327  469.4469
 328  504.4912
 329  423.1205
 330  449.017
 331  446.9167
 332  564.4075
 333  430.08
 334  456.5878
 335  515.3807
 336  478.6093
 337  444.3062
 338  439.1908
 339  393.5045
 340  517.7847
 341  567.9661
 342  413.6009
 343  344.7826
 344  427.5692
 345  397.9563
 346  422.2669
 347  565.6703
 348  520.3765
 349  495.5306
 350  462.9453
 351  450.9289
 352  446.2324
 353  451.6822
 354  570.5461
 355  463.9381
 356  484.6976
 357  509.813
 358  440.2303
 359  498.9796
 360  431.7346
 361  420.7646
 362  415.4797
 363  357.0004
 364  452.4477
 365  530.0154
 366  625.5405
 367  520.3352
 368  521.983
 369  617.1958
 370  557.6603
 371  521.57
 372  474.2647
 373  591.0396
 374  528.2789
 375  588.1148
 376  633.4305
 377  621.9634
 378  576.0339
 379  677.1243
 380  634.2263
 381  543.2963
 382  527.6325
 383  603.6589
 384  530.0598
 385  479.3408
 386  424.1622
 387  514.0273
 388  479.7989
 389  471.9084
 390  584.3392
 391  607.5951
 392  532.3105
 393  571.4238
 394  600.9371
 395  555.0467
 396  533.3672
 397  388.7155
 398  429.1935
 399  531.3269
 400  559.659
 401  519.5355
 402  539.6516
 403  569.9585
 404  497.4991
 405  338.6579
 406  417.8809
 407  564.6985
 408  589.6216
 409  585.9856
 410  506.3487
 411  507.7882
 412  497.3231
 413  411.1841
 414  502.0499
 415  556.5455
 416  556.3544
 417  494.2032
 418  434.8746
 419  462.6425
 420  440.1842
 421  349.3043
 422  454.1627
 423  466.817
 424  466.0234
 425  391.4187
 426  357.7867
 427  488.993
 428  509.0715
 429  555.5307
 430  507.8266
 431  554.069
 432  583.2936
 433  483.4414
 434  505.8749
 435  534.7382
 436  514.7465
 437  527.1459
 438  465.5815
 439  451.1499
 440  468.6454
 441  482.2677
 442  442.1572
 443  546.5254
 444  605.7017
 445  520.2017
 446  459.3297
 447  476.244
 448  468.2311
 449  463.211
 450  444.863
 451  507.4682
 452  391.8696
 453  413.6661
 454  491.9833
 455  484.3657
 456  407.9961
 457  355.2517
 458  406.424
 459  439.9323
 460  475.0298
 461  491.4924
 462  534.4498
 463  491.8173
 464  554.0159
 465  438.6648
 466  344.6384
 467  419.2536
 468  442.5281
 469  477.1767
 470  457.171
 471  378.79
 472  434.1432
 473  441.381
 474  480.2561
 475  514.8721
 476  384.5366
 477  328.8439
 478  428.5066
 479  473.4257
 480  520.502
 481  459.2206
 482  402.7882
 483  433.738
 484  355.6589
 485  421.177
 486  482.5272
 487  328.0878
 488  412.5494
 489  476.6649
 490  529.0447
 491  460.7104
 492  504.9159
 493  503.4689
 494  496.5435
 495  463.6857
 496  443.1503
 497  485.0262
 498  520.1695
 499  512.9896
 500  519.8123
 501  482.2834
 502  374.6363
 503  444.09
 504  543.5662
 505  621.5071
 506  593.2961
 507  531.4037
 508  566.5211
 509  720.9326
 510  739.0899
 511  832.2424
