# Input file       =  1200255831.105539_cleaned.dat
# Candidate        =  PSR_0332+5434
# Telescope        =  AR
# Epoch_topo       =  58135.849688721515
# Epoch_bary       =  N/A
# T_sample         =  0.002
# Data Folded      =  7340032
# Data Avg         =  0.0190239311996864
# Data StdDev      =  1.00005499883132 
# Profile Bins     =  512
# Profile Avg      =  272.667833883791 
# Profile StdDev   =  119.739621553837 
# Reduced chi-sqr  =  1.000
# Prob(Noise)      <  0.489   (~0.0 sigma)
# P_topo (ms)      =  714.568800643768  +/- 6.81e-05
# P'_topo (s/s)    =  -0                +/- 3.59e-11
# P''_topo (s/s^2) =  0                 +/- 1.59e-14
# P_bary (ms)      =  N/A
# P'_bary (s/s)    =  N/A
# P''_bary (s/s^2) =  N/A
# P_orb (s)        =  N/A
# asin(i)/c (s)    =  N/A
# eccentricity     =  N/A
# w (rad)          =  N/A
# T_peri           =  N/A
######################################################
   0  734.8849
   1  549.4011
   2  404.3912
   3  388.415
   4  397.8459
   5  236.3096
   6  310.5188
   7  324.0963
   8  272.1429
   9  284.2593
  10  192.425
  11  380.2287
  12  352.5952
  13  437.0039
  14  458.4373
  15  328.4646
  16  408.6415
  17  426.0668
  18  296.0376
  19  324.6404
  20  281.8196
  21  316.8827
  22  280.9812
  23  264.2215
  24  196.9798
  25  196.2022
  26  169.7731
  27  313.8808
  28  397.5605
  29  294.3341
  30  246.7709
  31  340.0395
  32  236.8003
  33  177.3909
  34  241.623
  35  283.0681
  36  295.0768
  37  231.0174
  38  277.1725
  39  246.1346
  40  192.9913
  41  264.12
  42  289.8251
  43  310.9668
  44  190.4407
  45  165.8781
  46  245.8799
  47  297.9732
  48  290.8408
  49  358.8094
  50  481.5932
  51  382.9857
  52  296.5391
  53  216.5678
  54  184.1598
  55  174.4452
  56  199.771
  57  243.1939
  58  276.6678
  59  316.6907
  60  335.0114
  61  334.7961
  62  211.7864
  63  95.27997
  64  223.4256
  65  219.1412
  66  269.7105
  67  282.4771
  68  343.7415
  69  316.7935
  70  171.9488
  71  164.7313
  72  206.0521
  73  207.6044
  74  239.7254
  75  219.3929
  76  220.5917
  77  148.5732
  78  137.6993
  79  203.3337
  80  186.6739
  81  107.9818
  82  314.1604
  83  398.1174
  84  311.5471
  85  271.8232
  86  192.7178
  87  209.4409
  88  177.1079
  89  323.7778
  90  312.2225
  91  212.5205
  92  305.4125
  93  333.793
  94  325.0469
  95  219.7344
  96  189.0083
  97  285.8139
  98  255.1749
  99  200.3529
 100  210.7792
 101  251.5902
 102  158.1352
 103  261.811
 104  297.2806
 105  169.8072
 106  140.6702
 107  238.0668
 108  213.1452
 109  157.5324
 110  160.0359
 111  240.3411
 112  245.5328
 113  215.0096
 114  242.5958
 115  241.0612
 116  239.7499
 117  226.9503
 118  374.6894
 119  415.8588
 120  194.3386
 121  206.6359
 122  262.7997
 123  286.7269
 124  428.1512
 125  446.5127
 126  392.2736
 127  280.6182
 128  233.4705
 129  329.8647
 130  175.568
 131  171.7516
 132  318.3348
 133  360.1176
 134  338.7664
 135  272.0996
 136  330.4729
 137  431.0749
 138  447.4179
 139  383.4736
 140  380.0735
 141  327.6463
 142  316.3223
 143  360.112
 144  258.1682
 145  230.2505
 146  284.8305
 147  276.1495
 148  268.2542
 149  359.2157
 150  375.8256
 151  297.1194
 152  318.959
 153  267.4219
 154  373.5479
 155  204.2413
 156  220.9543
 157  341.0347
 158  254.5364
 159  175.58
 160  132.8762
 161  222.5161
 162  148.9701
 163  196.0389
 164  199.2336
 165  342.003
 166  303.3795
 167  243.4117
 168  277.2877
 169  353.6513
 170  367.9726
 171  403.4565
 172  361.3322
 173  137.2698
 174  89.09592
 175  344.8102
 176  503.0956
 177  295.1826
 178  313.6546
 179  332.8737
 180  298.0703
 181  255.673
 182  286.4927
 183  309.3994
 184  343.5834
 185  266.0014
 186  341.1761
 187  307.8309
 188  322.3158
 189  417.962
 190  344.9849
 191  295.7369
 192  345.7948
 193  244.7592
 194  221.7551
 195  214.1005
 196  263.894
 197  281.3139
 198  206.2523
 199  273.8077
 200  321.8602
 201  253.7128
 202  256.6698
 203  250.4135
 204  337.4348
 205  421.0003
 206  354.4952
 207  348.5434
 208  373.791
 209  251.8165
 210  416.6651
 211  401.8243
 212  324.2648
 213  262.7168
 214  302.9178
 215  291.1096
 216  190.9766
 217  218.9417
 218  358.1721
 219  315.9538
 220  201.8377
 221  224.786
 222  365.7561
 223  383.6717
 224  287.0942
 225  396.0567
 226  376.9625
 227  380.3097
 228  442.7037
 229  273.8539
 230  178.0049
 231  305.7307
 232  335.5266
 233  308.2756
 234  320.8485
 235  267.8191
 236  265.7212
 237  167.9241
 238  156.5256
 239  322.5756
 240  313.5614
 241  287.7136
 242  208.0447
 243  325.5846
 244  374.5166
 245  237.6844
 246  325.6849
 247  313.8472
 248  358.917
 249  357.7918
 250  302.1844
 251  352.7792
 252  288.1606
 253  344.3293
 254  192.7789
 255  200.2094
 256  196.0587
 257  180.8382
 258  254.4103
 259  263.716
 260  152.9282
 261  271.7603
 262  331.3202
 263  228.4589
 264  157.479
 265  241.5282
 266  263.5062
 267  234.33
 268  281.8918
 269  375.8346
 270  353.8087
 271  336.6256
 272  338.3363
 273  253.2347
 274  209.1133
 275  207.7447
 276  253.0606
 277  311.2269
 278  222.5584
 279  235.527
 280  221.8304
 281  150.5619
 282  283.34
 283  267.5007
 284  306.8077
 285  264.9203
 286  303.8465
 287  234.6487
 288  125.9517
 289  95.28464
 290  200.1428
 291  278.1198
 292  345.5696
 293  333.8073
 294  352.7002
 295  324.4673
 296  231.3368
 297  214.6612
 298  137.9126
 299  74.12204
 300  138.177
 301  318.7598
 302  333.4084
 303  292.9169
 304  352.5224
 305  237.1598
 306  182.9151
 307  249.6747
 308  300.6883
 309  297.8684
 310  149.0031
 311  180.0057
 312  323.5224
 313  233.758
 314  106.1602
 315  207.5435
 316  233.1547
 317  253.1717
 318  204.2695
 319  263.9705
 320  193.3918
 321  218.5687
 322  300.6301
 323  272.1001
 324  240.0508
 325  320.8927
 326  264.7746
 327  216.4632
 328  223.6284
 329  207.0433
 330  210.3569
 331  240.372
 332  300.5236
 333  220.7494
 334  229.9436
 335  291.7921
 336  337.879
 337  239.892
 338  190.4141
 339  178.0555
 340  206.8381
 341  318.1205
 342  265.4566
 343  256.9479
 344  333.4193
 345  418.752
 346  305.2462
 347  278.1194
 348  299.0764
 349  185.325
 350  163.6797
 351  272.1198
 352  266.0959
 353  259.9943
 354  259.0909
 355  359.2295
 356  272.8391
 357  304.2187
 358  398.6354
 359  321.5536
 360  244.2947
 361  376.3062
 362  414.4474
 363  240.7493
 364  301.8718
 365  342.2344
 366  365.3301
 367  290.7628
 368  245.5912
 369  164.9095
 370  104.296
 371  89.87061
 372  132.1472
 373  167.8073
 374  161.9987
 375  228.1437
 376  202.9455
 377  120.8594
 378  211.9142
 379  303.9055
 380  307.9251
 381  302.6464
 382  301.9012
 383  243.2243
 384  144.1373
 385  115.5646
 386  189.4066
 387  245.4663
 388  160.6559
 389  199.4757
 390  272.1413
 391  223.8612
 392  125.0931
 393  158.4152
 394  224.0235
 395  251.2926
 396  226.1061
 397  215.3251
 398  225.5771
 399  310.1802
 400  246.6873
 401  220.2731
 402  236.2018
 403  268.9732
 404  139.0446
 405  156.4147
 406  291.8376
 407  299.6219
 408  174.0317
 409  129.1178
 410  163.0301
 411  209.2759
 412  153.2356
 413  193.303
 414  163.5299
 415  339.785
 416  330.5978
 417  399.8348
 418  281.8224
 419  219.8108
 420  262.037
 421  266.1934
 422  351.839
 423  226.7347
 424  227.3827
 425  284.305
 426  347.4962
 427  220.5602
 428  207.8946
 429  333.4542
 430  288.2907
 431  249.8572
 432  342.3784
 433  274.4004
 434  195.6349
 435  119.7702
 436  108.3443
 437  111.1415
 438  67.94991
 439  149.485
 440  186.8603
 441  266.6209
 442  240.125
 443  259.9686
 444  282.8169
 445  264.9402
 446  258.5226
 447  303.9348
 448  319.4908
 449  347.5754
 450  335.6494
 451  382.1703
 452  278.0338
 453  263.2034
 454  186.4711
 455  203.7236
 456  225.1428
 457  230.1512
 458  362.4095
 459  405.1029
 460  255.0481
 461  302.2478
 462  306.8016
 463  284.1312
 464  339.3204
 465  315.7722
 466  244.1465
 467  132.3577
 468  230.6943
 469  303.6951
 470  290.9918
 471  173.6171
 472  242.7757
 473  199.0155
 474  242.8713
 475  205.6951
 476  272.2074
 477  413.2056
 478  323.0923
 479  196.1232
 480  287.9108
 481  213.7035
 482  283.9268
 483  343.7592
 484  400.7725
 485  269.7436
 486  247.3954
 487  271.2607
 488  179.2311
 489  216.1274
 490  277.4432
 491  279.9208
 492  338.6053
 493  267.2104
 494  349.0009
 495  357.633
 496  281.3799
 497  168.6777
 498  270.8657
 499  287.3703
 500  283.0366
 501  297.6796
 502  211.6293
 503  318.686
 504  358.8359
 505  458.1081
 506  385.514
 507  458.6161
 508  369.4968
 509  515.7034
 510  643.2098
 511  880.069
