# Input file       =  1200829442.095395_cleaned.dat
# Candidate        =  PSR_0332+5434
# Telescope        =  AR
# Epoch_topo       =  58142.488704807816
# Epoch_bary       =  N/A
# T_sample         =  0.002
# Data Folded      =  7405568
# Data Avg         =  0.0106891153941909
# Data StdDev      =  1.00007021084605 
# Profile Bins     =  512
# Profile Avg      =  154.616987723511 
# Profile StdDev   =  120.274815030644 
# Reduced chi-sqr  =  1.658
# Prob(Noise)      <  4.62e-19   (~8.8 sigma)
# P_topo (ms)      =  714.572350837444  +/- 0.000148
# P'_topo (s/s)    =  -0                +/- 7.76e-11
# P''_topo (s/s^2) =  0                 +/- 3.39e-14
# P_bary (ms)      =  N/A
# P'_bary (s/s)    =  N/A
# P''_bary (s/s^2) =  N/A
# P_orb (s)        =  N/A
# asin(i)/c (s)    =  N/A
# eccentricity     =  N/A
# w (rad)          =  N/A
# T_peri           =  N/A
######################################################
   0  786.2606
   1  713.6547
   2  604.3617
   3  488.1123
   4  283.3957
   5  303.1871
   6  318.4279
   7  338.8253
   8  307.5984
   9  124.4885
  10  361.6966
  11  309.2994
  12  255.5131
  13  197.9146
  14  253.2302
  15  233.453
  16  283.3515
  17  367.1642
  18  303.747
  19  134.358
  20  202.2079
  21  306.0346
  22  142.3543
  23  215.6932
  24  237.6441
  25  137.3693
  26  84.24271
  27  219.7534
  28  256.5873
  29  228.0266
  30  197.4603
  31  210.2513
  32  175.6997
  33  114.0031
  34  158.143
  35  146.2497
  36  156.0186
  37  148.0829
  38  159.3671
  39  207.5476
  40  206.3611
  41  104.9403
  42  150.8835
  43  213.877
  44  95.59717
  45  176.3179
  46  217.8198
  47  403.1328
  48  293.2782
  49  155.6433
  50  141.6008
  51  196.2005
  52  155.984
  53  97.26408
  54  175.9212
  55  208.7466
  56  279.5056
  57  146.7148
  58  126.7218
  59  138.753
  60  114.877
  61  72.08301
  62  -3.275373
  63  72.28701
  64  226.4829
  65  188.6002
  66  125.3378
  67  223.9816
  68  276.8588
  69  230.7659
  70  183.1074
  71  246.359
  72  113.1522
  73  31.32218
  74  -90.67048
  75  -45.27052
  76  52.31671
  77  -8.857168
  78  146.8607
  79  120.2895
  80  94.13813
  81  195.9995
  82  261.801
  83  170.2776
  84  93.56126
  85  124.9356
  86  96.60078
  87  174.7254
  88  246.5359
  89  195.2362
  90  46.24818
  91  198.3802
  92  235.9454
  93  86.39425
  94  -84.31503
  95  9.862171
  96  49.1249
  97  63.21283
  98  171.8311
  99  208.0489
 100  142.1194
 101  78.6205
 102  63.43896
 103  102.7346
 104  175.211
 105  73.0647
 106  -34.83648
 107  35.82117
 108  13.8027
 109  126.2843
 110  74.18641
 111  82.51372
 112  123.6851
 113  69.99689
 114  189.4296
 115  133.9712
 116  98.91237
 117  188.1971
 118  211.5386
 119  257.8149
 120  135.7196
 121  38.18954
 122  74.00169
 123  15.81492
 124  37.3089
 125  234.3331
 126  123.3157
 127  140.9678
 128  200.4249
 129  107.2768
 130  131.2808
 131  240.0724
 132  234.549
 133  220.9725
 134  198.1945
 135  195.6243
 136  176.3988
 137  97.31409
 138  30.92412
 139  45.38476
 140  89.9854
 141  204.8172
 142  132.3973
 143  45.87571
 144  112.8179
 145  178.7623
 146  38.57368
 147  34.04607
 148  85.56418
 149  239.1748
 150  213.4373
 151  96.89225
 152  166.0714
 153  152.5623
 154  91.67043
 155  -7.024933
 156  -19.1476
 157  -10.67169
 158  -78.19576
 159  93.79394
 160  165.5056
 161  103.0517
 162  86.9636
 163  58.84641
 164  35.95598
 165  54.8009
 166  92.83662
 167  167.557
 168  179.6257
 169  163.475
 170  225.0247
 171  182.5153
 172  185.7394
 173  52.52988
 174  19.81125
 175  126.2737
 176  138.7929
 177  88.53022
 178  212.1366
 179  220.5172
 180  168.4902
 181  197.8809
 182  226.4449
 183  95.89412
 184  45.04751
 185  301.9905
 186  220.7743
 187  44.13923
 188  181.7301
 189  50.46424
 190  93.98994
 191  125.2816
 192  29.26907
 193  45.37105
 194  43.24946
 195  -37.66146
 196  23.45463
 197  137.2579
 198  66.76187
 199  23.96878
 200  -26.40913
 201  -43.46378
 202  202.5917
 203  213.5711
 204  64.54034
 205  -83.12352
 206  123.2862
 207  271.3296
 208  219.576
 209  198.4646
 210  141.3407
 211  62.83604
 212  298.2775
 213  175.2307
 214  174.0202
 215  346.7529
 216  227.6466
 217  244.0512
 218  125.5926
 219  109.9178
 220  33.27787
 221  75.06081
 222  233.0427
 223  88.73046
 224  80.12736
 225  34.56282
 226  132.3648
 227  160.6791
 228  236.3988
 229  168.0994
 230  73.89356
 231  125.7144
 232  100.2206
 233  154.2695
 234  249.9339
 235  140.8882
 236  92.75066
 237  181.6919
 238  176.5466
 239  106.846
 240  -20.11122
 241  96.63718
 242  187.3709
 243  101.2423
 244  -11.41687
 245  -25.67485
 246  64.66112
 247  169.4641
 248  351.1953
 249  212.3656
 250  152.3967
 251  286.3436
 252  263.3531
 253  293.7561
 254  145.4893
 255  184.678
 256  117.9454
 257  117.1329
 258  177.5653
 259  73.45589
 260  78.51959
 261  94.0514
 262  130.2182
 263  214.3627
 264  96.47194
 265  120.8223
 266  158.4741
 267  73.09406
 268  58.89378
 269  121.5116
 270  210.0181
 271  202.5707
 272  164.8385
 273  88.46626
 274  70.9348
 275  210.7156
 276  58.75554
 277  55.68304
 278  23.88608
 279  65.55782
 280  190.5847
 281  70.85125
 282  -71.11861
 283  84.09066
 284  54.79886
 285  73.56026
 286  63.13347
 287  35.13746
 288  55.5964
 289  -20.9286
 290  91.46327
 291  199.2905
 292  114.9544
 293  137.3662
 294  49.67207
 295  101.1586
 296  303.886
 297  225.8201
 298  339.1479
 299  274.8481
 300  242.8145
 301  96.03378
 302  94.11893
 303  165.3094
 304  94.70757
 305  109.9641
 306  131.947
 307  252.6188
 308  168.7122
 309  128.4711
 310  193.1189
 311  170.2379
 312  167.441
 313  225.9282
 314  146.3848
 315  252.5619
 316  216.532
 317  135.9701
 318  193.2576
 319  245.8587
 320  170.4622
 321  163.9023
 322  81.39676
 323  -11.77797
 324  58.97761
 325  138.1881
 326  117.8335
 327  77.67826
 328  141.0171
 329  256.467
 330  302.7304
 331  130.9747
 332  -4.75971
 333  114.5975
 334  175.1952
 335  133.8055
 336  171.3796
 337  333.6456
 338  186.1837
 339  53.26361
 340  127.6169
 341  146.942
 342  143.7085
 343  115.0752
 344  83.92157
 345  224.6949
 346  256.4196
 347  210.6992
 348  164.1323
 349  177.5148
 350  118.8561
 351  178.1563
 352  36.43282
 353  7.071758
 354  45.06209
 355  52.66855
 356  53.46135
 357  89.67288
 358  110.986
 359  156.0814
 360  232.7706
 361  201.9978
 362  228.778
 363  110.2596
 364  279.9496
 365  319.1824
 366  227.8168
 367  236.4591
 368  206.5672
 369  192.5592
 370  116.3925
 371  166.1452
 372  97.97282
 373  63.34941
 374  89.69138
 375  81.6254
 376  36.1703
 377  264.9547
 378  317.817
 379  199.4034
 380  143.1394
 381  63.32244
 382  293.0774
 383  264.9152
 384  108.536
 385  102.7597
 386  -25.94604
 387  69.78293
 388  121.1416
 389  176.4019
 390  163.6704
 391  39.3557
 392  -43.87731
 393  128.6302
 394  88.79946
 395  160.656
 396  228.4988
 397  180.521
 398  315.5187
 399  301.8442
 400  198.0284
 401  71.48444
 402  17.23844
 403  275.4895
 404  362.1237
 405  327.2707
 406  283.1068
 407  136.7701
 408  132.6674
 409  120.1223
 410  -15.09109
 411  -73.88882
 412  193.478
 413  182.7609
 414  7.532
 415  86.30845
 416  131.728
 417  87.34812
 418  38.03925
 419  182.2345
 420  208.3763
 421  106.9803
 422  82.42373
 423  124.3887
 424  130.1383
 425  244.6557
 426  78.9982
 427  30.56996
 428  104.2425
 429  93.35184
 430  165.2707
 431  169.6229
 432  190.0842
 433  306.6987
 434  192.1933
 435  72.77077
 436  90.60136
 437  140.7573
 438  145.8012
 439  23.91094
 440  68.30849
 441  118.5658
 442  125.7044
 443  -19.04171
 444  0.6894354
 445  65.71342
 446  51.1749
 447  178.4496
 448  141.745
 449  130.7484
 450  208.1853
 451  242.4367
 452  104.8452
 453  11.33079
 454  127.8885
 455  261.7325
 456  187.4398
 457  64.79829
 458  151.7832
 459  172.1583
 460  141.0045
 461  196.0621
 462  221.9065
 463  208.1117
 464  165.1401
 465  261.188
 466  259.4994
 467  136.1927
 468  71.52737
 469  190.1947
 470  290.8313
 471  249.5812
 472  123.3787
 473  61.36187
 474  19.61948
 475  29.51268
 476  113.9985
 477  21.57623
 478  114.0029
 479  185.0402
 480  336.8206
 481  273.1919
 482  80.38308
 483  102.1265
 484  156.7513
 485  281.4061
 486  211.5031
 487  81.63091
 488  74.86781
 489  195.1005
 490  361.5221
 491  187.0465
 492  148.5863
 493  250.1652
 494  253.8036
 495  176.9907
 496  263.2666
 497  323.2447
 498  234.9359
 499  193.9457
 500  180.5823
 501  245.8023
 502  249.9116
 503  305.5979
 504  251.3969
 505  217.4682
 506  294.1724
 507  254.5116
 508  449.4068
 509  652.5469
 510  840.803
 511  898.9047
