# Input file       =  1200053887.114777_cleaned.dat
# Candidate        =  PSR_0332+5434
# Telescope        =  AR
# Epoch_topo       =  58133.512374013626
# Epoch_bary       =  N/A
# T_sample         =  0.002
# Data Folded      =  7208960
# Data Avg         =  0.0170631048850858
# Data StdDev      =  1.00014692583873 
# Profile Bins     =  512
# Profile Avg      =  240.290073610686 
# Profile StdDev   =  118.676609892457 
# Reduced chi-sqr  =  1.600
# Prob(Noise)      <  1.56e-16   (~8.2 sigma)
# P_topo (ms)      =  714.566910975607  +/- 0.000175
# P'_topo (s/s)    =  -0                +/- 9.4e-11
# P''_topo (s/s^2) =  0                 +/- 4.23e-14
# P_bary (ms)      =  N/A
# P'_bary (s/s)    =  N/A
# P''_bary (s/s^2) =  N/A
# P_orb (s)        =  N/A
# asin(i)/c (s)    =  N/A
# eccentricity     =  N/A
# w (rad)          =  N/A
# T_peri           =  N/A
######################################################
   0  887.7781
   1  922.806
   2  659.8935
   3  578.6613
   4  418.1431
   5  256.7512
   6  240.3306
   7  195.4298
   8  186.3452
   9  231.1647
  10  262.1813
  11  173.8981
  12  175.1671
  13  239.7491
  14  255.0412
  15  222.1549
  16  139.6627
  17  103.4452
  18  105.0702
  19  147.9082
  20  245.3711
  21  122.0886
  22  131.4684
  23  221.1918
  24  82.94947
  25  174.1899
  26  151.3342
  27  161.8629
  28  204.1463
  29  233.3769
  30  192.5832
  31  163.9226
  32  179.4691
  33  244.8961
  34  177.0484
  35  129.5946
  36  168.1057
  37  275.5412
  38  249.9086
  39  242.4978
  40  332.7102
  41  352.0963
  42  308.2913
  43  137.1787
  44  107.4578
  45  154.5656
  46  86.06787
  47  113.9965
  48  157.2577
  49  144.1574
  50  149.3098
  51  136.1029
  52  29.35575
  53  247.5787
  54  193.4221
  55  231.8893
  56  268.1011
  57  178.5022
  58  292.2045
  59  339.253
  60  222.1123
  61  162.2376
  62  263.8848
  63  289.604
  64  262.2418
  65  189.5025
  66  331.387
  67  361.3477
  68  299.3509
  69  303.8447
  70  270.7811
  71  206.7178
  72  232.5084
  73  195.7315
  74  345.2051
  75  396.7718
  76  195.4718
  77  164.0213
  78  204.0983
  79  202.4126
  80  186.0597
  81  146.3057
  82  83.38525
  83  135.227
  84  119.7372
  85  255.2493
  86  175.0588
  87  180.3488
  88  294.0108
  89  271.6808
  90  246.5416
  91  159.9208
  92  216.5772
  93  199.7547
  94  158.5614
  95  161.2086
  96  303.8752
  97  213.4697
  98  110.1274
  99  179.1866
 100  192.1203
 101  234.5558
 102  189.1234
 103  129.7059
 104  241.1866
 105  241.4831
 106  188.3768
 107  284.3725
 108  363.775
 109  367.0436
 110  334.7213
 111  197.7825
 112  -20.20478
 113  160.445
 114  368.9474
 115  316.292
 116  297.6059
 117  173.0231
 118  198.5165
 119  277.7707
 120  264.9946
 121  356.796
 122  211.194
 123  303.577
 124  307.6802
 125  209.8483
 126  170.6355
 127  311.9818
 128  310.9522
 129  263.834
 130  355.4223
 131  307.2757
 132  301.4176
 133  207.1753
 134  152.8163
 135  134.8237
 136  76.29946
 137  259.5804
 138  403.9194
 139  298.0708
 140  282.2152
 141  341.991
 142  310.2883
 143  333.5977
 144  209.6942
 145  273.7167
 146  278.6621
 147  247.7824
 148  367.9724
 149  357.5582
 150  292.4648
 151  122.1202
 152  9.043333
 153  33.63537
 154  126.7956
 155  91.58391
 156  156.1941
 157  247.8691
 158  204.8517
 159  314.4899
 160  359.9454
 161  322.2371
 162  272.3564
 163  104.4818
 164  200.4985
 165  266.0029
 166  74.99386
 167  94.201
 168  169.2418
 169  277.4143
 170  267.257
 171  227.9416
 172  178.5285
 173  384.2963
 174  370.63
 175  283.3852
 176  369.2716
 177  405.1324
 178  250.4102
 179  181.2296
 180  169.8472
 181  278.9182
 182  250.3635
 183  126.7971
 184  142.0935
 185  325.9659
 186  382.7628
 187  272.6285
 188  259.8094
 189  167.9533
 190  231.8339
 191  222.7692
 192  243.7316
 193  228.1447
 194  280.1037
 195  213.5154
 196  287.2953
 197  253.472
 198  358.0838
 199  249.8682
 200  232.8489
 201  200.1781
 202  173.2917
 203  148.399
 204  235.1788
 205  254.7859
 206  352.5211
 207  490.184
 208  438.7779
 209  259.8414
 210  306.5306
 211  299.3076
 212  299.9019
 213  189.1544
 214  24.20267
 215  91.50726
 216  93.74714
 217  172.0241
 218  264.3374
 219  318.9989
 220  226.2441
 221  172.9086
 222  325.2562
 223  330.0437
 224  229.9949
 225  167.3073
 226  151.0393
 227  278.808
 228  123.0904
 229  152.7391
 230  109.9041
 231  87.14208
 232  234.8262
 233  283.8854
 234  270.3545
 235  121.0903
 236  10.48845
 237  181.2214
 238  340.1065
 239  300.4271
 240  138.6672
 241  177.7416
 242  232.5156
 243  111.7852
 244  120.5825
 245  250.5487
 246  165.3882
 247  116.3522
 248  183.9081
 249  136.5626
 250  229.1877
 251  305.1529
 252  317.2726
 253  167.8573
 254  190.6845
 255  328.2968
 256  426.2342
 257  382.0023
 258  310.3757
 259  -1.09459
 260  87.30453
 261  286.2956
 262  362.9467
 263  267.189
 264  225.2996
 265  287.1703
 266  300.4005
 267  372.3674
 268  223.6943
 269  264.6512
 270  313.9456
 271  318.3789
 272  299.2209
 273  365.7617
 274  442.3185
 275  238.9214
 276  255.9931
 277  368.6946
 278  346.3436
 279  248.9157
 280  146.5956
 281  113.6512
 282  64.36895
 283  178.7284
 284  101.8158
 285  202.0068
 286  301.4129
 287  280.4735
 288  330.6566
 289  322.4473
 290  330.2952
 291  386.6801
 292  258.4173
 293  207.242
 294  141.5889
 295  103.7762
 296  120.7476
 297  135.2002
 298  114.0804
 299  345.4769
 300  326.4412
 301  101.6814
 302  25.10741
 303  95.11998
 304  204.1296
 305  388.0565
 306  241.6351
 307  81.55296
 308  104.9077
 309  122.4935
 310  -5.47341
 311  103.8032
 312  173.3904
 313  195.1369
 314  189.8901
 315  261.5488
 316  165.0859
 317  81.0598
 318  130.0651
 319  205.4658
 320  196.0901
 321  288.6423
 322  276.6866
 323  206.7369
 324  59.47568
 325  97.03184
 326  113.8958
 327  208.042
 328  139.946
 329  266.6347
 330  441.0987
 331  285.6029
 332  134.0618
 333  211.2362
 334  229.1088
 335  207.7488
 336  171.1136
 337  253.4759
 338  282.4234
 339  196.9268
 340  220.6388
 341  340.4882
 342  214.3289
 343  236.2043
 344  351.1222
 345  232.1449
 346  231.5223
 347  250.5028
 348  284.4863
 349  226.7966
 350  80.32796
 351  241.5715
 352  394.4272
 353  278.5444
 354  238.5891
 355  237.6075
 356  358.1383
 357  340.5221
 358  386.323
 359  264.7894
 360  344.3426
 361  348.9836
 362  225.664
 363  202.4476
 364  338.2033
 365  299.4534
 366  171.8963
 367  197.7041
 368  289.6111
 369  112.6848
 370  178.2184
 371  225.5643
 372  173.3017
 373  274.8306
 374  217.8574
 375  162.2957
 376  212.5078
 377  271.8001
 378  230.3528
 379  163.4631
 380  100.1025
 381  193.0228
 382  135.3069
 383  88.2068
 384  27.79436
 385  162.9436
 386  186.189
 387  265.1149
 388  232.353
 389  222.3726
 390  179.4632
 391  281.4897
 392  125.168
 393  72.57856
 394  257.4554
 395  354.6951
 396  238.0797
 397  260.1853
 398  233.1855
 399  243.7886
 400  275.7451
 401  206.8674
 402  185.4088
 403  321.9849
 404  308.7173
 405  298.879
 406  279.9987
 407  397.569
 408  403.3985
 409  295.3248
 410  216.784
 411  118.1966
 412  197.1686
 413  287.6167
 414  405.0876
 415  383.8162
 416  416.9717
 417  334.7899
 418  275.8867
 419  273.843
 420  266.6209
 421  256.2101
 422  217.0981
 423  147.6562
 424  85.06054
 425  229.4971
 426  241.837
 427  183.4047
 428  170.3825
 429  174.7575
 430  220.1234
 431  254.1056
 432  176.3213
 433  93.09496
 434  184.7991
 435  215.2851
 436  261.8375
 437  435.3443
 438  230.1068
 439  209.5502
 440  232.2169
 441  233.7375
 442  142.5771
 443  253.8479
 444  420.9579
 445  290.7315
 446  174.1924
 447  182.1132
 448  222.4687
 449  190.8672
 450  178.9557
 451  257.321
 452  227.1985
 453  297.5765
 454  197.9223
 455  118.7501
 456  288.8076
 457  224.0268
 458  5.136212
 459  53.9365
 460  172.2151
 461  155.7505
 462  141.6144
 463  195.4112
 464  210.3206
 465  239.8281
 466  325.1518
 467  242.8057
 468  246.2195
 469  325.8682
 470  266.4657
 471  316.8421
 472  309.292
 473  265.0167
 474  315.8335
 475  204.7921
 476  330.3464
 477  360.9926
 478  296.5809
 479  292.1875
 480  230.2407
 481  259.461
 482  205.4597
 483  406.5682
 484  311.673
 485  218.5667
 486  267.3345
 487  303.4662
 488  353.755
 489  399.8562
 490  441.2305
 491  322.8015
 492  196.8845
 493  166.0653
 494  247.454
 495  398.2687
 496  262.6563
 497  290.8385
 498  256.9601
 499  279.2244
 500  240.5409
 501  235.2862
 502  311.2325
 503  353.3139
 504  341.5426
 505  489.3088
 506  448.1088
 507  474.6831
 508  463.3548
 509  512.1602
 510  725.4417
 511  848.809
