# Input file       =  1200656871.114483_cleaned.dat
# Candidate        =  PSR_0332+5434
# Telescope        =  AR
# Epoch_topo       =  58140.491355491700
# Epoch_bary       =  N/A
# T_sample         =  0.002
# Data Folded      =  7274496
# Data Avg         =  0.0204814072485531
# Data StdDev      =  1.00011032782771 
# Profile Bins     =  512
# Profile Avg      =  291.090790858283 
# Profile StdDev   =  119.210466186888 
# Reduced chi-sqr  =  1.589
# Prob(Noise)      <  4.56e-16   (~8.0 sigma)
# P_topo (ms)      =  714.571257130073  +/- 0.000161
# P'_topo (s/s)    =  -0                +/- 8.59e-11
# P''_topo (s/s^2) =  0                 +/- 3.83e-14
# P_bary (ms)      =  N/A
# P'_bary (s/s)    =  N/A
# P''_bary (s/s^2) =  N/A
# P_orb (s)        =  N/A
# asin(i)/c (s)    =  N/A
# eccentricity     =  N/A
# w (rad)          =  N/A
# T_peri           =  N/A
######################################################
   0  1098.461
   1  1026.297
   2  823.097
   3  626.8749
   4  380.4076
   5  261.7461
   6  349.5433
   7  338.0044
   8  424.7613
   9  375.6316
  10  367.4268
  11  446.124
  12  334.3495
  13  343.1298
  14  551.314
  15  523.5321
  16  346.0504
  17  234.7442
  18  171.3744
  19  270.3737
  20  225.0678
  21  256.4343
  22  279.011
  23  135.3814
  24  219.041
  25  215.5723
  26  129.4452
  27  137.3145
  28  251.9315
  29  370.3954
  30  306.1671
  31  239.5696
  32  331.8288
  33  285.8891
  34  189.7742
  35  380.0084
  36  448.1334
  37  220.2401
  38  185.528
  39  313.3631
  40  370.2106
  41  327.5222
  42  369.4747
  43  310.255
  44  240.9441
  45  246.8377
  46  358.1465
  47  313.0272
  48  266.6226
  49  281.4013
  50  356.3445
  51  355.0739
  52  237.8883
  53  290.8562
  54  199.9374
  55  338.1527
  56  436.6809
  57  301.2351
  58  302.2624
  59  356.6464
  60  382.0315
  61  260.8369
  62  253.1515
  63  194.3463
  64  181.0269
  65  193.9115
  66  213.714
  67  216.912
  68  236.9829
  69  329.3792
  70  299.2786
  71  325.7136
  72  384.5403
  73  329.5471
  74  336.2063
  75  254.0132
  76  265.8689
  77  314.4485
  78  371.5334
  79  384.1665
  80  309.841
  81  326.9113
  82  509.0428
  83  439.0765
  84  316.8934
  85  377.6721
  86  348.8226
  87  363.0656
  88  376.6635
  89  303.6789
  90  316.362
  91  260.9009
  92  253.4681
  93  343.7473
  94  399.6042
  95  425.8037
  96  338.2901
  97  411.7674
  98  279.9553
  99  293.7392
 100  290.2694
 101  240.624
 102  171.7359
 103  197.6823
 104  300.392
 105  236.9086
 106  246.8977
 107  429.8155
 108  248.5885
 109  235.4004
 110  173.0999
 111  116.1521
 112  233.1153
 113  371.3205
 114  330.8594
 115  245.9889
 116  264.7115
 117  282.7043
 118  204.2217
 119  182.9996
 120  334.9272
 121  435.4404
 122  379.8924
 123  346.2557
 124  361.9427
 125  306.713
 126  159.7828
 127  60.04214
 128  161.6028
 129  164.6032
 130  194.3334
 131  271.2058
 132  298.3061
 133  363.6258
 134  256.3961
 135  206.5167
 136  228.3624
 137  208.1797
 138  287.2667
 139  326.2925
 140  242.0386
 141  234.2801
 142  237.9422
 143  291.0912
 144  341.5791
 145  373.0339
 146  301.2383
 147  273.1439
 148  203.1498
 149  283.7297
 150  314.1334
 151  229.2215
 152  364.3142
 153  442.5839
 154  345.9311
 155  339.5955
 156  363.7804
 157  410.642
 158  335.1079
 159  261.5254
 160  294.0268
 161  394.5809
 162  366.3885
 163  292.993
 164  345.6774
 165  282.0966
 166  265.1543
 167  336.9188
 168  277.6254
 169  150.4968
 170  297.3609
 171  291.4159
 172  275.6845
 173  368.5325
 174  321.7724
 175  198.3051
 176  220.7799
 177  249.987
 178  320.6306
 179  512.5671
 180  340.1721
 181  297.2149
 182  254.0847
 183  354.4551
 184  347.2212
 185  359.3922
 186  437.2379
 187  365.6929
 188  339.8174
 189  387.8235
 190  392.5113
 191  315.6778
 192  312.0757
 193  335.8504
 194  275.4197
 195  94.23768
 196  274.0418
 197  355.4932
 198  316.5334
 199  300.6333
 200  219.5037
 201  256.0737
 202  243.1211
 203  54.47782
 204  230.8598
 205  256.6347
 206  283.0313
 207  199.5287
 208  125.3923
 209  196.2531
 210  171.2033
 211  107.6412
 212  242.1048
 213  168.0334
 214  248.3378
 215  201.039
 216  94.70294
 217  157.8709
 218  225.4111
 219  292.8229
 220  338.5227
 221  284.9363
 222  374.4091
 223  217.4123
 224  159.9288
 225  216.7721
 226  251.3596
 227  310.1389
 228  241.1048
 229  246.7598
 230  276.7596
 231  326.6927
 232  246.6674
 233  329.8381
 234  412.7859
 235  327.4598
 236  283.5436
 237  319.2472
 238  456.2216
 239  483.5389
 240  428.3839
 241  344.6487
 242  299.3143
 243  372.3283
 244  492.6478
 245  270.8635
 246  287.7482
 247  251.9599
 248  286.0905
 249  169.4943
 250  211.4093
 251  209.3204
 252  261.986
 253  309.56
 254  429.1773
 255  286.7315
 256  303.9281
 257  352.8385
 258  188.3904
 259  173.6844
 260  182.1243
 261  226.3975
 262  278.5944
 263  230.9077
 264  291.425
 265  297.7991
 266  142.1971
 267  245.5796
 268  190.4057
 269  207.6756
 270  234.4398
 271  198.3315
 272  149.1715
 273  244.0367
 274  244.498
 275  229.2439
 276  232.3016
 277  199.6063
 278  219.4531
 279  365.7984
 280  262.6218
 281  253.7129
 282  305.6123
 283  250.5732
 284  318.9567
 285  359.5804
 286  326.1332
 287  286.1998
 288  313.801
 289  445.2227
 290  421.4239
 291  335.6676
 292  321.6358
 293  271.8089
 294  171.2915
 295  180.2658
 296  334.4507
 297  324.2635
 298  275.0463
 299  200.8491
 300  223.9241
 301  188.6745
 302  232.3545
 303  221.7949
 304  217.1254
 305  223.6508
 306  228.1787
 307  269.0168
 308  325.4707
 309  365.6675
 310  190.5434
 311  46.75715
 312  145.4713
 313  245.5842
 314  327.3793
 315  232.8765
 316  162.1082
 317  87.72595
 318  148.7781
 319  187.0679
 320  300.7882
 321  319.7966
 322  314.1697
 323  159.3531
 324  131.156
 325  170.8998
 326  191.0124
 327  277.8373
 328  215.5296
 329  229.5515
 330  249.4227
 331  243.8123
 332  153.3892
 333  127.052
 334  174.2993
 335  230.3671
 336  291.0319
 337  305.7957
 338  354.1816
 339  212.6672
 340  278.3622
 341  282.502
 342  228.915
 343  106.1266
 344  109.926
 345  155.4418
 346  343.115
 347  277.9721
 348  152.8045
 349  192.5354
 350  271.2754
 351  292.3091
 352  190.722
 353  250.1951
 354  258.5607
 355  72.08016
 356  174.6305
 357  335.3109
 358  198.7419
 359  198.6082
 360  261.9984
 361  353.9725
 362  409.0365
 363  392.0004
 364  308.6456
 365  224.0218
 366  229.9694
 367  379.8874
 368  335.999
 369  417.131
 370  277.865
 371  293.7492
 372  308.4691
 373  218.8902
 374  300.946
 375  317.5456
 376  318.7147
 377  266.9919
 378  236.4483
 379  358.9777
 380  226.3466
 381  326.9789
 382  328.4089
 383  180.4273
 384  230.0998
 385  285.2771
 386  268.5905
 387  287.0319
 388  263.5385
 389  219.034
 390  356.1525
 391  340.5063
 392  376.0222
 393  197.9915
 394  323.3222
 395  374.5836
 396  295.0723
 397  338.8279
 398  204.3022
 399  217.9672
 400  293.3343
 401  376.275
 402  354.4311
 403  348.2009
 404  431.8357
 405  502.2332
 406  242.104
 407  127.0435
 408  206.6875
 409  107.9192
 410  10.40828
 411  187.5205
 412  277.6974
 413  356.3926
 414  359.8268
 415  189.0563
 416  260.6507
 417  197.0501
 418  237.2579
 419  417.6989
 420  159.2848
 421  202.391
 422  246.9567
 423  324.2657
 424  179.2121
 425  235.5208
 426  353.9792
 427  419.9926
 428  384.7353
 429  315.5208
 430  305.2434
 431  226.7689
 432  289.2882
 433  286.2537
 434  217.7567
 435  232.4246
 436  253.9221
 437  271.2979
 438  207.5894
 439  268.1447
 440  227.3441
 441  206.221
 442  153.3682
 443  236.1862
 444  407.7141
 445  375.7004
 446  322.394
 447  346.5652
 448  344.9491
 449  319.9728
 450  240.1088
 451  388.3188
 452  408.3728
 453  366.7383
 454  436.331
 455  410.4075
 456  453.9272
 457  415.8073
 458  340.6181
 459  371.5581
 460  372.4362
 461  360.9
 462  221.3291
 463  377.3326
 464  485.2911
 465  376.0487
 466  277.8903
 467  185.9854
 468  303.6566
 469  345.2257
 470  402.6924
 471  264.8305
 472  281.3319
 473  243.6824
 474  186.6919
 475  262.8378
 476  262.6816
 477  277.2592
 478  194.3955
 479  235.0604
 480  339.4551
 481  268.1128
 482  299.9661
 483  369.4382
 484  445.3517
 485  358.7703
 486  270.1006
 487  357.3471
 488  328.7492
 489  258.5368
 490  242.7053
 491  236.6877
 492  380.8377
 493  296.6467
 494  293.2175
 495  440.8468
 496  415.9131
 497  197.9638
 498  190.4135
 499  249.6638
 500  329.8145
 501  312.0919
 502  378.4979
 503  298.0382
 504  189.7225
 505  253.6437
 506  202.5264
 507  228.8976
 508  428.4576
 509  650.0014
 510  828.116
 511  964.1368
