# Input file       =  1200915502.113506_cleaned.dat
# Candidate        =  PSR_0332+5434
# Telescope        =  AR
# Epoch_topo       =  58143.484769832248
# Epoch_bary       =  N/A
# T_sample         =  0.002
# Data Folded      =  7274496
# Data Avg         =  0.013203167285326
# Data StdDev      =  1.000186320538   
# Profile Bins     =  512
# Profile Avg      =  187.572662141294 
# Profile StdDev   =  119.219524313946 
# Reduced chi-sqr  =  1.339
# Prob(Noise)      <  4.18e-07   (~4.9 sigma)
# P_topo (ms)      =  714.572874183082  +/- 0.000229
# P'_topo (s/s)    =  -0                +/- 1.22e-10
# P''_topo (s/s^2) =  0                 +/- 5.43e-14
# P_bary (ms)      =  N/A
# P'_bary (s/s)    =  N/A
# P''_bary (s/s^2) =  N/A
# P_orb (s)        =  N/A
# asin(i)/c (s)    =  N/A
# eccentricity     =  N/A
# w (rad)          =  N/A
# T_peri           =  N/A
######################################################
   0  927.5687
   1  804.976
   2  594.8829
   3  327.2564
   4  142.3546
   5  158.9466
   6  159.0425
   7  134.6971
   8  146.8916
   9  189.713
  10  294.5477
  11  211.615
  12  216.7902
  13  47.30578
  14  62.01292
  15  127.4658
  16  182.916
  17  119.477
  18  168.8093
  19  234.716
  20  191.6901
  21  219.7244
  22  149.3853
  23  243.9991
  24  177.2456
  25  146.5174
  26  210.5599
  27  200.1278
  28  132.2877
  29  95.94543
  30  169.7094
  31  367.0974
  32  338.3326
  33  247.3773
  34  244.9831
  35  148.6268
  36  123.5276
  37  61.17587
  38  320.6812
  39  170.435
  40  108.166
  41  134.3537
  42  30.10873
  43  87.16753
  44  128.6073
  45  206.6204
  46  168.1712
  47  227.6656
  48  352.3628
  49  141.2823
  50  214.8065
  51  284.5811
  52  155.1187
  53  244.8243
  54  207.0811
  55  227.9817
  56  159.6256
  57  157.707
  58  282.6551
  59  235.6653
  60  333.4258
  61  310.0082
  62  219.5403
  63  261.5027
  64  79.26115
  65  73.988
  66  222.5455
  67  292.359
  68  127.9596
  69  170.6073
  70  283.9236
  71  169.1197
  72  59.74171
  73  58.13865
  74  163.7104
  75  217.2784
  76  85.00883
  77  162.7123
  78  144.0288
  79  190.7293
  80  303.4326
  81  170.3688
  82  149.8609
  83  201.464
  84  167.4792
  85  166.4068
  86  104.0534
  87  130.4748
  88  240.8619
  89  -20.84222
  90  -62.31564
  91  68.32899
  92  177.8355
  93  213.3769
  94  248.6012
  95  182.2829
  96  202.3702
  97  149.2928
  98  152.4119
  99  29.56116
 100  115.4637
 101  181.1932
 102  96.57341
 103  120.5959
 104  214.6878
 105  138.2551
 106  119.0197
 107  48.25373
 108  93.51807
 109  59.87744
 110  58.56956
 111  66.00433
 112  196.1624
 113  248.6366
 114  106.549
 115  102.0431
 116  81.73971
 117  137.0733
 118  177.0251
 119  258.9015
 120  108.0628
 121  84.54261
 122  165.568
 123  163.4938
 124  153.5094
 125  101.1152
 126  172.4186
 127  375.8651
 128  350.3229
 129  209.152
 130  176.971
 131  159.8152
 132  330.8433
 133  281.8946
 134  234.3833
 135  229.7647
 136  60.09563
 137  127.3448
 138  264.2417
 139  209.7743
 140  216.5925
 141  122.918
 142  197.058
 143  144.5919
 144  143.4592
 145  117.1073
 146  268.3226
 147  233.8894
 148  185.7827
 149  252.9184
 150  284.2048
 151  144.378
 152  61.27889
 153  162.6407
 154  172.0556
 155  237.1121
 156  132.4268
 157  57.36546
 158  104.1812
 159  316.5937
 160  178.145
 161  206.0812
 162  292.7395
 163  201.0681
 164  152.6513
 165  156.4648
 166  202.1199
 167  277.908
 168  165.0329
 169  204.6809
 170  203.113
 171  151.5243
 172  144.9712
 173  173.3418
 174  166.7511
 175  173.4473
 176  165.1994
 177  192.8069
 178  73.15773
 179  20.75168
 180  257.2058
 181  290.1806
 182  300.5738
 183  308.7972
 184  213.4212
 185  227.3733
 186  194.6671
 187  65.0652
 188  138.5849
 189  192.983
 190  103.245
 191  99.53603
 192  213.8252
 193  208.9933
 194  27.74052
 195  101.4722
 196  170.9884
 197  259.3383
 198  281.678
 199  86.74906
 200  122.6581
 201  184.0916
 202  237.6644
 203  283.6385
 204  215.7173
 205  -56.05123
 206  -71.79607
 207  18.5603
 208  73.51516
 209  117.8689
 210  193.5999
 211  110.1154
 212  145.3616
 213  254.8422
 214  176.4816
 215  271.3064
 216  161.5838
 217  89.60355
 218  161.682
 219  280.622
 220  192.305
 221  256.8324
 222  155.5249
 223  217.9913
 224  204.8757
 225  164.6734
 226  168.133
 227  172.9485
 228  211.9036
 229  190.1516
 230  333.3634
 231  213.503
 232  54.52073
 233  178.0531
 234  354.8832
 235  280.1585
 236  45.07512
 237  113.8521
 238  136.9356
 239  -11.3448
 240  157.903
 241  64.53196
 242  66.0565
 243  119.1496
 244  196.8423
 245  205.288
 246  146.9968
 247  178.2591
 248  175.9898
 249  286.6586
 250  180.0676
 251  202.7058
 252  245.2158
 253  180.3599
 254  40.76297
 255  89.98241
 256  178.7919
 257  117.9717
 258  48.10426
 259  119.7616
 260  252.8641
 261  127.8669
 262  97.34971
 263  113.6354
 264  191.464
 265  167.441
 266  216.9372
 267  206.9487
 268  227.6326
 269  84.46671
 270  179.4493
 271  228.79
 272  188.2606
 273  195.5125
 274  171.4714
 275  136.7834
 276  182.9618
 277  56.72083
 278  81.78883
 279  171.6847
 280  233.7816
 281  307.1975
 282  133.9306
 283  94.69707
 284  193.2392
 285  9.592814
 286  80.46465
 287  156.3978
 288  245.3704
 289  261.248
 290  207.8728
 291  205.126
 292  125.992
 293  208.0316
 294  198.2797
 295  143.0946
 296  161.3746
 297  177.1043
 298  273.3194
 299  213.6086
 300  220.6346
 301  197.4702
 302  164.0333
 303  193.3214
 304  208.87
 305  41.6451
 306  180.3646
 307  318.419
 308  183.1254
 309  129.1951
 310  298.8771
 311  313.2886
 312  89.48765
 313  143.3708
 314  199.7025
 315  131.9714
 316  217.3533
 317  90.40243
 318  40.43592
 319  107.2759
 320  28.89776
 321  33.93467
 322  165.9237
 323  242.3977
 324  186.1909
 325  53.43477
 326  87.46087
 327  216.4133
 328  28.41933
 329  127.5052
 330  173.1548
 331  257.6574
 332  252.6286
 333  242.651
 334  191.5994
 335  164.4906
 336  178.6124
 337  184.3333
 338  233.7763
 339  270.7793
 340  151.422
 341  100.744
 342  271.3375
 343  270.5363
 344  200.9353
 345  244.2824
 346  195.3427
 347  213.226
 348  361.1317
 349  352.5541
 350  228.8434
 351  202.4734
 352  150.4302
 353  131.715
 354  108.7287
 355  168.4667
 356  311.5171
 357  218.4695
 358  208.4567
 359  202.142
 360  137.9162
 361  101.7057
 362  101.492
 363  73.95324
 364  116.4814
 365  301.4099
 366  338.0108
 367  165.1693
 368  290.1911
 369  262.9707
 370  39.54009
 371  135.3957
 372  125.6892
 373  174.3491
 374  157.2984
 375  192.9425
 376  222.2536
 377  230.8448
 378  299.0597
 379  294.8897
 380  332.8084
 381  293.476
 382  290.8849
 383  148.4642
 384  233.2361
 385  257.3952
 386  140.2791
 387  204.3545
 388  51.23997
 389  -6.972863
 390  163.6469
 391  235.1984
 392  68.65156
 393  115.2983
 394  154.0998
 395  309.6276
 396  191.1721
 397  204.6128
 398  231.9578
 399  219.2404
 400  315.0878
 401  179.2118
 402  211.9951
 403  220.9903
 404  56.2656
 405  96.28426
 406  148.7953
 407  254.5636
 408  131.0898
 409  302.0854
 410  246.7068
 411  266.9845
 412  244.1162
 413  203.6099
 414  196.4071
 415  246.204
 416  231.0865
 417  253.264
 418  269.53
 419  303.9323
 420  315.8994
 421  222.9978
 422  250.3814
 423  220.273
 424  104.6308
 425  79.32264
 426  115.5558
 427  191.1334
 428  166.7373
 429  63.98228
 430  215.6767
 431  118.3921
 432  87.12493
 433  86.36192
 434  176.8973
 435  163.9734
 436  119.0036
 437  146.6914
 438  290.6706
 439  214.3216
 440  190.4707
 441  193.7761
 442  140.799
 443  197.899
 444  87.37432
 445  146.7629
 446  140.6301
 447  75.26833
 448  150.327
 449  256.9651
 450  152.7767
 451  221.7179
 452  136.7188
 453  101.8809
 454  107.7626
 455  253.7224
 456  217.1489
 457  165.209
 458  219.6133
 459  191.9889
 460  104.6275
 461  134.2871
 462  253.0905
 463  93.08337
 464  223.8606
 465  211.0499
 466  90.51759
 467  179.3924
 468  218.7542
 469  112.2063
 470  177.5217
 471  146.749
 472  99.03878
 473  283.6116
 474  118.6807
 475  184.2826
 476  209.6663
 477  301.9695
 478  154.9941
 479  226.1939
 480  51.49213
 481  158.5497
 482  251.5602
 483  303.0439
 484  240.0363
 485  233.7405
 486  177.9843
 487  162.4055
 488  202.7606
 489  204.6857
 490  277.4399
 491  306.1287
 492  380.5592
 493  262.9328
 494  149.2499
 495  169.8406
 496  282.6802
 497  372.2775
 498  168.1602
 499  160.4333
 500  252.1858
 501  279.0336
 502  286.0983
 503  313.1977
 504  229.2209
 505  230.8601
 506  265.8425
 507  411.6754
 508  421.2039
 509  517.0098
 510  676.3362
 511  893.4633
