# Input file       =  1200226254.109845_cleaned.dat
# Candidate        =  PSR_0332+5434
# Telescope        =  AR
# Epoch_topo       =  58135.507362382465
# Epoch_bary       =  N/A
# T_sample         =  0.002
# Data Folded      =  7208960
# Data Avg         =  0.016994952684631
# Data StdDev      =  0.999997426434775
# Profile Bins     =  512
# Profile Avg      =  239.292902086917 
# Profile StdDev   =  118.658870416402 
# Reduced chi-sqr  =  1.453
# Prob(Noise)      <  8.28e-11   (~6.4 sigma)
# P_topo (ms)      =  714.5682306397    +/- 0.000202
# P'_topo (s/s)    =  -0                +/- 1.09e-10
# P''_topo (s/s^2) =  0                 +/- 4.88e-14
# P_bary (ms)      =  N/A
# P'_bary (s/s)    =  N/A
# P''_bary (s/s^2) =  N/A
# P_orb (s)        =  N/A
# asin(i)/c (s)    =  N/A
# eccentricity     =  N/A
# w (rad)          =  N/A
# T_peri           =  N/A
######################################################
   0  940.8094
   1  950.9443
   2  798.651
   3  632.8348
   4  374.3853
   5  213.3566
   6  259.7734
   7  372.4951
   8  360.8857
   9  340.9041
  10  270.3684
  11  345.5463
  12  344.8905
  13  187.7317
  14  318.4932
  15  273.2412
  16  318.8554
  17  241.957
  18  224.4014
  19  381.0868
  20  240.8519
  21  210.232
  22  284.146
  23  261.91
  24  279.0764
  25  333.7804
  26  226.0788
  27  246.6647
  28  340.2233
  29  214.9882
  30  218.1776
  31  343.3576
  32  195.0335
  33  112.0585
  34  200.5109
  35  364.7952
  36  319.4747
  37  251.2766
  38  357.3405
  39  208.2167
  40  160.5078
  41  181.2888
  42  128.3309
  43  170.4671
  44  284.6049
  45  401.976
  46  389.4243
  47  258.8898
  48  275.2519
  49  365.3973
  50  235.8272
  51  204.0373
  52  179.2754
  53  149.8963
  54  197.1815
  55  207.0883
  56  318.4684
  57  251.5222
  58  342.6523
  59  243.451
  60  258.6484
  61  341.5035
  62  336.3254
  63  336.7398
  64  319.8875
  65  212.3396
  66  249.0238
  67  206.9102
  68  267.95
  69  177.5546
  70  77.10991
  71  336.3087
  72  359.0237
  73  225.683
  74  152.012
  75  213.655
  76  351.2521
  77  370.9922
  78  247.8441
  79  148.0696
  80  93.42466
  81  172.6632
  82  152.9949
  83  155.8689
  84  224.0739
  85  426.598
  86  228.0332
  87  68.83137
  88  263.1767
  89  351.4309
  90  318.9578
  91  203.5916
  92  143.7047
  93  211.4618
  94  229.1492
  95  197.9551
  96  156.7736
  97  213.2357
  98  399.3494
  99  340.2887
 100  215.3923
 101  336.4315
 102  307.8102
 103  262.2957
 104  157.834
 105  97.58155
 106  58.905
 107  143.4036
 108  90.60075
 109  230.5493
 110  155.2465
 111  137.9009
 112  147.9613
 113  -4.914075
 114  110.1216
 115  101.8908
 116  113.6773
 117  176.5126
 118  26.32204
 119  -57.35197
 120  138.8008
 121  211.9036
 122  177.1466
 123  80.59233
 124  146.3805
 125  140.6964
 126  63.34064
 127  103.768
 128  207.0244
 129  72.59953
 130  280.8005
 131  329.7921
 132  248.5081
 133  134.3847
 134  228.7465
 135  233.8926
 136  263.5666
 137  288.5977
 138  264.1283
 139  283.0161
 140  314.7288
 141  220.4755
 142  129.461
 143  163.3807
 144  134.6916
 145  160.9376
 146  231.4821
 147  306.1396
 148  280.9318
 149  259.6113
 150  334.8457
 151  338.8469
 152  371.2767
 153  266.8817
 154  150.7125
 155  138.9923
 156  60.50045
 157  125.3864
 158  255.6492
 159  183.7611
 160  216.0492
 161  144.8918
 162  204.7184
 163  222.8425
 164  201.1433
 165  103.513
 166  122.4864
 167  133.0347
 168  299.6364
 169  296.1544
 170  144.8947
 171  166.295
 172  142.089
 173  180.4218
 174  251.1023
 175  226.5125
 176  291.3974
 177  185.3559
 178  118.8026
 179  151.3559
 180  222.4908
 181  337.2769
 182  277.2295
 183  177.7054
 184  198.8228
 185  343.6711
 186  440.2173
 187  245.0569
 188  209.9642
 189  229.672
 190  135.777
 191  51.45786
 192  200.059
 193  159.8119
 194  203.7334
 195  198.7112
 196  197.0561
 197  231.5182
 198  315.5129
 199  253.0604
 200  127.2041
 201  166.6848
 202  147.339
 203  256.5848
 204  314.0728
 205  249.7452
 206  143.2373
 207  119.832
 208  279.4011
 209  424.2936
 210  243.711
 211  286.2711
 212  295.6153
 213  55.80236
 214  258.2307
 215  288.6844
 216  222.8657
 217  182.4135
 218  204.6505
 219  397.4343
 220  343.5529
 221  232.4223
 222  304.1944
 223  274.221
 224  331.9005
 225  303.8215
 226  181.9851
 227  259.1277
 228  154.4128
 229  262.519
 230  359.268
 231  238.867
 232  324.9578
 233  371.9351
 234  268.8802
 235  262.1134
 236  329.5647
 237  240.5725
 238  154.2718
 239  188.1129
 240  256.7723
 241  342.9536
 242  244.5747
 243  143.1599
 244  282.7964
 245  258.1988
 246  117.616
 247  144.3136
 248  129.7118
 249  273.7751
 250  156.2405
 251  93.65963
 252  230.7352
 253  284.7661
 254  244.5881
 255  291.4676
 256  190.0098
 257  173.534
 258  226.0961
 259  154.3562
 260  235.2561
 261  186.8158
 262  58.23055
 263  106.4874
 264  212.483
 265  268.7346
 266  212.0932
 267  175.4308
 268  262.1844
 269  330.7051
 270  220.1993
 271  298.5932
 272  166.9671
 273  190.645
 274  130.8323
 275  284.7496
 276  232.2916
 277  219.8019
 278  149.7073
 279  277.2115
 280  288.0431
 281  124.4219
 282  161.8968
 283  141.0076
 284  216.7611
 285  172.0475
 286  119.373
 287  174.5382
 288  269.9957
 289  114.186
 290  47.24841
 291  80.92704
 292  182.8483
 293  193.5193
 294  238.8101
 295  263.3792
 296  230.881
 297  284.3852
 298  273.3233
 299  145.1602
 300  267.4767
 301  213.2604
 302  377.7926
 303  264.3022
 304  34.27989
 305  67.4128
 306  163.4496
 307  262.7216
 308  382.0625
 309  63.70319
 310  99.34876
 311  301.8393
 312  248.3804
 313  277.7725
 314  361.5395
 315  335.6818
 316  250.7317
 317  358.4854
 318  319.3488
 319  198.1269
 320  209.0876
 321  321.552
 322  256.2303
 323  172.8954
 324  85.95999
 325  43.30665
 326  189.5786
 327  296.9615
 328  281.3413
 329  230.097
 330  121.9063
 331  206.8161
 332  318.574
 333  342.8804
 334  359.9677
 335  234.7007
 336  228.4527
 337  148.0475
 338  167.2926
 339  265.1333
 340  324.2494
 341  315.5974
 342  203.4583
 343  218.3859
 344  153.8098
 345  154.1
 346  219.9978
 347  139.1691
 348  180.0501
 349  209.6154
 350  259.381
 351  199.755
 352  284.1786
 353  285.7681
 354  183.7289
 355  222.7236
 356  143.3598
 357  239.6766
 358  205.0519
 359  254.2001
 360  271.1477
 361  244.754
 362  262.9383
 363  282.1756
 364  188.1808
 365  356.8925
 366  448.918
 367  339.7694
 368  132.8159
 369  195.265
 370  314.8735
 371  307.6423
 372  279.6291
 373  279.2678
 374  274.321
 375  293.3548
 376  384.6211
 377  397.4564
 378  308.4026
 379  265.6162
 380  266.2441
 381  159.1601
 382  237.7379
 383  205.4531
 384  223.2311
 385  259.1225
 386  280.049
 387  378.61
 388  334.8686
 389  207.0049
 390  258.5552
 391  221.9199
 392  195.5943
 393  201.9787
 394  150.6954
 395  173.59
 396  197.9289
 397  258.7343
 398  189.4687
 399  191.0009
 400  322.1446
 401  260.2389
 402  336.2351
 403  210.4315
 404  113.4717
 405  143.785
 406  262.7046
 407  289.5132
 408  229.6914
 409  249.5488
 410  183.9495
 411  322.4929
 412  223.736
 413  194.1957
 414  232.7458
 415  227.2671
 416  225.2937
 417  210.3312
 418  227.3438
 419  129.5572
 420  190.5381
 421  315.5372
 422  240.4176
 423  338.5188
 424  292.1949
 425  131.1224
 426  97.55419
 427  201.8567
 428  199.1232
 429  101.9957
 430  186.8744
 431  167.5187
 432  170.766
 433  186.5912
 434  213.1549
 435  274.2544
 436  201.1027
 437  244.6997
 438  201.784
 439  148.092
 440  242.0249
 441  241.0788
 442  159.564
 443  181.0871
 444  302.2664
 445  274.7225
 446  200.6355
 447  268.4081
 448  126.0432
 449  166.1096
 450  255.3537
 451  262.505
 452  213.8714
 453  259
 454  163.0336
 455  212.5405
 456  334.9147
 457  295.1674
 458  -17.46405
 459  67.22035
 460  204.5628
 461  293.1721
 462  273.0532
 463  254.0424
 464  309.9689
 465  326.5414
 466  272.7352
 467  232.8695
 468  144.9194
 469  221.8842
 470  275.1567
 471  247.7882
 472  316.8015
 473  280.3562
 474  339.3448
 475  324.6089
 476  238.2394
 477  101.9186
 478  91.82252
 479  308.8649
 480  227.2662
 481  96.95254
 482  219.7206
 483  242.6873
 484  403.7624
 485  302.8594
 486  302.0214
 487  254.6142
 488  304.2329
 489  342.9688
 490  271.0035
 491  226.5309
 492  214.5307
 493  365.1828
 494  471.4839
 495  485.3172
 496  381.6817
 497  487.7367
 498  469.8573
 499  321.8511
 500  275.5939
 501  186.0959
 502  71.03345
 503  188.0977
 504  314.2984
 505  398.487
 506  429.7684
 507  393.2137
 508  358.9738
 509  377.5197
 510  477.2901
 511  702.4152
