# Input file       =  1200312473.104338_cleaned.dat
# Candidate        =  PSR_0332+5434
# Telescope        =  AR
# Epoch_topo       =  58136.505267411318
# Epoch_bary       =  N/A
# T_sample         =  0.002
# Data Folded      =  7143424
# Data Avg         =  0.0172984903391056
# Data StdDev      =  1.00002570657346 
# Profile Bins     =  512
# Profile Avg      =  241.409327129874 
# Profile StdDev   =  118.121620905936 
# Reduced chi-sqr  =  1.514
# Prob(Noise)      <  4.66e-13   (~7.1 sigma)
# P_topo (ms)      =  714.568867361881  +/- 9.36e-05
# P'_topo (s/s)    =  -0                +/- 5.08e-11
# P''_topo (s/s^2) =  0                 +/- 2.3e-14
# P_bary (ms)      =  N/A
# P'_bary (s/s)    =  N/A
# P''_bary (s/s^2) =  N/A
# P_orb (s)        =  N/A
# asin(i)/c (s)    =  N/A
# eccentricity     =  N/A
# w (rad)          =  N/A
# T_peri           =  N/A
######################################################
   0  900.8145
   1  799.0242
   2  565.1629
   3  436.2976
   4  271.8172
   5  238.8252
   6  295.7771
   7  101.6534
   8  252.1318
   9  217.0578
  10  133.6723
  11  194.596
  12  307.0703
  13  271.7433
  14  258.5999
  15  306.5752
  16  215.1029
  17  205.1277
  18  240.8515
  19  256.6632
  20  115.7136
  21  25.91109
  22  95.18479
  23  158.2547
  24  105.4592
  25  193.8219
  26  242.5573
  27  228.5966
  28  242.7887
  29  169.9396
  30  354.8141
  31  367.875
  32  332.2076
  33  257.884
  34  337.5103
  35  230.7048
  36  311.4516
  37  142.1272
  38  185.2985
  39  385.3674
  40  310.4197
  41  267.1498
  42  378.468
  43  436.2297
  44  292.8846
  45  253.3828
  46  149.9745
  47  229.9518
  48  227.7936
  49  308.408
  50  307.0081
  51  236.4759
  52  201.0596
  53  232.0079
  54  155.4594
  55  183.8215
  56  144.4214
  57  170.4499
  58  216.9923
  59  130.8281
  60  155.375
  61  213.0181
  62  117.2672
  63  101.3368
  64  218.7081
  65  298.2116
  66  218.4618
  67  191.7587
  68  374.8037
  69  173.9104
  70  111.877
  71  306.451
  72  346.0821
  73  244.612
  74  213.3466
  75  145.4412
  76  84.33371
  77  55.44225
  78  50.13902
  79  219.9059
  80  450.7791
  81  396.8526
  82  288.0249
  83  330.0257
  84  365.0333
  85  353.7156
  86  309.5413
  87  271.3165
  88  252.1188
  89  218.0406
  90  187.1366
  91  284.0013
  92  236.9632
  93  81.18747
  94  105.177
  95  105.477
  96  267.6782
  97  408.4768
  98  240.8522
  99  360.4602
 100  382.8627
 101  292.4183
 102  310.1411
 103  177.6222
 104  251.4478
 105  323.0689
 106  334.6207
 107  284.8721
 108  220.1819
 109  303.3648
 110  111.9134
 111  18.08356
 112  179.7729
 113  184.0888
 114  230.7435
 115  353.4239
 116  453.2375
 117  433.5682
 118  284.1084
 119  326.2065
 120  316.6687
 121  304.9272
 122  343.7841
 123  281.5095
 124  254.9503
 125  288.7009
 126  343.837
 127  178.1833
 128  149.5684
 129  202.7339
 130  321.0462
 131  251.6598
 132  154.5911
 133  337.3602
 134  327.782
 135  201.5878
 136  271.7715
 137  398.8639
 138  326.3676
 139  231.0916
 140  328.1456
 141  317.3989
 142  218.5784
 143  170.1752
 144  171.56
 145  200.574
 146  347.5061
 147  362.7534
 148  234.9956
 149  295.2417
 150  345.1664
 151  344.2218
 152  175.345
 153  230.6338
 154  277.8571
 155  239.9974
 156  183.4439
 157  221.9018
 158  418.6114
 159  397.9901
 160  296.3234
 161  312.745
 162  215.0362
 163  269.1392
 164  188.1144
 165  221.6549
 166  272.5729
 167  192.2023
 168  103.2935
 169  169.8579
 170  292.5105
 171  265.2758
 172  223.2262
 173  204.095
 174  240.1573
 175  364.0351
 176  206.3611
 177  268.4438
 178  199.7847
 179  95.03174
 180  77.02666
 181  241.1086
 182  379.0611
 183  291.3456
 184  295.6037
 185  300.9397
 186  245.3947
 187  164.7403
 188  291.5253
 189  214.481
 190  296.3403
 191  269.7885
 192  278.2943
 193  223.5535
 194  200.7195
 195  226.216
 196  173.8152
 197  323.2656
 198  300.0522
 199  241.1701
 200  285.5665
 201  311.5075
 202  388.5477
 203  389.6234
 204  227.4945
 205  110.215
 206  121.013
 207  221.6155
 208  225.7943
 209  164.2271
 210  277.7383
 211  279.6683
 212  287.2912
 213  323.0283
 214  156.2233
 215  289.4663
 216  359.1307
 217  478.3072
 218  288.08
 219  172.8936
 220  171.2672
 221  156.2706
 222  241.8121
 223  416.2898
 224  439.9216
 225  270.4184
 226  276.2319
 227  317.1647
 228  282.2906
 229  283.5659
 230  98.65934
 231  233.7926
 232  383.9226
 233  421.9395
 234  248.0864
 235  200.9127
 236  65.82661
 237  192.1579
 238  272.4026
 239  324.766
 240  306.6768
 241  277.0893
 242  193.8411
 243  287.6165
 244  108.3151
 245  187.8961
 246  115.9888
 247  231.8894
 248  388.4201
 249  267.0039
 250  181.0895
 251  102.9253
 252  33.28248
 253  54.25106
 254  5.245564
 255  85.624
 256  154.4955
 257  159.9124
 258  234.3136
 259  318.6213
 260  266.067
 261  177.6652
 262  156.2998
 263  245.2796
 264  351.2959
 265  314.8478
 266  371.4806
 267  272.0562
 268  259.2532
 269  160.7589
 270  69.31211
 271  98.0105
 272  376.2039
 273  375.3884
 274  254.1506
 275  278.1386
 276  363.1607
 277  254.7821
 278  199.8233
 279  302.4149
 280  401.8642
 281  331.5677
 282  377.7758
 283  359.3162
 284  194.5188
 285  125.5852
 286  320.7382
 287  262.0127
 288  137.4556
 289  196.8001
 290  324.9186
 291  210.2458
 292  250.6723
 293  302.8766
 294  157.7893
 295  113.7982
 296  218.0217
 297  473.5252
 298  459.3416
 299  371.8083
 300  201.622
 301  264.967
 302  192.6212
 303  152.9635
 304  206.7066
 305  338.2225
 306  192.9364
 307  209.7644
 308  235.0357
 309  285.7899
 310  246.8862
 311  133.9179
 312  276.0482
 313  282.0366
 314  296.6674
 315  274.1146
 316  370.2745
 317  217.045
 318  80.85595
 319  29.59764
 320  237.0102
 321  163.5499
 322  99.64834
 323  209.9544
 324  186.7616
 325  324.3137
 326  249.5136
 327  245.989
 328  168.1413
 329  151.3325
 330  279.7033
 331  282.9972
 332  185.088
 333  184.4486
 334  231.6545
 335  258.4146
 336  291.1656
 337  275.8447
 338  273.309
 339  135.8412
 340  166.3502
 341  324.1876
 342  229.0775
 343  135.9488
 344  171.3115
 345  57.71155
 346  162.7155
 347  283.8988
 348  219.7008
 349  146.5728
 350  243.8338
 351  80.32953
 352  232.3856
 353  287.9941
 354  237.8155
 355  152.1209
 356  172.5096
 357  235.3764
 358  207.2197
 359  206.21
 360  191.3687
 361  146.029
 362  283.396
 363  316.8345
 364  251.3732
 365  288.0087
 366  344.5234
 367  356.7046
 368  241.4904
 369  237.3138
 370  209.3562
 371  187.6343
 372  201.0496
 373  258.5582
 374  164.4436
 375  141.6127
 376  89.98611
 377  141.1435
 378  271.2068
 379  267.1051
 380  166.7212
 381  79.52889
 382  144.5366
 383  146.027
 384  165.7638
 385  155.4256
 386  156.3064
 387  295.3892
 388  293.2346
 389  264.7012
 390  296.4894
 391  294.1379
 392  133.6738
 393  147.6121
 394  257.5144
 395  365.2102
 396  250.6541
 397  254.7136
 398  222.1252
 399  165.2901
 400  167.3191
 401  157.4971
 402  45.34872
 403  102.9794
 404  119.8871
 405  145.3681
 406  280.8276
 407  308.5515
 408  356.4075
 409  240.7946
 410  227.5034
 411  97.2469
 412  36.84878
 413  185.3747
 414  219.3293
 415  262.0324
 416  288.4853
 417  174.0051
 418  126.936
 419  225.6763
 420  266.5334
 421  381.9073
 422  262.0075
 423  266.6108
 424  302.694
 425  123.9265
 426  168.6263
 427  164.9782
 428  209.4193
 429  201.1682
 430  226.5149
 431  281.936
 432  284.9608
 433  244.0044
 434  185.2032
 435  165.5149
 436  150.2677
 437  299.9119
 438  249.3274
 439  331.563
 440  197.512
 441  61.6857
 442  118.626
 443  179.823
 444  262.9283
 445  263.9315
 446  344.5767
 447  306.3142
 448  221.0054
 449  269.8947
 450  171.3871
 451  139.3192
 452  278.5983
 453  158.693
 454  58.45495
 455  45.77419
 456  179.19
 457  144.3936
 458  96.03296
 459  161.29
 460  185.1106
 461  235.9112
 462  212.0964
 463  187.0363
 464  208.9443
 465  185.2142
 466  210.8443
 467  192.5592
 468  78.1342
 469  149.8799
 470  165.0065
 471  128.3413
 472  182.1732
 473  207.6629
 474  84.80474
 475  87.76801
 476  263.9056
 477  189.3612
 478  127.6997
 479  128.264
 480  150.5925
 481  279.9149
 482  339.3339
 483  119.0566
 484  160.4569
 485  179.7253
 486  138.1951
 487  164.1085
 488  214.6862
 489  270.5217
 490  339.2595
 491  392.0384
 492  277.8886
 493  344.5846
 494  386.5894
 495  402.8259
 496  214.2738
 497  172.846
 498  347.5269
 499  264.0936
 500  129.9647
 501  159.2593
 502  231.7869
 503  273.4147
 504  368.6024
 505  364.4709
 506  313.8723
 507  347.817
 508  392.1652
 509  578.5063
 510  781.095
 511  891.8994
