# Input file       =  1200930286.110481_cleaned.dat
# Candidate        =  PSR_0332+5434
# Telescope        =  AR
# Epoch_topo       =  58143.655880908344
# Epoch_bary       =  N/A
# T_sample         =  0.002
# Data Folded      =  7340032
# Data Avg         =  0.0159301739583522
# Data StdDev      =  1.00005718525943 
# Profile Bins     =  512
# Profile Avg      =  228.542859701968 
# Profile StdDev   =  119.739883341513 
# Reduced chi-sqr  =  1.297
# Prob(Noise)      <  6.5e-06   (~4.4 sigma)
# P_topo (ms)      =  714.572976590655  +/- 0.000188
# P'_topo (s/s)    =  -0                +/- 9.92e-11
# P''_topo (s/s^2) =  0                 +/- 4.38e-14
# P_bary (ms)      =  N/A
# P'_bary (s/s)    =  N/A
# P''_bary (s/s^2) =  N/A
# P_orb (s)        =  N/A
# asin(i)/c (s)    =  N/A
# eccentricity     =  N/A
# w (rad)          =  N/A
# T_peri           =  N/A
######################################################
   0  858.8209
   1  832.6267
   2  748.9803
   3  445.4537
   4  353.9847
   5  325.4342
   6  203.6402
   7  200.9663
   8  344.9673
   9  309.9475
  10  246.8583
  11  222.7148
  12  168.2124
  13  113.4914
  14  192.5528
  15  258.5359
  16  303.7551
  17  210.0107
  18  232.7123
  19  264.6822
  20  239.4898
  21  250.5287
  22  313.8705
  23  259.9655
  24  212.2781
  25  198.2406
  26  211.2752
  27  238.965
  28  123.2539
  29  67.9695
  30  288.1389
  31  472.8333
  32  339.1847
  33  193.6975
  34  168.6041
  35  260.3187
  36  263.6087
  37  336.9642
  38  278.038
  39  232.5873
  40  224.4051
  41  211.0292
  42  306.8995
  43  292.6288
  44  208.2273
  45  240.6288
  46  284.1282
  47  296.0484
  48  317.2751
  49  267.4881
  50  308.3023
  51  334.4465
  52  242.5216
  53  149.8103
  54  85.11559
  55  194.3825
  56  293.2903
  57  291.9389
  58  200.8786
  59  260.1917
  60  255.95
  61  151.942
  62  194.9637
  63  190.0752
  64  169.7388
  65  216.8226
  66  150.385
  67  178.5376
  68  243.6316
  69  239.3073
  70  180.4314
  71  151.4536
  72  274.7986
  73  146.5935
  74  217.3917
  75  221.7404
  76  153.8384
  77  84.04429
  78  130.1889
  79  209.3858
  80  190.1913
  81  199.5977
  82  237.7209
  83  151.6068
  84  11.69933
  85  -8.422506
  86  193.8759
  87  358.4727
  88  266.4118
  89  237.1
  90  324.0517
  91  178.0889
  92  166.3405
  93  148.468
  94  189.4448
  95  186.1546
  96  162.7755
  97  236.6228
  98  105.8538
  99  -19.52983
 100  162.8517
 101  104.697
 102  69.4828
 103  144.7299
 104  278.7951
 105  296.1537
 106  272.7701
 107  273.0085
 108  215.7691
 109  248.3814
 110  79.34808
 111  45.78576
 112  128.3531
 113  168.0542
 114  156.8019
 115  106.002
 116  196.4656
 117  272.2367
 118  194.834
 119  241.8038
 120  195.8211
 121  216.2507
 122  243.7729
 123  277.7943
 124  314.2929
 125  227.7498
 126  174.651
 127  191.638
 128  153.9352
 129  206.2878
 130  221.5504
 131  229.3212
 132  226.8557
 133  115.4255
 134  176.4033
 135  231.1309
 136  199.1705
 137  271.3507
 138  241.3411
 139  253.6555
 140  197.7122
 141  163.5985
 142  142.0161
 143  163.3534
 144  187.5088
 145  98.83751
 146  206.2649
 147  159.0797
 148  93.68822
 149  173.9991
 150  203.875
 151  140.3845
 152  166.1092
 153  143.9437
 154  162.2013
 155  146.2289
 156  249.0095
 157  242.794
 158  246.3849
 159  185.6118
 160  370.7979
 161  282.6179
 162  237.1148
 163  321.2157
 164  375.1116
 165  290.8649
 166  361.5965
 167  429.9745
 168  337.5091
 169  312.9476
 170  288.5096
 171  320.1782
 172  427.0023
 173  415.0743
 174  291.2385
 175  171.7255
 176  238.7171
 177  275.1638
 178  295.7037
 179  286.2842
 180  283.9353
 181  155.7203
 182  149.9449
 183  232.0745
 184  259.5919
 185  141.2678
 186  155.9053
 187  171.5733
 188  206.2275
 189  227.9865
 190  224.4837
 191  248.4164
 192  231.2473
 193  238.1366
 194  408.6006
 195  465.3333
 196  341.8087
 197  312.7129
 198  318.1097
 199  278.8928
 200  238.6755
 201  245.8349
 202  271.8478
 203  167.9832
 204  260.9181
 205  305.5333
 206  294.1849
 207  278.3752
 208  309.1567
 209  300.5061
 210  269.9466
 211  304.069
 212  232.4788
 213  189.9532
 214  216.828
 215  294.2643
 216  389.3175
 217  402.8433
 218  350.2126
 219  195.8817
 220  136.7303
 221  193.3656
 222  223.8514
 223  171.6549
 224  150.3371
 225  169.163
 226  195.2028
 227  221.9905
 228  283.5056
 229  265.0971
 230  223.4444
 231  120.2525
 232  285.9825
 233  219.2103
 234  74.31313
 235  157.2002
 236  318.0096
 237  289.9696
 238  289.2654
 239  362.6948
 240  238.5779
 241  170.4546
 242  142.7369
 243  129.596
 244  41.66828
 245  255.0974
 246  248.781
 247  234.0182
 248  201.9767
 249  142.6447
 250  128.8509
 251  203.9441
 252  120.6491
 253  147.6748
 254  120.3113
 255  108.8295
 256  160.7953
 257  181.7009
 258  101.8031
 259  103.9592
 260  147.5215
 261  271.5979
 262  153.9222
 263  116.6354
 264  197.129
 265  239.9991
 266  200.8516
 267  110.0619
 268  210.0797
 269  191.4052
 270  257.8737
 271  243.2108
 272  265.8351
 273  240.2621
 274  212.8203
 275  212.155
 276  198.0151
 277  181.4722
 278  158.0558
 279  99.47308
 280  74.15552
 281  223.9911
 282  226.4095
 283  186.1633
 284  194.3158
 285  172.9484
 286  44.51155
 287  37.46891
 288  44.13941
 289  146.3612
 290  224.0593
 291  124.6625
 292  116.0835
 293  184.4644
 294  75.7522
 295  45.84889
 296  33.64799
 297  73.35528
 298  165.7434
 299  344.3646
 300  316.5433
 301  147.2798
 302  53.98738
 303  135.7242
 304  100.0353
 305  147.3507
 306  220.0294
 307  245.1783
 308  190.599
 309  127.4444
 310  206.2322
 311  58.82843
 312  70.4705
 313  119.5739
 314  187.2607
 315  189.9217
 316  133.5447
 317  278.1309
 318  251.3073
 319  209.4817
 320  144.0961
 321  122.56
 322  207.2002
 323  214.6985
 324  214.4761
 325  162.4334
 326  166.7892
 327  194.2944
 328  199.2182
 329  219.7589
 330  373.133
 331  294.2679
 332  207.8351
 333  292.8781
 334  176.2629
 335  180.5507
 336  284.2832
 337  117.7535
 338  201.2996
 339  223.5819
 340  352.6177
 341  403.6068
 342  197.5724
 343  175.3461
 344  144.1294
 345  190.2784
 346  249.0031
 347  218.8466
 348  239.9249
 349  215.6159
 350  88.31847
 351  72.01078
 352  251.9842
 353  250.6652
 354  270.7484
 355  179.5629
 356  151.2259
 357  195.6077
 358  191.4776
 359  137.6869
 360  186.1189
 361  253.2551
 362  259.8027
 363  230.1926
 364  275.0206
 365  262.2543
 366  280.5591
 367  270.9093
 368  209.5506
 369  291.6552
 370  294.4831
 371  251.2539
 372  229.942
 373  297.0421
 374  278.7484
 375  242.4313
 376  261.4409
 377  309.1299
 378  275.7938
 379  315.3136
 380  302.024
 381  293.4711
 382  346.4702
 383  223.1827
 384  179.6071
 385  296.0053
 386  296.1573
 387  214.5235
 388  339.6648
 389  260.2552
 390  262.763
 391  249.5053
 392  160.0818
 393  110.871
 394  155.9241
 395  334.1999
 396  367.3036
 397  327.3625
 398  226.575
 399  253.3679
 400  260.654
 401  202.9686
 402  315.2205
 403  328.9983
 404  196.4389
 405  130.0656
 406  153.7751
 407  161.2046
 408  223.3207
 409  358.3198
 410  295.6639
 411  146.8889
 412  265.2972
 413  151.965
 414  266.2411
 415  322.0985
 416  312.2251
 417  312.3079
 418  300.3873
 419  235.937
 420  227.4077
 421  256.645
 422  371.1577
 423  359.5731
 424  270.1624
 425  113.0942
 426  201.6824
 427  334.515
 428  313.5661
 429  209.415
 430  218.2055
 431  106.4461
 432  178.4857
 433  330.2626
 434  298.9678
 435  242.2378
 436  244.4296
 437  250.5667
 438  243.0658
 439  302.8154
 440  337.7167
 441  317.1418
 442  185.638
 443  208.624
 444  279.0096
 445  207.7436
 446  160.4677
 447  154.8594
 448  255.2518
 449  272.16
 450  238.4894
 451  218.6823
 452  243.0488
 453  271.4576
 454  294.6883
 455  207.8294
 456  187.2349
 457  126.062
 458  136.687
 459  220.0223
 460  253.0493
 461  253.0385
 462  194.9956
 463  151.3445
 464  111.5597
 465  168.9914
 466  192.037
 467  167.2268
 468  216.5763
 469  374.4748
 470  277.5026
 471  176.2679
 472  239.7643
 473  285.7216
 474  96.54303
 475  201.6925
 476  193.6792
 477  138.516
 478  240.9953
 479  225.6614
 480  256.1861
 481  150.195
 482  84.18858
 483  293.5227
 484  411.6034
 485  250.7238
 486  119.6163
 487  223.4717
 488  137.9343
 489  228.0007
 490  191.7502
 491  221.8683
 492  218.1746
 493  280.3098
 494  321.9612
 495  343.3727
 496  287.0985
 497  218.2525
 498  270.2194
 499  336.1317
 500  353.0632
 501  277.2808
 502  224.4713
 503  224.2552
 504  196.5275
 505  292.7823
 506  244.4824
 507  271.4922
 508  351.1352
 509  443.4628
 510  774.4233
 511  928.9906
