# Input file       =  1200743205.114184_cleaned.dat
# Candidate        =  PSR_0332+5434
# Telescope        =  AR
# Epoch_topo       =  58141.490591599351
# Epoch_bary       =  N/A
# T_sample         =  0.002
# Data Folded      =  7208960
# Data Avg         =  0.0143137592290803
# Data StdDev      =  1.00002112736326 
# Profile Bins     =  512
# Profile Avg      =  201.537728271646 
# Profile StdDev   =  118.661682749042 
# Reduced chi-sqr  =  1.394
# Prob(Noise)      <  8.23e-09   (~5.6 sigma)
# P_topo (ms)      =  714.5718120326    +/- 8.03e-05
# P'_topo (s/s)    =  -0                +/- 4.32e-11
# P''_topo (s/s^2) =  0                 +/- 1.94e-14
# P_bary (ms)      =  N/A
# P'_bary (s/s)    =  N/A
# P''_bary (s/s^2) =  N/A
# P_orb (s)        =  N/A
# asin(i)/c (s)    =  N/A
# eccentricity     =  N/A
# w (rad)          =  N/A
# T_peri           =  N/A
######################################################
   0  693.7398
   1  538.5335
   2  552.7166
   3  595.0242
   4  323.3894
   5  213.1821
   6  109.2326
   7  225.8077
   8  146.6476
   9  191.8891
  10  241.9611
  11  207.0777
  12  159.0331
  13  259.9265
  14  238.2452
  15  135.3685
  16  173.1708
  17  139.0718
  18  299.7233
  19  199.7832
  20  97.157
  21  82.39398
  22  107.6902
  23  232.871
  24  212.1297
  25  316.3849
  26  247.9308
  27  312.3457
  28  233.7285
  29  152.6287
  30  251.7137
  31  391.1503
  32  233.9217
  33  243.8848
  34  133.8847
  35  205.8338
  36  38.24182
  37  170.4447
  38  136.006
  39  90.40412
  40  52.96078
  41  86.37596
  42  108.2813
  43  156.9246
  44  232.919
  45  218.9217
  46  61.74139
  47  12.7667
  48  28.81894
  49  52.15688
  50  103.8523
  51  211.6937
  52  300.019
  53  182.08
  54  221.3289
  55  208.9681
  56  133.9333
  57  150.9424
  58  203.6032
  59  286.3921
  60  175.6939
  61  239.9643
  62  274.8847
  63  136.5806
  64  157.2929
  65  206.7769
  66  325.762
  67  304.4767
  68  267.3812
  69  170.7087
  70  105.528
  71  189.4783
  72  160.6504
  73  187.8137
  74  141.0776
  75  249.1027
  76  249.6491
  77  237.4732
  78  209.6528
  79  230.9356
  80  233.2829
  81  109.732
  82  230.2894
  83  345.9138
  84  313.8958
  85  115.6731
  86  154.1883
  87  -2.789073
  88  101.0698
  89  178.8539
  90  98.00881
  91  110.0127
  92  82.46255
  93  283.8168
  94  325.0261
  95  328.4729
  96  330.4488
  97  156.5579
  98  103.1101
  99  165.1493
 100  281.4977
 101  165.9815
 102  100.7083
 103  77.67558
 104  131.4459
 105  155.5074
 106  184.6247
 107  203.3047
 108  115.0856
 109  361.3086
 110  478.8819
 111  258.4533
 112  147.968
 113  141.3319
 114  164.4381
 115  197.3382
 116  257.8234
 117  247.6315
 118  312.8956
 119  79.79739
 120  112.3244
 121  54.74893
 122  142.5198
 123  107.3604
 124  270.3162
 125  211.3935
 126  131.7357
 127  188.0526
 128  256.2042
 129  262.3507
 130  145.5587
 131  97.65442
 132  129.0545
 133  146.1641
 134  220.701
 135  349.5969
 136  244.8396
 137  237.7387
 138  149.2297
 139  129.3964
 140  123.2105
 141  137.0435
 142  223.3281
 143  151.5029
 144  137.8205
 145  117.9507
 146  13.2646
 147  -28.28421
 148  140.8012
 149  345.4658
 150  296.1788
 151  123.0476
 152  113.5002
 153  62.19606
 154  217.1499
 155  190.2036
 156  274.5245
 157  349.2342
 158  254.451
 159  138.4915
 160  147.2748
 161  198.1303
 162  202.7396
 163  221.4536
 164  199.9292
 165  208.0463
 166  232.8446
 167  301.1592
 168  120.702
 169  161.1645
 170  328.1274
 171  157.8276
 172  74.12785
 173  185.2142
 174  276.6297
 175  299.0089
 176  351.2678
 177  255.1719
 178  143.1302
 179  115.0353
 180  223.2138
 181  258.5354
 182  248.172
 183  131.1756
 184  179.7785
 185  249.2667
 186  150.6478
 187  186.0841
 188  180.5068
 189  231.7757
 190  248.1198
 191  264.6345
 192  203.025
 193  273.4113
 194  200.2187
 195  92.4737
 196  84.79884
 197  272.4065
 198  289.773
 199  243.6278
 200  377.3573
 201  413.9277
 202  216.3316
 203  69.77561
 204  76.40082
 205  104.0812
 206  192.9739
 207  262.7415
 208  204.0996
 209  251.207
 210  114.3375
 211  153.0669
 212  175.3056
 213  53.50907
 214  126.3266
 215  358.6852
 216  316.7075
 217  230.0311
 218  243.779
 219  190.8069
 220  91.31477
 221  6.811944
 222  131.7954
 223  176.6
 224  325.9141
 225  227.7906
 226  234.6435
 227  133.5519
 228  176.7813
 229  229.913
 230  206.2258
 231  214.0971
 232  193.3037
 233  183.0484
 234  183.5355
 235  157.1172
 236  203.506
 237  119.2982
 238  248.0413
 239  372.0772
 240  178.6609
 241  248.2476
 242  347.4731
 243  271.0447
 244  247.4906
 245  242.0427
 246  224.4586
 247  201.4427
 248  236.2308
 249  114.995
 250  156.4019
 251  132.9971
 252  221.3435
 253  227.3208
 254  215.7949
 255  68.82363
 256  106.0564
 257  353.2977
 258  336.5174
 259  360.3778
 260  382.6491
 261  189.6823
 262  97.20926
 263  205.8723
 264  113.0319
 265  172.1227
 266  223.2383
 267  338.3499
 268  312.4233
 269  234.0932
 270  277.8892
 271  229.9396
 272  183.8482
 273  191.5837
 274  205.2943
 275  247.1168
 276  211.5778
 277  235.6982
 278  304.8188
 279  298.7644
 280  179.0041
 281  110.7441
 282  228.7521
 283  280.7688
 284  423.9231
 285  261.8028
 286  218.3907
 287  321.1009
 288  296.8644
 289  277.6547
 290  249.8524
 291  215.8777
 292  272.5994
 293  343.0999
 294  398.1908
 295  392.4481
 296  305.6285
 297  298.6069
 298  227.0647
 299  269.3119
 300  308.4586
 301  366.9987
 302  264.6966
 303  292.63
 304  208.2104
 305  307.8141
 306  449.2909
 307  481.041
 308  339.6166
 309  342.2655
 310  374.0721
 311  236.574
 312  215.3137
 313  223.3033
 314  199.4978
 315  224.0958
 316  218.444
 317  187.798
 318  194.5595
 319  196.3138
 320  181.3782
 321  182.3951
 322  131.9667
 323  128.6445
 324  311.9142
 325  294.2817
 326  229.8357
 327  157.7315
 328  187.4398
 329  113.0744
 330  176.0969
 331  225.3852
 332  223.2498
 333  148.2086
 334  105.1443
 335  273.649
 336  217.1026
 337  116.6686
 338  170.8777
 339  391.9223
 340  314.4307
 341  313.1995
 342  219.4714
 343  200.313
 344  118.7704
 345  141.7938
 346  283.7573
 347  248.8829
 348  287.6372
 349  318.868
 350  387.7143
 351  342.646
 352  160.5198
 353  139.6927
 354  15.57596
 355  81.04473
 356  182.8932
 357  261.615
 358  338.8718
 359  238.9195
 360  137.4241
 361  192.1167
 362  280.041
 363  163.1109
 364  46.09119
 365  255.164
 366  293.3555
 367  221.4975
 368  221.7052
 369  74.40525
 370  51.51453
 371  -55.76504
 372  1.725962
 373  125.9133
 374  215.8346
 375  249.3248
 376  212.0298
 377  113.8778
 378  182.8939
 379  291.2017
 380  270.4641
 381  254.0987
 382  236.0675
 383  302.4286
 384  101.5069
 385  35.48344
 386  132.9407
 387  133.1965
 388  13.87456
 389  91.89659
 390  215.8264
 391  166.7034
 392  156.7524
 393  150.8232
 394  15.5429
 395  157.9141
 396  253.383
 397  153.7218
 398  144.2148
 399  150.5839
 400  151.9043
 401  106.7545
 402  94.82847
 403  217.7451
 404  88.78535
 405  98.36904
 406  275.6569
 407  242.1947
 408  178.5733
 409  231.2147
 410  192.4492
 411  105.3671
 412  206.161
 413  235.1444
 414  283.4825
 415  212.0495
 416  152.7401
 417  222.4321
 418  108.5919
 419  25.62758
 420  93.17065
 421  250.7548
 422  125.3243
 423  177.4172
 424  208.1678
 425  118.2931
 426  34.85908
 427  -23.71467
 428  -0.06280566
 429  -89.50636
 430  -39.22255
 431  94.97632
 432  167.9063
 433  108.248
 434  39.78186
 435  36.91963
 436  -110.5045
 437  141.3537
 438  86.91078
 439  -8.146579
 440  259.4379
 441  280.2205
 442  170.9465
 443  115.2686
 444  61.40745
 445  100.5189
 446  139.7453
 447  286.4966
 448  169.5463
 449  119.3082
 450  209.5821
 451  104.4653
 452  85.1371
 453  56.75777
 454  147.1129
 455  205.1529
 456  224.7258
 457  385.2292
 458  197.2822
 459  162.7895
 460  189.1954
 461  158.4556
 462  101.7446
 463  97.45277
 464  198.1295
 465  134.2313
 466  46.22548
 467  93.59665
 468  177.6127
 469  265.8448
 470  244.5119
 471  269.1643
 472  257.2094
 473  299.4522
 474  191.0665
 475  145.3293
 476  190.8006
 477  224.996
 478  195.3073
 479  217.6816
 480  176.372
 481  161.6053
 482  138.8611
 483  142.5994
 484  90.09777
 485  189.7011
 486  216.4346
 487  126.7184
 488  81.10548
 489  191.0146
 490  384.4268
 491  329.5008
 492  348.9561
 493  305.4818
 494  146.733
 495  213.1443
 496  243.9749
 497  129.3402
 498  194.3142
 499  223.0108
 500  276.0239
 501  297.85
 502  213.0754
 503  31.88757
 504  151.4038
 505  257.3102
 506  321.6631
 507  326.0255
 508  322.9975
 509  432.9683
 510  575.9935
 511  699.0379
