# Input file       =  1200140058.09837_cleaned.dat
# Candidate        =  PSR_0332+5434
# Telescope        =  AR
# Epoch_topo       =  58134.509723360767
# Epoch_bary       =  N/A
# T_sample         =  0.002
# Data Folded      =  7208960
# Data Avg         =  0.0178616331257948
# Data StdDev      =  0.999534744146343
# Profile Bins     =  512
# Profile Avg      =  251.486083741867 
# Profile StdDev   =  118.603968917403 
# Reduced chi-sqr  =  1.774
# Prob(Noise)      <  1.61e-24   (~10.2 sigma)
# P_topo (ms)      =  714.567578363193  +/- 6.53e-05
# P'_topo (s/s)    =  -0                +/- 3.51e-11
# P''_topo (s/s^2) =  0                 +/- 1.58e-14
# P_bary (ms)      =  N/A
# P'_bary (s/s)    =  N/A
# P''_bary (s/s^2) =  N/A
# P_orb (s)        =  N/A
# asin(i)/c (s)    =  N/A
# eccentricity     =  N/A
# w (rad)          =  N/A
# T_peri           =  N/A
######################################################
   0  1078.785
   1  964.5358
   2  641.0269
   3  426.8833
   4  228.323
   5  319.6947
   6  306.7451
   7  233.9651
   8  234.3282
   9  379.9754
  10  403.8561
  11  368.7528
  12  354.3473
  13  344.6187
  14  336.8271
  15  424.9519
  16  391.6921
  17  217.7149
  18  111.5554
  19  156.7432
  20  262.695
  21  303.444
  22  139.4151
  23  115.3462
  24  284.9073
  25  209.536
  26  270.0381
  27  256.1194
  28  179.1794
  29  144.6716
  30  194.0507
  31  185.0101
  32  210.4509
  33  184.7615
  34  129.4592
  35  211.1886
  36  243.1406
  37  307.946
  38  223.1401
  39  197.5792
  40  311.8246
  41  252.7322
  42  252.5268
  43  232.9492
  44  96.75183
  45  107.8724
  46  283.7811
  47  260.4225
  48  315.4494
  49  337.7466
  50  302.4649
  51  174.2383
  52  135.2522
  53  218.5772
  54  171.6454
  55  77.54021
  56  174.4353
  57  181.1368
  58  229.5161
  59  166.7811
  60  294.3187
  61  224.2213
  62  213.2194
  63  148.5219
  64  225.098
  65  325.6533
  66  297.6773
  67  315.9851
  68  137.6204
  69  149.1101
  70  245.3254
  71  126.968
  72  105.1475
  73  162.6858
  74  208.1781
  75  339.3269
  76  215.9806
  77  199.5508
  78  207.4498
  79  180.1246
  80  186.1117
  81  157.9136
  82  158.3029
  83  101.5869
  84  260.541
  85  102.8573
  86  199.7756
  87  297.5241
  88  243.8524
  89  222.4113
  90  158.1346
  91  155.6566
  92  295.1072
  93  246.2063
  94  161.0626
  95  95.98899
  96  39.98038
  97  109.3096
  98  235.1676
  99  273.692
 100  300.5779
 101  286.5057
 102  252.7173
 103  114.991
 104  101.1443
 105  229.4358
 106  300.7644
 107  316.6376
 108  333.5816
 109  220.9457
 110  255.6022
 111  195.4092
 112  211.8194
 113  111.491
 114  159.7319
 115  266.1841
 116  276.6391
 117  308.8166
 118  281.9004
 119  186.6299
 120  87.36481
 121  144.7719
 122  185.3001
 123  208.777
 124  235.7798
 125  225.2325
 126  275.3357
 127  235.007
 128  182.8941
 129  219.6866
 130  307.0199
 131  436.761
 132  270.5841
 133  79.95536
 134  134.9709
 135  216.6578
 136  184.4516
 137  253.5383
 138  301.3593
 139  206.314
 140  200.2481
 141  159.5651
 142  98.40374
 143  130.5016
 144  186.1517
 145  257.9814
 146  275.6943
 147  263.2173
 148  250.6488
 149  415.0256
 150  382.1228
 151  321.4962
 152  308.8126
 153  275.7792
 154  252.0231
 155  237.9338
 156  257.0233
 157  354.0929
 158  335.482
 159  195.2943
 160  206.291
 161  167.5455
 162  201.3994
 163  300.1961
 164  345.7033
 165  376.8313
 166  275.4394
 167  136.3045
 168  217.2551
 169  133.6405
 170  163.5781
 171  206.0257
 172  133.0383
 173  253.5036
 174  238.8856
 175  178.1586
 176  193.6593
 177  347.1656
 178  199.8028
 179  153.2724
 180  223.4388
 181  414.0476
 182  496.5681
 183  421.3376
 184  248.701
 185  280.6895
 186  311.5793
 187  176.972
 188  112.4555
 189  175.4995
 190  253.2545
 191  219.3633
 192  241.1956
 193  202.8198
 194  260.4387
 195  313.6157
 196  302.7414
 197  392.0962
 198  458.5604
 199  262.9372
 200  157.8107
 201  219.3586
 202  207.9503
 203  240.6462
 204  114.4144
 205  259.8265
 206  312.986
 207  404.4882
 208  327.4344
 209  164.4179
 210  239.9906
 211  284.6289
 212  386.0124
 213  397.7333
 214  464.7047
 215  419.8042
 216  358.1034
 217  274.4352
 218  378.3666
 219  383.8022
 220  411.4538
 221  278.473
 222  381.5988
 223  383.0987
 224  294.5576
 225  231.7886
 226  305.0039
 227  283.5584
 228  364.4245
 229  411.9498
 230  430.2133
 231  422.9936
 232  388.8088
 233  360.2321
 234  373.8923
 235  269.5418
 236  272.8132
 237  218.3155
 238  217.7164
 239  324.349
 240  271.4915
 241  287.1597
 242  163.9677
 243  161.4653
 244  253.439
 245  243.6542
 246  220.8062
 247  285.438
 248  294.1564
 249  159.9408
 250  141.753
 251  139.9768
 252  235.7739
 253  307.3973
 254  304.4422
 255  293.3485
 256  275.2884
 257  336.6701
 258  322.9605
 259  142.2399
 260  174.5634
 261  216.2092
 262  228.9481
 263  252.4702
 264  351.7398
 265  226.6606
 266  176.6808
 267  124.462
 268  165.3987
 269  98.15797
 270  231.6155
 271  371.7088
 272  447.2797
 273  446.8918
 274  396.6318
 275  344.0929
 276  288.5002
 277  165.2318
 278  314.0257
 279  460.5404
 280  361.0397
 281  378.8847
 282  337.8024
 283  268.15
 284  223.7859
 285  273.9596
 286  148.5392
 287  126.2286
 288  197.8197
 289  338.221
 290  273.9324
 291  259.975
 292  287.1777
 293  259.1801
 294  159.0878
 295  232.217
 296  371.0472
 297  381.2776
 298  307.1595
 299  351.0309
 300  401.4852
 301  342.9463
 302  276.9632
 303  214.5079
 304  266.8996
 305  382.4505
 306  352.3569
 307  372.9424
 308  264.4549
 309  144.977
 310  137.4109
 311  253.9364
 312  258.7494
 313  374.0271
 314  452.715
 315  437.2446
 316  308.1523
 317  227.9339
 318  194.8414
 319  229.2165
 320  296.4261
 321  298.4832
 322  300.3697
 323  233.2259
 324  132.4285
 325  174.873
 326  109.6096
 327  86.07713
 328  177.047
 329  259.1618
 330  383.1063
 331  287.6076
 332  138.7786
 333  97.38502
 334  244.2516
 335  310.9123
 336  200.3658
 337  265.9352
 338  350.6229
 339  378.7254
 340  331.6438
 341  153.2245
 342  143.8276
 343  279.2147
 344  311.3516
 345  139.1495
 346  194.8332
 347  322.9241
 348  342.5515
 349  277.6655
 350  164.9347
 351  215.536
 352  256.3419
 353  241.6518
 354  378.7726
 355  376.7394
 356  365.9875
 357  358.6378
 358  211.2016
 359  245.8826
 360  147.2475
 361  202.6266
 362  91.10984
 363  195.1143
 364  285.3457
 365  317.3935
 366  335.3427
 367  301.0283
 368  271.7836
 369  167.4754
 370  257.6862
 371  272.4085
 372  295.3196
 373  366.4849
 374  124.4377
 375  130.2956
 376  189.4772
 377  107.9155
 378  127.6713
 379  204.7846
 380  270.5301
 381  223.5733
 382  129.9661
 383  172.0834
 384  199.3095
 385  174.679
 386  253.6275
 387  275.1194
 388  128.2341
 389  175.6622
 390  240.3731
 391  272.3359
 392  225.091
 393  158.3902
 394  158.2312
 395  196.0591
 396  251.8599
 397  245.3653
 398  309.0757
 399  185.6775
 400  177.3464
 401  139.0205
 402  143.9433
 403  186.1393
 404  278.4675
 405  226.3945
 406  101.7669
 407  88.86913
 408  242.9704
 409  226.4143
 410  187.2179
 411  268.7928
 412  198.4307
 413  117.9484
 414  93.01633
 415  94.42617
 416  139.6109
 417  101.5209
 418  235.4145
 419  381.9236
 420  391.2905
 421  288.5067
 422  204.3896
 423  214.6714
 424  207.837
 425  108.745
 426  129.0169
 427  260.7494
 428  326.5124
 429  318.4056
 430  278.5897
 431  195.9162
 432  161.8154
 433  204.8969
 434  178.2551
 435  80.96964
 436  182.2789
 437  263.7885
 438  304.5176
 439  329.3028
 440  260.7927
 441  185.4232
 442  117.3742
 443  133.5011
 444  136.0544
 445  193.9218
 446  208.5875
 447  227.2159
 448  247.4901
 449  228.4672
 450  140.372
 451  141.6825
 452  209.449
 453  232.6873
 454  239.7628
 455  192.8586
 456  90.86641
 457  161.9157
 458  236.1312
 459  84.88081
 460  85.18469
 461  73.73737
 462  62.95435
 463  121.363
 464  184.6297
 465  169.3946
 466  130.7851
 467  214.8657
 468  119.4942
 469  121.5166
 470  230.4271
 471  193.7248
 472  256.6306
 473  297.3238
 474  133.387
 475  79.96141
 476  122.535
 477  273.7504
 478  297.446
 479  300.4312
 480  371.8619
 481  249.6063
 482  183.4191
 483  226.2282
 484  159.149
 485  275.4761
 486  387.5501
 487  493.708
 488  323.9673
 489  377.5988
 490  267.3413
 491  307.867
 492  233.8028
 493  284.1145
 494  412.8473
 495  399.7026
 496  287.5582
 497  330.4752
 498  377.3775
 499  240.466
 500  109.5938
 501  217.9562
 502  234.1443
 503  199.2508
 504  389.2525
 505  419.9151
 506  310.0076
 507  203.698
 508  433.9881
 509  704.4519
 510  908.4886
 511  1050.5
