# Input file       =  1200398598.099281_cleaned.dat
# Candidate        =  PSR_0332+5434
# Telescope        =  AR
# Epoch_topo       =  58137.502084482418
# Epoch_bary       =  N/A
# T_sample         =  0.002
# Data Folded      =  7143424
# Data Avg         =  0.0181290680941087
# Data StdDev      =  1.0001481868349  
# Profile Bins     =  512
# Profile Avg      =  252.865718026776 
# Profile StdDev   =  118.136088101045 
# Reduced chi-sqr  =  1.325
# Prob(Noise)      <  1.1e-06   (~4.7 sigma)
# P_topo (ms)      =  714.56948871237   +/- 0.000152
# P'_topo (s/s)    =  -0                +/- 8.25e-11
# P''_topo (s/s^2) =  0                 +/- 3.74e-14
# P_bary (ms)      =  N/A
# P'_bary (s/s)    =  N/A
# P''_bary (s/s^2) =  N/A
# P_orb (s)        =  N/A
# asin(i)/c (s)    =  N/A
# eccentricity     =  N/A
# w (rad)          =  N/A
# T_peri           =  N/A
######################################################
   0  982.178
   1  797.8976
   2  640.9191
   3  463.3153
   4  264.3499
   5  342.4702
   6  207.677
   7  286.2444
   8  270.0158
   9  275.0354
  10  246.8948
  11  244.1629
  12  236.3375
  13  293.561
  14  343.3269
  15  430.1619
  16  444.2589
  17  380.4395
  18  356.5928
  19  278.8927
  20  254.4239
  21  187.4779
  22  269.0706
  23  199.129
  24  149.4937
  25  167.7324
  26  244.3974
  27  244.0899
  28  150.7895
  29  152.3185
  30  343.296
  31  187.4279
  32  226.1566
  33  256.3745
  34  237.5028
  35  183.4381
  36  261.2722
  37  284.732
  38  151.429
  39  237.4569
  40  274.1772
  41  287.8805
  42  342.9921
  43  315.1609
  44  253.9255
  45  225.8396
  46  121.8142
  47  196.1978
  48  333.6588
  49  198.3498
  50  139.6127
  51  224.5497
  52  286.5731
  53  203.8866
  54  334.4511
  55  265.7704
  56  328.1612
  57  264.5344
  58  342.3983
  59  363.3336
  60  218.0025
  61  136.4895
  62  129.3733
  63  234.1825
  64  200.666
  65  316.2216
  66  334.4583
  67  303.8108
  68  309.1782
  69  216.0576
  70  233.311
  71  155.8267
  72  255.7531
  73  283.5289
  74  175.6469
  75  248.7333
  76  190.1535
  77  176.8418
  78  145.7
  79  122.902
  80  176.3178
  81  138.5104
  82  175.6819
  83  124.0145
  84  125.5473
  85  17.90134
  86  16.35956
  87  107.8005
  88  263.6776
  89  338.0736
  90  188.5425
  91  164.9129
  92  172.8152
  93  185.0941
  94  178.3213
  95  154.3351
  96  302.5499
  97  374.2366
  98  267.6771
  99  164.798
 100  60.49623
 101  219.9128
 102  335.8046
 103  169.7146
 104  105.7611
 105  191.6322
 106  159.9667
 107  241.8062
 108  290.3873
 109  296.7555
 110  260.4215
 111  290.5816
 112  296.7387
 113  278.5221
 114  240.6895
 115  209.0576
 116  298.305
 117  333.7768
 118  346.1888
 119  310.1887
 120  265.8375
 121  304.6615
 122  289.8498
 123  339.01
 124  316.5037
 125  168.2119
 126  162.9444
 127  223.4175
 128  156.8457
 129  386.5959
 130  264.5379
 131  254.3077
 132  255.5403
 133  410.2982
 134  366.3448
 135  243.6537
 136  185.8309
 137  145.9905
 138  135.5465
 139  246.4711
 140  314.876
 141  347.929
 142  320.4227
 143  349.6313
 144  97.41806
 145  209.9604
 146  196.8268
 147  329.6114
 148  305.269
 149  275.8527
 150  258.6391
 151  185.5316
 152  122.7347
 153  68.25475
 154  201.9864
 155  242.5252
 156  266.4233
 157  324.1147
 158  334.9123
 159  184.9878
 160  73.63802
 161  165.8258
 162  258.341
 163  372.4159
 164  319.3414
 165  313.8303
 166  325.6822
 167  235.1093
 168  177.2678
 169  208.1719
 170  232.7048
 171  244.8867
 172  281.2966
 173  258.2436
 174  108.2884
 175  166.2588
 176  217.3897
 177  244.8891
 178  213.3264
 179  246.3914
 180  169.4036
 181  189.8047
 182  242.9562
 183  234.6589
 184  307.0811
 185  243.8636
 186  258.5937
 187  304.9587
 188  246.5016
 189  283.1294
 190  323.9294
 191  386.3588
 192  361.5304
 193  231.1747
 194  213.6088
 195  152.4314
 196  141.9721
 197  304.1402
 198  148.2986
 199  263.0598
 200  267.6099
 201  163.8684
 202  167.5185
 203  175.0912
 204  280.2293
 205  317.628
 206  314.4921
 207  289.6429
 208  190.2862
 209  96.41038
 210  37.30831
 211  177.1491
 212  224.8804
 213  250.8232
 214  230.4048
 215  231.172
 216  337.1382
 217  266.3512
 218  307.9122
 219  172.167
 220  187.1699
 221  151.6414
 222  138.8731
 223  187.4352
 224  353.6978
 225  338.459
 226  148.2296
 227  106.6027
 228  258.9858
 229  254.9333
 230  284.0154
 231  346.8135
 232  199.1048
 233  279.9709
 234  260.0884
 235  134.8997
 236  262.9735
 237  257.6452
 238  318.3378
 239  148.6302
 240  230.723
 241  407.5736
 242  306.7047
 243  181.9894
 244  165.1697
 245  203.4277
 246  268.5896
 247  248.4767
 248  206.174
 249  150.5529
 250  183.4281
 251  226.3547
 252  232.8248
 253  206.687
 254  291.6972
 255  215.8378
 256  307.8131
 257  240.8569
 258  249.3615
 259  326.6263
 260  303.9944
 261  348.4023
 262  326.9168
 263  236.5899
 264  109.7029
 265  254.9858
 266  390.9475
 267  287.9998
 268  215.4956
 269  205.0845
 270  215.6129
 271  382.9372
 272  307.5282
 273  448.3775
 274  447.8071
 275  236.3451
 276  129.9874
 277  327.0431
 278  435.0737
 279  237.8506
 280  199.372
 281  446.8413
 282  259.7486
 283  311.7733
 284  370.0983
 285  220.3353
 286  238.0356
 287  229.7399
 288  232.9464
 289  182.6815
 290  315.6206
 291  399.8681
 292  103.8358
 293  165.005
 294  166.0365
 295  149.4594
 296  157.2221
 297  245.6058
 298  258.6896
 299  331.1402
 300  289.4845
 301  289.2909
 302  310.2427
 303  320.3491
 304  309.6249
 305  266.9935
 306  357.2255
 307  353.2092
 308  424.5524
 309  392.6866
 310  262.2392
 311  188.5598
 312  180.147
 313  261.2953
 314  432.4132
 315  440.8577
 316  297.6389
 317  175.8659
 318  118.6237
 319  228.0982
 320  423.6163
 321  366.3066
 322  262.9558
 323  286.9951
 324  181.7177
 325  128.6127
 326  165.0289
 327  254.265
 328  227.0302
 329  203.358
 330  258.7158
 331  369.3987
 332  321.2701
 333  317.0352
 334  335.0238
 335  254.97
 336  344.4915
 337  363.8829
 338  304.4645
 339  342.6027
 340  352.1559
 341  250.885
 342  200.8735
 343  290.7506
 344  360.1264
 345  233.1378
 346  154.757
 347  202.4207
 348  264.6192
 349  91.7225
 350  113.9706
 351  217.6321
 352  254.6686
 353  221.213
 354  263.8633
 355  222.7029
 356  376.2534
 357  192.4871
 358  165.2798
 359  260.3235
 360  311.0977
 361  339.5698
 362  310.646
 363  217.0266
 364  172.4645
 365  247.8404
 366  375.0319
 367  384.6057
 368  264.3108
 369  206.6675
 370  211.6826
 371  277.5606
 372  340.6642
 373  262.9535
 374  259.3836
 375  263.748
 376  285.4116
 377  328.2404
 378  262.2806
 379  358.0602
 380  400.9748
 381  280.1255
 382  198.6851
 383  311.5869
 384  309.6675
 385  224.5447
 386  172.35
 387  207.642
 388  262.3095
 389  189.4791
 390  135.2768
 391  158.1953
 392  280.1232
 393  297.4684
 394  301.0424
 395  272.1897
 396  219.99
 397  138.594
 398  184.9299
 399  268.2934
 400  126.2678
 401  85.8816
 402  169.4015
 403  167.9355
 404  202.0905
 405  115.659
 406  69.79239
 407  226.103
 408  189.6829
 409  187.1136
 410  176.9976
 411  283.2161
 412  302.8005
 413  234.2597
 414  240.6962
 415  138.9871
 416  217.1763
 417  336.3963
 418  334.3533
 419  333.2442
 420  288.6915
 421  316.8539
 422  327.1476
 423  189.5591
 424  270.1083
 425  366.404
 426  342.0497
 427  278.5874
 428  260.7492
 429  246.1936
 430  176.2768
 431  223.3276
 432  106.9383
 433  135.307
 434  123.9998
 435  256.9404
 436  391.0589
 437  356.3259
 438  174.9918
 439  222.1622
 440  190.5675
 441  184.7919
 442  114.1955
 443  208.3005
 444  291.9602
 445  294.6951
 446  229.2624
 447  169.4022
 448  202.8119
 449  228.3835
 450  284.3792
 451  208.1523
 452  234.0088
 453  266.214
 454  301.3946
 455  167.1268
 456  101.2755
 457  225.0746
 458  203.318
 459  338.5235
 460  267.0812
 461  177.7897
 462  144.4799
 463  94.99561
 464  82.40903
 465  65.3783
 466  134.6516
 467  183.2101
 468  158.9839
 469  162.9954
 470  161.2579
 471  199.3546
 472  192.2159
 473  174.5822
 474  251.2474
 475  369.1342
 476  223.3736
 477  269.9885
 478  273.5492
 479  359.1205
 480  347.6261
 481  352.7598
 482  303.3115
 483  230.1436
 484  282.3857
 485  201.64
 486  205.7232
 487  136.7872
 488  181.3783
 489  275.2151
 490  328.6844
 491  290.3631
 492  172.491
 493  205.2775
 494  299.2067
 495  355.6513
 496  399.7609
 497  332.8486
 498  111.0122
 499  334.8326
 500  282.0383
 501  144.2747
 502  284.2553
 503  358.6514
 504  257.1604
 505  325.6372
 506  487.1342
 507  480.3145
 508  246.1483
 509  345.4679
 510  666.8633
 511  899.1625
