# Input file       =  1200844563.106615_cleaned.dat
# Candidate        =  PSR_0332+5434
# Telescope        =  AR
# Epoch_topo       =  58142.663716511750
# Epoch_bary       =  N/A
# T_sample         =  0.002
# Data Folded      =  7340032
# Data Avg         =  0.020484485301289
# Data StdDev      =  1.00007975353516 
# Profile Bins     =  512
# Profile Avg      =  293.657665169213 
# Profile StdDev   =  119.742585509692 
# Reduced chi-sqr  =  1.375
# Prob(Noise)      <  3.32e-08   (~5.4 sigma)
# P_topo (ms)      =  714.572465972327  +/- 0.000189
# P'_topo (s/s)    =  -0                +/- 9.98e-11
# P''_topo (s/s^2) =  0                 +/- 4.4e-14
# P_bary (ms)      =  N/A
# P'_bary (s/s)    =  N/A
# P''_bary (s/s^2) =  N/A
# P_orb (s)        =  N/A
# asin(i)/c (s)    =  N/A
# eccentricity     =  N/A
# w (rad)          =  N/A
# T_peri           =  N/A
######################################################
   0  973.9342
   1  878.0134
   2  645.9872
   3  425.8174
   4  293.9566
   5  313.9059
   6  269.8174
   7  296.6389
   8  282.0468
   9  232.7157
  10  261.6075
  11  150.0461
  12  209.7667
  13  386.5415
  14  405.2167
  15  348.2028
  16  289.8412
  17  302.2714
  18  350.1113
  19  321.4141
  20  332.3392
  21  341.5426
  22  343.5789
  23  386.3304
  24  365.8881
  25  251.7194
  26  309.9525
  27  304.7865
  28  251.5302
  29  213.8813
  30  202.2224
  31  151.198
  32  232.5593
  33  281.4714
  34  224.4975
  35  283.388
  36  368.4288
  37  278.2554
  38  213.2426
  39  209.5598
  40  315.6998
  41  305.0171
  42  347.3294
  43  358.322
  44  407.902
  45  372.7152
  46  356.5364
  47  332.1079
  48  339.0129
  49  346.3226
  50  306.7035
  51  485.7044
  52  433.5311
  53  194.8954
  54  200.463
  55  272.2968
  56  359.5159
  57  474.9367
  58  383.975
  59  368.4176
  60  395.1985
  61  335.1553
  62  417.9741
  63  363.4456
  64  302.9531
  65  404.4176
  66  359.4796
  67  320.3955
  68  320.0679
  69  248.7362
  70  185.8049
  71  347.4868
  72  483.2444
  73  657.8816
  74  485.3993
  75  319.9377
  76  317.9564
  77  319.5738
  78  352.1073
  79  325.2928
  80  358.4482
  81  477.6653
  82  354.0858
  83  371.3997
  84  391.4003
  85  295.0182
  86  306.3598
  87  343.8465
  88  346.4794
  89  346.8293
  90  317.797
  91  289.5028
  92  369.0782
  93  459.5249
  94  535.549
  95  442.1424
  96  425.2397
  97  494.1088
  98  374.0469
  99  225.381
 100  228.4971
 101  206.0509
 102  276.0123
 103  434.3874
 104  438.4353
 105  439.8064
 106  413.1299
 107  308.3659
 108  270.8372
 109  380.235
 110  387.5067
 111  299.1693
 112  294.1527
 113  329.6313
 114  354.1863
 115  382.9886
 116  334.3644
 117  318.3894
 118  292.6923
 119  360.5927
 120  327.8832
 121  363.4154
 122  340.952
 123  357.8533
 124  296.8707
 125  383.2107
 126  465.8815
 127  494.3538
 128  400.7235
 129  355.8203
 130  447.8452
 131  300.1885
 132  333.9429
 133  274.8415
 134  304.9291
 135  282.8983
 136  251.2719
 137  422.1288
 138  343.9486
 139  269.3419
 140  329.6152
 141  413.663
 142  310.0195
 143  187.948
 144  218.0951
 145  295.3628
 146  383.148
 147  323.1518
 148  305.3719
 149  372.76
 150  300.9241
 151  308.2881
 152  292.4396
 153  279.0556
 154  414.5808
 155  266.2406
 156  205.8152
 157  336.4172
 158  319.2797
 159  324.9291
 160  360.254
 161  401.9987
 162  383.8869
 163  209.5081
 164  250.6606
 165  214.2149
 166  281.2379
 167  317.7726
 168  293.959
 169  248.1488
 170  279.0846
 171  248.2946
 172  326.7462
 173  368.8446
 174  359.3242
 175  275.4377
 176  280.0058
 177  325.7173
 178  299.1807
 179  396.3395
 180  362.7546
 181  341.3032
 182  306.2328
 183  240.9819
 184  344.2603
 185  429.0502
 186  349.765
 187  330.1077
 188  286.0349
 189  432.5536
 190  399.0325
 191  318.2239
 192  263.2967
 193  364.5739
 194  245.8187
 195  193.8689
 196  414.5361
 197  360.081
 198  176.593
 199  254.3064
 200  340.6173
 201  327.4908
 202  212.5978
 203  364.4986
 204  393.6156
 205  389.3003
 206  360.6705
 207  283.6804
 208  215.7696
 209  295.8218
 210  355.7467
 211  351.8322
 212  288.7726
 213  236.2341
 214  304.0579
 215  232.3942
 216  155.085
 217  207.5544
 218  293.1058
 219  376.2604
 220  316.6557
 221  317.5854
 222  292.9144
 223  321.623
 224  348.8185
 225  380.1444
 226  216.4245
 227  225.3486
 228  311.7633
 229  226.516
 230  205.1594
 231  140.5967
 232  210.6506
 233  182.2889
 234  185.7754
 235  203.8255
 236  310.3997
 237  244.44
 238  248.219
 239  275.2269
 240  272.7775
 241  225.7881
 242  132.7847
 243  150.8654
 244  213.0415
 245  228.5115
 246  259.0114
 247  362.5836
 248  295.2259
 249  304.8758
 250  402.8618
 251  399.4306
 252  216.945
 253  169.1358
 254  169.7138
 255  308.3906
 256  325.5716
 257  351.2205
 258  338.4461
 259  128.0563
 260  163.1768
 261  274.6313
 262  237.9049
 263  242.4527
 264  247.8558
 265  315.9081
 266  339.3631
 267  293.128
 268  249.7007
 269  232.5446
 270  248.5116
 271  298.7551
 272  113.3745
 273  155.1958
 274  204.4759
 275  319.6499
 276  290.6855
 277  309.3177
 278  158.4536
 279  250.076
 280  218.9534
 281  191.2697
 282  214.5301
 283  99.196
 284  205.2808
 285  150.3271
 286  185.7544
 287  131.3948
 288  136.8759
 289  318.8708
 290  378.2032
 291  240.8852
 292  385.893
 293  278.5278
 294  170.3792
 295  201.3872
 296  330.6537
 297  218.2359
 298  169.6295
 299  210.6573
 300  354.0056
 301  337.9926
 302  353.4237
 303  344.7157
 304  368.1805
 305  389.4194
 306  401.5579
 307  373.5815
 308  293.6108
 309  219.4813
 310  325.7909
 311  275.1373
 312  219.6661
 313  271.2168
 314  299.8943
 315  341.2685
 316  241.2747
 317  169.031
 318  203.2307
 319  150.0903
 320  127.8271
 321  215.4252
 322  333.3594
 323  331.4023
 324  170.9533
 325  197.7731
 326  312.5387
 327  271.5154
 328  293.8029
 329  215.7282
 330  322.4565
 331  244.3663
 332  224.0803
 333  228.6315
 334  219.9068
 335  189.4614
 336  144.4018
 337  176.4718
 338  178.8086
 339  198.2624
 340  173.0694
 341  175.0586
 342  97.85564
 343  154.4883
 344  63.60316
 345  218.768
 346  335.4682
 347  366.908
 348  350.2308
 349  251.1216
 350  284.0218
 351  317.6179
 352  283.8559
 353  228.0408
 354  148.8675
 355  219.3205
 356  247.8467
 357  214.4068
 358  208.0188
 359  194.5101
 360  277.5335
 361  277.245
 362  298.9605
 363  348.7657
 364  333.9451
 365  195.7
 366  213.406
 367  219.2671
 368  218.8134
 369  284.8216
 370  300.218
 371  265.4172
 372  275.3582
 373  191.3469
 374  244.3529
 375  258.8883
 376  129.4918
 377  135.0045
 378  292.2726
 379  252.2016
 380  210.6243
 381  136.0797
 382  260.6253
 383  117.6898
 384  156.8813
 385  272.7009
 386  343.9582
 387  300.2925
 388  186.9905
 389  263.2386
 390  309.953
 391  313.7629
 392  280.276
 393  235.3348
 394  234.0094
 395  369.8552
 396  326.5324
 397  217.0741
 398  225.9459
 399  246.3924
 400  176.841
 401  220.2816
 402  253.9277
 403  235.9353
 404  177.6225
 405  251.8897
 406  314.755
 407  365.3036
 408  298.1193
 409  309.0081
 410  277.1507
 411  147.3918
 412  163.7288
 413  121.3655
 414  217.0612
 415  182.9592
 416  261.6647
 417  284.8609
 418  220.6708
 419  138.4162
 420  152.0126
 421  267.2446
 422  244.9397
 423  195.3522
 424  136.3397
 425  221.2459
 426  253.4965
 427  282.1205
 428  244.7462
 429  252.8329
 430  333.2338
 431  291.7403
 432  221.5467
 433  324.2765
 434  244.9182
 435  144.0848
 436  119.3979
 437  43.55245
 438  167.5783
 439  224.8354
 440  161.808
 441  129.7554
 442  117.4822
 443  154.2197
 444  229.8606
 445  328.5412
 446  302.7429
 447  446.3699
 448  364.4857
 449  278.6373
 450  341.1513
 451  203.1459
 452  263.265
 453  285.1851
 454  314.0294
 455  372.2904
 456  404.3455
 457  319.3033
 458  286.9518
 459  255.0216
 460  348.3561
 461  406.2993
 462  299.6621
 463  296.3575
 464  324.0276
 465  312.6271
 466  340.2929
 467  209.9093
 468  181.0937
 469  280.6043
 470  353.0854
 471  282.8364
 472  238.1656
 473  319.1107
 474  296.9019
 475  357.8803
 476  361.2059
 477  271.1181
 478  139.1198
 479  102.0447
 480  280.5969
 481  351.6147
 482  353.6035
 483  373.3533
 484  265.8913
 485  333.6281
 486  262.1381
 487  295.7422
 488  269.1472
 489  255.5236
 490  335.1938
 491  169.4556
 492  197.524
 493  225.4004
 494  359.1928
 495  472.4565
 496  416.8372
 497  413.672
 498  357.1765
 499  326.9877
 500  353.493
 501  217.5017
 502  296.1869
 503  377.2498
 504  341.1003
 505  325.3693
 506  299.82
 507  391.4227
 508  481.8701
 509  698.4902
 510  818.7141
 511  880.9268
