# Input file       =  1200312473.104338_cleaned.dat
# Candidate        =  PSR_0332+5434
# Telescope        =  AR
# Epoch_topo       =  58136.505267411318
# Epoch_bary       =  N/A
# T_sample         =  0.002
# Data Folded      =  7143424
# Data Avg         =  0.0172984903391056
# Data StdDev      =  1.00002570657346 
# Profile Bins     =  512
# Profile Avg      =  241.409327174212 
# Profile StdDev   =  118.121620905936 
# Reduced chi-sqr  =  1.514
# Prob(Noise)      <  4.64e-13   (~7.1 sigma)
# P_topo (ms)      =  714.568867154201  +/- 9.39e-05
# P'_topo (s/s)    =  -0                +/- 5.09e-11
# P''_topo (s/s^2) =  0                 +/- 2.31e-14
# P_bary (ms)      =  N/A
# P'_bary (s/s)    =  N/A
# P''_bary (s/s^2) =  N/A
# P_orb (s)        =  N/A
# asin(i)/c (s)    =  N/A
# eccentricity     =  N/A
# w (rad)          =  N/A
# T_peri           =  N/A
######################################################
   0  899.6511
   1  888.7473
   2  674.2892
   3  520.2296
   4  355.9053
   5  211.5857
   6  299.9383
   7  200.1793
   8  146.7656
   9  278.8914
  10  162.3104
  11  151.8363
  12  254.5532
  13  301.5857
  14  256.7206
  15  283.5781
  16  272.9053
  17  206.3749
  18  201.7906
  19  265.6349
  20  186.6089
  21  92.00241
  22  29.37666
  23  158.1383
  24  118.9385
  25  123.3
  26  234.8044
  27  229.865
  28  239.879
  29  195.208
  30  231.3534
  31  392.384
  32  363.4954
  33  283.4956
  34  312.3723
  35  279.1457
  36  266.9366
  37  254.4213
  38  118.3604
  39  268.6297
  40  404.2678
  41  247.1188
  42  322.3224
  43  414.2892
  44  383.2469
  45  278.9725
  46  215.8129
  47  164.8674
  48  230.9522
  49  258.1318
  50  317.1284
  51  287.836
  52  191.5067
  53  238.6976
  54  184.6624
  55  167.05
  56  170.7984
  57  132.7302
  58  213.9736
  59  188.0611
  60  114.7964
  61  202.3122
  62  175.5115
  63  90.76862
  64  139.1974
  65  261.1848
  66  286.0154
  67  163.9316
  68  286.7439
  69  351.9187
  70  79.78868
  71  217.9252
  72  332.7557
  73  308.357
  74  226.5838
  75  183.622
  76  124.6453
  77  56.0807
  78  57.81495
  79  67.5723
  80  365.6306
  81  453.4865
  82  335.3778
  83  273.5829
  84  368.2599
  85  367.8953
  86  347.2654
  87  293.2986
  88  268.4402
  89  225.9438
  90  200.1351
  91  204.7355
  92  314.92
  93  140.9793
  94  73.7324
  95  105.4435
  96  147.6087
  97  395.5937
  98  320.522
  99  269.532
 100  401.0015
 101  321.6726
 102  317.4988
 103  251.1109
 104  196.3643
 105  283.4985
 106  347.9057
 107  295.7502
 108  259.473
 109  247.646
 110  264.3745
 111  4.759204
 112  98.58574
 113  197.0276
 114  192.177
 115  280.472
 116  405.2523
 117  466.6214
 118  370.1672
 119  269.8912
 120  346.7742
 121  291.9184
 122  327.5467
 123  329.7496
 124  245.4356
 125  280.199
 126  325.3621
 127  289.064
 128  134.2034
 129  160.7914
 130  253.909
 131  330.6473
 132  174.7622
 133  230.0672
 134  375.1185
 135  247.6838
 136  226.2122
 137  326.1319
 138  395.9745
 139  268.4594
 140  264.7153
 141  351.2975
 142  261.9923
 143  189.2328
 144  174.4664
 145  180.9015
 146  266.8998
 147  383.0227
 148  282.7846
 149  244.2802
 150  324.1099
 151  370.4283
 152  274.0991
 153  159.9979
 154  272.8512
 155  258.9955
 156  216.3613
 157  156.1592
 158  322.9403
 159  439.0868
 160  344.0351
 161  318.1535
 162  261.3294
 163  220.8162
 164  251.6015
 165  164.5902
 166  281.9032
 167  229.4581
 168  166.2038
 169  81.73726
 170  278.6091
 171  262.7592
 172  257.8305
 173  212.4742
 174  196.6291
 175  327.5454
 176  288.2109
 177  209.8472
 178  259.2559
 179  145.4734
 180  80.50233
 181  129.3585
 182  333.4617
 183  357.7283
 184  278.9211
 185  312.3864
 186  291.5269
 187  172.0195
 188  216.1997
 189  257.2201
 190  256.7146
 191  294.8805
 192  277.1945
 193  255.4078
 194  192.5963
 195  224.6538
 196  188.3672
 197  236.7735
 198  350.4257
 199  254.9445
 200  250.1249
 201  300.4683
 202  336.7004
 203  410.6734
 204  330.158
 205  152.6558
 206  100.694
 207  172.7017
 208  241.7133
 209  184.5214
 210  204.5914
 211  297.9684
 212  276.2647
 213  312.293
 214  254.6078
 215  175.7291
 216  328.5611
 217  420.8512
 218  435.6618
 219  193.0723
 220  192.0717
 221  148.8933
 222  193.4787
 223  297.9211
 224  482.979
 225  351.8826
 226  239.9092
 227  330.9451
 228  272.5176
 229  323.6709
 230  170.45
 231  146.4522
 232  306.7709
 233  436.7927
 234  312.7321
 235  242.1728
 236  127.3737
 237  118.7337
 238  221.3416
 239  310.9337
 240  301.9729
 241  328.4881
 242  199.0475
 243  262.033
 244  192.0152
 245  139.2332
 246  168.2778
 247  131.0221
 248  329.4064
 249  360.9745
 250  215.3264
 251  158.8182
 252  55.35999
 253  39.62177
 254  35.20313
 255  21.73473
 256  134.8945
 257  147.6253
 258  184.5178
 259  277.5989
 260  323.308
 261  199.9576
 262  183.7113
 263  145.4464
 264  353.459
 265  310.2627
 266  362.8538
 267  329.1363
 268  256.3636
 269  222.2774
 270  113.178
 271  47.82747
 272  235.659
 273  402.0586
 274  322.7471
 275  216.7006
 276  359.9229
 277  311.1703
 278  218.9982
 279  215.6555
 280  358.7895
 281  388.1121
 282  338.758
 283  404.7289
 284  295.5767
 285  118.2635
 286  206.6766
 287  332.0786
 288  197.7877
 289  116.8599
 290  288.6646
 291  293.6308
 292  209.6118
 293  298.5514
 294  238.9794
 295  123.7221
 296  133.6781
 297  361.5781
 298  481.0959
 299  437.6568
 300  266.3692
 301  208.624
 302  250.0418
 303  167.413
 304  158.0215
 305  289.7998
 306  294.6107
 307  157.4382
 308  257.8954
 309  223.326
 310  317.9634
 311  160.8183
 312  195.7035
 313  299.6997
 314  275.78
 315  277.7964
 316  314.3825
 317  334.9945
 318  145.0461
 319  25.68253
 320  117.7417
 321  246.5167
 322  112.1003
 323  155.0403
 324  201.58
 325  245.3055
 326  301.1291
 327  227.5943
 328  247.442
 329  121.4262
 330  217.6823
 331  282.9455
 332  253.8584
 333  174.8915
 334  203.8426
 335  236.1472
 336  275.0307
 337  277.5473
 338  286.6287
 339  234.2226
 340  101.7035
 341  253.9458
 342  310.182
 343  165.5963
 344  151.4341
 345  133.841
 346  58.99093
 347  244.543
 348  264.4757
 349  167.2878
 350  212.5186
 351  182.1607
 352  95.4135
 353  299.2682
 354  251.6201
 355  218.911
 356  127.1587
 357  211.8284
 358  235.5052
 359  193.9128
 360  222.6605
 361  161.4348
 362  196.0523
 363  321.085
 364  282.3353
 365  240.105
 366  332.645
 367  356.572
 368  308.862
 369  226.1947
 370  223.0877
 371  207.1199
 372  183.5379
 373  247.704
 374  211.9942
 375  144.0261
 376  113.4455
 377  106.6692
 378  175.7566
 379  311.7211
 380  214.2177
 381  117.2463
 382  98.50903
 383  160.4026
 384  153.2344
 385  178.2753
 386  132.629
 387  225.8178
 388  315.1867
 389  271.6104
 390  272.6804
 391  317.8926
 392  229.7176
 393  113.4341
 394  191.3585
 395  309.0005
 396  338.4855
 397  219.2554
 398  274.7628
 399  180.6443
 400  165.8966
 401  164.8859
 402  114.0204
 403  57.85181
 404  122.1483
 405  99.35868
 406  203.7214
 407  284.7782
 408  368.325
 409  294.5688
 410  244.6228
 411  195.0239
 412  16.39076
 413  104.6199
 414  201.5806
 415  230.9555
 416  290.1076
 417  242.4436
 418  139.5934
 419  175.6095
 420  237.3152
 421  339.6196
 422  334.3808
 423  257.0052
 424  290.7144
 425  225.8933
 426  100.3205
 427  180.4689
 428  185.9769
 429  214.8259
 430  189.9579
 431  267.2929
 432  290.6885
 433  276.7338
 434  216.2685
 435  175.6316
 436  149.8078
 437  210.4984
 438  302.9651
 439  262.3975
 440  315.0306
 441  115.8883
 442  64.95011
 443  146.9124
 444  212.3641
 445  272.3504
 446  304.4141
 447  343.3725
 448  243.7425
 449  236.0402
 450  248.7383
 451  127.2199
 452  212.0422
 453  272.6266
 454  87.26437
 455  54.23538
 456  68.39496
 457  209.0049
 458  76.3022
 459  138.7997
 460  173.6285
 461  202.3362
 462  258.1469
 463  170.5522
 464  206.5733
 465  205.1821
 466  182.5213
 467  242.008
 468  104.2153
 469  104.0553
 470  161.4
 471  171.4324
 472  124.2441
 473  229.8685
 474  145.1135
 475  50.11857
 476  186.5642
 477  257.468
 478  134.1071
 479  137.8321
 480  112.3458
 481  203.776
 482  323.7137
 483  263.4749
 484  103.3192
 485  200.6421
 486  150.18
 487  146.1647
 488  186.022
 489  235.2518
 490  280.196
 491  383.3726
 492  359.3129
 493  274.6119
 494  401.2479
 495  376.4109
 496  364.0619
 497  123.3099
 498  278.7713
 499  336.5773
 500  180.2729
 501  127.5007
 502  202.8484
 503  251.6798
 504  294.9782
 505  399.6147
 506  306.1638
 507  356.0412
 508  338.2679
 509  477.3605
 510  669.5692
 511  847.5887
