# Input file       =  1200327044.107096_cleaned.dat
# Candidate        =  PSR_0332+5434
# Telescope        =  AR
# Epoch_topo       =  58136.673913276572
# Epoch_bary       =  N/A
# T_sample         =  0.002
# Data Folded      =  7340032
# Data Avg         =  0.118082809663876
# Data StdDev      =  1.00077715597925 
# Profile Bins     =  512
# Profile Avg      =  1692.83727076048 
# Profile StdDev   =  119.8260876219   
# Reduced chi-sqr  =  0.778
# Prob(Noise)      <  1   (~0.0 sigma)
# P_topo (ms)      =  714.568987906763  +/- 0.000169
# P'_topo (s/s)    =  -0                +/- 8.93e-11
# P''_topo (s/s^2) =  0                 +/- 3.94e-14
# P_bary (ms)      =  N/A
# P'_bary (s/s)    =  N/A
# P''_bary (s/s^2) =  N/A
# P_orb (s)        =  N/A
# asin(i)/c (s)    =  N/A
# eccentricity     =  N/A
# w (rad)          =  N/A
# T_peri           =  N/A
######################################################
   0  2001.719
   1  1937.761
   2  1863.473
   3  1746.564
   4  1703.092
   5  1612.039
   6  1556.56
   7  1520.628
   8  1734.248
   9  1705.664
  10  1773.164
  11  1685.682
  12  1659.192
  13  1646.942
  14  1635.636
  15  1645.189
  16  1675.443
  17  1649.479
  18  1727.818
  19  1675.631
  20  1622.18
  21  1642.801
  22  1650.196
  23  1640.331
  24  1725.689
  25  1770.114
  26  1739.26
  27  1579.664
  28  1680.958
  29  1744.203
  30  1654.421
  31  1612.821
  32  1612.997
  33  1700.557
  34  1700.307
  35  1721.219
  36  1761.209
  37  1772.65
  38  1742.88
  39  1615.561
  40  1770.276
  41  1764.774
  42  1701.094
  43  1787.696
  44  1799.26
  45  1644.347
  46  1659.95
  47  1703.246
  48  1746.89
  49  1776.698
  50  1708.334
  51  1823.412
  52  1789.786
  53  1724.802
  54  1727.439
  55  1630.688
  56  1700.056
  57  1727.17
  58  1623.807
  59  1603.268
  60  1603.458
  61  1675.56
  62  1763.979
  63  1610.244
  64  1580.644
  65  1586.101
  66  1577.342
  67  1675.341
  68  1652.454
  69  1653.427
  70  1548.03
  71  1579.259
  72  1631.158
  73  1704.863
  74  1668.48
  75  1665.43
  76  1735.933
  77  1784.29
  78  1745.489
  79  1645.743
  80  1628.177
  81  1649.152
  82  1727.008
  83  1743.343
  84  1652.603
  85  1713.967
  86  1628.564
  87  1614.424
  88  1603.476
  89  1524.449
  90  1513.55
  91  1589.955
  92  1645.155
  93  1555.157
  94  1546.756
  95  1649.841
  96  1634.736
  97  1505.85
  98  1540.886
  99  1570.942
 100  1611.784
 101  1497.994
 102  1596.072
 103  1718.617
 104  1710.386
 105  1585.862
 106  1677.951
 107  1618.345
 108  1562.259
 109  1599.44
 110  1612.007
 111  1539.17
 112  1650.691
 113  1702.46
 114  1682.844
 115  1690.599
 116  1624.783
 117  1659.684
 118  1701.394
 119  1668.871
 120  1534.347
 121  1571.404
 122  1734.086
 123  1766.083
 124  1714.279
 125  1702.64
 126  1705.638
 127  1582.637
 128  1615.355
 129  1712.028
 130  1731.96
 131  1737.516
 132  1677.107
 133  1693.224
 134  1684.118
 135  1556.906
 136  1611.888
 137  1620.07
 138  1591.183
 139  1556.808
 140  1682.635
 141  1775.488
 142  1783.116
 143  1760.239
 144  1576.259
 145  1651.038
 146  1618.007
 147  1624.235
 148  1696.472
 149  1717.831
 150  1696.689
 151  1706.047
 152  1652.658
 153  1615.314
 154  1682.055
 155  1719.608
 156  1753.419
 157  1838.554
 158  1782.223
 159  1773.08
 160  1767.136
 161  1815.734
 162  1753.433
 163  1683.42
 164  1724.048
 165  1701.711
 166  1694.332
 167  1674.939
 168  1653.334
 169  1638.252
 170  1664.221
 171  1693.404
 172  1740.934
 173  1796.128
 174  1778.402
 175  1711.28
 176  1749.677
 177  1619.446
 178  1674.133
 179  1673.284
 180  1761.519
 181  1793.176
 182  1698.061
 183  1680.756
 184  1609.64
 185  1616.899
 186  1751.112
 187  1719.82
 188  1730.704
 189  1721.314
 190  1725.653
 191  1772.481
 192  1700.21
 193  1691.227
 194  1740.444
 195  1684.581
 196  1835.686
 197  1858.356
 198  1864.786
 199  1887.828
 200  1738.522
 201  1599.771
 202  1555.371
 203  1612.853
 204  1750.641
 205  1805.714
 206  1749.17
 207  1670.589
 208  1654.401
 209  1662.327
 210  1665.102
 211  1657.756
 212  1631.199
 213  1700.168
 214  1732.268
 215  1851.598
 216  1743.196
 217  1703.225
 218  1687.287
 219  1660.371
 220  1773.584
 221  1769.815
 222  1801.569
 223  1839.09
 224  1789.986
 225  1720.466
 226  1681.338
 227  1746.428
 228  1729.529
 229  1727.964
 230  1722.913
 231  1770.751
 232  1778.169
 233  1758.447
 234  1755.584
 235  1776.385
 236  1787.473
 237  1845.631
 238  1865.06
 239  1909.067
 240  1783.104
 241  1810.049
 242  1709.558
 243  1722.606
 244  1770.806
 245  1776.076
 246  1810.947
 247  1865.007
 248  1718.502
 249  1677.903
 250  1774.962
 251  1801.181
 252  1679.612
 253  1684.433
 254  1776.822
 255  1871.753
 256  1796.189
 257  1639.669
 258  1603.346
 259  1640.954
 260  1664.3
 261  1742.512
 262  1731.22
 263  1679.671
 264  1749.239
 265  1709.678
 266  1675.37
 267  1656.613
 268  1690.052
 269  1734.253
 270  1766.102
 271  1787.523
 272  1756.725
 273  1649.59
 274  1599.253
 275  1660.669
 276  1749.934
 277  1723.286
 278  1688.314
 279  1692.846
 280  1802.134
 281  1714.966
 282  1622.482
 283  1588.296
 284  1575.991
 285  1679.881
 286  1770.853
 287  1611.179
 288  1598.943
 289  1643.426
 290  1646.995
 291  1729.521
 292  1715.79
 293  1620.902
 294  1694.179
 295  1687.656
 296  1692.316
 297  1698.594
 298  1698.98
 299  1671.599
 300  1734.256
 301  1753.179
 302  1672.309
 303  1616.678
 304  1674.174
 305  1653.38
 306  1654.428
 307  1723.328
 308  1762.293
 309  1798.535
 310  1788.815
 311  1725.583
 312  1792.193
 313  1761.549
 314  1737.455
 315  1663.863
 316  1648.23
 317  1555.433
 318  1559.454
 319  1556.496
 320  1700.512
 321  1719.748
 322  1640.919
 323  1673.949
 324  1646.64
 325  1653.973
 326  1662.71
 327  1661.112
 328  1707.417
 329  1693.142
 330  1714.888
 331  1699.928
 332  1694.542
 333  1710.361
 334  1576.081
 335  1645.997
 336  1761.628
 337  1772.223
 338  1786.204
 339  1789.119
 340  1725.531
 341  1722.75
 342  1699.031
 343  1805.829
 344  1732.787
 345  1619.267
 346  1662.528
 347  1673.741
 348  1746.948
 349  1748.623
 350  1780.533
 351  1688.178
 352  1765.118
 353  1775.796
 354  1698.023
 355  1638.426
 356  1688.308
 357  1737.629
 358  1588.323
 359  1525.304
 360  1541.778
 361  1562.194
 362  1669.445
 363  1626.997
 364  1732.046
 365  1563.066
 366  1688.937
 367  1759.432
 368  1712.327
 369  1680.397
 370  1708.552
 371  1675.493
 372  1632.933
 373  1684.34
 374  1681.795
 375  1682.606
 376  1807.528
 377  1862.289
 378  1758.873
 379  1684.382
 380  1728.095
 381  1755.818
 382  1678.694
 383  1681.754
 384  1660.87
 385  1716.05
 386  1727.029
 387  1705.055
 388  1776.102
 389  1804.812
 390  1784.041
 391  1775.558
 392  1711.813
 393  1662.243
 394  1695.293
 395  1721.22
 396  1684.072
 397  1724.857
 398  1785.492
 399  1739.227
 400  1566.964
 401  1592.388
 402  1565.894
 403  1639.884
 404  1581.914
 405  1680.952
 406  1752.68
 407  1832.774
 408  1860.37
 409  1834.986
 410  1702.03
 411  1685.655
 412  1722.357
 413  1705.64
 414  1707.793
 415  1681.583
 416  1667.925
 417  1635.569
 418  1613.446
 419  1702.104
 420  1626.876
 421  1706.672
 422  1589.108
 423  1686.71
 424  1722.733
 425  1649.277
 426  1707.355
 427  1675.332
 428  1616.216
 429  1613.647
 430  1733.84
 431  1660.188
 432  1607.883
 433  1633.98
 434  1709.992
 435  1690.439
 436  1720.144
 437  1724.159
 438  1744.546
 439  1749.339
 440  1635.797
 441  1573.963
 442  1597.849
 443  1617.51
 444  1610.281
 445  1673.549
 446  1632.235
 447  1618.328
 448  1634.426
 449  1636.198
 450  1646.409
 451  1586.117
 452  1718.91
 453  1671.187
 454  1644.102
 455  1674.433
 456  1583.244
 457  1592.808
 458  1579.729
 459  1588.521
 460  1664.208
 461  1705.763
 462  1678.095
 463  1681.849
 464  1688.277
 465  1611.904
 466  1666.966
 467  1674.188
 468  1722.744
 469  1674.401
 470  1726.855
 471  1705.2
 472  1650.145
 473  1645.88
 474  1654.6
 475  1607.323
 476  1592.241
 477  1649.58
 478  1608.446
 479  1656.454
 480  1658.472
 481  1711.676
 482  1623.661
 483  1587.407
 484  1548.839
 485  1575.81
 486  1636.948
 487  1736.623
 488  1700.191
 489  1687.999
 490  1691.785
 491  1745.19
 492  1681.795
 493  1770.368
 494  1810.607
 495  1717.531
 496  1619.506
 497  1735.608
 498  1798.528
 499  1791.838
 500  1791.914
 501  1679.03
 502  1764.966
 503  1767.417
 504  1700.835
 505  1715.149
 506  1767.502
 507  1753.666
 508  1718.69
 509  1792.833
 510  1966.543
 511  1985.596
