# Input file       =  1200053887.114777_cleaned.dat
# Candidate        =  PSR_0332+5434
# Telescope        =  AR
# Epoch_topo       =  58133.512374013626
# Epoch_bary       =  N/A
# T_sample         =  0.002
# Data Folded      =  7208960
# Data Avg         =  0.0170631048850858
# Data StdDev      =  1.00014692583873 
# Profile Bins     =  512
# Profile Avg      =  240.290073536231 
# Profile StdDev   =  118.676609892457 
# Reduced chi-sqr  =  1.598
# Prob(Noise)      <  1.79e-16   (~8.2 sigma)
# P_topo (ms)      =  714.566910935004  +/- 0.000166
# P'_topo (s/s)    =  -0                +/- 8.94e-11
# P''_topo (s/s^2) =  0                 +/- 4.02e-14
# P_bary (ms)      =  N/A
# P'_bary (s/s)    =  N/A
# P''_bary (s/s^2) =  N/A
# P_orb (s)        =  N/A
# asin(i)/c (s)    =  N/A
# eccentricity     =  N/A
# w (rad)          =  N/A
# T_peri           =  N/A
######################################################
   0  826.7791
   1  972.6653
   2  781.1879
   3  638.6127
   4  500.6594
   5  348.7196
   6  227.5594
   7  233.9194
   8  183.9561
   9  187.6273
  10  262.6545
  11  230.4199
  12  157.2245
  13  209.8946
  14  241.0061
  15  255.661
  16  191.1621
  17  113.3197
  18  108.5745
  19  103.7033
  20  213.0405
  21  197.8578
  22  86.49641
  23  196.5319
  24  158.3192
  25  98.13477
  26  189.7681
  27  145.8696
  28  180.452
  29  234.2998
  30  193.4647
  31  206.344
  32  130.1497
  33  250.6267
  34  195.9677
  35  165.9926
  36  120.8618
  37  234.1004
  38  272.2535
  39  229.3878
  40  279.8381
  41  345.6576
  42  346.7505
  43  243.8775
  44  106.4673
  45  141.4621
  46  115.9949
  47  84.77911
  48  155.8142
  49  148.0952
  50  130.0596
  51  159.7626
  52  52.26831
  53  128.8695
  54  259.2887
  55  172.1179
  56  291.541
  57  201.5768
  58  224.564
  59  328.9086
  60  302.1053
  61  163.2755
  62  208.5161
  63  283.3558
  64  311.3065
  65  201.8239
  66  240.6402
  67  355.1476
  68  341.5049
  69  290.1072
  70  308.0826
  71  225.4321
  72  218.1729
  73  219.9653
  74  236.6425
  75  420.3918
  76  297.9715
  77  170.9373
  78  171.9208
  79  225.5636
  80  173.2339
  81  185.6368
  82  103.805
  83  106.1388
  84  132.1827
  85  149.2679
  86  266.8433
  87  118.5158
  88  266.2564
  89  272.2675
  90  305.6025
  91  179.2782
  92  192.0922
  93  196.9241
  94  180.6216
  95  143.4747
  96  230.9574
  97  308.584
  98  136.6086
  99  139.2587
 100  190.2311
 101  205.6748
 102  231.8872
 103  131.3588
 104  181.7872
 105  252.4293
 106  223.9778
 107  213.661
 108  332.3799
 109  365.2437
 110  347.9886
 111  304.9879
 112  78.0649
 113  24.4898
 114  268.4987
 115  369.9097
 116  296.2497
 117  265.3887
 118  142.5476
 119  264.8817
 120  244.3753
 121  336.0965
 122  296.3964
 123  229.4126
 124  333.7153
 125  261.2965
 126  173.1914
 127  224.9532
 128  335.8568
 129  260.0498
 130  315.7204
 131  346.3879
 132  315.9485
 133  268.8706
 134  150.3084
 135  161.6803
 136  79.70091
 137  143.0412
 138  345.0326
 139  387.7624
 140  253.1869
 141  333.4059
 142  321.4693
 143  315.1273
 144  300.4671
 145  192.8917
 146  309.8161
 147  250.4266
 148  289.8938
 149  396.2419
 150  316.356
 151  234.8843
 152  62.27349
 153  8.125332
 154  87.94598
 155  100.0248
 156  97.99538
 157  208.3823
 158  238.1853
 159  234.3193
 160  368.6054
 161  326.5088
 162  323.1921
 163  185.1998
 164  115.6068
 165  277.2615
 166  180.4759
 167  48.743
 168  132.3803
 169  223.011
 170  282.7628
 171  263.7957
 172  183.8599
 173  244.728
 174  410.9262
 175  313.7523
 176  304.3695
 177  426.4464
 178  329.244
 179  221.1373
 180  159.5237
 181  222.2522
 182  293.305
 183  189.7939
 184  103.0028
 185  220.6462
 186  372.6312
 187  329.8214
 188  259.8984
 189  222.4512
 190  194.1272
 191  227.1712
 192  255.0673
 193  196.4399
 194  288.0695
 195  214.5022
 196  268.9963
 197  258.7072
 198  306.5133
 199  326.3948
 200  229.2067
 201  224.6906
 202  194.8088
 203  132.9501
 204  200.1709
 205  239.409
 206  300.512
 207  412.7513
 208  516.6477
 209  337.4626
 210  247.0612
 211  322.7811
 212  284.3361
 213  295.463
 214  81.36799
 215  55.8821
 216  95.83282
 217  119.6559
 218  199.622
 219  309.2504
 220  293.4026
 221  178.2631
 222  233.0949
 223  360.8925
 224  283.6438
 225  204.9854
 226  133.3065
 227  209.7312
 228  212.4907
 229  118.5033
 230  165.9316
 231  73.76604
 232  144.5666
 233  268.3091
 234  291.1866
 235  219.3084
 236  49.46966
 237  62.64334
 238  260.6217
 239  360.3088
 240  224.6191
 241  129.9796
 242  225.5244
 243  184.4111
 244  95.46447
 245  189.8229
 246  217.8332
 247  126.02
 248  142.4426
 249  171.9957
 250  160.7947
 251  278.7581
 252  343.4373
 253  230.5801
 254  161.6733
 255  232.5315
 256  408.55
 257  394.452
 258  374.1936
 259  172.5544
 260  -25.44267
 261  195.0486
 262  325.8801
 263  342.2693
 264  235.3131
 265  257.8297
 266  282.6065
 267  334.963
 268  329.6249
 269  212.4424
 270  303.1457
 271  323.78
 272  300.0429
 273  313.1079
 274  422.3318
 275  368.9933
 276  208.5103
 277  314.9229
 278  366.6125
 279  316.4041
 280  179.3045
 281  148.8632
 282  75.29958
 283  111.6459
 284  179.7914
 285  84.69225
 286  291.6279
 287  273.5633
 288  306.9598
 289  339.2276
 290  303.4074
 291  389.2908
 292  313.8658
 293  252.7766
 294  154.6259
 295  149.2153
 296  83.54384
 297  156.5649
 298  84.80316
 299  203.137
 300  393.6991
 301  223.2775
 302  43.87915
 303  49.90389
 304  139.8072
 305  293.4033
 306  359.0201
 307  138.0862
 308  78.79797
 309  144.3863
 310  55.79148
 311  11.45413
 312  145.1466
 313  195.6726
 314  189.5927
 315  238.8485
 316  221.3146
 317  127.6563
 318  73.46292
 319  182.1978
 320  187.2778
 321  231.2025
 322  290.9576
 323  281.4412
 324  101.9933
 325  97.70794
 326  64.09736
 327  203.5886
 328  161.3732
 329  165.385
 330  354.0318
 331  414.6249
 332  193.1579
 333  155.9018
 334  249.4433
 335  205.3078
 336  197.1888
 337  171.2563
 338  305.2168
 339  247.2389
 340  191.8999
 341  270.2649
 342  309.0288
 343  184.1436
 344  316.5773
 345  308.1037
 346  202.7389
 347  245.2971
 348  273.7742
 349  271.8756
 350  161.4238
 351  86.94331
 352  370.4312
 353  336.784
 354  266.2228
 355  202.6564
 356  304.0743
 357  355.5537
 358  365.821
 359  361.5991
 360  256.5685
 361  387.4766
 362  281.1821
 363  193.4697
 364  262.3606
 365  339.4444
 366  249.1372
 367  145.576
 368  273.7105
 369  226.9938
 370  92.52162
 371  244.976
 372  173.4167
 373  218.7261
 374  270.6564
 375  176.0736
 376  185.1516
 377  236.81
 378  263.0761
 379  213.0577
 380  121.7091
 381  120.0614
 382  197.3612
 383  103.81
 384  60.40123
 385  76.71394
 386  179.9133
 387  213.1689
 388  264.8706
 389  226.6134
 390  194.5225
 391  215.4916
 392  259.9425
 393  44.81334
 394  166.6532
 395  306.3065
 396  323.5201
 397  225.563
 398  252.1723
 399  248.6955
 400  244.4469
 401  277.4432
 402  148.0083
 403  279.0455
 404  315.6233
 405  317.3859
 406  256.8675
 407  329.4016
 408  407.7055
 409  365.9836
 410  260.873
 411  170.3393
 412  132.7456
 413  247.4002
 414  349.1213
 415  396.0919
 416  405.2534
 417  387.2916
 418  313.3218
 419  253.432
 420  277.6213
 421  260.5729
 422  236.1223
 423  214.2818
 424  81.41924
 425  161.3339
 426  241.7928
 427  219.9994
 428  160.5604
 429  181.6724
 430  184.2549
 431  239.4095
 432  226.9869
 433  122.0624
 434  118.7795
 435  235.1786
 436  192.8559
 437  375.6982
 438  371.062
 439  183.8438
 440  231.0003
 441  239.0293
 442  201.867
 443  138.0365
 444  363.322
 445  369.8898
 446  233.3198
 447  166.8007
 448  218.9804
 449  213.1434
 450  157.0975
 451  215.6223
 452  240.7528
 453  265.2651
 454  279.4513
 455  137.7925
 456  182.5423
 457  312.4959
 458  115.8411
 459  -28.41186
 460  123.4357
 461  169.949
 462  151.0715
 463  173.4924
 464  211.3358
 465  204.2907
 466  276.114
 467  319.7154
 468  206.1981
 469  323.0763
 470  280.3414
 471  285.8609
 472  329.1322
 473  279.0941
 474  284.9023
 475  285.693
 476  210.9
 477  389.4175
 478  317.8619
 479  295.3072
 480  259.2288
 481  242.2481
 482  216.5269
 483  303.5359
 484  398.6029
 485  242.5022
 486  230.631
 487  286.4423
 488  326.2997
 489  378.0076
 490  417.2833
 491  424.5492
 492  256.567
 493  181.5888
 494  162.337
 495  333.6178
 496  360.277
 497  257.6303
 498  287.7371
 499  253.3363
 500  276.14
 501  221.0703
 502  278.5373
 503  331.9146
 504  355.3875
 505  385.7721
 506  504.7353
 507  427.7922
 508  479.922
 509  462.9811
 510  585.5312
 511  825.7457
