# Input file       =  1200413215.099894_cleaned.dat
# Candidate        =  PSR_0332+5434
# Telescope        =  AR
# Epoch_topo       =  58137.671262730255
# Epoch_bary       =  N/A
# T_sample         =  0.002
# Data Folded      =  7340032
# Data Avg         =  0.0220785480057801
# Data StdDev      =  0.999965999322237
# Profile Bins     =  512
# Profile Avg      =  316.614273126066 
# Profile StdDev   =  119.728965372379 
# Reduced chi-sqr  =  1.119
# Prob(Noise)      <  0.0315   (~1.9 sigma)
# P_topo (ms)      =  714.569606717857  +/- 0.000499
# P'_topo (s/s)    =  -0                +/- 2.63e-10
# P''_topo (s/s^2) =  0                 +/- 1.16e-13
# P_bary (ms)      =  N/A
# P'_bary (s/s)    =  N/A
# P''_bary (s/s^2) =  N/A
# P_orb (s)        =  N/A
# asin(i)/c (s)    =  N/A
# eccentricity     =  N/A
# w (rad)          =  N/A
# T_peri           =  N/A
######################################################
   0  887.2985
   1  777.6401
   2  550.2922
   3  469.9876
   4  405.3117
   5  419.7552
   6  390.8891
   7  403.494
   8  372.0492
   9  359.1721
  10  283.3271
  11  279.9032
  12  404.315
  13  482.5259
  14  431.1653
  15  398.8312
  16  479.3921
  17  353.6054
  18  270.0857
  19  388.5842
  20  534.7365
  21  462.0399
  22  307.7937
  23  319.1963
  24  376.4769
  25  288.1696
  26  190.0599
  27  297.4225
  28  346.8005
  29  336.2885
  30  388.4914
  31  286.7043
  32  340.3624
  33  343.352
  34  364.8855
  35  387.0892
  36  382.4495
  37  418.6321
  38  381.8785
  39  352.4397
  40  424.1758
  41  446.7987
  42  363.9529
  43  437.9969
  44  419.2631
  45  407.6312
  46  389.9446
  47  302.417
  48  331.0371
  49  399.4793
  50  420.0728
  51  346.348
  52  378.1426
  53  488.9629
  54  339.6505
  55  282.9099
  56  337.9401
  57  286.9727
  58  430.5237
  59  290.8494
  60  329.733
  61  358.3593
  62  443.2691
  63  373.2274
  64  343.2378
  65  318.6541
  66  314.4726
  67  381.7697
  68  388.9468
  69  303.298
  70  257.8523
  71  271.1664
  72  238.1855
  73  276.0837
  74  225.2681
  75  196.4632
  76  202.6423
  77  165.7272
  78  230.6945
  79  239.5294
  80  319.2545
  81  378.5397
  82  342.6007
  83  233.4205
  84  256.9767
  85  383.195
  86  448.8233
  87  340.0938
  88  275.705
  89  265.9444
  90  233.5843
  91  279.7202
  92  294.8152
  93  325.1017
  94  298.0414
  95  329.8852
  96  293.1779
  97  200.694
  98  143.4302
  99  251.2414
 100  338.2423
 101  346.1465
 102  222.2491
 103  183.721
 104  156.875
 105  282.5361
 106  262.1656
 107  286.632
 108  335.022
 109  163.5366
 110  216.502
 111  346.6632
 112  394.0786
 113  338.0247
 114  307.9309
 115  273.6155
 116  324.108
 117  422.907
 118  287.6226
 119  321.7257
 120  292.5786
 121  317.5885
 122  210.38
 123  194.802
 124  309.2043
 125  180.1808
 126  231.5099
 127  302.4865
 128  272.7681
 129  266.9016
 130  305.6111
 131  323.1711
 132  160.0894
 133  176.5628
 134  341.7995
 135  250.7662
 136  192.4276
 137  275.4415
 138  374.2559
 139  306.5968
 140  248.8264
 141  270.1202
 142  257.0405
 143  322.9494
 144  316.7776
 145  376.9488
 146  225.4941
 147  161.5522
 148  268.863
 149  310.5548
 150  267.4503
 151  181.8807
 152  210.0292
 153  270.9784
 154  244.3209
 155  291.0954
 156  379.0902
 157  378.6492
 158  403.7511
 159  443.0091
 160  286.3739
 161  257.8841
 162  235.3207
 163  323.1101
 164  304.1059
 165  244.9946
 166  250.9846
 167  264.3323
 168  239.5457
 169  251.3005
 170  293.3561
 171  234.4781
 172  219.8451
 173  197.2398
 174  148.7125
 175  198.5813
 176  288.2429
 177  140.629
 178  181.3879
 179  199.956
 180  223.0462
 181  292.1523
 182  215.5752
 183  288.306
 184  198.1288
 185  276.2351
 186  233.6312
 187  264.4867
 188  252.3906
 189  292.8834
 190  276.2007
 191  315.4776
 192  251.6034
 193  220.9174
 194  230.4502
 195  236.2253
 196  211.7117
 197  162.6623
 198  190.6146
 199  237.6189
 200  281.2537
 201  395.9673
 202  379.8189
 203  284.8317
 204  271.2684
 205  229.1611
 206  254.2323
 207  319.8316
 208  337.9807
 209  235.9797
 210  316.481
 211  302.8104
 212  227.6541
 213  241.8404
 214  299.3159
 215  354.7679
 216  281.3479
 217  238.9399
 218  221.2701
 219  273.3952
 220  285.6567
 221  215.8204
 222  341.6052
 223  370.4596
 224  327.3622
 225  267.8984
 226  170.0546
 227  196.0886
 228  212.5947
 229  259.147
 230  258.0252
 231  267.136
 232  228.8361
 233  232.5762
 234  315.1007
 235  221.4725
 236  187.811
 237  421.6893
 238  465.4325
 239  292.7842
 240  288.7073
 241  354.1275
 242  417.1172
 243  399.4803
 244  344.4754
 245  318.4023
 246  328.5413
 247  404.766
 248  361.3441
 249  368.4829
 250  455.4119
 251  492.6235
 252  385.3688
 253  268.0257
 254  276.1388
 255  295.3456
 256  335.3346
 257  382.8192
 258  323.3486
 259  397.5152
 260  427.2946
 261  381.9492
 262  410.1708
 263  412.0963
 264  360.4289
 265  243.2917
 266  321.4255
 267  371.6025
 268  359.6931
 269  390.4475
 270  342.3152
 271  329.1617
 272  428.7423
 273  350.0236
 274  279.7306
 275  183.2293
 276  218.7015
 277  290.6661
 278  423.8985
 279  380.5439
 280  338.387
 281  334.3652
 282  336.6788
 283  377.6597
 284  307.4861
 285  285.1747
 286  335.51
 287  415.9538
 288  294.501
 289  241.3195
 290  202.077
 291  307.3288
 292  341.1817
 293  290.4309
 294  269.8135
 295  258.42
 296  274.8538
 297  464.2753
 298  363.5033
 299  306.4808
 300  310.3887
 301  352.4991
 302  396.237
 303  415.8102
 304  375.0801
 305  356.0735
 306  284.0265
 307  280.5738
 308  312.5284
 309  369.0775
 310  472.6126
 311  491.5537
 312  405.12
 313  412.6931
 314  470.2419
 315  377.3412
 316  264.6981
 317  299.6893
 318  370.7636
 319  401.6717
 320  403.5351
 321  222.6653
 322  219.4195
 323  371.7855
 324  362.129
 325  379.8384
 326  465.7958
 327  410.6466
 328  334.0263
 329  341.6746
 330  298.7918
 331  284.5513
 332  329.4415
 333  239.0941
 334  214.7083
 335  216.7054
 336  215.3134
 337  215.6327
 338  272.745
 339  292.2484
 340  395.2595
 341  320.1912
 342  369.6879
 343  459.6761
 344  394.9703
 345  351.0624
 346  321.9583
 347  226.511
 348  261.2212
 349  320.5154
 350  407.8312
 351  466.5424
 352  417.6524
 353  305.298
 354  289.7094
 355  250.6988
 356  358.4215
 357  355.7874
 358  392.6962
 359  371.7443
 360  318.169
 361  213.3456
 362  360.11
 363  356.0346
 364  152.2832
 365  236.0888
 366  397.2498
 367  414.5833
 368  346.3919
 369  302.9366
 370  320.8892
 371  217.4046
 372  210.8338
 373  218.1967
 374  258.5775
 375  324.6477
 376  233.864
 377  318.1361
 378  306.762
 379  292.5654
 380  305.8492
 381  233.2555
 382  259.897
 383  246.063
 384  384.0672
 385  290.6247
 386  157.1752
 387  287.1476
 388  305.0938
 389  296.0265
 390  263.4167
 391  201.9721
 392  344.562
 393  383.2676
 394  294.7699
 395  241.0345
 396  250.4505
 397  202.9837
 398  280.4267
 399  322.5446
 400  298.0559
 401  277.6281
 402  304.7184
 403  322.5756
 404  281.6863
 405  240.0965
 406  192.4533
 407  235.703
 408  298.6117
 409  258.8499
 410  297.7462
 411  312.4018
 412  200.9772
 413  255.253
 414  251.0557
 415  335.995
 416  446.0977
 417  397.2081
 418  350.1044
 419  226.2061
 420  251.7255
 421  294.2759
 422  304.1027
 423  266.9475
 424  195.259
 425  336.686
 426  251.4167
 427  236.5576
 428  373.0255
 429  363.5998
 430  269.6218
 431  288.6067
 432  339.821
 433  260.8179
 434  313.4932
 435  349.1286
 436  387.9096
 437  306.9751
 438  361.0884
 439  262.6058
 440  221.5421
 441  351.1101
 442  397.8968
 443  450.5496
 444  265.3817
 445  293.0266
 446  190.0643
 447  244.806
 448  239.4581
 449  374.4903
 450  428.1567
 451  301.5145
 452  285.1257
 453  360.3434
 454  272.6823
 455  225.8032
 456  292.744
 457  298.9295
 458  285.4948
 459  270.1397
 460  289.16
 461  355.2281
 462  337.1594
 463  422.1878
 464  368.149
 465  324.017
 466  335.303
 467  410.7694
 468  472.2819
 469  242.4767
 470  248.1185
 471  212.2845
 472  271.6328
 473  299.3893
 474  339.8038
 475  313.6619
 476  354.7491
 477  357.342
 478  342.7918
 479  289.7762
 480  276.3708
 481  332.0057
 482  313.2501
 483  339.2255
 484  246.878
 485  298.7882
 486  304.7313
 487  269.2475
 488  267.4344
 489  311.5826
 490  364.7982
 491  309.9816
 492  342.1497
 493  262.0825
 494  256.9556
 495  347.1473
 496  348.6869
 497  403.1112
 498  281.8302
 499  281.7624
 500  497.3817
 501  348.378
 502  268.7241
 503  308.5797
 504  354.5648
 505  482.9793
 506  411.2977
 507  393.7376
 508  452.868
 509  777.9445
 510  915.0553
 511  927.6025
