# Input file       =  1200154712.110376_cleaned.dat
# Candidate        =  PSR_0332+5434
# Telescope        =  AR
# Epoch_topo       =  58134.679329981205
# Epoch_bary       =  N/A
# T_sample         =  0.002
# Data Folded      =  7340032
# Data Avg         =  0.0243573893945749
# Data StdDev      =  1.0000445421674  
# Profile Bins     =  512
# Profile Avg      =  349.368296811113 
# Profile StdDev   =  119.738369545716 
# Reduced chi-sqr  =  1.552
# Prob(Noise)      <  1.46e-14   (~7.6 sigma)
# P_topo (ms)      =  714.567703719517  +/- 0.000359
# P'_topo (s/s)    =  -0                +/- 1.89e-10
# P''_topo (s/s^2) =  0                 +/- 8.36e-14
# P_bary (ms)      =  N/A
# P'_bary (s/s)    =  N/A
# P''_bary (s/s^2) =  N/A
# P_orb (s)        =  N/A
# asin(i)/c (s)    =  N/A
# eccentricity     =  N/A
# w (rad)          =  N/A
# T_peri           =  N/A
######################################################
   0  1050.836
   1  983.3353
   2  799.2452
   3  602.631
   4  516.8812
   5  538.9594
   6  507.323
   7  496.7652
   8  479.2066
   9  394.6626
  10  362.3704
  11  485.2209
  12  537.8248
  13  370.8748
  14  408.8779
  15  461.6435
  16  306.5636
  17  333.9517
  18  329.3075
  19  394.5768
  20  423.6471
  21  323.0088
  22  346.2022
  23  325.8376
  24  262.4997
  25  288.0533
  26  290.6566
  27  269.113
  28  337.0939
  29  335.8671
  30  378.5179
  31  335.8344
  32  188.264
  33  258.5332
  34  285.543
  35  280.8991
  36  261.6599
  37  271.8055
  38  344.5681
  39  288.3329
  40  371.1713
  41  385.3345
  42  282.646
  43  331.4041
  44  404.9852
  45  334.1937
  46  247.3133
  47  246.4373
  48  317.8091
  49  313.6996
  50  231.5798
  51  270.1447
  52  231.4427
  53  233.5389
  54  159.9028
  55  182.39
  56  261.6266
  57  251.8667
  58  342.3783
  59  378.1339
  60  361.2358
  61  221.2497
  62  264.6943
  63  372.3815
  64  300.7944
  65  253.1588
  66  211.8904
  67  276.6327
  68  314.1433
  69  382.7466
  70  263.4882
  71  285.1383
  72  328.8737
  73  323.2517
  74  247.953
  75  292.4376
  76  350.149
  77  358.4647
  78  291.963
  79  296.2876
  80  283.9772
  81  333.4088
  82  340.8524
  83  350.7117
  84  281.5081
  85  305.8003
  86  237.4199
  87  206.57
  88  183.9065
  89  376.7519
  90  405.2177
  91  404.9528
  92  475.2022
  93  461.3253
  94  409.7159
  95  359.8069
  96  280.1479
  97  240.8517
  98  362.3209
  99  496.7532
 100  339.5355
 101  155.5999
 102  322.3228
 103  417.7963
 104  361.3038
 105  365.1024
 106  382.5526
 107  434.3173
 108  400.8741
 109  439.8679
 110  375.9658
 111  369.1373
 112  410.8599
 113  334.5836
 114  229.3267
 115  236.5039
 116  314.0154
 117  375.5079
 118  285.4881
 119  329.6754
 120  179.3948
 121  68.53944
 122  79.43472
 123  98.55744
 124  226.732
 125  271.2643
 126  274.0295
 127  353.8512
 128  332.4064
 129  267.65
 130  387.4992
 131  341.2012
 132  224.0601
 133  284.8648
 134  337.2389
 135  367.8094
 136  287.1205
 137  287.5851
 138  408.5138
 139  371.1726
 140  236.0902
 141  320.2743
 142  462.7657
 143  459.6921
 144  480.308
 145  536.9505
 146  554.7595
 147  373.7899
 148  323.8215
 149  372.5757
 150  402.7731
 151  392.7661
 152  432.3707
 153  415.942
 154  361.6231
 155  355.0039
 156  291.1676
 157  287.539
 158  280.9747
 159  334.2339
 160  386.9014
 161  366.3326
 162  310.1085
 163  232.2794
 164  250.5304
 165  274.4012
 166  327.5399
 167  346.3719
 168  347.6388
 169  220.8108
 170  222.6111
 171  182.3574
 172  180.7457
 173  362.7664
 174  389.8241
 175  364.6562
 176  281.9666
 177  429.0187
 178  386.506
 179  368.2872
 180  248.9841
 181  208.2537
 182  275.2705
 183  270.4643
 184  326.5671
 185  382.7502
 186  304.0312
 187  301.6688
 188  190.6427
 189  342.2129
 190  331.8969
 191  326.0647
 192  273.6535
 193  248.1969
 194  324.1958
 195  305.9874
 196  365.1434
 197  354.7087
 198  308.0774
 199  219.5286
 200  253.7996
 201  185.0842
 202  305.0216
 203  379.0738
 204  403.6359
 205  370.5709
 206  409.4713
 207  434.2798
 208  396.8082
 209  311.5368
 210  286.066
 211  210.8133
 212  293.7713
 213  282.9624
 214  343.2863
 215  360.1662
 216  298.2604
 217  245.4586
 218  212.2168
 219  250.9796
 220  314.0117
 221  398.018
 222  437.7738
 223  419.1084
 224  409.9175
 225  428.1716
 226  377.4389
 227  307.1439
 228  256.3801
 229  259.0608
 230  235.1705
 231  287.5709
 232  311.2719
 233  370.7271
 234  389.4587
 235  300.6264
 236  227.9898
 237  319.0565
 238  243.1625
 239  235.0898
 240  189.5996
 241  371.4266
 242  375.8398
 243  316.5652
 244  342.1357
 245  329.4049
 246  359.0706
 247  402.7061
 248  330.4432
 249  344.8412
 250  391.9608
 251  335.5946
 252  366.1218
 253  331.4037
 254  413.7351
 255  551.5491
 256  435.9552
 257  267.1039
 258  274.819
 259  502.4631
 260  460.5313
 261  286.3041
 262  295.8192
 263  328.1094
 264  294.1276
 265  315.491
 266  234.3143
 267  168.7834
 268  267.5218
 269  292.5432
 270  263.4845
 271  201.9561
 272  302.5031
 273  358.4078
 274  194.7706
 275  273.6274
 276  342.6988
 277  365.7252
 278  331.5151
 279  217.1508
 280  212.1084
 281  349.2337
 282  429.0341
 283  255.073
 284  347.5685
 285  398.6749
 286  244.6208
 287  147.1577
 288  209.9019
 289  359.2477
 290  279.8063
 291  307.534
 292  353.708
 293  353.2493
 294  376.7887
 295  273.0955
 296  254.6202
 297  371.0821
 298  409.0247
 299  467.1194
 300  412.3109
 301  417.4427
 302  385.3124
 303  428.9821
 304  358.3273
 305  397.4389
 306  546.8246
 307  443.0127
 308  332.601
 309  291.598
 310  327.0495
 311  325.7084
 312  364.0113
 313  328.4441
 314  322.5392
 315  395.2114
 316  345.2743
 317  221.6889
 318  217.6514
 319  271.8708
 320  370.1881
 321  352.9105
 322  280.0609
 323  282.5183
 324  305.1507
 325  321.3786
 326  466.3588
 327  532.9864
 328  479.4908
 329  343.8257
 330  298.5604
 331  420.7414
 332  358.1711
 333  337.3191
 334  344.2812
 335  357.9215
 336  403.5713
 337  413.8809
 338  516.6328
 339  396.2257
 340  342.1477
 341  375.4594
 342  233.1084
 343  338.4575
 344  444.1701
 345  435.1254
 346  292.0922
 347  307.9677
 348  330.8009
 349  263.9958
 350  277.824
 351  343.074
 352  368.5333
 353  519.7491
 354  477.6412
 355  487.7586
 356  520.5494
 357  516.8682
 358  565.9138
 359  491.3049
 360  487.4202
 361  485.9359
 362  416.2925
 363  372.6772
 364  360.5248
 365  373.2571
 366  512.9253
 367  515.7675
 368  513.1979
 369  482.1059
 370  499.0294
 371  514.7434
 372  542.8887
 373  479.0098
 374  496.5211
 375  470.3525
 376  344.7581
 377  455.2196
 378  436.9235
 379  458.7428
 380  440.8532
 381  416.0355
 382  462.1664
 383  429.8998
 384  349.5489
 385  416.2141
 386  451.4855
 387  485.1973
 388  387.7303
 389  362.0813
 390  484.951
 391  518.6642
 392  406.7352
 393  323.0481
 394  333.428
 395  402.5481
 396  298.0643
 397  313.7867
 398  285.1029
 399  338.975
 400  321.0684
 401  501.2034
 402  525.4689
 403  423.963
 404  376.7601
 405  384.6942
 406  318.5424
 407  328.7473
 408  424.1607
 409  440.3529
 410  397.4991
 411  302.3503
 412  344.1085
 413  252.9618
 414  272.832
 415  304.0286
 416  339.5713
 417  314.2375
 418  258.8107
 419  326.2428
 420  371.025
 421  473.695
 422  521.9699
 423  502.4202
 424  425.1112
 425  371.9095
 426  283.7106
 427  286.1891
 428  346.2962
 429  304.7619
 430  344.4299
 431  439.5006
 432  372.576
 433  251.3646
 434  330.8804
 435  353.4052
 436  398.4912
 437  343.8208
 438  316.9945
 439  256.512
 440  365.3484
 441  300.4034
 442  213.0928
 443  219.8242
 444  231.13
 445  310.4596
 446  330.1682
 447  229.2477
 448  261.233
 449  273.4594
 450  430.832
 451  461.3488
 452  409.6239
 453  339.7626
 454  320.4332
 455  239.6431
 456  260.5177
 457  264.3972
 458  378.6789
 459  395.377
 460  351.3943
 461  376.1433
 462  353.424
 463  317.268
 464  360.8538
 465  429.8733
 466  322.2859
 467  332.2791
 468  403.6394
 469  295.9725
 470  243.3393
 471  242.759
 472  303.4054
 473  304.2738
 474  329.9566
 475  234.717
 476  234.9632
 477  338.1149
 478  382.0822
 479  374.1934
 480  373.2375
 481  270.7242
 482  247.6284
 483  275.2326
 484  314.3194
 485  357.7832
 486  441.874
 487  359.5378
 488  384.5828
 489  298.6107
 490  190.5773
 491  277.372
 492  282.9555
 493  246.0765
 494  264.6053
 495  362.0785
 496  344.785
 497  350.0612
 498  262.0699
 499  236.8736
 500  199.8741
 501  304.0641
 502  259.1752
 503  366.0613
 504  420.0775
 505  431.0367
 506  441.1396
 507  477.351
 508  681.9688
 509  840.0218
 510  918.8716
 511  1043.581
