# Input file       =  1200499343.110404_cleaned.dat
# Candidate        =  PSR_0332+5434
# Telescope        =  AR
# Epoch_topo       =  58138.668114703753
# Epoch_bary       =  N/A
# T_sample         =  0.002
# Data Folded      =  7340032
# Data Avg         =  0.109395055454327
# Data StdDev      =  1.00056974241841 
# Profile Bins     =  512
# Profile Avg      =  1568.14083749426 
# Profile StdDev   =  119.801253366475 
# Reduced chi-sqr  =  0.785
# Prob(Noise)      <  1   (~0.0 sigma)
# P_topo (ms)      =  714.570208529625  +/- 0.000132
# P'_topo (s/s)    =  -0                +/- 6.97e-11
# P''_topo (s/s^2) =  0                 +/- 3.08e-14
# P_bary (ms)      =  N/A
# P'_bary (s/s)    =  N/A
# P''_bary (s/s^2) =  N/A
# P_orb (s)        =  N/A
# asin(i)/c (s)    =  N/A
# eccentricity     =  N/A
# w (rad)          =  N/A
# T_peri           =  N/A
######################################################
   0  1872.931
   1  1829.647
   2  1886.754
   3  1833.316
   4  1668.731
   5  1648.618
   6  1573.325
   7  1452.409
   8  1581.913
   9  1556.554
  10  1645.486
  11  1669.625
  12  1649.867
  13  1606.678
  14  1602.169
  15  1587.043
  16  1608.723
  17  1647.116
  18  1550.16
  19  1615.251
  20  1598.499
  21  1612.98
  22  1491.996
  23  1453.234
  24  1495.939
  25  1552.281
  26  1475.305
  27  1381.909
  28  1395.13
  29  1426.935
  30  1478.796
  31  1558.054
  32  1582.368
  33  1613.742
  34  1614.227
  35  1572.371
  36  1581.785
  37  1644.328
  38  1549.547
  39  1463.732
  40  1504.028
  41  1564.398
  42  1468.912
  43  1443.831
  44  1516.738
  45  1486.874
  46  1510.912
  47  1481.279
  48  1518.838
  49  1552.525
  50  1480.032
  51  1471.721
  52  1522.755
  53  1551.84
  54  1559.88
  55  1456.921
  56  1495.163
  57  1492.805
  58  1655.973
  59  1612.989
  60  1481.474
  61  1442.276
  62  1495.905
  63  1623.464
  64  1584
  65  1513.558
  66  1491.706
  67  1587.025
  68  1527.738
  69  1524.797
  70  1495.699
  71  1379.281
  72  1444.356
  73  1532.432
  74  1560.026
  75  1434.843
  76  1467.042
  77  1638.473
  78  1668.712
  79  1624.161
  80  1614.732
  81  1538.439
  82  1573.35
  83  1539.556
  84  1519.805
  85  1567.046
  86  1627.017
  87  1765.417
  88  1542.231
  89  1609.626
  90  1564.144
  91  1691.689
  92  1744.26
  93  1598.626
  94  1539.704
  95  1553.91
  96  1525.694
  97  1549.497
  98  1571.908
  99  1484.126
 100  1556.316
 101  1556.513
 102  1509.887
 103  1606.183
 104  1629.23
 105  1533.938
 106  1573.407
 107  1724.455
 108  1658.485
 109  1545.817
 110  1557.141
 111  1605.623
 112  1542.265
 113  1529.72
 114  1539.994
 115  1462.313
 116  1591.613
 117  1589.268
 118  1584.2
 119  1628.413
 120  1591.66
 121  1625.955
 122  1606.512
 123  1534.299
 124  1543.746
 125  1569.547
 126  1573.094
 127  1556.17
 128  1632.448
 129  1538.963
 130  1442.974
 131  1580.916
 132  1631.02
 133  1534.061
 134  1532.119
 135  1581.621
 136  1581.923
 137  1594.995
 138  1573.376
 139  1599.035
 140  1622.073
 141  1564.078
 142  1488.136
 143  1347.01
 144  1573.702
 145  1652.901
 146  1663.396
 147  1549.89
 148  1653.967
 149  1715.888
 150  1625.518
 151  1615.095
 152  1587.434
 153  1575.494
 154  1562.284
 155  1467.829
 156  1463.698
 157  1584.613
 158  1693.178
 159  1622.097
 160  1569.188
 161  1573.935
 162  1509.253
 163  1527.953
 164  1554.871
 165  1574.812
 166  1534.051
 167  1418.225
 168  1520.281
 169  1580.88
 170  1626.68
 171  1580.608
 172  1591.988
 173  1576.288
 174  1515.914
 175  1531.149
 176  1601.431
 177  1619.198
 178  1601.273
 179  1597.2
 180  1522.845
 181  1433.621
 182  1424.37
 183  1559.032
 184  1603.289
 185  1630.647
 186  1662.63
 187  1607.095
 188  1589.737
 189  1612.921
 190  1502.921
 191  1592.548
 192  1565.205
 193  1521.072
 194  1540.775
 195  1585.089
 196  1543.182
 197  1629.232
 198  1510.286
 199  1536.113
 200  1528.554
 201  1524.202
 202  1625.08
 203  1664.152
 204  1466.36
 205  1526.828
 206  1439.759
 207  1563.774
 208  1616.06
 209  1564.497
 210  1504.915
 211  1497.892
 212  1623.669
 213  1637.251
 214  1573.594
 215  1495.115
 216  1558.276
 217  1597.193
 218  1607.759
 219  1541.506
 220  1499.623
 221  1615.401
 222  1565.988
 223  1674.169
 224  1668.01
 225  1623.429
 226  1632.799
 227  1585.707
 228  1612.349
 229  1538.928
 230  1599.684
 231  1668.948
 232  1632.173
 233  1582.417
 234  1644.007
 235  1680.524
 236  1710.4
 237  1626.89
 238  1599.455
 239  1628.991
 240  1631.445
 241  1681.13
 242  1683.274
 243  1566.452
 244  1577.821
 245  1463.454
 246  1645.084
 247  1540.983
 248  1582.113
 249  1638.623
 250  1633.075
 251  1704.484
 252  1586.722
 253  1520.366
 254  1595.568
 255  1501.709
 256  1496.734
 257  1488.752
 258  1526.529
 259  1600.595
 260  1618.189
 261  1507.101
 262  1471.317
 263  1504.868
 264  1611.946
 265  1568.002
 266  1519.713
 267  1504.16
 268  1577.876
 269  1555.818
 270  1498.935
 271  1460.552
 272  1452.58
 273  1573.232
 274  1504.494
 275  1492.879
 276  1452.077
 277  1532.461
 278  1623.819
 279  1546.096
 280  1553.348
 281  1570.669
 282  1490.756
 283  1557.734
 284  1519.032
 285  1500.627
 286  1545.802
 287  1503.596
 288  1682.004
 289  1623.814
 290  1425.534
 291  1455.254
 292  1578.943
 293  1666.428
 294  1580.465
 295  1551.959
 296  1508.564
 297  1509.815
 298  1524.066
 299  1536.344
 300  1574.042
 301  1572.52
 302  1522.586
 303  1422.977
 304  1485.688
 305  1509.71
 306  1549.956
 307  1498.876
 308  1531.732
 309  1611.905
 310  1674.359
 311  1666.317
 312  1657
 313  1622.644
 314  1619.983
 315  1537.203
 316  1614.614
 317  1571.242
 318  1646.509
 319  1507.604
 320  1600.438
 321  1605.395
 322  1597.302
 323  1603.356
 324  1642.547
 325  1631.068
 326  1599.192
 327  1622.224
 328  1688.374
 329  1646.977
 330  1619.217
 331  1679.03
 332  1511.425
 333  1578.31
 334  1663.469
 335  1638.963
 336  1611.388
 337  1459.314
 338  1399.06
 339  1461.587
 340  1532.748
 341  1623.012
 342  1550.689
 343  1481.573
 344  1502.231
 345  1465.391
 346  1523.196
 347  1562.608
 348  1603.548
 349  1604.628
 350  1614.776
 351  1664.483
 352  1608.28
 353  1585.549
 354  1579.636
 355  1622.373
 356  1508.133
 357  1575.722
 358  1553.016
 359  1565.421
 360  1604.606
 361  1609.203
 362  1567.227
 363  1473.903
 364  1615.336
 365  1636.706
 366  1600.751
 367  1633.801
 368  1653.688
 369  1616.055
 370  1665.296
 371  1642.463
 372  1548.474
 373  1589.113
 374  1659.088
 375  1582.331
 376  1551.58
 377  1548.223
 378  1501.447
 379  1604.136
 380  1545.427
 381  1501.061
 382  1529.295
 383  1525.681
 384  1501.613
 385  1450.549
 386  1424.709
 387  1541.874
 388  1607.95
 389  1548.585
 390  1553.909
 391  1577.152
 392  1551.571
 393  1591.356
 394  1563.321
 395  1583.63
 396  1508.755
 397  1463.574
 398  1656.224
 399  1584.44
 400  1578.567
 401  1598.814
 402  1626.734
 403  1698.458
 404  1600.092
 405  1624.058
 406  1515.594
 407  1550.515
 408  1636.47
 409  1641.72
 410  1553.574
 411  1532.094
 412  1542.058
 413  1536.12
 414  1486.863
 415  1505.468
 416  1498.688
 417  1665.289
 418  1619.925
 419  1528.147
 420  1560.964
 421  1613.654
 422  1656.438
 423  1600.118
 424  1530.877
 425  1542.434
 426  1583.141
 427  1520.911
 428  1519.688
 429  1555.055
 430  1521.804
 431  1494.548
 432  1567.574
 433  1641.123
 434  1593.716
 435  1550.783
 436  1504.069
 437  1528.668
 438  1635.541
 439  1684.981
 440  1544.715
 441  1557.055
 442  1590.056
 443  1668.551
 444  1561.836
 445  1616.08
 446  1543.123
 447  1461.97
 448  1390.665
 449  1403.288
 450  1471.947
 451  1473.984
 452  1573.877
 453  1576.132
 454  1492.113
 455  1479.184
 456  1376.401
 457  1443.801
 458  1405.805
 459  1512.852
 460  1571.018
 461  1588.299
 462  1643.928
 463  1557.391
 464  1509.219
 465  1670.866
 466  1551.176
 467  1402.65
 468  1496.237
 469  1480.261
 470  1535.907
 471  1532.619
 472  1616.097
 473  1583.675
 474  1519.974
 475  1531.668
 476  1630.317
 477  1680.261
 478  1779.113
 479  1621.281
 480  1535.343
 481  1541.833
 482  1574.561
 483  1440.286
 484  1519.366
 485  1524.801
 486  1607.227
 487  1653.717
 488  1566.587
 489  1674.693
 490  1641.99
 491  1643.384
 492  1734.997
 493  1681.141
 494  1679.476
 495  1695.619
 496  1567.472
 497  1457.612
 498  1479.592
 499  1465.833
 500  1482.544
 501  1449.546
 502  1485.479
 503  1563.485
 504  1588.089
 505  1526.396
 506  1629.943
 507  1619.547
 508  1598.775
 509  1684.609
 510  1842.268
 511  2000.937
