# Input file       =  1200671680.103016_cleaned.dat
# Candidate        =  PSR_0332+5434
# Telescope        =  AR
# Epoch_topo       =  58140.662755821941
# Epoch_bary       =  N/A
# T_sample         =  0.002
# Data Folded      =  7340032
# Data Avg         =  0.0321318478315595
# Data StdDev      =  1.00008715960745 
# Profile Bins     =  512
# Profile Avg      =  460.213098845991 
# Profile StdDev   =  119.743472261215 
# Reduced chi-sqr  =  0.987
# Prob(Noise)      <  0.574   (~0.0 sigma)
# P_topo (ms)      =  714.571364867317  +/- 0.00039
# P'_topo (s/s)    =  -0                +/- 2.06e-10
# P''_topo (s/s^2) =  0                 +/- 9.09e-14
# P_bary (ms)      =  N/A
# P'_bary (s/s)    =  N/A
# P''_bary (s/s^2) =  N/A
# P_orb (s)        =  N/A
# asin(i)/c (s)    =  N/A
# eccentricity     =  N/A
# w (rad)          =  N/A
# T_peri           =  N/A
######################################################
   0  1108.563
   1  975.2802
   2  803.8061
   3  582.0059
   4  439.9734
   5  443.2471
   6  463.6759
   7  455.0596
   8  512.0431
   9  528.8861
  10  515.6586
  11  522.0353
  12  529.8932
  13  487.7078
  14  475.4394
  15  595.5696
  16  572.1794
  17  474.7799
  18  414.494
  19  343.1154
  20  383.8083
  21  499.4548
  22  519.4134
  23  491.0739
  24  445.42
  25  462.336
  26  373.9962
  27  363.582
  28  409.6179
  29  533.7224
  30  533.1792
  31  432.6167
  32  461.08
  33  489.0355
  34  543.5792
  35  515.4712
  36  492.2389
  37  477.9456
  38  392.3643
  39  428.174
  40  407.8103
  41  423.5178
  42  429.1877
  43  499.6174
  44  563.798
  45  458.5058
  46  516.1497
  47  474.084
  48  475.9481
  49  479.6125
  50  485.3737
  51  431.9166
  52  456.7713
  53  418.1106
  54  393.9883
  55  482.4705
  56  434.2797
  57  348.5395
  58  368.524
  59  403.9034
  60  389.2487
  61  482.6578
  62  429.1511
  63  447.3984
  64  428.723
  65  419.2224
  66  406.3997
  67  583.9207
  68  481.027
  69  412.5001
  70  365.0132
  71  397.4024
  72  395.042
  73  364.5507
  74  355.5952
  75  484.494
  76  570.4855
  77  500.333
  78  382.8761
  79  465.2275
  80  445.3319
  81  419.2245
  82  444.4659
  83  587.2476
  84  496.0961
  85  486.5311
  86  499.5776
  87  489.3474
  88  426.1777
  89  439.9297
  90  546.3178
  91  626.658
  92  548.0276
  93  457.5408
  94  468.397
  95  473.8138
  96  534.0585
  97  523.2662
  98  445.1304
  99  540.4971
 100  623.0234
 101  539.2137
 102  435.7345
 103  416.8392
 104  451.9257
 105  510.3855
 106  497.7442
 107  478.6915
 108  520.1528
 109  374.0059
 110  444.8583
 111  489.1029
 112  429.0499
 113  389.1953
 114  482.2968
 115  559.0671
 116  491.7807
 117  563.9413
 118  495.5337
 119  480.001
 120  536.585
 121  443.1946
 122  332.429
 123  395.1956
 124  401.3892
 125  436.9959
 126  504.1316
 127  497.8679
 128  505.6024
 129  560.8138
 130  594.6859
 131  511.5639
 132  489.3579
 133  479.8548
 134  392.2905
 135  383.8617
 136  500.1388
 137  456.5803
 138  531.2081
 139  482.041
 140  507.2732
 141  571.1158
 142  510.1629
 143  525.8365
 144  569.0278
 145  596.2687
 146  491.4344
 147  592.3286
 148  576.5378
 149  502.8059
 150  511.6058
 151  452.0761
 152  509.7512
 153  490.5662
 154  425.5435
 155  458.8812
 156  379.3629
 157  402.4828
 158  442.9965
 159  479.9639
 160  408.2056
 161  434.2908
 162  518.6405
 163  514.825
 164  503.8135
 165  486.2432
 166  423.8513
 167  454.9693
 168  519.4933
 169  478.2941
 170  453.1646
 171  492.2317
 172  491.353
 173  483.1063
 174  465.8511
 175  457.2042
 176  479.8173
 177  414.4254
 178  391.631
 179  396.175
 180  497.8348
 181  376.2274
 182  322.6347
 183  405.6304
 184  315.5999
 185  464.3823
 186  554.8398
 187  393.423
 188  370.1813
 189  348.9477
 190  474.2708
 191  409.4805
 192  375.1536
 193  467.9474
 194  435.0149
 195  411.5261
 196  366.3215
 197  330.867
 198  331.1252
 199  339.2322
 200  472.2517
 201  513.2684
 202  539.8267
 203  498.1249
 204  514.3439
 205  568.7141
 206  492.1862
 207  396.642
 208  419.6226
 209  401.2952
 210  427.759
 211  453.7164
 212  422.2795
 213  462.5131
 214  387.4467
 215  503.1763
 216  500.4867
 217  499.1524
 218  505.4958
 219  539.4738
 220  515.9228
 221  523.5056
 222  491.8003
 223  491.4831
 224  500.2156
 225  506.5503
 226  439.3773
 227  437.0401
 228  488.0398
 229  549.8012
 230  554.1504
 231  388.6801
 232  379.0029
 233  491.898
 234  545.1424
 235  562.3251
 236  559.433
 237  424.1195
 238  333.3214
 239  396.463
 240  459.7296
 241  406.1715
 242  379.1306
 243  439.7286
 244  474.8394
 245  368.6665
 246  451.4969
 247  431.8711
 248  442.1313
 249  488.2232
 250  407.2035
 251  482.9058
 252  378.2634
 253  400.1817
 254  482.5782
 255  535.4174
 256  459.6265
 257  461.4791
 258  550.8882
 259  433.5861
 260  357.3466
 261  434.9559
 262  435.3528
 263  460.9594
 264  468.3944
 265  480.2122
 266  423.1066
 267  401.3322
 268  533.1854
 269  595.8622
 270  477.9754
 271  459.1013
 272  482.5115
 273  477.5331
 274  426.2126
 275  397.5518
 276  423.9961
 277  376.2721
 278  400.8275
 279  404.7343
 280  430.4269
 281  418.9114
 282  493.9818
 283  559.476
 284  512.8757
 285  492.7017
 286  483.6648
 287  530.8045
 288  499.4998
 289  472.7911
 290  510.4288
 291  505.6711
 292  416.0702
 293  489.8087
 294  498.0393
 295  482.0288
 296  462.1602
 297  475.2354
 298  517.2874
 299  566.7109
 300  412.7119
 301  468.6351
 302  365.1841
 303  370.7253
 304  384.8094
 305  508.2491
 306  536.9247
 307  622.228
 308  649.168
 309  578.4182
 310  475.5588
 311  532.6409
 312  555.5428
 313  574.2901
 314  522.6394
 315  527.2949
 316  552.6012
 317  504.9433
 318  440.2731
 319  494.3806
 320  511.0141
 321  477.4958
 322  513.806
 323  532.5103
 324  512.276
 325  465.8709
 326  482.54
 327  494.9958
 328  369.4416
 329  358.6221
 330  498.0124
 331  441.3972
 332  343.3496
 333  385.4489
 334  328.5408
 335  374.44
 336  330.9063
 337  401.4236
 338  520.1085
 339  390.375
 340  350.6876
 341  369.8508
 342  318.5395
 343  309.1994
 344  382.6765
 345  371.0476
 346  407.4432
 347  330.0667
 348  360.2395
 349  394.6805
 350  349.0706
 351  269.5682
 352  327.16
 353  505.9638
 354  534.8
 355  466.7847
 356  347.4111
 357  337.2914
 358  364.0637
 359  402.0998
 360  444.4044
 361  457.2009
 362  486.5892
 363  443.837
 364  456.5482
 365  487.6903
 366  508.9529
 367  492.4353
 368  425.0017
 369  471.0248
 370  424.4723
 371  312.3283
 372  384.5128
 373  484.9258
 374  386.3586
 375  363.5227
 376  445.3581
 377  397.205
 378  332.9721
 379  364.8537
 380  327.4736
 381  397.3596
 382  405.9816
 383  467.9886
 384  345.769
 385  390.6458
 386  431.4544
 387  537.0699
 388  415.2409
 389  340.1293
 390  398.428
 391  413.6693
 392  275.1199
 393  298.3931
 394  444.4378
 395  510.7621
 396  440.4008
 397  352.8915
 398  425.0082
 399  385.4378
 400  292.3787
 401  424.6656
 402  490.747
 403  408.0359
 404  453.575
 405  478.4418
 406  405.6422
 407  359.6192
 408  415.887
 409  407.3995
 410  354.7004
 411  341.364
 412  412.0194
 413  552.3746
 414  537.3962
 415  568.1183
 416  585.4882
 417  494.4631
 418  450.4952
 419  448.4275
 420  441.7817
 421  444.945
 422  345.743
 423  370.4148
 424  367.8883
 425  456.5701
 426  505.2762
 427  430.5824
 428  322.7395
 429  349.9722
 430  469.5816
 431  550.4486
 432  564.8203
 433  613.0589
 434  545.257
 435  459.5848
 436  483.7461
 437  453.9667
 438  577.2761
 439  621.4048
 440  570.9241
 441  522.277
 442  479.5107
 443  407.9267
 444  438.0839
 445  391.7894
 446  403.1263
 447  384.3327
 448  472.6977
 449  477.3001
 450  510.5172
 451  514.9985
 452  506.1498
 453  514.3644
 454  525.442
 455  562.5239
 456  455.2818
 457  399.755
 458  358.6477
 459  359.898
 460  399.6033
 461  518.6449
 462  516.9452
 463  458.3327
 464  450.429
 465  315.1042
 466  289.4867
 467  385.8057
 468  333.5604
 469  306.6506
 470  462.4409
 471  452.8806
 472  459.3501
 473  446.631
 474  421.8062
 475  334.1281
 476  393.5547
 477  366.2232
 478  396.9013
 479  387.1888
 480  361.2861
 481  494.118
 482  348.5654
 483  336.0061
 484  488.0331
 485  417.8807
 486  436.5504
 487  422.9355
 488  405.5046
 489  481.6256
 490  496.2882
 491  451.948
 492  348.6944
 493  482.619
 494  646.8278
 495  564.7025
 496  496.7282
 497  533.7148
 498  528.868
 499  392.7203
 500  408.049
 501  299.8353
 502  394.8228
 503  492.1732
 504  456.367
 505  522.2824
 506  499.4969
 507  551.0651
 508  625.6677
 509  713.5427
 510  826.5833
 511  982.5184
