# Input file       =  1200859475.122465_cleaned.dat
# Candidate        =  PSR_0332+5434
# Telescope        =  AR
# Epoch_topo       =  58142.836309287792
# Epoch_bary       =  N/A
# T_sample         =  0.002
# Data Folded      =  7340032
# Data Avg         =  0.0187300835456958
# Data StdDev      =  1.00004054491284 
# Profile Bins     =  512
# Profile Avg      =  268.423600919585 
# Profile StdDev   =  119.73789094229  
# Reduced chi-sqr  =  1.027
# Prob(Noise)      <  0.328   (~0.4 sigma)
# P_topo (ms)      =  714.572898170395  +/- 0.000228
# P'_topo (s/s)    =  -0                +/- 1.21e-10
# P''_topo (s/s^2) =  0                 +/- 5.32e-14
# P_bary (ms)      =  N/A
# P'_bary (s/s)    =  N/A
# P''_bary (s/s^2) =  N/A
# P_orb (s)        =  N/A
# asin(i)/c (s)    =  N/A
# eccentricity     =  N/A
# w (rad)          =  N/A
# T_peri           =  N/A
######################################################
   0  746.447
   1  678.3516
   2  718.8499
   3  575.1394
   4  383.1713
   5  210.9915
   6  179.4671
   7  288.9237
   8  264.9659
   9  433.8669
  10  416.198
  11  400.9003
  12  454.9348
  13  276.13
  14  207.1694
  15  319.4099
  16  336.7586
  17  278.6538
  18  146.4447
  19  310.8354
  20  375.1323
  21  363.9307
  22  234.8664
  23  139.283
  24  175.7975
  25  231.384
  26  343.908
  27  272.2354
  28  348.454
  29  441.6386
  30  497.0026
  31  434.2594
  32  295.2757
  33  133.6891
  34  88.15965
  35  264.2003
  36  297.2809
  37  294.9037
  38  282.7427
  39  273.789
  40  349.3105
  41  345.8653
  42  308.0845
  43  240.2428
  44  248.8859
  45  308.3839
  46  374.1857
  47  270.6225
  48  324.9701
  49  380.2676
  50  268.9283
  51  204.2744
  52  222.142
  53  275.376
  54  208.0843
  55  225.3173
  56  335.3524
  57  320.2637
  58  313.9553
  59  356.4314
  60  413.7081
  61  262.2353
  62  189.0146
  63  173.5763
  64  252.1638
  65  280.9997
  66  257.0463
  67  172.7219
  68  286.2272
  69  270.0768
  70  345.7348
  71  229.6717
  72  96.2742
  73  237.2182
  74  271.0305
  75  313.3418
  76  211.7431
  77  278.556
  78  264.7341
  79  164.1618
  80  214.3119
  81  239.8828
  82  297.8755
  83  374.5173
  84  411.5178
  85  249.2187
  86  227.37
  87  212.3238
  88  230.3124
  89  241.2009
  90  204.937
  91  320.809
  92  379.8504
  93  448.5682
  94  464.1892
  95  390.4639
  96  328.2614
  97  276.1182
  98  234.5279
  99  215.9614
 100  199.5227
 101  323.9694
 102  371.6443
 103  333.7871
 104  162.0992
 105  90.57512
 106  158.7322
 107  219.9432
 108  284.6823
 109  292.3581
 110  292.6611
 111  209.5304
 112  87.29339
 113  318.1768
 114  285.7513
 115  234.4511
 116  178.1538
 117  152.3157
 118  166.5924
 119  174.0912
 120  217.596
 121  185.2686
 122  216.3747
 123  119.83
 124  185.266
 125  238.476
 126  239.2517
 127  359.2198
 128  291.4734
 129  276.1074
 130  137.4384
 131  142.0291
 132  235.964
 133  278.8762
 134  391.8885
 135  368.0331
 136  264.9624
 137  222.4987
 138  307.5691
 139  320.0603
 140  259.5565
 141  231.3278
 142  183.0618
 143  170.8751
 144  226.5624
 145  243.5699
 146  291.7826
 147  294.6572
 148  283.1347
 149  257.5561
 150  229.3375
 151  316.8146
 152  294.0562
 153  310.1767
 154  249.6025
 155  251.3636
 156  241.1364
 157  282.0598
 158  180.0237
 159  184.3921
 160  198.5486
 161  255.1477
 162  304.6075
 163  250.31
 164  169.5479
 165  201.9227
 166  284.0175
 167  206.5533
 168  122.3677
 169  199.5498
 170  221.5044
 171  177.1798
 172  311.0431
 173  346.0888
 174  203.5289
 175  199.6936
 176  319.4063
 177  348.2204
 178  189.1842
 179  277.5624
 180  231.4635
 181  157.8888
 182  144.8747
 183  218.1813
 184  174.4259
 185  155.7364
 186  320.6647
 187  334.5202
 188  211.9967
 189  278.5249
 190  259.7639
 191  191.6371
 192  87.2075
 193  43.83106
 194  293.6864
 195  280.919
 196  192.3852
 197  347.7835
 198  340.244
 199  366.4605
 200  202.9741
 201  180.7699
 202  259.1458
 203  260.9367
 204  247.9218
 205  223.2903
 206  269.7832
 207  317.6701
 208  233.5305
 209  169.0071
 210  229.6307
 211  260.199
 212  224.0554
 213  237.9977
 214  273.7986
 215  273.6784
 216  256.2751
 217  288.3933
 218  317.4917
 219  266.3329
 220  259.3419
 221  297.5212
 222  281.2944
 223  288.501
 224  283.4661
 225  220.9472
 226  201.8356
 227  153.7339
 228  209.3839
 229  277.9872
 230  276.2007
 231  283.9247
 232  212.3466
 233  202.5423
 234  263.7937
 235  165.9117
 236  258.7648
 237  408.5775
 238  304.8887
 239  321.6509
 240  240.826
 241  217.9819
 242  300.6426
 243  197.0872
 244  216.002
 245  241.6915
 246  285.7013
 247  309.6416
 248  282.1971
 249  251.5355
 250  219.1154
 251  280.8704
 252  225.2155
 253  207.9154
 254  285.8734
 255  363.7189
 256  316.0366
 257  330.0743
 258  286.2943
 259  216.669
 260  289.453
 261  323.6722
 262  333.9604
 263  327.8909
 264  284.7341
 265  291.8226
 266  207.5407
 267  241.9377
 268  200.8103
 269  282.6339
 270  279.2664
 271  271.8061
 272  262.1027
 273  341.3919
 274  276.6148
 275  246.5469
 276  261.925
 277  329.5397
 278  219.0846
 279  320.0638
 280  319.1707
 281  258.3188
 282  247.723
 283  207.6452
 284  201.6439
 285  236.1206
 286  331.3435
 287  349.4425
 288  310.5513
 289  301.1026
 290  341.8211
 291  427.6045
 292  287.9462
 293  208.7852
 294  165.9846
 295  271.442
 296  234.8663
 297  154.6352
 298  215.0426
 299  388.2017
 300  397.2318
 301  402.1168
 302  384.2627
 303  283.1731
 304  134.4765
 305  180.9624
 306  155.9453
 307  277.5442
 308  287.5463
 309  137.5871
 310  212.2105
 311  196.6208
 312  181.0575
 313  248.8655
 314  278.5041
 315  209.7874
 316  197.4293
 317  328.9352
 318  406.1061
 319  225.0013
 320  234.9452
 321  135.3475
 322  212.9139
 323  272.8697
 324  340.0114
 325  243.4228
 326  151.0078
 327  306.351
 328  300.8559
 329  365.6744
 330  282.9967
 331  262.0108
 332  171.2967
 333  47.77914
 334  79.73785
 335  124.5416
 336  160.0121
 337  172.8822
 338  195.4682
 339  260.3881
 340  294.1274
 341  280.8586
 342  310.8423
 343  370.9315
 344  216.1404
 345  241.4852
 346  368.8895
 347  238.8412
 348  312.0626
 349  455.2035
 350  420.642
 351  297.3009
 352  289.2483
 353  351.8335
 354  396.1859
 355  245.5769
 356  247.4721
 357  361.1262
 358  330.1777
 359  288.3175
 360  295.8256
 361  400.0566
 362  271.4629
 363  274.0032
 364  331.3217
 365  221.3861
 366  262.0845
 367  300.6776
 368  270.5359
 369  159.6933
 370  128.1162
 371  152.8937
 372  145.3271
 373  261.9286
 374  330.4492
 375  193.1516
 376  262.0853
 377  309.1935
 378  278.9704
 379  299.0789
 380  228.9955
 381  326.9701
 382  289.3144
 383  312.6288
 384  271.4962
 385  293.3099
 386  300.6477
 387  226.661
 388  270.8414
 389  427.9511
 390  322.2841
 391  360.7774
 392  210.2468
 393  190.5928
 394  202.3324
 395  216.8048
 396  349.1218
 397  187.9179
 398  96.97587
 399  163.821
 400  210.4677
 401  333.7797
 402  211.3227
 403  205.7934
 404  265.1144
 405  326.0967
 406  385.9322
 407  287.5722
 408  271.6048
 409  335.4347
 410  344.9034
 411  177.0947
 412  175.9691
 413  223.5066
 414  258.3974
 415  252.9225
 416  252.2126
 417  251.927
 418  262.4807
 419  153.7505
 420  191.6206
 421  169.9686
 422  264.1344
 423  326.3717
 424  295.5136
 425  393.3302
 426  334.7127
 427  232.9149
 428  233.1312
 429  362.0623
 430  388.8794
 431  242.2352
 432  215.6905
 433  294.8866
 434  253.8765
 435  247.6458
 436  242.6049
 437  247.8797
 438  264.3575
 439  265.3766
 440  256.5562
 441  130.421
 442  159.3142
 443  272.4646
 444  242.4756
 445  270.9487
 446  299.427
 447  271.7646
 448  259.2004
 449  207.205
 450  237.9677
 451  170.1768
 452  194.5634
 453  231.7269
 454  169.5825
 455  192.3008
 456  84.94613
 457  132.2942
 458  202.1677
 459  244.0854
 460  198.8732
 461  228.5639
 462  316.5976
 463  332.6364
 464  302.7015
 465  191.2328
 466  213.9611
 467  207.6192
 468  110.8361
 469  93.96029
 470  95.14149
 471  234.9874
 472  281.9366
 473  303.6803
 474  217.7486
 475  293.3215
 476  440.2348
 477  257.3539
 478  220.7384
 479  292.3534
 480  228.2201
 481  258.6931
 482  348.9442
 483  322.6044
 484  262.7397
 485  300.3215
 486  330.338
 487  239.4747
 488  221.5316
 489  207.5098
 490  287.0857
 491  236.7816
 492  359.9384
 493  364.2895
 494  341.5723
 495  415.3363
 496  387.9519
 497  448.009
 498  385.8574
 499  312.0135
 500  220.9639
 501  352.1251
 502  280.1856
 503  265.0704
 504  261.5489
 505  354.3895
 506  474.82
 507  318.6874
 508  273.7298
 509  468.3343
 510  588.2094
 511  781.5347
