# Input file       =  1200656871.114483_cleaned.dat
# Candidate        =  PSR_0332+5434
# Telescope        =  AR
# Epoch_topo       =  58140.491355491700
# Epoch_bary       =  N/A
# T_sample         =  0.002
# Data Folded      =  7274496
# Data Avg         =  0.0204814072485531
# Data StdDev      =  1.00011032782771 
# Profile Bins     =  512
# Profile Avg      =  291.090790918559 
# Profile StdDev   =  119.210466186888 
# Reduced chi-sqr  =  1.594
# Prob(Noise)      <  2.88e-16   (~8.1 sigma)
# P_topo (ms)      =  714.571257035883  +/- 0.000165
# P'_topo (s/s)    =  -0                +/- 8.77e-11
# P''_topo (s/s^2) =  0                 +/- 3.91e-14
# P_bary (ms)      =  N/A
# P'_bary (s/s)    =  N/A
# P''_bary (s/s^2) =  N/A
# P_orb (s)        =  N/A
# asin(i)/c (s)    =  N/A
# eccentricity     =  N/A
# w (rad)          =  N/A
# T_peri           =  N/A
######################################################
   0  1091.528
   1  919.6345
   2  718.1473
   3  496.7806
   4  268.9407
   5  317.2066
   6  326.3534
   7  399.524
   8  411.1693
   9  353.7046
  10  422.5608
  11  395.7695
  12  313.4017
  13  457.5001
  14  569.5817
  15  422.9239
  16  275.1301
  17  197.0748
  18  214.1116
  19  275.2195
  20  195.4503
  21  320.8273
  22  169.9061
  23  180.3016
  24  232.1942
  25  170.1879
  26  118.2438
  27  190.2424
  28  319.6519
  29  363.7173
  30  230.5074
  31  309.2068
  32  317.3536
  33  217.5411
  34  268.2224
  35  478.7848
  36  318.546
  37  166.0781
  38  255.764
  39  358.8605
  40  342.5262
  41  328.4103
  42  379.1418
  43  245.9116
  44  251.8544
  45  285.9384
  46  364.7337
  47  261.7822
  48  271.4679
  49  348.8036
  50  357.0213
  51  288.2043
  52  250.8392
  53  262.6761
  54  252.3497
  55  413.0648
  56  366.2834
  57  269.2299
  58  340.5175
  59  387.6787
  60  323.5723
  61  253.4452
  62  219.9612
  63  191.262
  64  170.2244
  65  229.7148
  66  189.9273
  67  230.9319
  68  279.1383
  69  338.7487
  70  283.7807
  71  381.6829
  72  338.9837
  73  347.1136
  74  278.6774
  75  258.6533
  76  290.0838
  77  349.1223
  78  392.7382
  79  347.834
  80  306.522
  81  415.5187
  82  520.0016
  83  329.6332
  84  357.3555
  85  347.3165
  86  371.8824
  87  364.5876
  88  362.245
  89  280.0117
  90  299.5638
  91  230.7822
  92  307.6602
  93  389.6573
  94  428.268
  95  376.01
  96  367.9263
  97  356.5203
  98  270.8698
  99  295.6054
 100  267.0786
 101  185.5121
 102  176.0228
 103  266.5951
 104  283.308
 105  208.4879
 106  362.2337
 107  362.6485
 108  210.5959
 109  229.6843
 110  104.0226
 111  173.7197
 112  316.6874
 113  391.8549
 114  241.1781
 115  280.0667
 116  245.3094
 117  284.5691
 118  144.112
 119  280.1195
 120  393.8821
 121  411.3734
 122  339.8411
 123  372.5002
 124  350.8236
 125  221.4501
 126  80.30756
 127  101.2207
 128  194.7802
 129  151.3041
 130  263.2578
 131  278.3597
 132  358.7043
 133  317.9104
 134  208.2116
 135  203.6232
 136  226.3475
 137  228.9449
 138  328.9691
 139  283.9665
 140  223.3576
 141  261.5031
 142  240.5417
 143  330.2011
 144  359.334
 145  324.9368
 146  302.6638
 147  218.3846
 148  232.6001
 149  334.568
 150  239.3972
 151  290.8427
 152  433.6451
 153  390.662
 154  318.5574
 155  351.4355
 156  391.2902
 157  396.2275
 158  278.4717
 159  265.9554
 160  359.5617
 161  395.7231
 162  322.383
 163  316.1669
 164  343.1114
 165  219.059
 166  339.2851
 167  302.0632
 168  207.4329
 169  189.8588
 170  333.3249
 171  269.858
 172  326.6628
 173  386.1983
 174  218.135
 175  214.5823
 176  241.9044
 177  256.1196
 178  467.3043
 179  407.5139
 180  319.072
 181  259.022
 182  312.4852
 183  360.7079
 184  349.4413
 185  411.9976
 186  412.6789
 187  332.1238
 188  355.8727
 189  416.2396
 190  330.1772
 191  308.7467
 192  325.4679
 193  342.2827
 194  153.797
 195  158.8358
 196  348.8747
 197  316.6575
 198  326.7504
 199  246.7658
 200  233.812
 201  284.2682
 202  115.0375
 203  105.7649
 204  290.1881
 205  243.515
 206  278.8562
 207  111.5625
 208  185.0248
 209  185.7259
 210  141.5185
 211  172.5048
 212  226.8763
 213  185.6589
 214  254.4447
 215  112.3916
 216  117.5128
 217  205.5415
 218  248.585
 219  347.5572
 220  285.7062
 221  346.8628
 222  305.3241
 223  149.6266
 224  198.1083
 225  231.9073
 226  302.5087
 227  268.7159
 228  247.302
 229  239.7615
 230  343.4186
 231  263.5908
 232  286.9639
 233  383.634
 234  385.6562
 235  281.6744
 236  301.5118
 237  379.95
 238  497.9503
 239  444.4283
 240  383.1595
 241  313.8275
 242  308.9144
 243  487.5711
 244  364.2229
 245  274.4353
 246  267.7984
 247  275.6068
 248  210.8861
 249  183.9745
 250  211.6738
 251  250.1523
 252  278.6289
 253  397.2835
 254  364.5993
 255  246.3495
 256  379.8072
 257  240.0189
 258  190.0033
 259  161.5055
 260  210.8038
 261  245.8026
 262  276.3957
 263  219.3583
 264  365.6537
 265  163.2389
 266  219.0989
 267  212.3111
 268  185.9667
 269  218.5624
 270  233.5052
 271  144.683
 272  219.688
 273  240.6247
 274  247.2368
 275  203.2248
 276  250.3003
 277  158.9737
 278  334.3017
 279  314.1977
 280  242.6432
 281  291.8531
 282  279.2021
 283  269.1571
 284  365.6006
 285  348.836
 286  300.8085
 287  290.1739
 288  367.755
 289  471.6677
 290  342.2198
 291  344.1183
 292  284.4815
 293  233.1116
 294  145.705
 295  278.3277
 296  345.8936
 297  303.1275
 298  226.6345
 299  203.1463
 300  187.3268
 301  214.7281
 302  248.3334
 303  220.4654
 304  207.8706
 305  226.8145
 306  242.5773
 307  305.5793
 308  362.5261
 309  299.5306
 310  79.60896
 311  74.67663
 312  210.6652
 313  295.4645
 314  292.6231
 315  183.6739
 316  118.8234
 317  112.4607
 318  158.9645
 319  256.2308
 320  330.7058
 321  327.7979
 322  237.0737
 323  108.1242
 324  160.9065
 325  164.4701
 326  261.0781
 327  248.0695
 328  206.8933
 329  250.678
 330  243.2205
 331  195.9983
 332  133.4382
 333  134.7135
 334  232.2318
 335  264.2004
 336  286.474
 337  349.5031
 338  249.2789
 339  246.2366
 340  295.1564
 341  286.6432
 342  146.6974
 343  98.34479
 344  109.6895
 345  256.6963
 346  359.6873
 347  179.0272
 348  188.5345
 349  204.4309
 350  329.4965
 351  204.7435
 352  223.6769
 353  267.1143
 354  173.8942
 355  57.5207
 356  318.6847
 357  257.7563
 358  184.7871
 359  233.9622
 360  309.308
 361  387.1364
 362  404.1805
 363  354.7731
 364  271.6715
 365  196.6866
 366  333.4823
 367  340.1352
 368  393.9719
 369  347.5504
 370  258.9178
 371  321.7466
 372  256.4371
 373  248.5548
 374  336.6824
 375  300.0216
 376  305.2769
 377  204.8114
 378  350.3778
 379  283.603
 380  254.8593
 381  360.1299
 382  240.5703
 383  182.7016
 384  286.5756
 385  267.7623
 386  283.2117
 387  285.1629
 388  225.9431
 389  281.043
 390  365.3012
 391  345.2844
 392  317.2861
 393  194.0534
 394  435.7116
 395  264.0928
 396  371.6993
 397  245.9693
 398  199.5232
 399  246.249
 400  338.1297
 401  389.7163
 402  334.1923
 403  382.4554
 404  501.6661
 405  371.1794
 406  154.7796
 407  164.6952
 408  183.3065
 409  3.376786
 410  100.3028
 411  255.3616
 412  305.0086
 413  411.2198
 414  233.1956
 415  232.1149
 416  229.4292
 417  183.9775
 418  371.9834
 419  292.5817
 420  156.2103
 421  228.4251
 422  332.3469
 423  218.8997
 424  201.6274
 425  287.814
 426  408.5652
 427  409.4239
 428  330.8782
 429  320.9359
 430  260.8929
 431  243.8329
 432  306.2335
 433  235.6939
 434  221.5162
 435  239.7535
 436  270.8087
 437  252.073
 438  224.9305
 439  275.6972
 440  187.0195
 441  201.6154
 442  146.1308
 443  366.8989
 444  395.0976
 445  349.6837
 446  331.5009
 447  350.8857
 448  342.6497
 449  260.3626
 450  297.9002
 451  449.1936
 452  341.1594
 453  414.1623
 454  417.1731
 455  421.6421
 456  478.5214
 457  339.0264
 458  371.8714
 459  357.2078
 460  398.9299
 461  268.0653
 462  273.2816
 463  479.7274
 464  408.9577
 465  352.3195
 466  163.3874
 467  278.1277
 468  317.6099
 469  406.8521
 470  333.7778
 471  250.832
 472  281.1915
 473  184.8736
 474  222.7694
 475  281.4981
 476  266.0438
 477  252.0834
 478  174.6615
 479  310.4259
 480  310.3832
 481  263.3489
 482  342.9019
 483  410.7878
 484  425.1145
 485  286.8436
 486  331.1739
 487  334.4241
 488  308.9058
 489  221.6943
 490  253.0906
 491  303.8635
 492  375.8126
 493  243.2221
 494  380.7865
 495  457.8378
 496  292.0314
 497  178.2757
 498  188.2197
 499  340.3302
 500  309.992
 501  355.5368
 502  357.7148
 503  193.1543
 504  230.9641
 505  242.193
 506  203.3305
 507  319.1762
 508  570.4178
 509  723.9111
 510  920.7435
 511  1038.937
