# Input file       =  1201863564.114864_cleaned.dat
# Candidate        =  PSR_0332+5434
# Telescope        =  AR
# Epoch_topo       =  58154.457709662776
# Epoch_bary       =  N/A
# T_sample         =  0.002
# Data Folded      =  7405568
# Data Avg         =  0.013253840047512
# Data StdDev      =  1.00032001391032 
# Profile Bins     =  512
# Profile Avg      =  191.703831167348 
# Profile StdDev   =  120.304857938655 
# Reduced chi-sqr  =  1.476
# Prob(Noise)      <  1.24e-11   (~6.7 sigma)
# P_topo (ms)      =  714.577557282959  +/- 9.76e-05
# P'_topo (s/s)    =  -0                +/- 5.1e-11
# P''_topo (s/s^2) =  0                 +/- 2.23e-14
# P_bary (ms)      =  N/A
# P'_bary (s/s)    =  N/A
# P''_bary (s/s^2) =  N/A
# P_orb (s)        =  N/A
# asin(i)/c (s)    =  N/A
# eccentricity     =  N/A
# w (rad)          =  N/A
# T_peri           =  N/A
######################################################
   0  973.4692
   1  998.9623
   2  767.8111
   3  504.6569
   4  279.5455
   5  174.2498
   6  295.1898
   7  169.4721
   8  36.64832
   9  220.2678
  10  267.1281
  11  260.2246
  12  303.6126
  13  274.2589
  14  250.529
  15  176.0194
  16  206.6539
  17  79.8586
  18  178.7103
  19  303.0457
  20  306.7107
  21  165.7226
  22  10.6937
  23  103.2118
  24  62.22735
  25  50.89312
  26  216.5326
  27  228.8291
  28  161.6996
  29  166.386
  30  125.4863
  31  15.40355
  32  38.12876
  33  50.3263
  34  242.1847
  35  289.7455
  36  220.6466
  37  210.069
  38  292.2154
  39  106.1
  40  133.7495
  41  227.4832
  42  342.7334
  43  198.5924
  44  179.8363
  45  142.9261
  46  172.6069
  47  147.627
  48  121.5716
  49  205.9399
  50  305.4081
  51  172.2705
  52  246.582
  53  362.283
  54  289.0251
  55  199.1773
  56  117.0424
  57  182.4204
  58  266.2931
  59  181.9026
  60  249.2155
  61  194.3542
  62  73.50007
  63  134.0297
  64  130.8227
  65  204.8199
  66  299.4507
  67  268.7507
  68  196.5155
  69  264.907
  70  247.0906
  71  277.2615
  72  190.6068
  73  98.66961
  74  66.14497
  75  87.25909
  76  218.1669
  77  279.1079
  78  214.0788
  79  139.8365
  80  127.9173
  81  220.4405
  82  200.086
  83  184.3945
  84  195.4914
  85  282.2384
  86  250.2913
  87  84.79665
  88  138.9819
  89  126.638
  90  257.7201
  91  370.4255
  92  243.4929
  93  167.6297
  94  180.8815
  95  193.3456
  96  -0.7899229
  97  34.26881
  98  112.2469
  99  145.9057
 100  166.8841
 101  187.0011
 102  263.6925
 103  143.5339
 104  191.8412
 105  208.2411
 106  234.2891
 107  235.8628
 108  257.8145
 109  229.545
 110  117.3993
 111  167.647
 112  268.5052
 113  158.644
 114  -29.0286
 115  133.1992
 116  141.8744
 117  240.8377
 118  350.3916
 119  323.0021
 120  275.0224
 121  152.3762
 122  269.8577
 123  274.4172
 124  50.26662
 125  83.0123
 126  211.0245
 127  111.1845
 128  175.9005
 129  65.132
 130  -21.56169
 131  25.24812
 132  52.96038
 133  349.8136
 134  190.6282
 135  215.978
 136  243.0753
 137  222.0824
 138  185.9873
 139  340.6676
 140  270.9784
 141  238.666
 142  165.6928
 143  197.7291
 144  35.01173
 145  5.051577
 146  76.19491
 147  50.46059
 148  11.44388
 149  131.2007
 150  382.3419
 151  344.655
 152  182.929
 153  172.5477
 154  179.4022
 155  169.6662
 156  92.57592
 157  153.6133
 158  169.0894
 159  182.2092
 160  100.3379
 161  108.9912
 162  117.3305
 163  193.3038
 164  170.2262
 165  61.14405
 166  200.1157
 167  253.2282
 168  235.0932
 169  80.07496
 170  20.01705
 171  -113.6535
 172  47.24536
 173  46.74346
 174  84.75082
 175  150.959
 176  82.75562
 177  128.0372
 178  153.2677
 179  209.3491
 180  75.71126
 181  114.3812
 182  262.479
 183  263.7843
 184  204.4653
 185  105.9095
 186  168.6955
 187  202.9497
 188  168.5232
 189  79.5114
 190  3.837308
 191  88.4874
 192  157.243
 193  212.3078
 194  217.6058
 195  281.1632
 196  227.0148
 197  150.66
 198  198.3008
 199  245.1493
 200  220.2569
 201  306.4807
 202  208.9224
 203  95.27611
 204  59.23792
 205  256.3152
 206  155.7867
 207  62.1045
 208  158.6567
 209  65.23487
 210  56.16851
 211  25.36525
 212  68.06503
 213  141.2973
 214  64.45776
 215  134.2596
 216  234.944
 217  175.1992
 218  215.5767
 219  102.5706
 220  54.75946
 221  255.1892
 222  174.4759
 223  99.33528
 224  185.1525
 225  153.6056
 226  214.3362
 227  90.59198
 228  119.9369
 229  160.672
 230  124.9463
 231  208.8604
 232  266.5881
 233  214.3379
 234  226.868
 235  142.4941
 236  109.5546
 237  -17.13486
 238  25.31772
 239  115.686
 240  150.6102
 241  161.6892
 242  150.7332
 243  147.4822
 244  116.4568
 245  103.1477
 246  290.8139
 247  309.4203
 248  249.9769
 249  298.755
 250  202.2789
 251  130.726
 252  219.6843
 253  259.8221
 254  177.9677
 255  193.1799
 256  178.5502
 257  209.7153
 258  205.5318
 259  156.6113
 260  278.4176
 261  215.021
 262  150.5461
 263  217.261
 264  389.3715
 265  370.15
 266  347.4568
 267  268.6899
 268  249.4192
 269  245.7924
 270  211.5681
 271  138.9869
 272  183.9022
 273  258.5
 274  273.0895
 275  174.3819
 276  312.1833
 277  170.672
 278  116.9024
 279  253.0266
 280  247.4111
 281  225.6834
 282  262.7638
 283  368.1942
 284  279.7587
 285  138.5921
 286  188.2112
 287  184.1399
 288  175.3677
 289  152.3327
 290  175.9558
 291  91.86324
 292  40.41761
 293  91.68429
 294  73.79808
 295  11.71806
 296  49.65919
 297  204.922
 298  145.7657
 299  202.1379
 300  199.6402
 301  251.1584
 302  153.928
 303  179.3176
 304  203.1488
 305  150.1283
 306  153.3467
 307  194.1903
 308  100.0098
 309  191.049
 310  279.6664
 311  223.262
 312  212.0432
 313  201.8819
 314  306.4024
 315  345.6778
 316  209.1343
 317  149.1933
 318  103.9834
 319  159.5506
 320  158.1962
 321  231.0523
 322  205.7804
 323  38.05699
 324  198.548
 325  165.9603
 326  74.65514
 327  147.7856
 328  159.5138
 329  187.6434
 330  289.5722
 331  194.2669
 332  102.1355
 333  291.7921
 334  338.2834
 335  236.5766
 336  259.2866
 337  226.8111
 338  202.2924
 339  228.9604
 340  239.7229
 341  141.9135
 342  238.1142
 343  194.0767
 344  190.4278
 345  116.291
 346  115.0621
 347  204.5843
 348  84.91394
 349  344.5596
 350  386.1901
 351  349.2749
 352  172.998
 353  173.7714
 354  161.1083
 355  202.373
 356  250.2666
 357  181.3287
 358  313.4962
 359  233.5043
 360  271.9335
 361  196.2912
 362  158.2936
 363  166.9447
 364  317.7453
 365  380.6935
 366  264.0732
 367  260.7811
 368  39.27767
 369  -59.30754
 370  136.1699
 371  211.6669
 372  215.1622
 373  248.0389
 374  259.2449
 375  234.4882
 376  208.7074
 377  140.4524
 378  106.247
 379  245.705
 380  211.2555
 381  235.3295
 382  359.4479
 383  356.95
 384  286.7148
 385  188.3552
 386  98.63319
 387  84.72608
 388  107.7014
 389  215.3991
 390  243.6195
 391  60.65863
 392  163.7562
 393  61.13599
 394  138.0397
 395  159.1497
 396  208.2429
 397  151.12
 398  235.4992
 399  166.6734
 400  119.8891
 401  119.7531
 402  222.3885
 403  256.4075
 404  253.2285
 405  416.7392
 406  338.5321
 407  205.4403
 408  236.087
 409  180.131
 410  98.60599
 411  26.25884
 412  75.67425
 413  140.5474
 414  215.9082
 415  269.5967
 416  172.1527
 417  179.3797
 418  159.9968
 419  285.1973
 420  271.5105
 421  279.3128
 422  279.4227
 423  142.5131
 424  198.3301
 425  129.4792
 426  168.157
 427  164.2016
 428  70.61349
 429  166.8122
 430  261.9544
 431  276.2519
 432  272.6031
 433  389.1906
 434  349.4224
 435  189.6546
 436  154.0903
 437  252.6843
 438  218.2098
 439  102.1274
 440  141.3821
 441  123.4923
 442  37.42382
 443  153.9389
 444  147.2034
 445  256.9686
 446  189.3965
 447  212.6466
 448  274.9301
 449  255.0849
 450  189.2981
 451  229.666
 452  124.6243
 453  234.223
 454  228.3883
 455  211.2502
 456  262.6775
 457  163.4401
 458  98.21545
 459  280.4533
 460  218.5025
 461  115.6099
 462  163.4713
 463  183.9307
 464  196.6975
 465  159.4818
 466  408.0836
 467  284.6055
 468  125.2276
 469  113.5684
 470  215.147
 471  33.48289
 472  117.3642
 473  194.1537
 474  196.9932
 475  218.3663
 476  147.3232
 477  74.90667
 478  108.0309
 479  125.7734
 480  138.357
 481  219.1411
 482  155.6029
 483  77.98392
 484  45.31898
 485  88.75465
 486  91.97039
 487  86.68458
 488  216.8431
 489  164.3132
 490  175.4882
 491  87.24248
 492  123.0602
 493  134.1102
 494  239.5101
 495  219.8001
 496  256.9014
 497  296.3506
 498  259.5565
 499  304.5157
 500  348.3024
 501  243.5287
 502  230.1406
 503  237.1871
 504  84.97739
 505  146.4565
 506  303.1808
 507  261.4324
 508  260.8746
 509  391.2217
 510  519.902
 511  743.0833
