# Input file       =  1201274952.113662_cleaned.dat
# Candidate        =  PSR_0332+5434
# Telescope        =  AR
# Epoch_topo       =  58147.645070759980
# Epoch_bary       =  N/A
# T_sample         =  0.002
# Data Folded      =  7340032
# Data Avg         =  0.0237060761834001
# Data StdDev      =  1.0001019739125  
# Profile Bins     =  512
# Profile Avg      =  339.469520653179 
# Profile StdDev   =  119.745246022941 
# Reduced chi-sqr  =  1.249
# Prob(Noise)      <  0.000102   (~3.7 sigma)
# P_topo (ms)      =  714.574890670177  +/- 0.000288
# P'_topo (s/s)    =  -0                +/- 1.52e-10
# P''_topo (s/s^2) =  0                 +/- 6.71e-14
# P_bary (ms)      =  N/A
# P'_bary (s/s)    =  N/A
# P''_bary (s/s^2) =  N/A
# P_orb (s)        =  N/A
# asin(i)/c (s)    =  N/A
# eccentricity     =  N/A
# w (rad)          =  N/A
# T_peri           =  N/A
######################################################
   0  1014.58
   1  938.003
   2  828.8147
   3  644.0664
   4  468.0124
   5  375.0267
   6  390.1378
   7  295.3875
   8  453.0617
   9  502.409
  10  335.3559
  11  367.7606
  12  382.3781
  13  448.0663
  14  472.8441
  15  463.8442
  16  404.6455
  17  428.4077
  18  450.9499
  19  550.6544
  20  499.2999
  21  343.0093
  22  351.6422
  23  421.7085
  24  405.3845
  25  347.0852
  26  296.84
  27  399.6627
  28  314.1258
  29  339.475
  30  401.1539
  31  422.2693
  32  351.2203
  33  408.7399
  34  334.0137
  35  304.9887
  36  338.7747
  37  399.3711
  38  404.4425
  39  331.2327
  40  455.8036
  41  422.8665
  42  345.16
  43  257.5305
  44  311.5921
  45  302.3623
  46  365.9014
  47  333.2975
  48  425.6285
  49  387.1823
  50  373.0024
  51  482.6435
  52  405.7959
  53  390.2432
  54  352.0171
  55  347.6237
  56  309.1166
  57  311.5772
  58  343.9287
  59  352.3597
  60  225.7277
  61  227.4291
  62  303.7498
  63  330.2753
  64  284.5836
  65  309.2682
  66  226.754
  67  182.7423
  68  310.2463
  69  324.3931
  70  233.4371
  71  352.7627
  72  302.5825
  73  422.0564
  74  321.7974
  75  237.7251
  76  263.3933
  77  140.2619
  78  147.3014
  79  216.3541
  80  204.2214
  81  227.1964
  82  241.693
  83  264.8138
  84  226.8667
  85  274.3607
  86  307.8238
  87  315.007
  88  346.6386
  89  222.4348
  90  297.7274
  91  327.529
  92  334.9757
  93  386.0853
  94  323.557
  95  280.8696
  96  276.4098
  97  401.261
  98  346.352
  99  265.7033
 100  358.2603
 101  344.0944
 102  257.8764
 103  323.7693
 104  290.6513
 105  269.1851
 106  299.3194
 107  248.4266
 108  256.2529
 109  157.7953
 110  180.5591
 111  230.798
 112  281.0397
 113  227.9657
 114  223.8179
 115  268.0155
 116  180.9274
 117  248.1894
 118  357.7342
 119  309.138
 120  307.8435
 121  409.4788
 122  300.8704
 123  272.6256
 124  281.3928
 125  346.0141
 126  358.5779
 127  468.4496
 128  457.0094
 129  417.2597
 130  292.1186
 131  299.1099
 132  500.536
 133  387.7008
 134  381.7285
 135  380.292
 136  438.3257
 137  361.3558
 138  397.8574
 139  443.929
 140  377.7435
 141  314.5929
 142  379.6046
 143  357.2744
 144  490.891
 145  483.9767
 146  384.3268
 147  314.3729
 148  424.5052
 149  371.175
 150  352.3894
 151  399.0436
 152  376.4521
 153  292.905
 154  211.8032
 155  286.9555
 156  325.7808
 157  372.3213
 158  336.6381
 159  463.8251
 160  355.4163
 161  255.0851
 162  236.0453
 163  181.8492
 164  359.6799
 165  504.5712
 166  380.2493
 167  326.5551
 168  280.8224
 169  380.3722
 170  216.3867
 171  268.8292
 172  381.2361
 173  361.6454
 174  339.8689
 175  332.3888
 176  351.1189
 177  272.0139
 178  280.1132
 179  216.8136
 180  271.2933
 181  337.6426
 182  273.5169
 183  334.2974
 184  370.1794
 185  355.4371
 186  306.301
 187  310.3098
 188  234.4
 189  283.6524
 190  367.866
 191  317.4098
 192  277.3448
 193  213.9399
 194  250.0246
 195  359.5129
 196  276.6394
 197  373.7838
 198  338.0083
 199  189.746
 200  184.7547
 201  221.0452
 202  199.7115
 203  249.5935
 204  231.3871
 205  263.5657
 206  196.8044
 207  301.7373
 208  279.8063
 209  251.473
 210  317.8812
 211  384.917
 212  403.771
 213  340.9502
 214  281.846
 215  402.5551
 216  321.3378
 217  254.8152
 218  287.5049
 219  216.5243
 220  206.6829
 221  365.1378
 222  446.5031
 223  396.4574
 224  271.0909
 225  228.4268
 226  309.4326
 227  262.1095
 228  210.5204
 229  110.7549
 230  295.6001
 231  294.6907
 232  288.3297
 233  238.7399
 234  232.7625
 235  254.9478
 236  249.7786
 237  225.9343
 238  153.7063
 239  319.7829
 240  378.3363
 241  291.0634
 242  303.7372
 243  351.4521
 244  246.9183
 245  166.1499
 246  104.0663
 247  89.83036
 248  249.9221
 249  303.7191
 250  303.6594
 251  285.6435
 252  145.2116
 253  217.7512
 254  303.204
 255  345.5139
 256  293.6723
 257  388.8418
 258  305.2436
 259  230.8968
 260  217.4183
 261  248.4174
 262  283.4754
 263  291.9521
 264  282.4521
 265  210.4732
 266  287.9781
 267  190.888
 268  285.8591
 269  268.8669
 270  286.5739
 271  368.3298
 272  398.3726
 273  396.8235
 274  387.8367
 275  237.4758
 276  258.8399
 277  253.6678
 278  329.5992
 279  379.1293
 280  344.9634
 281  377.0117
 282  363.5865
 283  396.8264
 284  360.7957
 285  405.4328
 286  370.6892
 287  341.012
 288  303.3239
 289  386.2495
 290  343.1893
 291  312.8214
 292  290.6046
 293  369.745
 294  268.6716
 295  269.8467
 296  275.3969
 297  249.0523
 298  206.326
 299  229.3226
 300  283.6566
 301  373.2512
 302  328.9175
 303  239.3876
 304  333.5097
 305  378.0102
 306  292.8
 307  335.4574
 308  271.3235
 309  257.7196
 310  397.272
 311  304.9154
 312  376.7844
 313  312.0108
 314  400.3143
 315  426.3272
 316  426.6256
 317  564.988
 318  454.8909
 319  461.8969
 320  480.278
 321  336.6786
 322  307.3528
 323  289.6963
 324  307.3438
 325  326.8198
 326  457.6555
 327  476.378
 328  418.0454
 329  332.5352
 330  267.468
 331  376.7471
 332  324.8338
 333  339.606
 334  289.4568
 335  432.5307
 336  407.0482
 337  388.5341
 338  345.315
 339  293.4873
 340  349.8797
 341  318.3567
 342  330.1468
 343  374.8766
 344  392.6179
 345  419.3008
 346  411.0236
 347  354.1153
 348  331.8951
 349  279.4501
 350  388.956
 351  453.3873
 352  427.9429
 353  339.7462
 354  314.5421
 355  342.2207
 356  327.6327
 357  354.0928
 358  366.4373
 359  377.9474
 360  311.8475
 361  348.9413
 362  390.3999
 363  375.9823
 364  359.3712
 365  443.2072
 366  334.7436
 367  211.6694
 368  293.1418
 369  375.7893
 370  297.3515
 371  378.2414
 372  336.6567
 373  292.6979
 374  306.4182
 375  359.4916
 376  468.1804
 377  308.4683
 378  264.5726
 379  257.7921
 380  318.0926
 381  398.3683
 382  409.5451
 383  379.7027
 384  316.8313
 385  335.642
 386  331.2693
 387  337.1144
 388  368.0958
 389  357.6832
 390  304.8669
 391  267.0229
 392  279.8662
 393  333.348
 394  327.7934
 395  337.0702
 396  232.6958
 397  276.7008
 398  434.0243
 399  330.5319
 400  362.6169
 401  361.3111
 402  354.9973
 403  325.7639
 404  284.4822
 405  338.1885
 406  267.9527
 407  227.597
 408  265.5187
 409  325.3149
 410  366.0628
 411  378.7582
 412  414.796
 413  412.5962
 414  372.7562
 415  417.2405
 416  340.6464
 417  366.0357
 418  326.7183
 419  375.7164
 420  458.9165
 421  381.2361
 422  439.6467
 423  448.6272
 424  389.832
 425  387.612
 426  476.9509
 427  411.5094
 428  222.4336
 429  251.6779
 430  226.5198
 431  273.9277
 432  384.4327
 433  342.7263
 434  391.9705
 435  358.2245
 436  240.7154
 437  368.998
 438  372.6864
 439  285.0282
 440  257.0356
 441  367.2506
 442  306.1021
 443  326.0271
 444  367.5794
 445  457.1812
 446  354.4558
 447  337.7865
 448  376.7027
 449  361.4299
 450  238.8067
 451  287.2031
 452  408.1876
 453  437.7458
 454  342.5458
 455  320.3089
 456  398.7015
 457  347.8517
 458  264.5649
 459  313.2943
 460  306.3934
 461  349.6945
 462  354.8038
 463  342.5533
 464  279.8473
 465  315.1472
 466  340.8884
 467  284.1544
 468  234.738
 469  306.0858
 470  479.8123
 471  376.0755
 472  311.3184
 473  409.4731
 474  408.2309
 475  259.4703
 476  279.0102
 477  311.5731
 478  383.4539
 479  407.8886
 480  388.4686
 481  371.2759
 482  373.5733
 483  336.8633
 484  398.4833
 485  397.1704
 486  436.7085
 487  402.5562
 488  412.9471
 489  487.0263
 490  483.3488
 491  433.4061
 492  223.9854
 493  403.6906
 494  562.1525
 495  422.5692
 496  332.1983
 497  393.2578
 498  461.2282
 499  337.9729
 500  271.916
 501  429.9096
 502  467.1249
 503  342.0396
 504  282.9821
 505  369.1668
 506  358.8987
 507  435.4417
 508  460.0003
 509  635.8528
 510  857.7772
 511  983.0389
