# Input file       =  1201548423.108379_cleaned.dat
# Candidate        =  PSR_0332+5434
# Telescope        =  AR
# Epoch_topo       =  58150.810244309941
# Epoch_bary       =  N/A
# T_sample         =  0.002
# Data Folded      =  7340032
# Data Avg         =  0.0175788709067476
# Data StdDev      =  1.00004448793489 
# Profile Bins     =  512
# Profile Avg      =  251.905185766862 
# Profile StdDev   =  119.738363052293 
# Reduced chi-sqr  =  1.121
# Prob(Noise)      <  0.0294   (~1.9 sigma)
# P_topo (ms)      =  714.576566384785  +/- 0.00015
# P'_topo (s/s)    =  -0                +/- 7.93e-11
# P''_topo (s/s^2) =  0                 +/- 3.5e-14
# P_bary (ms)      =  N/A
# P'_bary (s/s)    =  N/A
# P''_bary (s/s^2) =  N/A
# P_orb (s)        =  N/A
# asin(i)/c (s)    =  N/A
# eccentricity     =  N/A
# w (rad)          =  N/A
# T_peri           =  N/A
######################################################
   0  707.1601
   1  761.0106
   2  523.2563
   3  356.3449
   4  269.8558
   5  263.2765
   6  290.5634
   7  188.0058
   8  159.4839
   9  188.4515
  10  124.4451
  11  305.5535
  12  299.7084
  13  289.5288
  14  210.7519
  15  230.6617
  16  232.7687
  17  332.7154
  18  400.4294
  19  366.947
  20  378.4466
  21  372.7284
  22  316.465
  23  193.1692
  24  282.0749
  25  374.0891
  26  188.9233
  27  323.3511
  28  444.7309
  29  300.8865
  30  168.7294
  31  224.8588
  32  165.1736
  33  243.0787
  34  415.57
  35  244.5895
  36  246.3389
  37  110.3754
  38  282.6548
  39  353.5208
  40  324.7686
  41  324.9431
  42  267.9147
  43  230.6085
  44  276.1739
  45  265.7572
  46  231.9617
  47  247.3719
  48  218.8874
  49  142.4571
  50  165.8326
  51  165.453
  52  246.3596
  53  218.8209
  54  292.153
  55  288.2556
  56  234.2698
  57  151.9919
  58  239.7359
  59  329.2288
  60  457.7143
  61  387.734
  62  239.6852
  63  333.7611
  64  184.5852
  65  -44.51494
  66  99.41243
  67  226.1877
  68  354.4928
  69  297.29
  70  394.4983
  71  234.9456
  72  138.8342
  73  218.1538
  74  200.3517
  75  146.4082
  76  242.4105
  77  272.5861
  78  269.9153
  79  151.8758
  80  231.6881
  81  352.9233
  82  302.7321
  83  372.7347
  84  380.3972
  85  299.5013
  86  308.8761
  87  232.1173
  88  133.2525
  89  159.293
  90  239.4439
  91  365.2523
  92  283.362
  93  210.6229
  94  267.0482
  95  155.7594
  96  136.3144
  97  196.9982
  98  255.449
  99  357.1264
 100  453.4911
 101  325.9401
 102  336.9333
 103  215.0743
 104  256.9352
 105  190.0518
 106  169.2124
 107  108.3462
 108  197.667
 109  187.0619
 110  81.92239
 111  247.9546
 112  320.5845
 113  204.6337
 114  348.8427
 115  373.4248
 116  271.6906
 117  269.3289
 118  316.2818
 119  346.8263
 120  439.0904
 121  330.4815
 122  249.1897
 123  250.4229
 124  204.0826
 125  269.2854
 126  259.2292
 127  237.0344
 128  146.1583
 129  280.3414
 130  227.3699
 131  214.6858
 132  241.7216
 133  213.9158
 134  119.9536
 135  195.5781
 136  250.362
 137  326.1349
 138  271.8853
 139  287.3906
 140  297.2968
 141  198.3461
 142  179.6579
 143  226.9368
 144  243.0859
 145  231.5305
 146  243.6601
 147  261.1837
 148  246.2431
 149  178.6687
 150  284.7287
 151  252.2048
 152  80.14841
 153  184.9395
 154  250.227
 155  290.9033
 156  238.5112
 157  231.638
 158  316.8882
 159  337.3968
 160  312.4763
 161  172.9127
 162  237.515
 163  294.6375
 164  291.5921
 165  313.8918
 166  361.9966
 167  262.597
 168  288.8683
 169  327.5609
 170  345.8915
 171  145.1244
 172  180.6715
 173  352.1133
 174  202.7887
 175  329.1134
 176  329.609
 177  239.6964
 178  263.7904
 179  245.7567
 180  280.9804
 181  213.1548
 182  181.4981
 183  354.2567
 184  245.3299
 185  261.8206
 186  297.5126
 187  188.1328
 188  110.3599
 189  258.5016
 190  171.6732
 191  176.5312
 192  167.488
 193  234.4661
 194  297.1681
 195  240.5955
 196  206.6214
 197  219.0425
 198  293.7901
 199  173.7376
 200  203.9155
 201  154.6814
 202  226.8808
 203  352.9559
 204  253.4581
 205  212.8317
 206  212.867
 207  192.1587
 208  207.7128
 209  109.7237
 210  187.0575
 211  280.2695
 212  329.267
 213  282.4511
 214  106.7443
 215  91.8043
 216  278.6908
 217  228.3993
 218  161.1907
 219  114.9823
 220  177.1786
 221  238.7055
 222  103.5927
 223  169.3953
 224  111.3578
 225  243.5737
 226  257.782
 227  295.0305
 228  299.6391
 229  185.5447
 230  282.3766
 231  222.6616
 232  242.207
 233  191.3501
 234  249.0431
 235  267.6418
 236  171.8825
 237  241.6866
 238  184.6871
 239  255.1638
 240  293.0589
 241  232.0764
 242  163.7448
 243  217.2417
 244  229.1154
 245  267.0336
 246  169.8627
 247  263.3498
 248  309.4799
 249  215.203
 250  222.9404
 251  215.9551
 252  155.3472
 253  162.2882
 254  286.911
 255  369.3601
 256  346.3851
 257  267.0775
 258  343.544
 259  263.5344
 260  220.8213
 261  310.056
 262  247.8261
 263  262.6311
 264  269.2092
 265  233.527
 266  199.9962
 267  348.6164
 268  382.9673
 269  276.0381
 270  296.7248
 271  374.0626
 272  281.8163
 273  212.5978
 274  264.3009
 275  143.8342
 276  122.8148
 277  67.68099
 278  216.3238
 279  248.9568
 280  108.3946
 281  145.9148
 282  177.8247
 283  196.8752
 284  277.0553
 285  160.8116
 286  245.8379
 287  319.3782
 288  307.1819
 289  266.92
 290  282.2785
 291  374.3904
 292  416.7632
 293  116.8736
 294  150.511
 295  323.9005
 296  331.2696
 297  269.7569
 298  148.8141
 299  146.1061
 300  234.6964
 301  236.5943
 302  122.0815
 303  312.8398
 304  355.5216
 305  157.6445
 306  144.1686
 307  274.5657
 308  322.3248
 309  244.8601
 310  165.9838
 311  155.7954
 312  213.5587
 313  326.3766
 314  151.5445
 315  272.5623
 316  283.7861
 317  269.7197
 318  363.2637
 319  288.1092
 320  251.0814
 321  168.5173
 322  325.0734
 323  325.9257
 324  220.8462
 325  229.4205
 326  231.1269
 327  291.6388
 328  397.1946
 329  314.5931
 330  187.5535
 331  233.7215
 332  162.41
 333  190.2584
 334  324.4644
 335  332.6284
 336  196.2379
 337  207.3127
 338  318.2983
 339  287.2394
 340  254.3348
 341  271.7554
 342  313.6686
 343  199.5551
 344  100.8
 345  174.1231
 346  279.4397
 347  176.7722
 348  68.57388
 349  48.69734
 350  170.7985
 351  193.6407
 352  214.262
 353  155.6225
 354  112.0119
 355  174.2149
 356  263.2812
 357  152.8806
 358  184.2278
 359  162.7936
 360  251.2963
 361  345.3327
 362  383.3445
 363  344.7601
 364  358.3253
 365  182.0587
 366  169.4186
 367  188.8309
 368  241.1439
 369  185.266
 370  258.5919
 371  372.5827
 372  327.711
 373  203.6482
 374  136.2337
 375  115.2874
 376  266.0048
 377  283.9582
 378  170.886
 379  315.7936
 380  335.078
 381  269.5273
 382  211.1902
 383  179.8189
 384  232.3584
 385  306.5967
 386  250.0961
 387  142.7245
 388  171.1673
 389  321.9431
 390  441.5232
 391  123.0119
 392  210.2379
 393  228.3793
 394  220.3798
 395  112.6147
 396  145.4926
 397  300.6693
 398  397.6836
 399  371.6664
 400  268.7554
 401  291.2643
 402  260.153
 403  148.2338
 404  193.0636
 405  121.4566
 406  172.8347
 407  391.1284
 408  344.0545
 409  236.2691
 410  219.1463
 411  296.0301
 412  193.4455
 413  266.6461
 414  319.9373
 415  198.9175
 416  209.374
 417  146.9087
 418  156.0524
 419  186.8695
 420  328.2933
 421  345.2051
 422  320.99
 423  383.9756
 424  395.4072
 425  257.8254
 426  236.0034
 427  290.4865
 428  184.1243
 429  203.394
 430  318.3521
 431  320.1347
 432  331.8185
 433  282.9882
 434  245.1471
 435  166.2298
 436  267.4507
 437  233.9792
 438  168.2725
 439  300.0847
 440  289.1571
 441  245.1339
 442  73.75736
 443  149.0005
 444  205.3648
 445  279.2253
 446  308.8646
 447  428.8226
 448  290.864
 449  214.5331
 450  281.3156
 451  268.4202
 452  262.6568
 453  199.6373
 454  208.1979
 455  355.8784
 456  318.7132
 457  300.2869
 458  231.4991
 459  222.2347
 460  303.5688
 461  373.7035
 462  324.3092
 463  323.3176
 464  164.2033
 465  161.1342
 466  161.3431
 467  145.4533
 468  332.4124
 469  328.1899
 470  260.3414
 471  140.4376
 472  213.8617
 473  172.7525
 474  102.3655
 475  220.1047
 476  230.0081
 477  125.8033
 478  203.7528
 479  197.4083
 480  199.7912
 481  276.8352
 482  334.936
 483  238.2019
 484  150.9005
 485  116.4458
 486  23.44159
 487  127.2559
 488  267.2466
 489  364.5678
 490  310.1976
 491  265.1421
 492  271.0023
 493  216.2576
 494  154.3601
 495  349.0351
 496  444.5986
 497  406.1728
 498  372.2231
 499  285.3652
 500  252.8836
 501  326.672
 502  305.5225
 503  446.5529
 504  274.2444
 505  130.9251
 506  233.9442
 507  357.5833
 508  343.9802
 509  461.9719
 510  761.6886
 511  808.6177
