# Input file       =  1201949674.108761_cleaned.dat
# Candidate        =  PSR_0332+5434
# Telescope        =  AR
# Epoch_topo       =  58155.454353110661
# Epoch_bary       =  N/A
# T_sample         =  0.002
# Data Folded      =  7143424
# Data Avg         =  0.0163751586136162
# Data StdDev      =  1.00003515433135 
# Profile Bins     =  512
# Profile Avg      =  228.468380281979 
# Profile StdDev   =  118.122736861725 
# Reduced chi-sqr  =  1.683
# Prob(Noise)      <  3.27e-20   (~9.1 sigma)
# P_topo (ms)      =  714.577887624168  +/- 4.04e-05
# P'_topo (s/s)    =  -0                +/- 2.19e-11
# P''_topo (s/s^2) =  0                 +/- 9.95e-15
# P_bary (ms)      =  N/A
# P'_bary (s/s)    =  N/A
# P''_bary (s/s^2) =  N/A
# P_orb (s)        =  N/A
# asin(i)/c (s)    =  N/A
# eccentricity     =  N/A
# w (rad)          =  N/A
# T_peri           =  N/A
######################################################
   0  807.8704
   1  792.7619
   2  649.5714
   3  464.1597
   4  246.3793
   5  90.67772
   6  189.2094
   7  230.6154
   8  205.8437
   9  176.7288
  10  148.1761
  11  206.001
  12  231.7515
  13  166.2061
  14  141.6171
  15  282.7621
  16  359.3551
  17  317.1223
  18  376.1005
  19  321.6911
  20  234.5616
  21  189.4973
  22  165.7058
  23  134.6987
  24  173.844
  25  124.9637
  26  205.4464
  27  159.7344
  28  138.291
  29  56.48771
  30  -12.91438
  31  138.1862
  32  224.3638
  33  328.0898
  34  341.8167
  35  385.6834
  36  342.9873
  37  272.2834
  38  164.3683
  39  102.3041
  40  46.87346
  41  179.3923
  42  280.4327
  43  231.0311
  44  173.7053
  45  209.6889
  46  130.9556
  47  123.0781
  48  185.9104
  49  423.4253
  50  483.8102
  51  272.3692
  52  176.4633
  53  176.5854
  54  110.8099
  55  89.95255
  56  112.3205
  57  125.981
  58  204.3028
  59  192.0813
  60  240.0433
  61  156.3993
  62  140.9833
  63  143.9595
  64  183.0783
  65  179.0097
  66  227.0088
  67  172.4815
  68  161.0443
  69  180.417
  70  203.3792
  71  173.0547
  72  65.76395
  73  121.631
  74  202.9973
  75  314.6018
  76  270.7875
  77  280.8873
  78  134.6555
  79  165.9254
  80  134.8928
  81  88.54385
  82  284.9252
  83  381.9135
  84  205.0049
  85  5.926741
  86  59.86307
  87  82.87356
  88  64.36217
  89  135.7335
  90  198.7288
  91  287.5107
  92  116.0876
  93  89.84499
  94  131.3988
  95  209.7304
  96  266.9463
  97  146.4668
  98  141.3524
  99  227.9576
 100  173.594
 101  172.2204
 102  212.6893
 103  179.679
 104  100.1819
 105  50.04508
 106  -0.3574056
 107  150.6298
 108  287.8312
 109  237.7967
 110  205.0078
 111  207.3753
 112  128.1064
 113  167.2235
 114  176.954
 115  232.8177
 116  288.8339
 117  314.0352
 118  265.168
 119  116.1788
 120  142.6164
 121  17.92471
 122  92.91078
 123  185.5994
 124  176.774
 125  263.8774
 126  155.1222
 127  103.6033
 128  165.6776
 129  156.8211
 130  132.1994
 131  200.8349
 132  178.507
 133  201.7894
 134  169.1198
 135  238.3871
 136  254.544
 137  107.8426
 138  51.13076
 139  63.43937
 140  159.8991
 141  263.7491
 142  252.9634
 143  157.4725
 144  5.316066
 145  38.33357
 146  117.2445
 147  159.3914
 148  193.2177
 149  152.455
 150  114.8309
 151  174.7437
 152  226.7433
 153  195.5793
 154  91.2513
 155  182.0333
 156  161.0907
 157  157.3107
 158  135.8862
 159  122.825
 160  75.51739
 161  136.4197
 162  117.6844
 163  62.38004
 164  204.3956
 165  267.4037
 166  209.4492
 167  137.323
 168  153.8861
 169  210.8375
 170  82.34347
 171  86.50722
 172  114.1694
 173  103.0764
 174  265.9593
 175  160.8111
 176  214.8953
 177  249.703
 178  181.0544
 179  206.1409
 180  211.4775
 181  314.5966
 182  351.152
 183  233.755
 184  129.1333
 185  158.51
 186  203.4337
 187  125.4275
 188  85.15725
 189  169.9385
 190  266.0281
 191  188.7458
 192  153.2488
 193  126.9142
 194  123.3233
 195  221.6624
 196  206.2614
 197  254.1974
 198  356.4962
 199  403.5025
 200  424.1231
 201  234.27
 202  132.487
 203  230.345
 204  261.6016
 205  204.2011
 206  305.3027
 207  223.3217
 208  224.5747
 209  301.2955
 210  244.1052
 211  196.8827
 212  173.7891
 213  217.5798
 214  199.7985
 215  342.306
 216  281.6318
 217  241.9429
 218  177.2524
 219  162.0592
 220  230.068
 221  260.4595
 222  204.716
 223  227.3622
 224  246.7679
 225  276.2825
 226  162.1264
 227  137.0728
 228  181.2926
 229  141.4214
 230  278.7597
 231  312.3477
 232  287.4883
 233  338.5343
 234  392.2957
 235  306.8262
 236  132.9233
 237  68.59707
 238  76.73499
 239  165.8645
 240  200.8683
 241  68.2797
 242  179.4933
 243  295.9671
 244  197.2198
 245  160.6331
 246  144.5396
 247  303.5676
 248  367.6224
 249  315.0786
 250  203.5727
 251  191.5973
 252  225.7462
 253  135.5643
 254  196.3853
 255  315.0736
 256  261.898
 257  249.537
 258  155.521
 259  319.1447
 260  237.0004
 261  202.4259
 262  278.0086
 263  302.7995
 264  386.4493
 265  534.1891
 266  362.4999
 267  283.7842
 268  207.0094
 269  142.0224
 270  34.78088
 271  82.21848
 272  196.7167
 273  254.3374
 274  304.4102
 275  189.1761
 276  211.5427
 277  179.479
 278  26.37145
 279  100.7235
 280  276.2525
 281  499.7335
 282  421.8722
 283  421.2408
 284  289.987
 285  239.0596
 286  186.0157
 287  188.9091
 288  161.823
 289  82.46356
 290  175.5401
 291  98.2049
 292  94.29499
 293  252.7082
 294  207.4251
 295  126.5179
 296  102.4719
 297  324.6938
 298  417.1043
 299  297.2209
 300  259.3621
 301  240.0984
 302  23.67564
 303  126.4208
 304  144.7704
 305  321.9458
 306  341.5575
 307  244.856
 308  119.9725
 309  162.3049
 310  111.596
 311  159.4667
 312  262.2329
 313  222.9759
 314  328.9713
 315  307.2858
 316  254.3073
 317  350.5865
 318  264.3164
 319  305.9028
 320  148.94
 321  170.1107
 322  274.599
 323  263.1584
 324  250.8505
 325  240.1313
 326  213.8468
 327  155.5232
 328  199.1097
 329  480.3959
 330  472.0699
 331  415.6445
 332  308.5238
 333  306.1083
 334  353.1447
 335  303.7462
 336  312.8235
 337  298.3696
 338  346.3731
 339  425.8049
 340  383.4063
 341  342.2539
 342  173.3972
 343  228.0942
 344  227.2735
 345  411.3611
 346  400.6216
 347  441.3727
 348  524.54
 349  451.0399
 350  232.3225
 351  183.6628
 352  168.9876
 353  99.35316
 354  166.0034
 355  197.1551
 356  261.5768
 357  234.8966
 358  119.5764
 359  191.3894
 360  202.4105
 361  126.9997
 362  203.0964
 363  419.7878
 364  481.4346
 365  420.3922
 366  263.5054
 367  201.9048
 368  210.5773
 369  186.5279
 370  153.2105
 371  196.0379
 372  277.444
 373  181.0297
 374  204.9768
 375  253.683
 376  125.3985
 377  50.71756
 378  155.0271
 379  285.9145
 380  311.1968
 381  216.8451
 382  229.6615
 383  325.0135
 384  269.9173
 385  317.8217
 386  459.3783
 387  292.7621
 388  264.3927
 389  346.5981
 390  356.8419
 391  332.2279
 392  170.4185
 393  189.2684
 394  192.9223
 395  235.666
 396  242.972
 397  322.0053
 398  283.8025
 399  258.9781
 400  239.4527
 401  263.4602
 402  282.2989
 403  188.2779
 404  190.1627
 405  352.8528
 406  302.5332
 407  158.2505
 408  221.4115
 409  211.4097
 410  276.5632
 411  288.8192
 412  407.2253
 413  519.4921
 414  479.6849
 415  458.9462
 416  426.4586
 417  331.9729
 418  246.125
 419  177.5577
 420  182.2306
 421  280.4245
 422  397.594
 423  247.5158
 424  206.0398
 425  142.3746
 426  71.4232
 427  183.463
 428  256.3032
 429  338.1288
 430  304.6126
 431  392.9606
 432  314.0909
 433  262.7863
 434  304.6225
 435  170.016
 436  75.52727
 437  205.4199
 438  325.903
 439  308.9336
 440  398.3099
 441  367.4979
 442  181.3938
 443  173.4209
 444  193.9465
 445  251.5728
 446  402.5395
 447  462.5433
 448  257.0189
 449  196.0418
 450  219.1504
 451  206.9517
 452  203.8633
 453  113.5474
 454  173.0688
 455  173.4699
 456  182.9326
 457  126.7617
 458  58.63088
 459  34.13662
 460  96.20798
 461  241.3943
 462  409.5551
 463  346.9071
 464  273.0581
 465  213.1495
 466  290.3652
 467  228.7281
 468  197.6903
 469  146.2124
 470  212.3463
 471  255.9884
 472  257.9204
 473  356.5802
 474  269.3381
 475  238.322
 476  111.9386
 477  111.0357
 478  269.8527
 479  365.3663
 480  324.4888
 481  252.8855
 482  298.4211
 483  274.9007
 484  167.7271
 485  129.8277
 486  125.5781
 487  290.609
 488  307.0091
 489  199.1673
 490  78.89944
 491  191.1281
 492  185.9956
 493  176.6638
 494  289.4681
 495  313.0295
 496  338.668
 497  332.6614
 498  321.8539
 499  252.8794
 500  208.5254
 501  157.1822
 502  112.0175
 503  261.1597
 504  422.05
 505  331.4854
 506  266.2826
 507  300.0782
 508  251.3402
 509  341.4823
 510  638.7238
 511  856.6774
