# Input file       =  1201806917.117477_cleaned.dat
# Candidate        =  PSR_0332+5434
# Telescope        =  AR
# Epoch_topo       =  58153.802073118946
# Epoch_bary       =  N/A
# T_sample         =  0.002
# Data Folded      =  7340032
# Data Avg         =  0.0170963221884193
# Data StdDev      =  1.00001848605559 
# Profile Bins     =  512
# Profile Avg      =  244.999458433057 
# Profile StdDev   =  119.735249768332 
# Reduced chi-sqr  =  1.023
# Prob(Noise)      <  0.348   (~0.4 sigma)
# P_topo (ms)      =  714.577686891706  +/- 0.000407
# P'_topo (s/s)    =  -0                +/- 2.15e-10
# P''_topo (s/s^2) =  0                 +/- 9.49e-14
# P_bary (ms)      =  N/A
# P'_bary (s/s)    =  N/A
# P''_bary (s/s^2) =  N/A
# P_orb (s)        =  N/A
# asin(i)/c (s)    =  N/A
# eccentricity     =  N/A
# w (rad)          =  N/A
# T_peri           =  N/A
######################################################
   0  684.8871
   1  776.7798
   2  645.0544
   3  440.8321
   4  252.1451
   5  308.0804
   6  297.4353
   7  308.0524
   8  211.8691
   9  204.1309
  10  224.2694
  11  276.1652
  12  366.7906
  13  237.3897
  14  140.8068
  15  321.1674
  16  336.1942
  17  303.3714
  18  306.3676
  19  302.989
  20  183.7052
  21  128.4056
  22  246.5584
  23  188.8636
  24  287.1762
  25  313.4189
  26  319.2748
  27  255.8976
  28  186.0515
  29  279.0143
  30  284.7763
  31  220.1701
  32  175.1589
  33  274.5784
  34  301.4851
  35  170.2637
  36  284.7284
  37  319.4326
  38  190.0047
  39  257.8301
  40  265.6686
  41  287.3293
  42  299.274
  43  175.5186
  44  193.0629
  45  225.9346
  46  243.6367
  47  292.6288
  48  229.02
  49  176.2569
  50  218.6399
  51  238.6188
  52  222.5436
  53  214.0789
  54  304.293
  55  166.4869
  56  166.4189
  57  228.3404
  58  209.5596
  59  265.2721
  60  200.8882
  61  145.9544
  62  173.5904
  63  303.8863
  64  251.9052
  65  314.0873
  66  197.0278
  67  137.1126
  68  159.2401
  69  314.6372
  70  207.5672
  71  182.6598
  72  153.7196
  73  220.9066
  74  173.5862
  75  219.3307
  76  164.1373
  77  90.67245
  78  199.4991
  79  142.4933
  80  218.0341
  81  318.7691
  82  245.4392
  83  180.2864
  84  115.8711
  85  225.9597
  86  307.3901
  87  231.4389
  88  134.3591
  89  182.7692
  90  269.8576
  91  247.8477
  92  269.0597
  93  301.5187
  94  267.0152
  95  128.5043
  96  114.9692
  97  147.7419
  98  92.67957
  99  97.32465
 100  203.472
 101  253.39
 102  198.7774
 103  220.7755
 104  248.7181
 105  292.1112
 106  246.226
 107  187.4642
 108  147.6934
 109  160.2937
 110  199.5782
 111  119.466
 112  173.2552
 113  177.6116
 114  167.37
 115  179.7344
 116  207.947
 117  227.707
 118  300.9419
 119  307.6731
 120  274.3365
 121  215.1124
 122  260.7043
 123  386.1277
 124  339.8986
 125  227.0439
 126  283.9745
 127  346.1892
 128  416.9099
 129  270.023
 130  225.9259
 131  290.9164
 132  325.272
 133  210.7347
 134  125.9289
 135  157.8352
 136  203.2923
 137  300.8837
 138  254.9459
 139  117.0861
 140  219.2299
 141  179.2325
 142  204.3085
 143  211.9347
 144  222.9148
 145  265.0609
 146  198.471
 147  125.8933
 148  271.8233
 149  311.9505
 150  233.2626
 151  203.1698
 152  259.4674
 153  180.6487
 154  175.1626
 155  184.3004
 156  216.8586
 157  169.6404
 158  208.2689
 159  227.8459
 160  145.8814
 161  202.6558
 162  175.0406
 163  185.5392
 164  150.4156
 165  270.8084
 166  312.2361
 167  307.119
 168  130.0524
 169  63.1727
 170  153.4601
 171  234.6139
 172  280.2193
 173  301.6534
 174  271.8301
 175  290.9101
 176  342.809
 177  363.7213
 178  370.1196
 179  357.1637
 180  402.0411
 181  386.0987
 182  272.539
 183  294.6273
 184  498.8139
 185  391.6505
 186  278.6854
 187  204.0441
 188  289.7362
 189  307.7409
 190  354.379
 191  323.0084
 192  221.084
 193  175.2023
 194  303.9508
 195  305.2828
 196  270.5762
 197  394.2298
 198  389.3315
 199  416.6583
 200  313.2767
 201  252.3501
 202  254.9645
 203  126.723
 204  106.9674
 205  221.9707
 206  283.178
 207  264.3657
 208  271.5572
 209  191.113
 210  307.89
 211  201.6889
 212  165.4926
 213  146.7668
 214  196.281
 215  253.8593
 216  272.0193
 217  303.5844
 218  210.4379
 219  201.86
 220  352.4543
 221  317.5821
 222  326.581
 223  295.8564
 224  387.5619
 225  221.0767
 226  141.9602
 227  141.155
 228  180.3431
 229  132.8932
 230  256.4567
 231  244.8677
 232  72.19609
 233  251.9468
 234  383.4324
 235  362.8576
 236  275.0115
 237  253.8453
 238  240.9237
 239  184.5332
 240  269.6865
 241  389.7744
 242  322.4873
 243  255.9468
 244  315.0868
 245  299.0448
 246  282.5581
 247  268.1425
 248  330.5592
 249  315.8488
 250  227.1202
 251  331.4398
 252  239.562
 253  263.1749
 254  203.6547
 255  456.7363
 256  276.5635
 257  180.8892
 258  313.8856
 259  302.9966
 260  275.3744
 261  162.7178
 262  201.8446
 263  302.763
 264  234.3575
 265  185.0635
 266  297.8723
 267  297.4132
 268  247.0933
 269  246.504
 270  171.6656
 271  192.7249
 272  187.5139
 273  306.2787
 274  257.1997
 275  174.786
 276  260.3814
 277  247.8053
 278  241.4977
 279  265.3443
 280  248.8259
 281  230.6325
 282  262.8181
 283  271.2605
 284  194.2791
 285  201.9445
 286  189.0541
 287  101.2075
 288  136.3885
 289  174.4851
 290  164.8574
 291  262.719
 292  301.5043
 293  197.6837
 294  155.3695
 295  278.1515
 296  299.8773
 297  249.5087
 298  113.5142
 299  311.1547
 300  307.0006
 301  184.385
 302  244.6507
 303  214.8289
 304  269.5595
 305  256.1653
 306  327.4247
 307  270.4126
 308  190.7946
 309  245.9743
 310  172.5553
 311  257.6784
 312  206.035
 313  219.9227
 314  209.609
 315  227.4674
 316  238.4177
 317  184.8276
 318  231.467
 319  150.8863
 320  158.2541
 321  101.6704
 322  133.2062
 323  204.5251
 324  197.2693
 325  309.0414
 326  319.4981
 327  186.1791
 328  179.9312
 329  262.7985
 330  162.1627
 331  193.5838
 332  232.311
 333  237.6365
 334  313.1606
 335  198.3654
 336  184.7305
 337  354.8259
 338  277.7891
 339  216.4902
 340  333.8267
 341  337.0826
 342  284.2285
 343  217.3609
 344  217.716
 345  188.925
 346  183.4466
 347  342.5569
 348  236.471
 349  267.9585
 350  302.2182
 351  206.5228
 352  151.0019
 353  176.8568
 354  200.9194
 355  266.072
 356  339.8011
 357  342.0757
 358  295.3792
 359  197.386
 360  173.75
 361  203.2238
 362  178.0717
 363  289.0315
 364  242.0196
 365  277.7148
 366  214.8198
 367  258.0661
 368  207.5692
 369  176.263
 370  219.8461
 371  188.8182
 372  201.9155
 373  246.1881
 374  131.9063
 375  160.4201
 376  190.0325
 377  221.2758
 378  231.8712
 379  418.2609
 380  390.8032
 381  208.5902
 382  157.3577
 383  177.3662
 384  189.887
 385  314.1426
 386  258.4686
 387  72.8399
 388  111.2058
 389  211.0575
 390  317.1805
 391  258.8854
 392  195.0095
 393  178.4015
 394  300.4926
 395  267.4935
 396  181.9322
 397  156.382
 398  230.9944
 399  175.4068
 400  216.1443
 401  305.8977
 402  131.3103
 403  197.3289
 404  380.9604
 405  284.1955
 406  239.8846
 407  286.0898
 408  174.4762
 409  161.6871
 410  95.62674
 411  303.0406
 412  167.94
 413  187.0455
 414  275.7859
 415  325.8123
 416  204.8829
 417  297.1187
 418  349.4294
 419  203.4177
 420  268.7132
 421  359.7672
 422  305.6128
 423  287.4186
 424  199.9735
 425  192.0496
 426  196.8811
 427  357.1523
 428  257.096
 429  167.8237
 430  224.9924
 431  261.6656
 432  193.9395
 433  112.272
 434  183.6938
 435  247.5504
 436  242.1812
 437  221.678
 438  201.9911
 439  331.6975
 440  227.3217
 441  143.6659
 442  167.3528
 443  142.1206
 444  251.7048
 445  218.3349
 446  45.41718
 447  58.17113
 448  166.5195
 449  145.3026
 450  183.4162
 451  172.1876
 452  144.4911
 453  314.4008
 454  341.3764
 455  227.8724
 456  356.7622
 457  297.5498
 458  316.354
 459  306.7787
 460  308.2783
 461  254.3702
 462  245.8071
 463  317.6897
 464  280.2901
 465  228.2577
 466  273.9561
 467  188.747
 468  254.0014
 469  328.0556
 470  174.0443
 471  120.4585
 472  194.0391
 473  193.6409
 474  223.5859
 475  275.8493
 476  223.6988
 477  222.4523
 478  235.7972
 479  176.6414
 480  298.7076
 481  307.7144
 482  192.4417
 483  222.7374
 484  262.9557
 485  209.3555
 486  133.5699
 487  205.8054
 488  306.911
 489  276.3573
 490  174.6283
 491  153.2182
 492  319.2465
 493  414.0973
 494  323.1933
 495  236.2192
 496  222.9526
 497  146.4533
 498  170.1756
 499  307.8822
 500  154.1125
 501  270.746
 502  299.9027
 503  298.9096
 504  232.3072
 505  434.0128
 506  380.5732
 507  311.8795
 508  443.2524
 509  642.8587
 510  774.6354
 511  744.4038
