# Input file       =  1201533515.12507_cleaned.dat
# Candidate        =  PSR_0332+5434
# Telescope        =  AR
# Epoch_topo       =  58150.637698206832
# Epoch_bary       =  N/A
# T_sample         =  0.002
# Data Folded      =  7340032
# Data Avg         =  0.028798287839119
# Data StdDev      =  1.00004909190211 
# Profile Bins     =  512
# Profile Avg      =  412.863389465098 
# Profile StdDev   =  119.738914299267 
# Reduced chi-sqr  =  1.261
# Prob(Noise)      <  5.32e-05   (~3.9 sigma)
# P_topo (ms)      =  714.576160664257  +/- 0.000245
# P'_topo (s/s)    =  -0                +/- 1.29e-10
# P''_topo (s/s^2) =  0                 +/- 5.72e-14
# P_bary (ms)      =  N/A
# P'_bary (s/s)    =  N/A
# P''_bary (s/s^2) =  N/A
# P_orb (s)        =  N/A
# asin(i)/c (s)    =  N/A
# eccentricity     =  N/A
# w (rad)          =  N/A
# T_peri           =  N/A
######################################################
   0  1098.354
   1  1150.641
   2  956.1671
   3  697.129
   4  500.3471
   5  296.9757
   6  302.2676
   7  279.7252
   8  299.9554
   9  330.4435
  10  305.8489
  11  395.1777
  12  473.6363
  13  448.6436
  14  481.9237
  15  422.8333
  16  462.8663
  17  488.2946
  18  479.8044
  19  421.6665
  20  373.5343
  21  380.3989
  22  442.4279
  23  425.1019
  24  388.5957
  25  355.4357
  26  316.4747
  27  305.1607
  28  368.6416
  29  404.3747
  30  468.3904
  31  347.4177
  32  382.2326
  33  467.6477
  34  370.8192
  35  495.757
  36  362.8028
  37  410.0486
  38  460.813
  39  490.5706
  40  361.4836
  41  382.3227
  42  376.3955
  43  381.827
  44  319.0525
  45  495.0861
  46  601.9097
  47  420.2963
  48  399.6859
  49  429.9494
  50  400.9341
  51  397.1252
  52  369.7396
  53  371.3094
  54  452.1911
  55  423.1144
  56  414.6411
  57  387.164
  58  361.8847
  59  397.4955
  60  383.0995
  61  382.2321
  62  432.2226
  63  337.4365
  64  297.5458
  65  292.0302
  66  295.4987
  67  361.993
  68  328.0915
  69  257.6183
  70  292.1647
  71  351.4414
  72  282.2471
  73  275.5454
  74  224.0448
  75  289.7974
  76  359.2616
  77  330.1073
  78  401.2992
  79  423.3762
  80  475.1844
  81  352.4097
  82  417.3821
  83  413.2803
  84  433.5432
  85  396.2127
  86  403.6307
  87  426.024
  88  497.0347
  89  432.2789
  90  429.5409
  91  389.6506
  92  396.4
  93  429.2964
  94  312.8893
  95  411.1125
  96  437.1622
  97  439.3923
  98  492.374
  99  391.7088
 100  367.9899
 101  420.1826
 102  442.4139
 103  520.5973
 104  478.578
 105  387.9822
 106  440.0027
 107  535.553
 108  567.1817
 109  469.1616
 110  417.5144
 111  444.3658
 112  459.963
 113  358.7847
 114  408.9218
 115  519.6309
 116  507.6648
 117  487.9794
 118  445.2714
 119  361.7365
 120  317.7895
 121  292.6763
 122  316.0655
 123  427.3239
 124  401.1478
 125  410.5857
 126  382.1501
 127  366.1637
 128  361.2869
 129  354.058
 130  508.0517
 131  420.0585
 132  486.4198
 133  412.2667
 134  359.1913
 135  292.6376
 136  236.3774
 137  338.6484
 138  472.4272
 139  530.8154
 140  391.274
 141  354.2192
 142  388.3199
 143  337.304
 144  370.551
 145  507.4152
 146  489.9145
 147  441.0388
 148  285.6118
 149  380.1851
 150  403.7149
 151  441.1009
 152  402.6504
 153  530.5236
 154  500.0328
 155  348.3018
 156  302.8041
 157  429.4377
 158  387.1086
 159  406.2399
 160  357.1659
 161  410.2267
 162  363.8547
 163  322.1306
 164  358.2737
 165  328.4917
 166  456.7708
 167  463.0242
 168  294.0881
 169  215.5978
 170  269.136
 171  354.3201
 172  452.3552
 173  499.0581
 174  533.0425
 175  451.6361
 176  367.6241
 177  383.6468
 178  325.2934
 179  327.8849
 180  345.3732
 181  366.2496
 182  441.8765
 183  300.0767
 184  397.0914
 185  294.0683
 186  411.8052
 187  356.5956
 188  374.2895
 189  381.5623
 190  344.1063
 191  369.5929
 192  376.1695
 193  352.4845
 194  371.488
 195  377.1549
 196  490.4258
 197  367.9159
 198  325.2095
 199  410.5308
 200  406.9293
 201  349.7519
 202  354.7442
 203  311.567
 204  305.8689
 205  361.0419
 206  378.4252
 207  419.9559
 208  377.3733
 209  409.0901
 210  378.3749
 211  392.6429
 212  409.0077
 213  336.7985
 214  351.51
 215  341.9485
 216  312.4362
 217  370.3716
 218  403.9372
 219  317.9069
 220  297.8148
 221  350.9281
 222  283.8312
 223  315.2649
 224  362.1733
 225  271.7254
 226  332.6678
 227  424.6703
 228  325.7562
 229  311.4587
 230  380.1776
 231  455.4716
 232  481.2343
 233  457.3092
 234  451.386
 235  444.256
 236  414.7561
 237  419.1089
 238  385.9508
 239  384.2118
 240  475.2375
 241  477.8863
 242  387.4962
 243  327.6059
 244  291.0029
 245  317.7758
 246  440.613
 247  334.8204
 248  390.3048
 249  395.1427
 250  367.9288
 251  339.0791
 252  302.6251
 253  294.5904
 254  442.1527
 255  418.6239
 256  338.6255
 257  378.795
 258  364.9301
 259  307.8039
 260  407.3881
 261  383.467
 262  312.3647
 263  322.1225
 264  378.2884
 265  393.3176
 266  303.3776
 267  267.7569
 268  438.925
 269  566.915
 270  601.155
 271  520.2632
 272  453.8344
 273  474.3556
 274  330.1557
 275  311.0826
 276  336.2039
 277  429.6245
 278  464.346
 279  391.6451
 280  398.1997
 281  465.2623
 282  352.9337
 283  336.1496
 284  456.6149
 285  480.2791
 286  343.3935
 287  343.8845
 288  445.574
 289  483.8417
 290  461.9111
 291  408.9801
 292  459.1073
 293  433.4732
 294  368.8517
 295  361.9274
 296  355.1416
 297  441.0555
 298  378.4171
 299  402.1604
 300  297.6323
 301  237.2734
 302  359.1024
 303  379.8424
 304  479.6195
 305  371.4647
 306  443.4076
 307  367.2997
 308  351.6087
 309  371.5387
 310  304.7844
 311  228.6142
 312  331.6652
 313  432.9021
 314  452.7669
 315  565.9913
 316  496.9545
 317  331.8936
 318  317.9678
 319  340.1865
 320  409.131
 321  423.2191
 322  450.9849
 323  381.5724
 324  425.2783
 325  433.6674
 326  340.9229
 327  375.4505
 328  376.3889
 329  542.3557
 330  564.867
 331  386.9429
 332  417.9796
 333  518.9191
 334  426.5207
 335  409.6841
 336  397.649
 337  394.4413
 338  439.4384
 339  504.5793
 340  525.3382
 341  331.2813
 342  419.1154
 343  330.853
 344  357.139
 345  439.9756
 346  546.1935
 347  494.7509
 348  480.125
 349  364.4628
 350  430.7999
 351  411.1149
 352  430.788
 353  317.9044
 354  269.6608
 355  403.5059
 356  372.8428
 357  432.2843
 358  386.3402
 359  274.5381
 360  345.8498
 361  334.0536
 362  344.1924
 363  316.9621
 364  408.274
 365  395.0599
 366  396.8468
 367  401.6622
 368  380.1585
 369  547.6295
 370  550.3343
 371  519.8746
 372  472.192
 373  458.501
 374  374.2837
 375  462.9637
 376  521.8435
 377  558.0317
 378  588.6444
 379  621.6188
 380  511.1196
 381  493.3399
 382  572.8705
 383  593.4565
 384  588.7988
 385  559.8137
 386  603.5919
 387  545.0367
 388  483.7848
 389  630.7365
 390  588.7325
 391  480.2567
 392  515.2787
 393  528.8811
 394  470.1901
 395  540.2579
 396  610.5734
 397  550.954
 398  534.6806
 399  632.3454
 400  489.9926
 401  469.1913
 402  479.7398
 403  472.5801
 404  539.1241
 405  649.0622
 406  586.7539
 407  446.4231
 408  452.343
 409  464.5269
 410  522.8209
 411  532.6292
 412  468.5693
 413  447.5221
 414  441.7705
 415  474.0397
 416  425.8224
 417  440.1906
 418  346.1771
 419  392.425
 420  368.2089
 421  332.9012
 422  440.1348
 423  366.7383
 424  426.8665
 425  449.1386
 426  497.6825
 427  338.0168
 428  284.9362
 429  348.6247
 430  447.6287
 431  440.9933
 432  404.959
 433  466.6244
 434  464.1142
 435  391.875
 436  421.6259
 437  533.0577
 438  478.7429
 439  424.6924
 440  477.4721
 441  373.1149
 442  440.4655
 443  441.2478
 444  378.5385
 445  440.9213
 446  445.9019
 447  366.3077
 448  396.0208
 449  382.8661
 450  352.8883
 451  418.6817
 452  371.9495
 453  358.6925
 454  367.8403
 455  393.616
 456  400.2428
 457  424.4558
 458  444.3883
 459  400.3051
 460  478.3731
 461  423.8435
 462  348.6642
 463  374.5924
 464  350.6166
 465  346.6942
 466  417.7544
 467  485.4576
 468  435.1746
 469  261.8771
 470  322.016
 471  463.8752
 472  416.3109
 473  439.6645
 474  535.9951
 475  564.7613
 476  407.9745
 477  427.2192
 478  394.3519
 479  381.8611
 480  285.8138
 481  327.8595
 482  312.3482
 483  389.3923
 484  348.8229
 485  385.4475
 486  425.1314
 487  385.1823
 488  409.7546
 489  322.6109
 490  400.2746
 491  518.4197
 492  445.0976
 493  398.1962
 494  345.3973
 495  281.6551
 496  297.1002
 497  258.6645
 498  262.6514
 499  255.2823
 500  370.8677
 501  443.9327
 502  390.0302
 503  354.8974
 504  308.4531
 505  362.7341
 506  519.3821
 507  547.3737
 508  609.2933
 509  642.9755
 510  766.6434
 511  920.7222
