# Input file       =  1201878730.107112_cleaned.dat
# Candidate        =  PSR_0332+5434
# Telescope        =  AR
# Epoch_topo       =  58154.633241980460
# Epoch_bary       =  N/A
# T_sample         =  0.002
# Data Folded      =  7340032
# Data Avg         =  0.0294122413134948
# Data StdDev      =  1.0000780618118  
# Profile Bins     =  512
# Profile Avg      =  421.676415155417 
# Profile StdDev   =  119.742382954518 
# Reduced chi-sqr  =  1.163
# Prob(Noise)      <  0.00631   (~2.5 sigma)
# P_topo (ms)      =  714.577643695108  +/- 0.000346
# P'_topo (s/s)    =  -0                +/- 1.82e-10
# P''_topo (s/s^2) =  0                 +/- 8.06e-14
# P_bary (ms)      =  N/A
# P'_bary (s/s)    =  N/A
# P''_bary (s/s^2) =  N/A
# P_orb (s)        =  N/A
# asin(i)/c (s)    =  N/A
# eccentricity     =  N/A
# w (rad)          =  N/A
# T_peri           =  N/A
######################################################
   0  888.2784
   1  955.6632
   2  989.5832
   3  660.0536
   4  514.4061
   5  402.5193
   6  447.5735
   7  452.9928
   8  374.6739
   9  428.3764
  10  398.4642
  11  426.7097
  12  377.6562
  13  424.8952
  14  451.6582
  15  348.6602
  16  395.872
  17  292.8424
  18  389.5692
  19  352.551
  20  374.528
  21  467.8335
  22  462.4128
  23  441.5109
  24  542.6333
  25  492.2286
  26  420.5943
  27  415.1957
  28  526.1024
  29  473.8754
  30  330.3488
  31  328.3677
  32  409.9565
  33  401.5555
  34  406.2717
  35  410.7032
  36  505.8161
  37  391.7712
  38  356.7284
  39  312.9517
  40  355.7129
  41  474.9802
  42  435.2322
  43  526.6473
  44  453.7647
  45  373.3002
  46  468.3211
  47  384.0724
  48  597.8418
  49  581.6492
  50  482.3766
  51  439.2816
  52  453.8502
  53  488.3528
  54  486.932
  55  454.384
  56  399.754
  57  552.8985
  58  469.1198
  59  500.3933
  60  440.4018
  61  386.7534
  62  439.0768
  63  517.8638
  64  563.8832
  65  387.1285
  66  400.7152
  67  452.2696
  68  366.7923
  69  394.0016
  70  377.0654
  71  486.5274
  72  414.633
  73  455.4436
  74  413.492
  75  422.903
  76  381.8337
  77  587.2935
  78  648.7614
  79  495.1182
  80  346.4066
  81  359.6186
  82  433.6649
  83  405.6889
  84  485.4176
  85  498.6233
  86  510.0262
  87  424.2168
  88  459.5088
  89  539.1243
  90  523.9517
  91  462.2205
  92  419.7713
  93  487.9953
  94  441.0082
  95  479.2561
  96  416.6473
  97  474.656
  98  602.9485
  99  446.0859
 100  409.858
 101  550.7182
 102  462.2255
 103  407.7503
 104  383.7697
 105  413.1709
 106  506.6695
 107  517.6074
 108  394.9
 109  429.8376
 110  437.7344
 111  577.694
 112  515.7009
 113  464.9057
 114  379.6449
 115  426.763
 116  511.7805
 117  424.0721
 118  377.7648
 119  473.0358
 120  503.4613
 121  528.187
 122  568.9885
 123  514.42
 124  539.2045
 125  408.0277
 126  391.6306
 127  533.2442
 128  427.8029
 129  528.4819
 130  486.0136
 131  475.432
 132  489.0931
 133  428.5332
 134  487.0452
 135  488.2974
 136  464.3627
 137  556.0342
 138  583.996
 139  615.7657
 140  540.9462
 141  434.6223
 142  443.3171
 143  490.5175
 144  510.1919
 145  499.3993
 146  541.0964
 147  535.8938
 148  470.2353
 149  527.7234
 150  533.1398
 151  464.1182
 152  379.8241
 153  432.5438
 154  472.7618
 155  361.4359
 156  321.4126
 157  546.1263
 158  442.8471
 159  450.1942
 160  396.8314
 161  425.9882
 162  526.33
 163  567.886
 164  628.2619
 165  442.4112
 166  429.3576
 167  447.1381
 168  364.4453
 169  401.8898
 170  400.7749
 171  269.3126
 172  292.1145
 173  386.2561
 174  355.0391
 175  355.4461
 176  400.8736
 177  539.6206
 178  485.5781
 179  374.7836
 180  398.1106
 181  357.2353
 182  440.9886
 183  501.7891
 184  405.1349
 185  412.9449
 186  410.8149
 187  269.6438
 188  356.1747
 189  287.3715
 190  381.5903
 191  360.1614
 192  355.865
 193  301.1158
 194  294.5957
 195  418.6625
 196  493.7346
 197  432.8191
 198  368.1043
 199  505.8749
 200  540.9318
 201  459.7883
 202  454.2057
 203  457.0111
 204  499.3919
 205  437.739
 206  492.1178
 207  496.4937
 208  447.0273
 209  433.2749
 210  495.0627
 211  460.013
 212  417.4738
 213  494.2649
 214  419.4854
 215  428.8139
 216  382.3465
 217  322.0054
 218  317.596
 219  332.4766
 220  313.4288
 221  452.3675
 222  448.1686
 223  519.3476
 224  472.4448
 225  567.0739
 226  493.2684
 227  464.3079
 228  321.8577
 229  405.2664
 230  404.2031
 231  386.3879
 232  372.4032
 233  427.2501
 234  409.3938
 235  435.5619
 236  454.9807
 237  345.7249
 238  364.8733
 239  324.078
 240  343.869
 241  350.5852
 242  289.0135
 243  405.9426
 244  344.9835
 245  335.2182
 246  340.9955
 247  312.1207
 248  351.5822
 249  349.2546
 250  280.8527
 251  267.1169
 252  357.8853
 253  383.7995
 254  355.6506
 255  315.6754
 256  377.2602
 257  348.3375
 258  399.9041
 259  402.2555
 260  252.0405
 261  325.6972
 262  401.7986
 263  327.3516
 264  295.8858
 265  308.4706
 266  302.5244
 267  393.6102
 268  359.7577
 269  351.6593
 270  186.3337
 271  114.2882
 272  373.0789
 273  405.7964
 274  377.4763
 275  338.315
 276  222.41
 277  199.9214
 278  318.972
 279  339.403
 280  333.1848
 281  389.4615
 282  446.7398
 283  549.3249
 284  420.0754
 285  371.5399
 286  334.6614
 287  380.2693
 288  443.8129
 289  382.1685
 290  333.6283
 291  403.3122
 292  335.6289
 293  336.9599
 294  422.5759
 295  395.2942
 296  394.7077
 297  351.2679
 298  451.7388
 299  466.3397
 300  352.217
 301  419.9064
 302  465.8916
 303  341.9194
 304  365.2551
 305  425.3585
 306  411.8894
 307  286.5723
 308  179.3861
 309  388.5209
 310  368.8382
 311  340.963
 312  379.894
 313  392.8742
 314  390.6629
 315  446.5953
 316  422.9433
 317  480.7798
 318  378.1129
 319  403.4404
 320  472.6318
 321  481.8377
 322  417.3016
 323  432.3192
 324  454.1937
 325  430.4664
 326  342.5466
 327  475.4437
 328  532.7542
 329  446.2439
 330  449.846
 331  391.5541
 332  426.0489
 333  496.2094
 334  528.7569
 335  554.5029
 336  561.0155
 337  446.3996
 338  476.9902
 339  426.978
 340  515.8894
 341  511.2102
 342  524.5217
 343  459.1956
 344  456.1688
 345  391.3068
 346  286.9083
 347  341.8969
 348  451.1729
 349  406.1233
 350  254.736
 351  360.7507
 352  499.261
 353  421.8868
 354  430.7532
 355  333.5036
 356  299.0241
 357  295.5234
 358  381.4738
 359  461.1571
 360  385.1898
 361  268.18
 362  292.9473
 363  406.084
 364  476.5458
 365  432.8777
 366  431.3182
 367  460.1724
 368  429.822
 369  438.5609
 370  350.1101
 371  408.3544
 372  433.8344
 373  430.4534
 374  403.0842
 375  477.026
 376  472.81
 377  358.7714
 378  262.1959
 379  330.9412
 380  420.506
 381  370.1467
 382  202.3505
 383  226.9899
 384  384.3778
 385  374.4724
 386  393.0154
 387  325.9145
 388  491.7704
 389  420.6339
 390  243.8386
 391  314.9828
 392  384.2583
 393  437.2898
 394  511.44
 395  489.2014
 396  386.0476
 397  281.2656
 398  352.1932
 399  460.6764
 400  359.6374
 401  336.6854
 402  472.9282
 403  559.923
 404  419.9455
 405  442.4242
 406  509.7704
 407  416.6233
 408  501.7552
 409  477.4672
 410  469.8158
 411  421.0391
 412  414.6479
 413  442.5035
 414  359.1316
 415  406.0591
 416  345.164
 417  515.0404
 418  380.9547
 419  339.0553
 420  325.2823
 421  333.1669
 422  401.1965
 423  376.1581
 424  348.5811
 425  341.7327
 426  500.3192
 427  332.7928
 428  359.9662
 429  413.6508
 430  318.7529
 431  252.0098
 432  232.4588
 433  301.5306
 434  353.4908
 435  451.6154
 436  382.6983
 437  339.0511
 438  371.4613
 439  410.4717
 440  393.4294
 441  335.206
 442  353.8086
 443  317.1473
 444  360.3283
 445  557.6055
 446  423.796
 447  511.5957
 448  507.0605
 449  401.2525
 450  425.494
 451  457.631
 452  456.913
 453  366.6274
 454  344.1493
 455  479.8103
 456  367.8581
 457  253.8098
 458  279.6011
 459  366.1536
 460  377.4597
 461  266.5322
 462  287.3896
 463  437.8535
 464  517.3844
 465  454.3404
 466  406.2339
 467  376.1117
 468  362.9496
 469  484.7756
 470  340.8569
 471  309.1218
 472  326.3271
 473  413.5685
 474  501.9412
 475  360.5135
 476  304.1634
 477  458.9695
 478  536.0249
 479  450.3356
 480  484.1691
 481  517.758
 482  457.5141
 483  432.9017
 484  424.318
 485  347.6284
 486  331.4512
 487  321.3982
 488  354.3975
 489  420.8721
 490  462.2924
 491  420.6374
 492  492.1718
 493  403.2014
 494  426.9406
 495  438.7637
 496  496.3059
 497  404.2252
 498  261.7318
 499  289.1353
 500  452.8196
 501  516.413
 502  395.2577
 503  398.9577
 504  406.9384
 505  459.5421
 506  469.396
 507  500.2787
 508  602.6974
 509  744.4437
 510  793.9511
 511  894.7725
