# Input file       =  1201979202.113353_cleaned.dat
# Candidate        =  PSR_0332+5434
# Telescope        =  AR
# Epoch_topo       =  58155.796112423064
# Epoch_bary       =  N/A
# T_sample         =  0.002
# Data Folded      =  7340032
# Data Avg         =  0.0292899888931653
# Data StdDev      =  1.00008083412082 
# Profile Bins     =  512
# Profile Avg      =  419.995051820242 
# Profile StdDev   =  119.742714891495 
# Reduced chi-sqr  =  1.281
# Prob(Noise)      <  1.67e-05   (~4.1 sigma)
# P_topo (ms)      =  714.578350762621  +/- 0.000309
# P'_topo (s/s)    =  -0                +/- 1.63e-10
# P''_topo (s/s^2) =  0                 +/- 7.19e-14
# P_bary (ms)      =  N/A
# P'_bary (s/s)    =  N/A
# P''_bary (s/s^2) =  N/A
# P_orb (s)        =  N/A
# asin(i)/c (s)    =  N/A
# eccentricity     =  N/A
# w (rad)          =  N/A
# T_peri           =  N/A
######################################################
   0  1067.41
   1  868.3256
   2  799.1216
   3  535.1998
   4  400.7113
   5  467.3824
   6  494.3454
   7  490.3618
   8  447.4321
   9  481.9035
  10  525.3471
  11  450.6663
  12  479.3728
  13  546.195
  14  622.8319
  15  442.3393
  16  448.018
  17  485.6056
  18  532.7233
  19  528.0648
  20  456.1657
  21  607.338
  22  571.1894
  23  551.4438
  24  529.8217
  25  565.037
  26  526.7525
  27  652.7564
  28  526.6618
  29  405.6283
  30  432.1587
  31  454.6579
  32  469.7706
  33  353.6564
  34  433.4469
  35  372.7765
  36  338.282
  37  404.679
  38  482.8406
  39  567.8782
  40  367.3798
  41  456.3288
  42  461.5172
  43  473.7464
  44  379.1258
  45  335.0511
  46  414.6572
  47  513.4868
  48  534.462
  49  504.345
  50  440.0208
  51  394.9863
  52  438.6006
  53  503.8783
  54  502.9272
  55  468.6005
  56  463.7987
  57  402.868
  58  484.6209
  59  575.9863
  60  575.3255
  61  582.8792
  62  531.0002
  63  527.3415
  64  501.4177
  65  539.6382
  66  496.0286
  67  463.7217
  68  507.7398
  69  496.8104
  70  493.7238
  71  546.0361
  72  529.3846
  73  504.7053
  74  475.0828
  75  380.0025
  76  377.3987
  77  466.2755
  78  489.8017
  79  462.2475
  80  499.7045
  81  500.2258
  82  366.0572
  83  247.2643
  84  349.5706
  85  316.4759
  86  349.7533
  87  408.4586
  88  446.8031
  89  343.7371
  90  314.219
  91  351.3745
  92  439.2935
  93  461.8172
  94  439.7567
  95  417.0656
  96  391.0189
  97  421.9296
  98  379.7606
  99  390.2246
 100  469.9813
 101  423.2499
 102  401.4277
 103  376.6118
 104  448.1855
 105  397.2408
 106  495.7802
 107  425.8328
 108  406.7959
 109  422.311
 110  377.8317
 111  418.4492
 112  554.0508
 113  468.2105
 114  357.1109
 115  418.5523
 116  474.2631
 117  421.0807
 118  292.8922
 119  359.5048
 120  350.8574
 121  349.8058
 122  355.1087
 123  435.5433
 124  473.6213
 125  283.3336
 126  330.3419
 127  397.5889
 128  479.2893
 129  391.702
 130  326.9321
 131  384.4378
 132  459.257
 133  518.1929
 134  442.0488
 135  355.342
 136  313.8501
 137  403.7688
 138  562.1445
 139  403.3976
 140  278.2174
 141  391.3476
 142  441.8749
 143  494.8442
 144  437.6107
 145  430.604
 146  365.2009
 147  325.0773
 148  536.2966
 149  468.671
 150  535.8077
 151  657.3276
 152  538.968
 153  555.2681
 154  488.1293
 155  490.3779
 156  544.9637
 157  630.9157
 158  685.817
 159  585.9136
 160  471.7913
 161  453.8965
 162  404.5701
 163  369.5427
 164  395.7776
 165  608.6346
 166  544.4144
 167  483.6637
 168  553.2618
 169  474.5574
 170  436.014
 171  422.2137
 172  454.4515
 173  403.7431
 174  332.7874
 175  397.3144
 176  435.9324
 177  406.7928
 178  420.9793
 179  389.3261
 180  441.1654
 181  455.316
 182  381.8973
 183  418.2391
 184  519.4906
 185  443.771
 186  365.6285
 187  285.6643
 188  330.4936
 189  429.1786
 190  374.6885
 191  459.8647
 192  399.9763
 193  311.5416
 194  299.6112
 195  424.7002
 196  405.9581
 197  371.4907
 198  283.0826
 199  376.1924
 200  481.8884
 201  467.3828
 202  371.7976
 203  335.5142
 204  397.2364
 205  455.5132
 206  507.3548
 207  399.0138
 208  413.5092
 209  457.3871
 210  437.6316
 211  324.3147
 212  305.5128
 213  480.9358
 214  491.6626
 215  407.2303
 216  418.5608
 217  244.5788
 218  403.1609
 219  418.9378
 220  355.2834
 221  347.2499
 222  411.0026
 223  452.0123
 224  454.997
 225  426.4342
 226  341.3753
 227  325.6145
 228  351.8123
 229  325.4484
 230  371.7643
 231  344.3465
 232  330.1765
 233  425.7212
 234  400.4429
 235  327.3259
 236  238.3887
 237  304.7255
 238  490.0208
 239  444.9858
 240  264.5312
 241  308.8308
 242  449.4033
 243  365.3924
 244  414.2578
 245  453.3313
 246  420.2831
 247  406.5898
 248  357.2485
 249  352.8913
 250  326.9176
 251  376.6663
 252  421.21
 253  460.7988
 254  407.4671
 255  358.9354
 256  400.264
 257  507.3105
 258  369.6429
 259  275.2687
 260  304.9905
 261  411.3817
 262  410.2622
 263  364.5363
 264  437.3358
 265  410.6891
 266  418.2555
 267  397.0974
 268  513.0162
 269  535.5185
 270  345.3273
 271  314.2044
 272  332.4429
 273  388.1526
 274  414.6823
 275  486.2979
 276  438.9538
 277  417.0825
 278  510.8603
 279  386.3113
 280  494.4348
 281  410.5986
 282  437.8742
 283  384.9839
 284  360.1748
 285  390.0359
 286  355.2708
 287  305.9247
 288  455.4434
 289  406.1938
 290  377.5456
 291  384.9778
 292  382.4071
 293  348.0627
 294  322.3629
 295  424.2503
 296  357.9116
 297  337.046
 298  322.1938
 299  319.4515
 300  398.528
 301  385.4071
 302  389.6461
 303  350.3583
 304  370.6278
 305  374.2549
 306  365.3682
 307  250.4818
 308  347.7898
 309  358.4852
 310  249.3487
 311  393.579
 312  398.4987
 313  430.5582
 314  489.5983
 315  394.5275
 316  424.2807
 317  372.3326
 318  467.7588
 319  458.0602
 320  433.5167
 321  415.9023
 322  450.8048
 323  376.8279
 324  427.2586
 325  347.6796
 326  374.7192
 327  423.4111
 328  368.5215
 329  304.1823
 330  314.2859
 331  274.8462
 332  315.2166
 333  391.7291
 334  381.8429
 335  350.9873
 336  320.2479
 337  166.4876
 338  192.1418
 339  255.9072
 340  248.9784
 341  275.0675
 342  449.0198
 343  423.0372
 344  328.7791
 345  300.1763
 346  391.4134
 347  480.4306
 348  470.8113
 349  442.7078
 350  283.44
 351  280.2503
 352  422.1114
 353  321.7113
 354  344.8734
 355  498.2806
 356  480.6876
 357  399.7887
 358  332.5278
 359  276.0226
 360  400.8257
 361  399.2033
 362  344.8214
 363  243.0604
 364  205.3494
 365  159.3665
 366  166.0652
 367  345.4632
 368  325.8305
 369  328.8944
 370  340.4496
 371  353.4788
 372  385.6987
 373  367.5195
 374  373.5687
 375  294.8781
 376  369.9489
 377  430.2353
 378  359.3149
 379  290.3302
 380  271.588
 381  277.2997
 382  314.1288
 383  322.6223
 384  321.0221
 385  421.7792
 386  441.7592
 387  421.748
 388  333.9499
 389  346.0967
 390  439.9701
 391  393.8932
 392  462.9015
 393  439.9246
 394  495.1425
 395  446.4185
 396  477.9438
 397  386.9949
 398  376.963
 399  497.3286
 400  458.5906
 401  446.3883
 402  322.3607
 403  378.3808
 404  362.6519
 405  480.9501
 406  465.0429
 407  428.8332
 408  347.1432
 409  357.5973
 410  353.5801
 411  352.1716
 412  384.7657
 413  458.092
 414  378.5357
 415  382.2209
 416  324.3106
 417  504.7029
 418  442.602
 419  381.7367
 420  352.7032
 421  375.3359
 422  503.5439
 423  565.6624
 424  454.5925
 425  354.1595
 426  317.675
 427  317.144
 428  368.873
 429  321.4589
 430  356.2391
 431  452.2774
 432  276.2616
 433  282.575
 434  412.0508
 435  449.603
 436  477.709
 437  410.752
 438  493.3206
 439  556.8693
 440  449.4142
 441  408.9289
 442  404.4069
 443  474.0734
 444  464.9352
 445  424.9202
 446  470.9036
 447  412.3349
 448  441.4768
 449  409.8069
 450  464.5464
 451  429.4467
 452  368.7282
 453  399.5395
 454  432.2305
 455  470.822
 456  373.3937
 457  343.884
 458  366.5948
 459  412.5405
 460  379.8351
 461  482.1347
 462  484.7045
 463  431.3201
 464  519.2967
 465  332.6344
 466  215.1182
 467  318.447
 468  345.5985
 469  394.0563
 470  400.5522
 471  354.0673
 472  397.6732
 473  356.6721
 474  357.7331
 475  360.2433
 476  366.8088
 477  359.8383
 478  459.9672
 479  430.7489
 480  301.4559
 481  343.8351
 482  336.9678
 483  389.5653
 484  345.9261
 485  400.1376
 486  349.3867
 487  365.0768
 488  468.1259
 489  483.7358
 490  480.2859
 491  533.1172
 492  556.1683
 493  528.1898
 494  517.0048
 495  397.1943
 496  467.7803
 497  521.3542
 498  618.4118
 499  593.522
 500  491.9064
 501  397.2299
 502  435.7673
 503  567.3401
 504  711.6504
 505  678.9831
 506  547.0091
 507  527.7857
 508  510.8403
 509  712.1727
 510  926.3474
 511  1012.884
