# Input file       =  1201518865.108206_cleaned.dat
# Candidate        =  PSR_0332+5434
# Telescope        =  AR
# Epoch_topo       =  58150.468137826458
# Epoch_bary       =  N/A
# T_sample         =  0.002
# Data Folded      =  7208960
# Data Avg         =  0.011526327501128
# Data StdDev      =  0.999970408503919
# Profile Bins     =  512
# Profile Avg      =  162.281467652172 
# Profile StdDev   =  118.655664490995 
# Reduced chi-sqr  =  1.750
# Prob(Noise)      <  2.6e-23   (~9.9 sigma)
# P_topo (ms)      =  714.576074303604  +/- 0.000134
# P'_topo (s/s)    =  -0                +/- 7.19e-11
# P''_topo (s/s^2) =  0                 +/- 3.23e-14
# P_bary (ms)      =  N/A
# P'_bary (s/s)    =  N/A
# P''_bary (s/s^2) =  N/A
# P_orb (s)        =  N/A
# asin(i)/c (s)    =  N/A
# eccentricity     =  N/A
# w (rad)          =  N/A
# T_peri           =  N/A
######################################################
   0  991.3
   1  899.3836
   2  764.963
   3  639.8553
   4  462.71
   5  274.953
   6  196.5031
   7  226.1536
   8  225.2902
   9  131.5267
  10  254.5862
  11  295.8394
  12  181.9649
  13  201.9515
  14  223.8634
  15  303.0518
  16  201.4301
  17  166.1202
  18  188.1929
  19  218.8165
  20  107.0207
  21  141.037
  22  182.9052
  23  160.9916
  24  198.3077
  25  234.7244
  26  220.6072
  27  143.4704
  28  119.7513
  29  222.9297
  30  210.7005
  31  125.6655
  32  192.1836
  33  159.6185
  34  154.6715
  35  157.6207
  36  128.8419
  37  186.9105
  38  233.1845
  39  171.257
  40  256.471
  41  290.8325
  42  221.9861
  43  203.7941
  44  14.2166
  45  -53.10786
  46  137.4145
  47  134.5265
  48  208.5845
  49  239.2026
  50  187.8945
  51  -6.594523
  52  37.68993
  53  118.0943
  54  134.6897
  55  110.5402
  56  207.3222
  57  337.3822
  58  269.8919
  59  187.1723
  60  148.7528
  61  189.3702
  62  222.217
  63  174.345
  64  120.435
  65  129.6194
  66  95.7235
  67  171.1064
  68  166.5198
  69  126.0947
  70  162.1959
  71  308.8874
  72  349.0802
  73  258.6644
  74  173.4076
  75  127.2207
  76  81.33602
  77  27.52097
  78  55.31974
  79  144.9639
  80  232.9637
  81  116.6861
  82  188.319
  83  213.8603
  84  91.17445
  85  67.43955
  86  183.1897
  87  160.0668
  88  141.9568
  89  127.8812
  90  159.6733
  91  246.8561
  92  150.088
  93  203.6406
  94  216.5034
  95  125.9102
  96  220.7263
  97  165.5191
  98  229.9439
  99  222.5023
 100  171.0955
 101  -25.79199
 102  5.75528
 103  152.7463
 104  223.3322
 105  131.8783
 106  122.5333
 107  281.9743
 108  279.3546
 109  268.6583
 110  153.2329
 111  55.74952
 112  75.56944
 113  250.5013
 114  276.407
 115  276.7957
 116  298.2258
 117  229.2563
 118  110.1764
 119  -96.5939
 120  10.11183
 121  140.8508
 122  47.72104
 123  93.26128
 124  187.149
 125  60.5932
 126  10.1659
 127  42.05654
 128  164.2247
 129  150.8967
 130  120.4644
 131  83.59486
 132  72.98984
 133  148.827
 134  32.80634
 135  19.41129
 136  166.6723
 137  227.0288
 138  138.7227
 139  101.3414
 140  349.7112
 141  237.4425
 142  133.0923
 143  160.3205
 144  183.3904
 145  206.7668
 146  24.47852
 147  0.6483561
 148  114.5512
 149  96.86451
 150  -1.08595
 151  25.69599
 152  107.0698
 153  78.27907
 154  57.6936
 155  28.50471
 156  4.131372
 157  42.81834
 158  124.7945
 159  61.3903
 160  -51.38142
 161  107.4306
 162  153.6584
 163  4.890502
 164  74.99631
 165  42.70473
 166  -3.805221
 167  89.26557
 168  -103.1367
 169  63.71204
 170  152.212
 171  190.292
 172  151.9005
 173  162.2289
 174  186.6804
 175  90.89867
 176  15.25137
 177  108.345
 178  198.7597
 179  269.973
 180  361.3129
 181  268.5547
 182  155.1527
 183  54.17772
 184  50.54932
 185  99.23497
 186  46.83348
 187  30.58576
 188  260.3665
 189  338.3509
 190  228.0658
 191  196.102
 192  212.9616
 193  181.2781
 194  219.3914
 195  120.8475
 196  79.12136
 197  170.3125
 198  105.5119
 199  206.2401
 200  236.5743
 201  179.3949
 202  173.9904
 203  128.3513
 204  249.5647
 205  233.3805
 206  74.94423
 207  140.595
 208  167.3692
 209  206.1475
 210  164.0183
 211  288.782
 212  298.2789
 213  117.1636
 214  137.5456
 215  166.1073
 216  148.5397
 217  110.6876
 218  -61.59609
 219  10.33388
 220  207.6358
 221  324.0171
 222  274.3669
 223  243.0287
 224  263.3153
 225  189.0569
 226  79.85915
 227  -18.28441
 228  132.6319
 229  41.2739
 230  151.7771
 231  98.95122
 232  8.802868
 233  46.09987
 234  50.03238
 235  81.05814
 236  257.5872
 237  280.6658
 238  246.9785
 239  192.5005
 240  281.3664
 241  134.8642
 242  -23.05236
 243  128.462
 244  240.2973
 245  246.5289
 246  197.416
 247  134.8697
 248  42.31198
 249  159.8345
 250  115.2998
 251  79.62239
 252  156.1157
 253  151.3062
 254  187.834
 255  212.1555
 256  223.9747
 257  179.0116
 258  183.8836
 259  104.1522
 260  0.2491375
 261  89.09876
 262  137.7
 263  118.4426
 264  319.1111
 265  301.4482
 266  192.64
 267  12.90176
 268  -19.25545
 269  152.0115
 270  324.3099
 271  242.9854
 272  119.5041
 273  86.29208
 274  18.76648
 275  -6.538086
 276  100.8486
 277  21.0888
 278  28.02525
 279  44.83895
 280  43.67369
 281  209.9585
 282  272.8181
 283  230.5862
 284  120.1819
 285  141.7757
 286  243.0767
 287  325.1461
 288  293.1905
 289  217.5307
 290  143.2069
 291  195.1382
 292  185.7946
 293  143.19
 294  207.0551
 295  195.8362
 296  222.963
 297  249.1612
 298  248.4435
 299  198.0523
 300  140.4112
 301  98.29363
 302  76.85262
 303  195.1404
 304  302.4687
 305  279.7065
 306  278.2822
 307  187.8392
 308  25.50078
 309  61.24104
 310  175.4088
 311  121.323
 312  139.4462
 313  172.0805
 314  165.3425
 315  94.69955
 316  52.7143
 317  229.8018
 318  227.9115
 319  199.9167
 320  303.8526
 321  290.2062
 322  250.1377
 323  68.45159
 324  118.052
 325  137.0446
 326  -51.34772
 327  100.9743
 328  279.545
 329  244.7959
 330  175.4788
 331  106.0358
 332  264.3237
 333  227.9931
 334  179.8518
 335  373.933
 336  264.5407
 337  181.2813
 338  150.6134
 339  94.57611
 340  184.4527
 341  153.6822
 342  58.43965
 343  144.5372
 344  210.8257
 345  198.8315
 346  298.1299
 347  258.1708
 348  259.2136
 349  211.2214
 350  215.6915
 351  187.9228
 352  241.7978
 353  211.6509
 354  139.3097
 355  335.165
 356  411.3626
 357  189.1526
 358  101.1074
 359  17.24372
 360  60.28978
 361  221.0171
 362  246.0388
 363  196.081
 364  147.0243
 365  228.1395
 366  235.354
 367  99.18102
 368  42.17656
 369  180.1274
 370  237.3352
 371  97.24817
 372  69.03346
 373  85.91468
 374  82.57385
 375  176.577
 376  6.360951
 377  -6.323319
 378  -13.04282
 379  -124.5411
 380  -14.20233
 381  125.7146
 382  123.9434
 383  115.0594
 384  50.74794
 385  8.880565
 386  127.9567
 387  172.4983
 388  190.051
 389  151.5225
 390  224.0203
 391  273.2293
 392  281.107
 393  315.6842
 394  232.89
 395  186.2297
 396  73.58968
 397  14.81893
 398  71.67995
 399  170.5593
 400  204.0753
 401  130.419
 402  147.6583
 403  136.0833
 404  186.708
 405  301.0005
 406  236.3961
 407  280.8644
 408  203.6696
 409  141.5483
 410  240.4278
 411  239.3234
 412  148.1087
 413  107.5913
 414  178.1558
 415  100.2014
 416  37.72786
 417  141.7182
 418  173.4179
 419  194.3003
 420  280.2034
 421  225.1035
 422  138.4464
 423  55.1297
 424  80.99641
 425  126.8668
 426  180.2252
 427  222.3185
 428  170.86
 429  102.7277
 430  192.3923
 431  123.7482
 432  2.061721
 433  139.7345
 434  184.3696
 435  223.3705
 436  171.4907
 437  190.1666
 438  184.9647
 439  0.4495055
 440  49.26059
 441  30.35476
 442  91.80521
 443  126.3657
 444  147.5514
 445  135.886
 446  158.4219
 447  79.50051
 448  4.502825
 449  -33.0524
 450  96.52328
 451  95.58846
 452  90.33794
 453  10.44945
 454  -24.55721
 455  97.57073
 456  167.8679
 457  180.2513
 458  203.7304
 459  169.8776
 460  74.5076
 461  -17.70815
 462  -23.69095
 463  124.1348
 464  67.92747
 465  161.4467
 466  107.2764
 467  -17.22875
 468  138.971
 469  180.4342
 470  160.05
 471  195.1305
 472  337.9663
 473  374.5598
 474  208.5812
 475  189.261
 476  249.2851
 477  29.96971
 478  65.09618
 479  134.7549
 480  152.7929
 481  147.2285
 482  85.01729
 483  105.1306
 484  87.24166
 485  128.6772
 486  112.3503
 487  115.8717
 488  228.4258
 489  113.0479
 490  58.5976
 491  198.2084
 492  212.1983
 493  113.066
 494  88.80938
 495  174.7822
 496  249.3152
 497  145.299
 498  90.30295
 499  201.5201
 500  196.2068
 501  236.6632
 502  244.9624
 503  280.2639
 504  143.027
 505  364.29
 506  334.3243
 507  326.4977
 508  239.5461
 509  331.3665
 510  582.3279
 511  829.8923
