# Input file       =  1201260330.103407_cleaned.dat
# Candidate        =  PSR_0332+5434
# Telescope        =  AR
# Epoch_topo       =  58147.475834530174
# Epoch_bary       =  N/A
# T_sample         =  0.002
# Data Folded      =  7143424
# Data Avg         =  0.0184580350942337
# Data StdDev      =  1.00022205198933 
# Profile Bins     =  512
# Profile Avg      =  257.49800966077  
# Profile StdDev   =  118.144812948528 
# Reduced chi-sqr  =  1.877
# Prob(Noise)      <  1.03e-29   (~11.3 sigma)
# P_topo (ms)      =  714.57479808656   +/- 7.35e-05
# P'_topo (s/s)    =  -0                +/- 3.98e-11
# P''_topo (s/s^2) =  0                 +/- 1.81e-14
# P_bary (ms)      =  N/A
# P'_bary (s/s)    =  N/A
# P''_bary (s/s^2) =  N/A
# P_orb (s)        =  N/A
# asin(i)/c (s)    =  N/A
# eccentricity     =  N/A
# w (rad)          =  N/A
# T_peri           =  N/A
######################################################
   0  1045.965
   1  988.7848
   2  935.7606
   3  578.6022
   4  252.3718
   5  158.7621
   6  328.1503
   7  375.466
   8  334.5521
   9  145.3406
  10  145.3391
  11  159.2315
  12  179.3401
  13  202.4463
  14  266.8533
  15  263.6008
  16  184.7081
  17  214.3967
  18  175.1471
  19  238.4507
  20  269.1957
  21  258.7656
  22  270.672
  23  205.0992
  24  145.4144
  25  267.3962
  26  262.6821
  27  337.2558
  28  353.2609
  29  310.499
  30  222.0501
  31  241.6191
  32  272.7935
  33  219.6965
  34  115.9638
  35  349.7477
  36  432.6552
  37  320.0966
  38  251.4843
  39  255.2943
  40  257.3117
  41  185.3417
  42  157.6562
  43  216.3008
  44  271.164
  45  264.3368
  46  262.2749
  47  307.5391
  48  357.1448
  49  189.8099
  50  165.0178
  51  150.498
  52  250.2138
  53  366.4684
  54  290.2471
  55  273.8348
  56  133.3183
  57  189.4745
  58  238.0904
  59  101.7321
  60  171.586
  61  195.2118
  62  225.9659
  63  246.7681
  64  298.1926
  65  324.6453
  66  373.5673
  67  337.2026
  68  328.8766
  69  267.0799
  70  126.3951
  71  55.72335
  72  73.39197
  73  149.4664
  74  163.7767
  75  76.05402
  76  212.6026
  77  168.0363
  78  231.3402
  79  371.6864
  80  316.0157
  81  294.4877
  82  290.5371
  83  233.8969
  84  175.5545
  85  132.5968
  86  137.9703
  87  186.2079
  88  249.9562
  89  351.3639
  90  242.8563
  91  156.791
  92  221.1444
  93  170.6286
  94  92.77126
  95  171.1277
  96  293.7345
  97  235.0253
  98  190.8171
  99  80.04628
 100  214.0918
 101  323.8002
 102  377.6829
 103  314.7274
 104  400.7661
 105  450.3339
 106  302.7668
 107  258.7535
 108  358.0717
 109  295.4196
 110  186.9776
 111  132.2512
 112  177.1045
 113  326.1901
 114  357.3385
 115  366.9734
 116  326.2017
 117  335
 118  354.1215
 119  198.9924
 120  199.7927
 121  289.7858
 122  308.966
 123  128.0522
 124  272.1754
 125  258.3178
 126  116.1309
 127  241.5507
 128  278.2205
 129  354.9414
 130  328.1724
 131  252.5664
 132  274.313
 133  136.0225
 134  130.4081
 135  258.4478
 136  206.5719
 137  316.2596
 138  372.1283
 139  262.972
 140  275.2549
 141  202.3166
 142  183.9443
 143  210.046
 144  219.2925
 145  332.9256
 146  339.2755
 147  295.8168
 148  305.3516
 149  259.4866
 150  207.8006
 151  275.2252
 152  234.5623
 153  237.2956
 154  216.0486
 155  157.0717
 156  273.7043
 157  264.0307
 158  125.1927
 159  197.8976
 160  359.1468
 161  323.8974
 162  378.9155
 163  396.0702
 164  214.4281
 165  269.8947
 166  196.1486
 167  210.34
 168  183.2205
 169  285.1669
 170  307.9366
 171  316.9348
 172  376.6401
 173  263.6409
 174  131.9225
 175  42.74155
 176  196.4115
 177  312.9917
 178  393.736
 179  377.435
 180  314.0666
 181  307.8203
 182  250.9444
 183  117.3721
 184  189.1546
 185  212.9174
 186  338.6242
 187  417.8867
 188  303.4169
 189  260.6327
 190  245.7881
 191  141.3073
 192  153.2008
 193  221.6897
 194  324.4195
 195  307.5173
 196  159.6421
 197  222.6387
 198  90.17509
 199  160.8414
 200  270.3954
 201  286.9995
 202  291.0949
 203  422.0645
 204  404.9868
 205  277.7047
 206  219.4211
 207  223.043
 208  141.4536
 209  124.1652
 210  145.2502
 211  298.5308
 212  290.2549
 213  159.8422
 214  200.8823
 215  151.3526
 216  221.853
 217  200.3223
 218  133.6776
 219  403.9084
 220  332.7339
 221  201.5557
 222  262.264
 223  193.3734
 224  198.3941
 225  118.6732
 226  201.0422
 227  249.6844
 228  324.2375
 229  278.0656
 230  181.9439
 231  98.74621
 232  43.10679
 233  335.2959
 234  375.3645
 235  244.9235
 236  231.997
 237  148.2295
 238  217.0717
 239  273.261
 240  153.9906
 241  183.8368
 242  129.4596
 243  233.4587
 244  319.3789
 245  281.4853
 246  296.2411
 247  336.7015
 248  165.9171
 249  164.4901
 250  253.8721
 251  228.4027
 252  151.9678
 253  327.3582
 254  337.6899
 255  295.9211
 256  258.853
 257  109.3538
 258  111.2276
 259  49.01226
 260  98.98757
 261  364.6786
 262  490.3235
 263  422.9884
 264  167.9111
 265  179.3064
 266  269.0616
 267  151.3441
 268  128.1918
 269  226.8942
 270  191.1852
 271  5.736626
 272  57.32291
 273  100.3949
 274  131.7802
 275  386.3703
 276  390.8467
 277  364.9624
 278  403.9874
 279  339.3001
 280  157.7097
 281  214.1011
 282  326.7889
 283  336.4968
 284  388.4926
 285  314.4705
 286  380.0791
 287  292.5111
 288  317.2936
 289  370.2222
 290  247.5055
 291  297.4118
 292  286.9872
 293  230.4831
 294  220.4289
 295  349.6388
 296  268.6839
 297  271.5415
 298  256.8042
 299  182.6673
 300  168.6757
 301  153.5515
 302  303.1573
 303  407.4521
 304  346.2735
 305  276.2343
 306  130.004
 307  47.9316
 308  28.13906
 309  139.4255
 310  143.495
 311  277.5184
 312  286.917
 313  219.8958
 314  157.8308
 315  76.67648
 316  171.4192
 317  206.6066
 318  280.1864
 319  331.982
 320  386.7611
 321  276.999
 322  51.53841
 323  77.70013
 324  188.9083
 325  206.477
 326  169.7348
 327  283.6438
 328  234.0687
 329  123.6438
 330  123.7674
 331  227.7736
 332  246.1584
 333  147.329
 334  382.2176
 335  335.5666
 336  332.1718
 337  195.3377
 338  214.1628
 339  277.322
 340  126.5398
 341  256.9996
 342  323.8368
 343  231.2236
 344  345.7011
 345  390.5918
 346  312.2127
 347  289.9552
 348  326.1054
 349  228.1848
 350  303.2564
 351  314.6549
 352  275.5377
 353  389.3508
 354  359.2502
 355  260.3001
 356  153.4215
 357  276.2692
 358  326.6409
 359  344.459
 360  303.7523
 361  210.4232
 362  299.5975
 363  197.2906
 364  21.04525
 365  151.0007
 366  246.2366
 367  273.8819
 368  232.541
 369  341.0196
 370  302.6839
 371  237.8905
 372  306.8545
 373  237.0662
 374  204.3306
 375  204.1549
 376  243.1806
 377  123.8727
 378  227.7758
 379  339.6141
 380  309.934
 381  275.4194
 382  259.1832
 383  215.1174
 384  297.1353
 385  435.0307
 386  320.4491
 387  279.5428
 388  169.5632
 389  274.7566
 390  347.3909
 391  203.6708
 392  136.9375
 393  366.7396
 394  441.5226
 395  341.4028
 396  224.1908
 397  190.9336
 398  180.0813
 399  286.3035
 400  188.9713
 401  144.7533
 402  303.9999
 403  398.3038
 404  419.606
 405  201.555
 406  138.8312
 407  245.9797
 408  77.09847
 409  56.34297
 410  279.8208
 411  295.1371
 412  237.1446
 413  178.4344
 414  104.6557
 415  209.7409
 416  351.9128
 417  314.1381
 418  325.282
 419  242.5995
 420  192.7958
 421  263.2047
 422  177.6302
 423  216.3784
 424  421.059
 425  367.7698
 426  412.9759
 427  408.2426
 428  349.8994
 429  270.1465
 430  278.2619
 431  89.80704
 432  64.93377
 433  268.4996
 434  340.681
 435  279.8164
 436  261.1862
 437  111.3229
 438  205.9083
 439  200.2796
 440  99.68156
 441  73.17296
 442  305.667
 443  399.4395
 444  391.5083
 445  227.5421
 446  300.0955
 447  173.9341
 448  233.4211
 449  399.6118
 450  156.6556
 451  216.4244
 452  222.695
 453  124.4874
 454  222.22
 455  203.4767
 456  286.4897
 457  343.0707
 458  380.4053
 459  264.4023
 460  180.4357
 461  206.5192
 462  219.1096
 463  166.1156
 464  180.5732
 465  110.2809
 466  150.5385
 467  270.7096
 468  301.7586
 469  241.8418
 470  102.2347
 471  150.3835
 472  185.9251
 473  149.3498
 474  116.3841
 475  350.4423
 476  350.9282
 477  348.6302
 478  278.9742
 479  162.9072
 480  245.2572
 481  344.1725
 482  244.617
 483  235.1059
 484  284.9821
 485  319.1164
 486  260.0575
 487  216.2067
 488  272.1921
 489  195.1819
 490  196.0179
 491  374.7249
 492  507.7221
 493  526.0437
 494  442.8577
 495  298.9223
 496  335.4638
 497  355.3271
 498  382.83
 499  326.7006
 500  288.0891
 501  319.6586
 502  347.1628
 503  282.5508
 504  174.5815
 505  256.027
 506  223.372
 507  298.8144
 508  578.8902
 509  722.5905
 510  874.8593
 511  971.6364
