# Input file       =  1201203673.107899_cleaned.dat
# Candidate        =  PSR_0332+5434
# Telescope        =  AR
# Epoch_topo       =  58146.820082267346
# Epoch_bary       =  N/A
# T_sample         =  0.002
# Data Folded      =  7340032
# Data Avg         =  0.0216723754565512
# Data StdDev      =  1.00005490027435 
# Profile Bins     =  512
# Profile Avg      =  310.813235258075 
# Profile StdDev   =  119.739609753311 
# Reduced chi-sqr  =  1.102
# Prob(Noise)      <  0.0553   (~1.6 sigma)
# P_topo (ms)      =  714.574851549887  +/- 0.000274
# P'_topo (s/s)    =  -0                +/- 1.45e-10
# P''_topo (s/s^2) =  0                 +/- 6.39e-14
# P_bary (ms)      =  N/A
# P'_bary (s/s)    =  N/A
# P''_bary (s/s^2) =  N/A
# P_orb (s)        =  N/A
# asin(i)/c (s)    =  N/A
# eccentricity     =  N/A
# w (rad)          =  N/A
# T_peri           =  N/A
######################################################
   0  920.6687
   1  883.4552
   2  595.0632
   3  423.4782
   4  333.6683
   5  315.9824
   6  331.822
   7  430.7931
   8  450.3289
   9  296.5591
  10  271.4029
  11  276.7491
  12  342.0893
  13  266.3148
  14  331.5313
  15  386.3326
  16  333.2002
  17  320.1645
  18  356.2638
  19  287.6993
  20  319.7695
  21  393.0485
  22  338.1815
  23  284.168
  24  203.034
  25  283.7311
  26  328.3831
  27  246.9524
  28  367.7958
  29  318.0888
  30  322.2836
  31  350.6972
  32  353.6986
  33  473.5608
  34  404.3585
  35  359.0893
  36  339.1021
  37  377.71
  38  316.8417
  39  258.7234
  40  266.1677
  41  221.8678
  42  214.8646
  43  149.5153
  44  275.2978
  45  465.7238
  46  379.1874
  47  391.5363
  48  350.0652
  49  259.8388
  50  246.2698
  51  334.1814
  52  293.4906
  53  188.7742
  54  207.5547
  55  229.0562
  56  61.95782
  57  91.16627
  58  123.4529
  59  221.2527
  60  213.3487
  61  281.4062
  62  334.9188
  63  260.9798
  64  229.0845
  65  271.8131
  66  184.7607
  67  201.7727
  68  209.3438
  69  261.7294
  70  277.9447
  71  197.0023
  72  282.1494
  73  249.9803
  74  282.512
  75  239.8009
  76  344.9221
  77  344.3937
  78  295.9873
  79  321.4276
  80  231.0149
  81  215.9778
  82  201.605
  83  271.4609
  84  190.9693
  85  123.3688
  86  182.7917
  87  217.7782
  88  226.0796
  89  298.0376
  90  289.5393
  91  305.8234
  92  258.7113
  93  247.1229
  94  210.149
  95  218.2449
  96  258.68
  97  295.5236
  98  307.2005
  99  229.0961
 100  252.7636
 101  210.477
 102  307.9144
 103  230.0793
 104  184.3397
 105  244.9977
 106  232.5818
 107  299.0104
 108  227.3738
 109  218.7745
 110  320.2113
 111  252.9711
 112  298.3983
 113  234.0176
 114  396.6323
 115  230.5197
 116  256.8282
 117  368.2236
 118  264.7725
 119  245.8027
 120  338.5234
 121  232.1136
 122  312.6762
 123  386.5844
 124  333.2966
 125  371.6133
 126  264.7425
 127  238.0852
 128  258.8972
 129  326.9766
 130  220.9574
 131  219.7034
 132  300.7844
 133  326.2647
 134  287.7408
 135  263.7771
 136  286.5548
 137  291.3169
 138  233.5243
 139  232.4814
 140  356.36
 141  436.1633
 142  304.8296
 143  223.5365
 144  238.9428
 145  337.4613
 146  265.2425
 147  291.2282
 148  341.282
 149  177.1442
 150  238.9157
 151  314.5475
 152  341.0257
 153  260.2439
 154  235.9304
 155  253.2207
 156  320.1482
 157  344.2804
 158  240.7292
 159  161.8762
 160  276.1739
 161  215.379
 162  318.6104
 163  269.2453
 164  212.6435
 165  207.2296
 166  199.0597
 167  197.8537
 168  219.7761
 169  321.7887
 170  276.9052
 171  173.2875
 172  265.2009
 173  380.8283
 174  298.6234
 175  326.2775
 176  424.6147
 177  347.5585
 178  288.6566
 179  268.6273
 180  408.4684
 181  302.1254
 182  187.9068
 183  243.8772
 184  257.7968
 185  302.833
 186  207.4429
 187  181.9522
 188  326.6618
 189  387.8994
 190  348.4275
 191  327.2444
 192  278.7488
 193  250.9585
 194  192.4309
 195  160.1476
 196  133.394
 197  233.1107
 198  308.1242
 199  297.1996
 200  326.1563
 201  323.9806
 202  299.3073
 203  241.7315
 204  314.9044
 205  376.7774
 206  232.1716
 207  240.6694
 208  285.7461
 209  220.7484
 210  176.4499
 211  130.9565
 212  182.2892
 213  184.0752
 214  271.7835
 215  162.1804
 216  220.3635
 217  330.6076
 218  406.1529
 219  262.6058
 220  268.8159
 221  252.9705
 222  360.6728
 223  375.8568
 224  343.2632
 225  276.6635
 226  334.1934
 227  275.9672
 228  228.8291
 229  284.8607
 230  291.346
 231  222.5305
 232  407.1267
 233  360.9973
 234  400.8096
 235  330.2287
 236  329.6241
 237  280.6349
 238  363.2852
 239  443.1634
 240  440.1288
 241  350.8618
 242  313.727
 243  228.7332
 244  288.0249
 245  334.0139
 246  247.0487
 247  331.6397
 248  374.2034
 249  326.4966
 250  368.3722
 251  320.2794
 252  248.4337
 253  174.272
 254  294.27
 255  402.9452
 256  425.4261
 257  353.8568
 258  352.8263
 259  282.0775
 260  277.5648
 261  281.3602
 262  446.9832
 263  510.0097
 264  407.3055
 265  398.2077
 266  304.5484
 267  339.4306
 268  338.0501
 269  353.8113
 270  393.5536
 271  280.4055
 272  259.6083
 273  360.2871
 274  353.3358
 275  337.2207
 276  353.6876
 277  338.0971
 278  264.8959
 279  318.2021
 280  183.4425
 281  163.6675
 282  196.9152
 283  278.0068
 284  308.2266
 285  328.6494
 286  344.278
 287  314.4847
 288  245.1601
 289  246.5032
 290  295.4677
 291  368.5947
 292  295.7897
 293  270.2836
 294  248.5112
 295  252.2922
 296  285.2962
 297  250.0235
 298  281.7256
 299  207.5492
 300  258.3487
 301  255.0062
 302  321.0991
 303  190.3844
 304  244.742
 305  238.8173
 306  324.4655
 307  323.2064
 308  289.908
 309  370.5576
 310  256.1169
 311  184.9563
 312  273.8054
 313  378.3962
 314  369.5591
 315  411.039
 316  383.4015
 317  382.7147
 318  336.6053
 319  268.7349
 320  239.4099
 321  332.8008
 322  355.7808
 323  353.533
 324  283.8904
 325  266.0415
 326  232.8661
 327  178.931
 328  369.0421
 329  368.2891
 330  323.6416
 331  368.5179
 332  306.1639
 333  310.0297
 334  270.7177
 335  296.3967
 336  307.6013
 337  368.553
 338  296.035
 339  260.4182
 340  333.1293
 341  411.4084
 342  283.9565
 343  243.3771
 344  285.3214
 345  327.9089
 346  233.7705
 347  286.426
 348  228.3643
 349  165.7168
 350  287.7737
 351  305.9124
 352  266.174
 353  355.4389
 354  276.3123
 355  236.0569
 356  316.0117
 357  228.9959
 358  245.6116
 359  356.9216
 360  314.8709
 361  352.5307
 362  306.9518
 363  314.0044
 364  294.3679
 365  263.7187
 366  300.8014
 367  232.5933
 368  278.8943
 369  337.9642
 370  396.5567
 371  459.2406
 372  435.1725
 373  413.5247
 374  420.7226
 375  378.9892
 376  469.1935
 377  447.9496
 378  381.0933
 379  281.933
 380  341.2416
 381  403.7175
 382  282.134
 383  349.2849
 384  390.499
 385  366.3969
 386  389.5895
 387  322.0697
 388  317.5723
 389  250.3779
 390  234.2261
 391  284.1641
 392  328.7233
 393  239.7499
 394  281.2503
 395  350.6769
 396  371.4465
 397  400.6733
 398  365.8701
 399  313.8549
 400  402.3408
 401  375.8537
 402  412.6552
 403  429.8715
 404  421.4021
 405  478.5743
 406  343.0815
 407  262.9941
 408  313.209
 409  293.442
 410  303.2833
 411  350.9579
 412  279.7191
 413  281.9155
 414  223.1649
 415  341.4828
 416  363.3102
 417  269.3853
 418  406.5364
 419  435.8003
 420  337.7626
 421  304.0919
 422  348.751
 423  240.3747
 424  203.159
 425  329.0772
 426  242.9054
 427  303.3325
 428  381.4157
 429  407.4799
 430  322.3804
 431  286.302
 432  338.83
 433  393.6811
 434  303.7581
 435  372.9675
 436  266.6319
 437  253.0318
 438  248.7971
 439  261.4406
 440  252.5336
 441  273.1703
 442  343.3454
 443  310.2264
 444  406.7105
 445  424.7027
 446  414.9878
 447  339.4845
 448  392.1832
 449  440.3871
 450  312.3118
 451  350.3746
 452  332.0881
 453  221.3605
 454  238.2943
 455  300.381
 456  476.1146
 457  333.3129
 458  277.8393
 459  357.5778
 460  445.3722
 461  340.9191
 462  329.7409
 463  346.498
 464  356.4125
 465  402.5031
 466  282.107
 467  298.3452
 468  369.3019
 469  387.9319
 470  420.5338
 471  432.9234
 472  316.7065
 473  259.4103
 474  377.7769
 475  408.3185
 476  475.9768
 477  535.6355
 478  419.878
 479  457.8959
 480  382.3794
 481  278.1984
 482  245.7867
 483  271.851
 484  371.2918
 485  253.799
 486  195.542
 487  293.0887
 488  296.5867
 489  297.805
 490  351.6804
 491  472.7128
 492  402.1492
 493  296.9517
 494  365.108
 495  361.6121
 496  260.1077
 497  302.2765
 498  382.7318
 499  374.8854
 500  389.7243
 501  273.6641
 502  298.9379
 503  329.596
 504  301.8149
 505  414.6046
 506  489.3644
 507  502.7064
 508  570.8033
 509  607.0359
 510  804.8569
 511  909.7681
