# Input file       =  1201447310.101719_cleaned.dat
# Candidate        =  PSR_0332+5434
# Telescope        =  AR
# Epoch_topo       =  58149.639954881008
# Epoch_bary       =  N/A
# T_sample         =  0.002
# Data Folded      =  7340032
# Data Avg         =  0.0298105325585444
# Data StdDev      =  1.00009041681344 
# Profile Bins     =  512
# Profile Avg      =  427.345176321985 
# Profile StdDev   =  119.743862256378 
# Reduced chi-sqr  =  1.241
# Prob(Noise)      <  0.000156   (~3.6 sigma)
# P_topo (ms)      =  714.575752604901  +/- 0.000286
# P'_topo (s/s)    =  -0                +/- 1.51e-10
# P''_topo (s/s^2) =  0                 +/- 6.67e-14
# P_bary (ms)      =  N/A
# P'_bary (s/s)    =  N/A
# P''_bary (s/s^2) =  N/A
# P_orb (s)        =  N/A
# asin(i)/c (s)    =  N/A
# eccentricity     =  N/A
# w (rad)          =  N/A
# T_peri           =  N/A
######################################################
   0  1057.63
   1  1055.83
   2  937.922
   3  889.1672
   4  581.4161
   5  434.8042
   6  437.9101
   7  417.2659
   8  477.7708
   9  519.6189
  10  601.6769
  11  435.3273
  12  426.8825
  13  476.9885
  14  423.1808
  15  355.0785
  16  376.8325
  17  409.9668
  18  385.1642
  19  381.887
  20  429.2958
  21  449.6727
  22  446.656
  23  438.2151
  24  314.6667
  25  380.2119
  26  548.8698
  27  558.6012
  28  487.2407
  29  424.3221
  30  416.7453
  31  331.5732
  32  338.2209
  33  362.1644
  34  379.1661
  35  285.3793
  36  237.177
  37  261.6183
  38  243.9597
  39  212.9085
  40  190.3571
  41  353.3143
  42  431.0572
  43  393.5571
  44  423.2222
  45  476.1885
  46  352.1315
  47  389.6694
  48  487.6689
  49  422.9957
  50  335.7567
  51  332.287
  52  361.4168
  53  249.2743
  54  270.624
  55  333.3636
  56  320.3462
  57  332.8705
  58  286.57
  59  317.6035
  60  370.2894
  61  384.5517
  62  433.6879
  63  377.8291
  64  393.4885
  65  367.8074
  66  352.7387
  67  431.8391
  68  410.295
  69  489.4189
  70  506.3672
  71  424.9037
  72  294.1861
  73  338.7963
  74  389.7188
  75  460.1749
  76  499.3137
  77  495.7121
  78  393.7121
  79  430.2453
  80  343.1526
  81  362.747
  82  359.2245
  83  376.8428
  84  381.7589
  85  389.6474
  86  452.2783
  87  388.2776
  88  399.9447
  89  450.2784
  90  293.335
  91  334.1621
  92  446.5508
  93  527.6136
  94  407.6564
  95  401.6113
  96  454.0844
  97  416.9918
  98  407.2975
  99  460.0294
 100  447.1691
 101  320.0833
 102  275.6927
 103  342.0666
 104  356.4523
 105  349.9189
 106  419.0032
 107  484.1315
 108  325.9216
 109  355.8765
 110  462.1653
 111  348.6692
 112  361.8028
 113  392.3492
 114  458.8856
 115  326.4466
 116  403.2709
 117  426.6548
 118  384.3383
 119  471.2348
 120  570.8408
 121  525.9058
 122  379.011
 123  460.9805
 124  424.757
 125  468.6671
 126  355.8987
 127  345.6935
 128  421.2697
 129  417.5514
 130  382.3479
 131  280.2089
 132  391.9815
 133  491.7591
 134  422.5729
 135  430.3764
 136  442.0112
 137  439.3323
 138  376.3661
 139  454.2518
 140  508.3686
 141  364.6201
 142  398.163
 143  516.479
 144  443.5488
 145  474.5793
 146  436.2795
 147  435.4507
 148  438.8852
 149  409.4602
 150  536.4927
 151  555.6315
 152  468.4762
 153  422.3517
 154  373.9142
 155  502.1894
 156  461.3799
 157  449.2462
 158  456.4521
 159  444.9935
 160  526.9779
 161  583.7712
 162  437.8911
 163  482.0866
 164  454.6687
 165  465.7475
 166  450.9509
 167  450.0201
 168  588.1407
 169  542.1708
 170  446.4082
 171  445.5597
 172  453.6628
 173  445.1975
 174  308.3452
 175  400.9925
 176  522.7935
 177  507.1254
 178  538.596
 179  439.3556
 180  457.3076
 181  573.2706
 182  537.5383
 183  529.6917
 184  472.9376
 185  415.1857
 186  405.5132
 187  353.2423
 188  361.1455
 189  417.283
 190  467.789
 191  421.0628
 192  416.8308
 193  469.1526
 194  426.4289
 195  452.0736
 196  506.7301
 197  541.7188
 198  553.4862
 199  522.5643
 200  534.8292
 201  509.208
 202  486.1087
 203  432.9494
 204  467.9603
 205  500.5218
 206  481.9381
 207  577.2789
 208  554.1347
 209  526.5554
 210  485.788
 211  597.254
 212  610.1223
 213  537.0674
 214  524.3422
 215  397.3671
 216  378.9741
 217  489.0858
 218  398.8515
 219  384.0467
 220  380.8475
 221  473.2993
 222  459.3759
 223  633.7733
 224  535.511
 225  338.2085
 226  311.8145
 227  514.8214
 228  593.0248
 229  654.9
 230  587.3923
 231  504.8813
 232  486.2821
 233  538.3494
 234  445.5937
 235  351.9822
 236  387.1734
 237  427.0689
 238  504.2834
 239  451.7534
 240  494.184
 241  491.7953
 242  508.8482
 243  480.8887
 244  541.9768
 245  536.1856
 246  533.1252
 247  569.8328
 248  476.2169
 249  496.1794
 250  490.4191
 251  416.9736
 252  479.1601
 253  455.8471
 254  542.5471
 255  463.1907
 256  310.859
 257  420.8197
 258  455.7862
 259  403.9839
 260  356.9089
 261  307.3581
 262  458.6772
 263  343.514
 264  293.9184
 265  337.6978
 266  397.6414
 267  415.8254
 268  445.0691
 269  354.4464
 270  308.9023
 271  267.0217
 272  375.6911
 273  429.4239
 274  498.6249
 275  453.2783
 276  449.0724
 277  394.8219
 278  424.1922
 279  554.585
 280  537.1679
 281  497.8109
 282  503.5879
 283  390.9114
 284  517.6547
 285  540.33
 286  465.1419
 287  445.0731
 288  477.7513
 289  509.4253
 290  508.0692
 291  535.2271
 292  396.1171
 293  394.134
 294  486.2217
 295  422.3337
 296  391.2726
 297  414.6137
 298  429.2174
 299  546.1107
 300  471.0215
 301  446.2868
 302  390.0951
 303  513.5286
 304  504.7191
 305  429.8026
 306  356.9059
 307  466.6617
 308  558.6169
 309  550.2001
 310  493.8044
 311  480.6622
 312  433.5493
 313  394.5235
 314  399.5209
 315  338.9617
 316  368.7513
 317  441.661
 318  395.6459
 319  346.3608
 320  325.8828
 321  361.5789
 322  386.699
 323  429.1984
 324  406.1339
 325  415.4409
 326  418.9374
 327  384.6689
 328  362.0037
 329  372.3869
 330  368.1048
 331  452.5403
 332  338.9409
 333  427.9903
 334  447.1654
 335  358.7834
 336  342.6214
 337  371.5012
 338  411.8116
 339  528.7589
 340  589.0385
 341  449.7682
 342  389.4778
 343  406.0996
 344  413.2602
 345  415.701
 346  355.048
 347  435.0726
 348  499.5642
 349  448.9703
 350  487.5612
 351  412.9912
 352  367.2173
 353  427.694
 354  463.7048
 355  525.5971
 356  382.2708
 357  363.3801
 358  365.0445
 359  360.8103
 360  412.1515
 361  457.2038
 362  434.6423
 363  397.5539
 364  358.3567
 365  454.6678
 366  385.1394
 367  291.9153
 368  331.7036
 369  312.4466
 370  352.2592
 371  374.3637
 372  310.7847
 373  372.7794
 374  373.6407
 375  521.0266
 376  525.2731
 377  446.4804
 378  577.8821
 379  456.8678
 380  403.6749
 381  394.4003
 382  432.0215
 383  401.8271
 384  383.3287
 385  478.9358
 386  430.2731
 387  291.7708
 388  292.8557
 389  254.9833
 390  277.9446
 391  369.8957
 392  432.1859
 393  423.5744
 394  323.334
 395  332.3005
 396  348.4629
 397  403.3954
 398  419.9698
 399  320.6823
 400  327.9297
 401  340.804
 402  288.3331
 403  382.95
 404  390.9334
 405  342.217
 406  308.0475
 407  331.4581
 408  410.7503
 409  458.3949
 410  401.6572
 411  420.478
 412  457.2333
 413  410.4456
 414  355.0754
 415  410.0352
 416  417.3674
 417  335.1334
 418  322.3422
 419  489.7935
 420  480.155
 421  501.9496
 422  412.6942
 423  313.278
 424  393.5687
 425  347.5403
 426  402.5667
 427  371.0587
 428  333.3971
 429  330.0539
 430  311.8298
 431  291.8693
 432  297.7675
 433  387.0196
 434  311.0693
 435  263.7919
 436  337.4766
 437  372.4618
 438  317.9707
 439  430.6732
 440  448.3811
 441  386.3035
 442  322.4649
 443  454.2139
 444  416.469
 445  404.3597
 446  413.5036
 447  404.0731
 448  403.1702
 449  372.8878
 450  451.2157
 451  443.7699
 452  488.0106
 453  517.7045
 454  486.2861
 455  276.7264
 456  238.5646
 457  368.8849
 458  458.3967
 459  333.5843
 460  263.2812
 461  342.2454
 462  332.6791
 463  470.2016
 464  440.3887
 465  375.0279
 466  334.0791
 467  357.3785
 468  333.8412
 469  326.0333
 470  348.8263
 471  405.7256
 472  397.6928
 473  246.4074
 474  268.4071
 475  320.7219
 476  331.475
 477  385.8206
 478  441.699
 479  459.4585
 480  455.2828
 481  336.7984
 482  399.8253
 483  516.2532
 484  440.2947
 485  410.1529
 486  372.1089
 487  409.6807
 488  446.7778
 489  462.3656
 490  538.0632
 491  419.7248
 492  397.0202
 493  482.1489
 494  521.9946
 495  453.4236
 496  391.3349
 497  410.3539
 498  306.736
 499  367.5629
 500  441.5824
 501  449.4733
 502  445.1173
 503  450.3827
 504  466.4525
 505  635.6901
 506  594.6273
 507  594.4244
 508  550.1063
 509  587.1703
 510  829.3837
 511  956.3363
