# Input file       =  1201634619.11026_cleaned.dat
# Candidate        =  PSR_0332+5434
# Telescope        =  AR
# Epoch_topo       =  58151.807883220601
# Epoch_bary       =  N/A
# T_sample         =  0.002
# Data Folded      =  7340032
# Data Avg         =  0.0149116338069507
# Data StdDev      =  1.00002027179845 
# Profile Bins     =  512
# Profile Avg      =  213.726693748023 
# Profile StdDev   =  119.735463580747 
# Reduced chi-sqr  =  1.036
# Prob(Noise)      <  0.28   (~0.6 sigma)
# P_topo (ms)      =  714.576956893576  +/- 0.000672
# P'_topo (s/s)    =  -0                +/- 3.55e-10
# P''_topo (s/s^2) =  0                 +/- 1.57e-13
# P_bary (ms)      =  N/A
# P'_bary (s/s)    =  N/A
# P''_bary (s/s^2) =  N/A
# P_orb (s)        =  N/A
# asin(i)/c (s)    =  N/A
# eccentricity     =  N/A
# w (rad)          =  N/A
# T_peri           =  N/A
######################################################
   0  815.6718
   1  624.9296
   2  429.4764
   3  327.4891
   4  196.4584
   5  159.9266
   6  206.3255
   7  196.0343
   8  203.8732
   9  242.714
  10  306.9294
  11  206.3607
  12  221.8852
  13  264.4692
  14  207.4986
  15  209.8768
  16  256.325
  17  285.5198
  18  250.7785
  19  174.1259
  20  176.031
  21  124.8666
  22  173.5934
  23  209.7928
  24  201.7228
  25  123.0509
  26  195.1628
  27  268.5261
  28  131.0707
  29  250.825
  30  281.8868
  31  394.9319
  32  271.6852
  33  178.751
  34  107.7208
  35  80.17045
  36  157.3433
  37  212.2844
  38  269.7567
  39  188.7794
  40  100.389
  41  2.599277
  42  16.34579
  43  258.6938
  44  239.264
  45  216.5282
  46  320.2881
  47  236.7003
  48  186.5177
  49  88.14463
  50  52.8663
  51  42.06576
  52  119.9862
  53  195.7431
  54  141.5699
  55  105.2031
  56  180.2021
  57  298.0173
  58  185.029
  59  261.9482
  60  325.2743
  61  215.1817
  62  190.7243
  63  210.612
  64  312.1656
  65  233.0605
  66  146.3835
  67  187.5931
  68  140.9584
  69  224.4756
  70  236.3471
  71  239.2997
  72  297.5015
  73  213.0962
  74  256.0564
  75  214.5503
  76  233.5653
  77  138.1012
  78  276.0685
  79  299.0367
  80  215.3409
  81  152.5255
  82  56.85569
  83  148.4537
  84  206.7385
  85  158.1184
  86  176.0405
  87  226.7127
  88  230.7179
  89  212.8877
  90  121.5437
  91  223.0731
  92  222.0807
  93  342.1035
  94  256.1689
  95  182.4367
  96  234.1579
  97  225.137
  98  229.6809
  99  166.4572
 100  273.1553
 101  236.3426
 102  178.2418
 103  277.5622
 104  266.1213
 105  131.8421
 106  34.33487
 107  -13.1825
 108  295.6121
 109  387.112
 110  455.1686
 111  415.3154
 112  263.1823
 113  63.82133
 114  126.2584
 115  167.7247
 116  194.2665
 117  245.3643
 118  202.177
 119  176.8317
 120  238.1986
 121  292.2461
 122  260.1823
 123  221.8798
 124  171.872
 125  201.0949
 126  150.069
 127  185.3569
 128  242.4065
 129  289.3051
 130  285.2813
 131  261.6349
 132  121.7511
 133  225.8839
 134  351.2015
 135  208.7796
 136  124.1525
 137  238.0513
 138  310.2416
 139  183.0428
 140  23.72795
 141  159.0774
 142  263.0405
 143  312.7582
 144  384.9154
 145  338.7366
 146  211.8819
 147  165.9012
 148  121.2617
 149  121.6927
 150  195.7798
 151  258.2615
 152  283.1213
 153  264.4565
 154  290.7189
 155  190.4819
 156  237.6452
 157  255.5111
 158  204.4416
 159  221.8773
 160  180.7055
 161  161.676
 162  116.1059
 163  150.8687
 164  150.3566
 165  192.5778
 166  247.1424
 167  225.5805
 168  210.7261
 169  177.0949
 170  125.8488
 171  250.2817
 172  196.4127
 173  41.00583
 174  132.3474
 175  187.4735
 176  149.9892
 177  195.2336
 178  240.9678
 179  297.0266
 180  319.3228
 181  270.0847
 182  254.0022
 183  230.4717
 184  241.1137
 185  230.0045
 186  248.6469
 187  215.6209
 188  257.2567
 189  170.6423
 190  301.1871
 191  222.3949
 192  244.1667
 193  156.166
 194  92.23031
 195  184.0311
 196  199.5966
 197  245.8751
 198  297.7984
 199  260.061
 200  193.0223
 201  107.9737
 202  189.0904
 203  272.7804
 204  169.3547
 205  181.6423
 206  271.9988
 207  225.4212
 208  115.2592
 209  197.8154
 210  238.7566
 211  138.2748
 212  180.3559
 213  102.4442
 214  146.6901
 215  111.9522
 216  119.515
 217  279.9796
 218  257.9919
 219  183.9175
 220  203.599
 221  284.43
 222  238.0291
 223  112.6855
 224  227.476
 225  229.2573
 226  105.5935
 227  152.2735
 228  335.2741
 229  329.7403
 230  86.30404
 231  39.51226
 232  165.7517
 233  121.0624
 234  246.7137
 235  299.8752
 236  205.766
 237  276.1238
 238  269.9277
 239  217.5991
 240  311.2397
 241  239.1144
 242  199.3385
 243  278.5798
 244  336.3861
 245  206.5851
 246  54.03205
 247  219.8369
 248  311.3608
 249  199.896
 250  227.5205
 251  190.3326
 252  194.7919
 253  170.3795
 254  302.0142
 255  191.937
 256  210.9649
 257  195.1963
 258  225.6614
 259  221.3479
 260  214.6171
 261  215.5064
 262  149.0588
 263  174.8071
 264  259.1694
 265  259.2956
 266  90.16982
 267  44.02056
 268  181.8935
 269  246.7695
 270  245.3051
 271  186.9788
 272  171.0552
 273  174.5263
 274  246.9589
 275  178.0474
 276  195.7173
 277  314.2961
 278  291.2789
 279  277.9684
 280  268.0327
 281  275.1094
 282  272.389
 283  152.8023
 284  202.8401
 285  196.3211
 286  289.7772
 287  337.4194
 288  247.4372
 289  278.8321
 290  315.6906
 291  240.5325
 292  196.6097
 293  279.155
 294  178.4055
 295  156.7237
 296  159.3621
 297  275.9668
 298  151.7606
 299  130.4634
 300  327.5526
 301  226.9721
 302  130.2133
 303  93.79361
 304  107.9057
 305  232.4019
 306  205.2858
 307  118.7649
 308  90.69313
 309  257.3643
 310  288.2893
 311  220.2435
 312  192.7748
 313  324.0511
 314  368.8337
 315  262.3386
 316  216.1967
 317  218.4483
 318  213.307
 319  266.8754
 320  179.2021
 321  150.2237
 322  210.2258
 323  165.8062
 324  190.7494
 325  168.4733
 326  242.1332
 327  327.7121
 328  202.1104
 329  285.6927
 330  189.334
 331  126.1125
 332  154.3604
 333  126.3807
 334  199.0619
 335  223.7487
 336  160.8419
 337  272.7946
 338  169.6681
 339  209.5807
 340  309.208
 341  241.4521
 342  193.7489
 343  207.0642
 344  329.4293
 345  232.539
 346  208.3618
 347  274.4733
 348  263.8333
 349  168.5184
 350  249.8366
 351  341.7052
 352  239.5729
 353  118.5505
 354  233.4602
 355  279.8287
 356  313.7083
 357  293.8735
 358  186.944
 359  188.5648
 360  199.5481
 361  195.6084
 362  125.3611
 363  253.6835
 364  285.4716
 365  224.2214
 366  208.9371
 367  130.9851
 368  64.97744
 369  133.7081
 370  218.1019
 371  181.7122
 372  260.4189
 373  142.868
 374  164.8643
 375  51.71342
 376  171.2718
 377  174.3229
 378  223.2767
 379  351.1748
 380  169.353
 381  118.9318
 382  133.2652
 383  191.1879
 384  171.2061
 385  135.5365
 386  167.2018
 387  139.4476
 388  189.0167
 389  160.961
 390  154.7079
 391  160.1448
 392  163.4917
 393  298.2632
 394  210.6849
 395  97.83819
 396  39.77832
 397  122.775
 398  147.5635
 399  129.9868
 400  73.25302
 401  118.8532
 402  156.0927
 403  127.5018
 404  160.907
 405  132.2963
 406  208.5947
 407  144.3318
 408  80.23928
 409  6.506326
 410  91.67525
 411  173.5367
 412  121.3758
 413  127.4981
 414  155.7139
 415  210.2084
 416  213.733
 417  224.466
 418  348.0423
 419  158.036
 420  117.2078
 421  40.05454
 422  93.69091
 423  227.6976
 424  339.448
 425  333.2467
 426  259.155
 427  212.2578
 428  111.1826
 429  135.5748
 430  283.6296
 431  247.1044
 432  269.4703
 433  197.6289
 434  229.1926
 435  264.8117
 436  126.4479
 437  166.4679
 438  175.8974
 439  280.5368
 440  274.0698
 441  227.7208
 442  209.6727
 443  154.7154
 444  227.3685
 445  276.3158
 446  209.6245
 447  227.9518
 448  199.2284
 449  361.4039
 450  252.2664
 451  155.7371
 452  238.7777
 453  274.0078
 454  134.3723
 455  203.0757
 456  185.778
 457  94.825
 458  182.5509
 459  269.5494
 460  170.5538
 461  94.45023
 462  9.992541
 463  103.8132
 464  72.24265
 465  146.9457
 466  142.8972
 467  77.3024
 468  163.1111
 469  212.9242
 470  193.7882
 471  209.3958
 472  223.2514
 473  224.4963
 474  282.7356
 475  261.0724
 476  179.769
 477  181.6622
 478  243.4834
 479  292.2162
 480  274.7126
 481  195.7124
 482  291.1042
 483  223.8842
 484  190.7852
 485  278.6345
 486  182.5546
 487  283.4683
 488  353.0216
 489  298.3138
 490  379.9035
 491  299.2981
 492  330.8909
 493  248.177
 494  205.5454
 495  243.7563
 496  252.3863
 497  272.1279
 498  230.0937
 499  323.889
 500  376.151
 501  250.6946
 502  215.7044
 503  269.157
 504  314.4588
 505  246.9142
 506  204.0909
 507  373.7418
 508  449.505
 509  511.8897
 510  610.8265
 511  837.1459
