# Input file       =  1201878730.107112_cleaned.dat
# Candidate        =  PSR_0332+5434
# Telescope        =  AR
# Epoch_topo       =  58154.633241980460
# Epoch_bary       =  N/A
# T_sample         =  0.002
# Data Folded      =  7340032
# Data Avg         =  0.0294122413134948
# Data StdDev      =  1.0000780618118  
# Profile Bins     =  512
# Profile Avg      =  421.676414886611 
# Profile StdDev   =  119.742382954518 
# Reduced chi-sqr  =  1.167
# Prob(Noise)      <  0.00527   (~2.6 sigma)
# P_topo (ms)      =  714.577643658083  +/- 0.000345
# P'_topo (s/s)    =  -0                +/- 1.82e-10
# P''_topo (s/s^2) =  0                 +/- 8.04e-14
# P_bary (ms)      =  N/A
# P'_bary (s/s)    =  N/A
# P''_bary (s/s^2) =  N/A
# P_orb (s)        =  N/A
# asin(i)/c (s)    =  N/A
# eccentricity     =  N/A
# w (rad)          =  N/A
# T_peri           =  N/A
######################################################
   0  909.2333
   1  890.387
   2  1023.629
   3  851.1806
   4  568.4262
   5  451.5548
   6  415.9449
   7  477.9991
   8  398.1132
   9  400.2341
  10  424.4135
  11  412.5942
  12  406.5301
  13  384.0881
  14  444.5049
  15  412.1656
  16  364.2855
  17  354.8344
  18  317.3673
  19  386.4566
  20  350.8744
  21  406.2307
  22  491.8408
  23  429.8006
  24  485.8953
  25  560.8094
  26  436.4409
  27  428.7603
  28  438.2584
  29  556.5841
  30  375.7116
  31  315.7812
  32  355.0169
  33  420.0216
  34  410.4793
  35  397.5563
  36  473.8618
  37  454.0341
  38  378.5586
  39  325.9236
  40  323.2215
  41  407.4742
  42  470.8495
  43  465.5196
  44  522.4836
  45  387.1142
  46  421.0526
  47  443.329
  48  450.3674
  49  638.0416
  50  516.2872
  51  454.5864
  52  447.2114
  53  461.0519
  54  501.5492
  55  459.4075
  56  434.0288
  57  465.1462
  58  537.8918
  59  467.1139
  60  480.7063
  61  411.8754
  62  397.2059
  63  470.4825
  64  550.7895
  65  508.7426
  66  343.2433
  67  459.4472
  68  407.4974
  69  371.599
  70  392.3932
  71  413.8859
  72  487.016
  73  400.5288
  74  460.1789
  75  408.9022
  76  400.6999
  77  452.2635
  78  647.3116
  79  601.5328
  80  408.1691
  81  332.7313
  82  404.4876
  83  419.4091
  84  455.8251
  85  482.8638
  86  523.2622
  87  451.4738
  88  423.9722
  89  492.614
  90  559.0253
  91  494.9787
  92  431.0857
  93  452.2046
  94  463.1831
  95  473.9903
  96  439.939
  97  431.699
  98  518.3082
  99  572.1267
 100  386.5092
 101  485.5009
 102  548.4923
 103  402.4554
 104  411.3616
 105  365.4106
 106  481.2663
 107  517.1458
 108  464.2682
 109  400.9777
 110  427.8347
 111  506.9488
 112  548.9863
 113  509.7717
 114  401.7189
 115  401.4432
 116  459.226
 117  505.506
 118  373.1073
 119  410.7005
 120  518.5472
 121  485.0601
 122  574.2373
 123  523.1148
 124  532.6487
 125  507.7153
 126  359.3415
 127  488.8203
 128  470.5933
 129  473.673
 130  513.2559
 131  487.756
 132  461.3265
 133  487.7375
 134  412.6835
 135  536.4923
 136  438.9277
 137  512.9306
 138  574.9487
 139  597.4521
 140  614.4432
 141  472.0742
 142  437.9246
 143  447.4454
 144  512.913
 145  500.6293
 146  509.7048
 147  561.4911
 148  496.3613
 149  489.5402
 150  527.8991
 151  511.7369
 152  422.8875
 153  391.8282
 154  487.892
 155  419.2937
 156  317.0707
 157  398.9337
 158  547.1874
 159  405.2746
 160  463.48
 161  378.2868
 162  490.2039
 163  523.5007
 164  620.0747
 165  560.3605
 166  398.6767
 167  469.8142
 168  390.4227
 169  377.8258
 170  421.8695
 171  350.7083
 172  255.8196
 173  323.4587
 174  403.4837
 175  322.5015
 176  377.3595
 177  458.7322
 178  537.9361
 179  455.8996
 180  350.9643
 181  407.9931
 182  336.9921
 183  522.0873
 184  428.5894
 185  405.8114
 186  437.007
 187  332.5661
 188  321.8343
 189  311.7421
 190  335.9785
 191  360.3759
 192  388.538
 193  308.7053
 194  311.4131
 195  332.1646
 196  470.4782
 197  470.7741
 198  385.3478
 199  423.2142
 200  542.3149
 201  510.0703
 202  443.7057
 203  448.6484
 204  482.8707
 205  481.535
 206  449.0324
 207  498.0036
 208  488.4658
 209  408.1351
 210  484.2986
 211  476.586
 212  429.3671
 213  457.7137
 214  473.7056
 215  425.3799
 216  401.2506
 217  364.0863
 218  285.3056
 219  357.2086
 220  297.8044
 221  384.3654
 222  456.6247
 223  461.258
 224  511.8249
 225  487.6559
 226  592.5009
 227  460.4822
 228  425.5165
 229  305.0452
 230  443.2325
 231  380.9965
 232  374.539
 233  401.7785
 234  419.4874
 235  413.6378
 236  443.0393
 237  427.1194
 238  331.7251
 239  368.5832
 240  303.5366
 241  372.4959
 242  314.9174
 243  321.4622
 244  417.7935
 245  305.9436
 246  362.725
 247  328.8622
 248  318.3359
 249  378.629
 250  308.1591
 251  265.7651
 252  293.9114
 253  375.2177
 254  387.1752
 255  322.3448
 256  359.2886
 257  356.4767
 258  362.4241
 259  405.5848
 260  358.6605
 261  227.879
 262  407.0085
 263  350.7715
 264  319.578
 265  297.6725
 266  300.6696
 267  329.6102
 268  388.5941
 269  356.0128
 270  314.0228
 271  96.58931
 272  232.8393
 273  418.8547
 274  396.8398
 275  355.4818
 276  311.7621
 277  160.7872
 278  272.8587
 279  318.8775
 280  351.0155
 281  353.9498
 282  407.3802
 283  518.4306
 284  476.5652
 285  414.1103
 286  317.0407
 287  372.2054
 288  398.1308
 289  449.0614
 290  338.1094
 291  367.7419
 292  391.3183
 293  302.4568
 294  382.9803
 295  423.0916
 296  399.9007
 297  369.6767
 298  373.427
 299  490.6451
 300  394.2319
 301  385.1185
 302  446.3433
 303  432.8238
 304  317.3505
 305  407.9501
 306  421.1156
 307  366.9822
 308  214.0621
 309  240.7891
 310  443.7733
 311  309.0037
 312  387.6499
 313  371.0298
 314  395.0373
 315  417.7734
 316  432.5413
 317  465.7536
 318  432.63
 319  384.6371
 320  413.5091
 321  507.4565
 322  438.206
 323  417.543
 324  453.7444
 325  443.2091
 326  397.5698
 327  352.9984
 328  564.598
 329  476.2423
 330  443.6834
 331  424.6479
 332  377.8894
 333  480.8152
 334  503.1101
 335  556.9037
 336  550.9059
 337  515.6502
 338  443.2791
 339  466.8148
 340  450.4968
 341  516.3151
 342  530.1652
 343  494.2166
 344  466.4507
 345  439.8069
 346  340.7831
 347  279.0458
 348  398.8116
 349  466.382
 350  324.7947
 351  274.8992
 352  430.2151
 353  499.7668
 354  387.6711
 355  442.0339
 356  271.2404
 357  305.1948
 358  306.2909
 359  423.8479
 360  466.965
 361  299.9731
 362  284.1591
 363  317.6757
 364  476.5776
 365  451.0456
 366  418.8957
 367  456.3897
 368  435.8654
 369  441.1475
 370  387.0452
 371  362.3741
 372  438.3303
 373  435.1669
 374  421.4856
 375  421.6992
 376  505.4918
 377  417.6185
 378  317.5219
 379  258.2834
 380  394.4037
 381  407.1698
 382  308.5965
 383  166.8647
 384  306.712
 385  395.2107
 386  387.7555
 387  375.2576
 388  358.2635
 389  529.1284
 390  295.1216
 391  261.597
 392  342.8162
 393  406.2672
 394  470.7708
 395  523.6049
 396  457.7748
 397  325.4141
 398  289.5408
 399  414.8884
 400  427.7594
 401  345.6209
 402  364.7145
 403  568.5974
 404  489.527
 405  410.1253
 406  465.7193
 407  479.0201
 408  427.9323
 409  519.0595
 410  470.6673
 411  445.2734
 412  415.6465
 413  417.1307
 414  425.6553
 415  370.2353
 416  384.6469
 417  416.9751
 418  479.2567
 419  333.3292
 420  330.8578
 421  332.7892
 422  353.1253
 423  404.9409
 424  370.9327
 425  316.7704
 426  453.0324
 427  421.1404
 428  336.4743
 429  377.2866
 430  401.6594
 431  257.021
 432  243.1167
 433  253.8283
 434  322.5875
 435  405.1913
 436  425.7103
 437  360.879
 438  333.6161
 439  401.8699
 440  407.4269
 441  378.0607
 442  339.0337
 443  343.8735
 444  301.1452
 445  466.2869
 446  527.3604
 447  403.041
 448  568.8181
 449  435.0447
 450  426.4601
 451  433.9598
 452  459.5359
 453  442.6617
 454  300.0852
 455  441.1744
 456  429.4471
 457  319.2156
 458  235.8246
 459  333.7865
 460  381.6805
 461  320.4511
 462  254.995
 463  337.3316
 464  514.9352
 465  479.4846
 466  441.6629
 467  392.7846
 468  351.6536
 469  433.028
 470  432.3136
 471  311.4718
 472  307.394
 473  360.9182
 474  457.0649
 475  480.3218
 476  287.4128
 477  381.0811
 478  506.4039
 479  502.357
 480  445.7461
 481  502.704
 482  519.488
 483  417.9617
 484  459.7525
 485  380.4557
 486  323.8404
 487  340.29
 488  312.9091
 489  405.485
 490  434.998
 491  436.7855
 492  454.7099
 493  455.5632
 494  409.9639
 495  420.9146
 496  477.8796
 497  472.1494
 498  341.4937
 499  236.3835
 500  369.8471
 501  489.1228
 502  491.2272
 503  361.9414
 504  419.1428
 505  412.0019
 506  468.8087
 507  480.056
 508  535.4562
 509  676.2018
 510  758.6085
 511  837.3208
