# Input file       =  1201806917.117477_cleaned.dat
# Candidate        =  PSR_0332+5434
# Telescope        =  AR
# Epoch_topo       =  58153.802073118946
# Epoch_bary       =  N/A
# T_sample         =  0.002
# Data Folded      =  7340032
# Data Avg         =  0.0170963221884193
# Data StdDev      =  1.00001848605559 
# Profile Bins     =  512
# Profile Avg      =  244.99945853068  
# Profile StdDev   =  119.735249768332 
# Reduced chi-sqr  =  1.015
# Prob(Noise)      <  0.395   (~0.3 sigma)
# P_topo (ms)      =  714.577686741132  +/- 0.000399
# P'_topo (s/s)    =  -0                +/- 2.11e-10
# P''_topo (s/s^2) =  0                 +/- 9.3e-14
# P_bary (ms)      =  N/A
# P'_bary (s/s)    =  N/A
# P''_bary (s/s^2) =  N/A
# P_orb (s)        =  N/A
# asin(i)/c (s)    =  N/A
# eccentricity     =  N/A
# w (rad)          =  N/A
# T_peri           =  N/A
######################################################
   0  673.4785
   1  742.0355
   2  715.8702
   3  563.9415
   4  354.0609
   5  263.341
   6  317.8112
   7  298.7342
   8  272.4604
   9  192.6735
  10  219.9313
  11  229.8021
  12  317.2242
  13  351.1786
  14  154.9475
  15  217.4862
  16  350.911
  17  310.457
  18  311.6773
  19  311.9055
  20  266.2224
  21  99.46097
  22  213.1872
  23  206.0045
  24  229.3126
  25  328.0471
  26  313.0813
  27  303.3361
  28  211.9826
  29  210.7906
  30  303.0899
  31  251.6455
  32  188.7645
  33  206.4879
  34  313.097
  35  247.2535
  36  164.615
  37  362.4922
  38  252.762
  39  198.8522
  40  287.2441
  41  236.5333
  42  333.2932
  43  230.1495
  44  185.5209
  45  195.5398
  46  253.2308
  47  249.6766
  48  288.022
  49  180.4966
  50  205.9739
  51  212.9228
  52  249.5838
  53  194.6717
  54  270.2001
  55  267.4831
  56  118.1363
  57  223.732
  58  192.7425
  59  254.9237
  60  245.8778
  61  170.8873
  62  148.906
  63  224.0012
  64  290.5527
  65  274.6405
  66  275.482
  67  175.3048
  68  108.4701
  69  246.6292
  70  282.4592
  71  209.3977
  72  145.6696
  73  192.2561
  74  192.3155
  75  190.0012
  76  220.4905
  77  112.8603
  78  119.1515
  79  203.8423
  80  153.3423
  81  281.4912
  82  296.1273
  83  214.7965
  84  143.3261
  85  137.9781
  86  283.7438
  87  282.5153
  88  183.5701
  89  142.6382
  90  230.1173
  91  262.6806
  92  263.5336
  93  266.6547
  94  310.2589
  95  203.4084
  96  98.6064
  97  126.1439
  98  131.6992
  99  86.38229
 100  138.3121
 101  257.0718
 102  220.4387
 103  207.2592
 104  228.0594
 105  256.7208
 106  305.0417
 107  199.616
 108  200.7743
 109  104.5998
 110  206.9772
 111  152.8351
 112  143.8573
 113  193.6319
 114  163.7623
 115  159.7367
 116  199.1769
 117  211.4684
 118  258.1058
 119  311.528
 120  289.0993
 121  246.3182
 122  228.4911
 123  316.4366
 124  388.3761
 125  274.3868
 126  251.5035
 127  298.5255
 128  407.7558
 129  353.3915
 130  235.1652
 131  247.4395
 132  321.8299
 133  291.9304
 134  159.2015
 135  125.4001
 136  173.587
 137  235.0046
 138  327.0624
 139  163.5138
 140  170.0165
 141  208.5612
 142  165.8951
 143  233.0362
 144  204.3806
 145  244.3956
 146  266.1685
 147  122.5154
 148  188.2276
 149  297.3015
 150  300.4114
 151  190.9974
 152  246.5512
 153  224.9765
 154  158.6241
 155  190.7592
 156  204.6207
 157  204.1465
 158  161.0548
 159  246.3307
 160  182.4261
 161  157.3202
 162  202.223
 163  175.3349
 164  159.7381
 165  198.4914
 166  283.282
 167  331.7836
 168  243.8703
 169  80.57021
 170  85.86954
 171  210.0591
 172  246.5191
 173  308.8945
 174  281.8358
 175  272.0985
 176  309.4836
 177  371.5271
 178  357.149
 179  356.0331
 180  375.272
 181  395.7352
 182  360.2016
 183  242.5847
 184  394.1377
 185  483.0391
 186  328.9288
 187  231.2195
 188  245.4384
 189  292.8572
 190  330.3767
 191  338.8966
 192  307.0059
 193  163.2228
 194  224.9245
 195  337.9942
 196  266.2661
 197  332.3777
 198  399.7357
 199  400.8309
 200  385.0337
 201  279.1912
 202  241.6476
 203  222.9445
 204  87.06062
 205  157.8348
 206  258.1673
 207  278.4048
 208  284.4467
 209  218.3176
 210  250.6457
 211  269.1785
 212  168.3967
 213  159.532
 214  157.3661
 215  234.9586
 216  268.9119
 217  269.1031
 218  282.6907
 219  174.6412
 220  287.8753
 221  352.9287
 222  308.5926
 223  317.3012
 224  322.6218
 225  351.7612
 226  152.3594
 227  126.2906
 228  184.9807
 229  142.2636
 230  180.1221
 231  301.602
 232  142.0499
 233  108.4753
 234  345.643
 235  382.9911
 236  315.8285
 237  273.8918
 238  248.3052
 239  221.7562
 240  188.4825
 241  341.7465
 242  372.6497
 243  291.7904
 244  262.9037
 245  331.5121
 246  264.151
 247  278.4607
 248  276.0441
 249  371.2963
 250  249.5669
 251  285.1237
 252  288.0238
 253  269.8024
 254  189.2423
 255  341.888
 256  409.0039
 257  199.4574
 258  227.2726
 259  332.1126
 260  283.1701
 261  238.9461
 262  162.5284
 263  246.3522
 264  296.135
 265  179.4473
 266  222.7781
 267  330.5183
 268  268.6214
 269  244.008
 270  222.0871
 271  163.9195
 272  191.9806
 273  226.0744
 274  324.2113
 275  194.7672
 276  218.6022
 277  259.7826
 278  249.0409
 279  237.2709
 280  276.9466
 281  228.0764
 282  244.4718
 283  281.8386
 284  220.4186
 285  196.5049
 286  211.8019
 287  148.9626
 288  98.05822
 289  183.067
 290  143.5517
 291  211.747
 292  282.7333
 293  279.2001
 294  155.324
 295  202.601
 296  297.7354
 297  287.1503
 298  179.7522
 299  170.8003
 300  365.4302
 301  229.6978
 302  203.67
 303  224.468
 304  246.9624
 305  263.3297
 306  281.7786
 307  326.1274
 308  207.5591
 309  222.9863
 310  224.4604
 311  202.3997
 312  260.3523
 313  180.2044
 314  229.8605
 315  184.8815
 316  271.3182
 317  202.5302
 318  208.1513
 319  210.7195
 320  122.2167
 321  160.6995
 322  75.22017
 323  201.2496
 324  161.0029
 325  263.2668
 326  319.3255
 327  282.6385
 328  142.3486
 329  242.8008
 330  214.871
 331  167.9088
 332  228.6489
 333  214.7917
 334  296.39
 335  270.3017
 336  161.2849
 337  267.8102
 338  355.9412
 339  198.3063
 340  284.7802
 341  329.6088
 342  329.0645
 343  245.0379
 344  213.1914
 345  209.0326
 346  170.0207
 347  259.0187
 348  332.094
 349  212.8201
 350  317.1875
 351  249.7793
 352  180.8902
 353  167.3201
 354  170.3965
 355  237.6333
 356  281.4945
 357  374.8084
 358  304.5268
 359  271.058
 360  154.0137
 361  211.2139
 362  175.8358
 363  219.6144
 364  287.3084
 365  266.6412
 366  244.6261
 367  216.7262
 368  263.5044
 369  167.4871
 370  205.835
 371  199.9191
 372  178.4337
 373  246.8876
 374  205.865
 375  112.6867
 376  189.9049
 377  208.7064
 378  222.7523
 379  301.9013
 380  430.9047
 381  309.1969
 382  152.0006
 383  200.5449
 384  152.8905
 385  253.1176
 386  318.0495
 387  159.7672
 388  68.61356
 389  150.1229
 390  263.6814
 391  311.9951
 392  243.8034
 393  161.909
 394  241.1185
 395  297.4287
 396  235.947
 397  146.2759
 398  192.3449
 399  201.7453
 400  180.8889
 401  278.9057
 402  245.3738
 403  105.1929
 404  304.1321
 405  365.8926
 406  220.0232
 407  300.1383
 408  211.203
 409  189.0392
 410  105.8081
 411  188.6492
 412  285.7523
 413  138.155
 414  229.6234
 415  313.466
 416  285.9151
 417  203.2434
 418  359.5018
 419  275.7051
 420  212.5121
 421  328.615
 422  338.5717
 423  291.488
 424  244.853
 425  196.3649
 426  178.6487
 427  252.552
 428  361.1408
 429  193.8201
 430  192.4346
 431  253.0741
 432  236.4344
 433  141.0039
 434  135.5842
 435  226.4028
 436  252.9608
 437  225.5291
 438  201.4775
 439  245.6028
 440  341.5474
 441  156.2617
 442  156.0403
 443  158.2759
 444  171.6382
 445  268.5302
 446  160.3962
 447  13.57519
 448  112.3248
 449  164.9884
 450  153.9536
 451  183.0217
 452  160.3648
 453  174.9355
 454  382.9519
 455  270.3853
 456  277.9377
 457  360.9456
 458  275.7442
 459  325.9372
 460  299.708
 461  305.8407
 462  215.461
 463  280.5995
 464  318.2043
 465  255.3204
 466  249.9756
 467  248.4718
 468  181.0347
 469  317.835
 470  267.2622
 471  140.1763
 472  136.2393
 473  212.9016
 474  180.7626
 475  254.5458
 476  283.0529
 477  191.3135
 478  243.3809
 479  185.8961
 480  229.0158
 481  338.2847
 482  260.4551
 483  195.1963
 484  247.428
 485  259.1317
 486  155.2833
 487  144.8779
 488  228.8243
 489  331.3998
 490  218.0499
 491  168.4093
 492  206.1946
 493  389.9518
 494  383.6704
 495  286.9157
 496  211.4751
 497  195.3994
 498  126.698
 499  248.2358
 500  251.6339
 501  177.0695
 502  296.1154
 503  315.7843
 504  259.6796
 505  310.1755
 506  444.6021
 507  337.3228
 508  332.6896
 509  552.0578
 510  693.3925
 511  811.6461
