# Input file       =  1201720771.121948_cleaned.dat
# Candidate        =  PSR_0332+5434
# Telescope        =  AR
# Epoch_topo       =  58152.805012985511
# Epoch_bary       =  N/A
# T_sample         =  0.002
# Data Folded      =  7340032
# Data Avg         =  0.0204898172002385
# Data StdDev      =  1.00005155319895 
# Profile Bins     =  512
# Profile Avg      =  293.730553595271 
# Profile StdDev   =  119.739208997812 
# Reduced chi-sqr  =  1.178
# Prob(Noise)      <  0.00332   (~2.7 sigma)
# P_topo (ms)      =  714.577329821567  +/- 0.000243
# P'_topo (s/s)    =  -0                +/- 1.28e-10
# P''_topo (s/s^2) =  0                 +/- 5.66e-14
# P_bary (ms)      =  N/A
# P'_bary (s/s)    =  N/A
# P''_bary (s/s^2) =  N/A
# P_orb (s)        =  N/A
# asin(i)/c (s)    =  N/A
# eccentricity     =  N/A
# w (rad)          =  N/A
# T_peri           =  N/A
######################################################
   0  925.1215
   1  845.2263
   2  591.3848
   3  406.9395
   4  523.0789
   5  341.0963
   6  298.0154
   7  416.5843
   8  400.4225
   9  323.2567
  10  230.0119
  11  273.1311
  12  347.8395
  13  457.1481
  14  465.524
  15  430.3765
  16  375.4178
  17  297.6725
  18  241.9051
  19  253.8487
  20  243.6957
  21  301.0325
  22  325.5442
  23  407.8291
  24  350.0683
  25  217.1122
  26  200.2858
  27  274.9904
  28  311.8291
  29  316.5299
  30  374.6259
  31  385.574
  32  392.989
  33  412.766
  34  303.7479
  35  260.4164
  36  190.72
  37  251.6532
  38  277.3017
  39  249.0636
  40  231.2606
  41  290.5916
  42  196.6891
  43  223.7341
  44  270.291
  45  341.6061
  46  332.6346
  47  315.766
  48  279.3025
  49  304.4164
  50  356.0567
  51  253.2848
  52  203.2246
  53  327.8266
  54  449.3279
  55  362.9999
  56  348.4436
  57  423.1602
  58  297.7775
  59  244.9147
  60  320.5479
  61  253.0704
  62  346.4126
  63  338.8882
  64  267.1765
  65  223.8725
  66  290.4995
  67  321.1148
  68  255.0694
  69  265.322
  70  324.9344
  71  254
  72  176.2447
  73  319.4474
  74  335.0261
  75  180.2876
  76  212.3205
  77  141.0164
  78  154.8902
  79  244.5784
  80  245.4698
  81  275.3983
  82  260.584
  83  374.6377
  84  357.6119
  85  332.987
  86  245.702
  87  181.3144
  88  126.5178
  89  149.2724
  90  241.3266
  91  233.7016
  92  206.9868
  93  330.3722
  94  209.3734
  95  203.1631
  96  320.6221
  97  340.6847
  98  361.6335
  99  389.9977
 100  347.2944
 101  242.7445
 102  330.6511
 103  401.608
 104  300.3821
 105  300.0976
 106  309.0478
 107  279.1972
 108  256.1055
 109  304.252
 110  297.2344
 111  116.6213
 112  122.9075
 113  318.4172
 114  211.6317
 115  200.9096
 116  244.699
 117  214.6576
 118  352.5021
 119  413.1052
 120  419.7036
 121  271.5226
 122  172.6259
 123  355.9593
 124  388.608
 125  322.1595
 126  371.8776
 127  339.5232
 128  457.4684
 129  370.941
 130  263.9364
 131  352.6405
 132  300.4713
 133  301.0195
 134  212.6456
 135  239.7368
 136  263.6161
 137  203.9804
 138  266.34
 139  330.8341
 140  291.6443
 141  214.6943
 142  217.1874
 143  276.7397
 144  321.2609
 145  255.7625
 146  294.6161
 147  230.1819
 148  402.7159
 149  392.6705
 150  389.511
 151  360.084
 152  329.1363
 153  401.822
 154  367.3893
 155  381.3914
 156  337.6374
 157  281.7731
 158  252.1983
 159  242.3202
 160  252.2217
 161  251.3193
 162  323.7809
 163  365.7177
 164  331.0316
 165  361.253
 166  309.4837
 167  212.2527
 168  259.6729
 169  266.6648
 170  349.9608
 171  276.286
 172  287.1328
 173  331.8611
 174  299.7913
 175  342.0144
 176  319.879
 177  190.9553
 178  168.4623
 179  293.7307
 180  256.8257
 181  374.3137
 182  375.5888
 183  300.3892
 184  221.1911
 185  226.8806
 186  205.3219
 187  201.1775
 188  356.6668
 189  290.1234
 190  263.4347
 191  202.255
 192  268.7877
 193  135.9728
 194  313.0172
 195  379.0792
 196  348.3303
 197  276.8609
 198  253.7528
 199  287.2245
 200  222.0739
 201  176.6089
 202  282.3138
 203  289.2002
 204  353.004
 205  434.4247
 206  323.1922
 207  259.1215
 208  270.7838
 209  224.7454
 210  250.4025
 211  255.6843
 212  272.2934
 213  260.642
 214  381.9321
 215  273.6752
 216  325.7563
 217  289.0247
 218  295.1723
 219  275.2851
 220  222.1601
 221  347.2448
 222  309.2746
 223  325.7071
 224  247.4559
 225  309.2374
 226  429.2374
 227  381.2823
 228  275.0902
 229  157.7689
 230  300.0291
 231  409.1863
 232  395.4471
 233  285.6101
 234  253.2703
 235  171.2137
 236  237.7091
 237  338.3152
 238  386.623
 239  261.0581
 240  348.8379
 241  266.2955
 242  231.635
 243  236.1429
 244  235.8563
 245  231.2374
 246  219.0494
 247  350.9973
 248  290.3977
 249  235.9699
 250  310.0743
 251  388.0876
 252  387.8467
 253  287.9688
 254  377.663
 255  490.1413
 256  490.477
 257  431.636
 258  460.1433
 259  338.3482
 260  158.8935
 261  212.1096
 262  354.4799
 263  195.56
 264  120.0867
 265  306.2299
 266  437.6273
 267  284.8745
 268  182.3588
 269  274.701
 270  319.6737
 271  338.0055
 272  332.4908
 273  426.0468
 274  287.6729
 275  212.9105
 276  308.4872
 277  398.4756
 278  259.4806
 279  294.741
 280  386.8542
 281  340.6858
 282  322.3678
 283  418.185
 284  438.4254
 285  347.2647
 286  283.183
 287  232.8567
 288  303.6651
 289  210.3838
 290  154.9505
 291  283.1852
 292  142.4604
 293  202.924
 294  380.5287
 295  385.5737
 296  238.7683
 297  221.4663
 298  322.8196
 299  418.4302
 300  432.0901
 301  406.8747
 302  291.7389
 303  373.8661
 304  348.7105
 305  309.768
 306  375.5096
 307  363.1458
 308  275.3798
 309  196.4156
 310  241.9227
 311  335.1882
 312  313.4164
 313  230.9981
 314  157.6307
 315  238.7972
 316  253.3284
 317  311.4105
 318  372.3637
 319  259.6252
 320  220.3736
 321  333.7349
 322  351.393
 323  443.3132
 324  324.297
 325  265.0503
 326  245.5406
 327  224.5087
 328  331.4529
 329  370.9889
 330  273.652
 331  154.9525
 332  268.3399
 333  224.2247
 334  258.3785
 335  285.844
 336  343.3335
 337  314.5819
 338  370.8169
 339  281.8333
 340  238.4589
 341  162.5421
 342  251.9297
 343  265.0935
 344  327.7404
 345  419.5881
 346  400.6327
 347  356.0205
 348  225.2479
 349  262.699
 350  410.9148
 351  392.2562
 352  243.877
 353  302.8705
 354  343.7485
 355  303.956
 356  276.7628
 357  344.6824
 358  270.8817
 359  316.0622
 360  330.8079
 361  297.2915
 362  341.3958
 363  276.0189
 364  230.9592
 365  172.7777
 366  230.1578
 367  379.25
 368  278.8855
 369  358.8616
 370  400.2085
 371  202.4565
 372  176.2546
 373  267.3227
 374  255.5195
 375  200.5857
 376  284.8517
 377  321.8111
 378  376.6129
 379  388.6624
 380  414.3372
 381  384.2103
 382  382.5653
 383  266.8363
 384  148.9423
 385  234.4462
 386  185.8146
 387  147.7625
 388  330.97
 389  404.9854
 390  310.8605
 391  290.7063
 392  321.4801
 393  281.3688
 394  189.3789
 395  236.049
 396  147.9676
 397  168.9836
 398  204.447
 399  202.524
 400  259.6551
 401  171.2154
 402  144.8146
 403  134.8108
 404  158.5724
 405  243.2854
 406  224.6884
 407  156.0883
 408  159.0964
 409  324.4359
 410  317.0749
 411  244.3094
 412  263.2684
 413  244.8426
 414  157.4129
 415  198.7807
 416  290.9749
 417  160.678
 418  142.7452
 419  210.6153
 420  264.956
 421  348.7216
 422  192.6226
 423  186.7336
 424  169.4792
 425  181.4676
 426  171.1066
 427  106.5482
 428  165.5392
 429  160.6767
 430  183.442
 431  293.7354
 432  369.9527
 433  265.2802
 434  290.8409
 435  233.3322
 436  73.29366
 437  279.2871
 438  349.2794
 439  245.0676
 440  181.0784
 441  240.7591
 442  179.2836
 443  80.35563
 444  160.3969
 445  322.1614
 446  268.7689
 447  198.3776
 448  188.0803
 449  332.6309
 450  223.7639
 451  262.0267
 452  333.2428
 453  358.4512
 454  317.8848
 455  301.4932
 456  329.8684
 457  158.8004
 458  204.3293
 459  292.5845
 460  312.5414
 461  232.911
 462  266.426
 463  223.9404
 464  215.252
 465  201.0378
 466  259.8408
 467  372.784
 468  315.4218
 469  321.4151
 470  351.4671
 471  194.9356
 472  186.5159
 473  300.506
 474  305.0777
 475  347.6118
 476  258.0369
 477  210.3184
 478  242.2946
 479  316.3063
 480  321.0622
 481  385.0762
 482  285.2155
 483  256.4792
 484  293.4335
 485  385.0204
 486  292.0003
 487  287.6724
 488  221.9344
 489  134.2614
 490  232.5757
 491  278.5997
 492  381.3114
 493  345.7947
 494  310.4152
 495  243.4584
 496  208.9989
 497  301.9349
 498  326.2383
 499  404.3664
 500  279.086
 501  261.3038
 502  350.8765
 503  293.8529
 504  355.9451
 505  405.5449
 506  455.2944
 507  508.701
 508  524.5072
 509  618.6558
 510  741.1377
 511  870.3162
