# Input file       =  1201964296.100175_cleaned.dat
# Candidate        =  PSR_0332+5434
# Telescope        =  AR
# Epoch_topo       =  58155.623589122391
# Epoch_bary       =  N/A
# T_sample         =  0.002
# Data Folded      =  7340032
# Data Avg         =  0.0326313395796567
# Data StdDev      =  1.00004495685658 
# Profile Bins     =  512
# Profile Avg      =  467.707041858302 
# Profile StdDev   =  119.73841919771  
# Reduced chi-sqr  =  1.160
# Prob(Noise)      <  0.0071   (~2.5 sigma)
# P_topo (ms)      =  714.577959607138  +/- 0.000532
# P'_topo (s/s)    =  -0                +/- 2.81e-10
# P''_topo (s/s^2) =  0                 +/- 1.24e-13
# P_bary (ms)      =  N/A
# P'_bary (s/s)    =  N/A
# P''_bary (s/s^2) =  N/A
# P_orb (s)        =  N/A
# asin(i)/c (s)    =  N/A
# eccentricity     =  N/A
# w (rad)          =  N/A
# T_peri           =  N/A
######################################################
   0  1030.594
   1  955.463
   2  900.7551
   3  773.0944
   4  574.1747
   5  625.7255
   6  644.4617
   7  618.7497
   8  562.9911
   9  570.52
  10  635.884
  11  638.3734
  12  656.3934
  13  732.508
  14  727.0339
  15  712.8788
  16  658.4412
  17  627.1556
  18  557.2491
  19  570.2847
  20  512.6418
  21  535.5535
  22  601.4156
  23  511.0989
  24  400.9377
  25  516.5482
  26  560.4132
  27  539.8468
  28  483.7599
  29  469.2379
  30  453.8619
  31  459.8033
  32  496.4636
  33  576.7928
  34  547.4185
  35  610.2709
  36  508.9304
  37  491.7302
  38  536.9073
  39  572.9725
  40  619.6924
  41  617.2885
  42  535.6442
  43  574.1521
  44  530.166
  45  452.0915
  46  482.6476
  47  505.5409
  48  486.6977
  49  547.3371
  50  530.8345
  51  464.0672
  52  434.511
  53  536.1896
  54  599.4786
  55  480.4938
  56  381.1106
  57  318.3515
  58  412.5436
  59  511.2251
  60  554.2987
  61  532.6038
  62  544.9384
  63  565.0486
  64  519.6299
  65  400.3318
  66  357.5212
  67  343.7491
  68  486.44
  69  508.8251
  70  421.2854
  71  334.6118
  72  457.218
  73  572.0753
  74  528.3923
  75  431.5898
  76  315.2687
  77  337.0714
  78  380.4278
  79  327.462
  80  469.6622
  81  543.1059
  82  428.2586
  83  426.6154
  84  479.7712
  85  450.1303
  86  460.2313
  87  514.0977
  88  504.1889
  89  409.3962
  90  421.6841
  91  444.3804
  92  443.9286
  93  492.7703
  94  446.0856
  95  543.4239
  96  478.4764
  97  504.4124
  98  492.6122
  99  371.4574
 100  371.4902
 101  495.3517
 102  468.0629
 103  504.7296
 104  510.7798
 105  466.7732
 106  453.8292
 107  496.2142
 108  464.1605
 109  462.459
 110  479.9562
 111  513.3441
 112  500.3465
 113  404.3358
 114  374.5817
 115  320.9202
 116  423.1718
 117  482.2005
 118  513.0187
 119  475.6216
 120  438.9217
 121  480.8195
 122  469.289
 123  439.8219
 124  434.0822
 125  330.0284
 126  344.8536
 127  310.4023
 128  333.1927
 129  324.8663
 130  319.0258
 131  380.3004
 132  358.7921
 133  332.9125
 134  277.8452
 135  427.2997
 136  483.0364
 137  446.8316
 138  401.4271
 139  372.9988
 140  423.5438
 141  358.6169
 142  341.5803
 143  362.1155
 144  452.6661
 145  380.3597
 146  363.3304
 147  383.8494
 148  436.377
 149  488.6963
 150  441.4223
 151  444.7318
 152  425.1394
 153  429.7819
 154  481.675
 155  422.9637
 156  406.9122
 157  403.1674
 158  237.4568
 159  328.9061
 160  386.5473
 161  370.3171
 162  406.0117
 163  411.403
 164  486.2122
 165  430.0827
 166  450.1197
 167  450.1579
 168  432.453
 169  443.2982
 170  375.4761
 171  491.1243
 172  512.0656
 173  430.4596
 174  461.2375
 175  600.202
 176  558.5048
 177  391.5038
 178  375.7671
 179  467.0455
 180  492.9734
 181  443.4836
 182  463.0966
 183  426.5266
 184  471.781
 185  437.3131
 186  465.5749
 187  436.8743
 188  360.6559
 189  249.0259
 190  362.8126
 191  396.104
 192  369.8665
 193  345.3748
 194  338.0462
 195  288.4705
 196  293.398
 197  365.8842
 198  416.2278
 199  432.9491
 200  463.1597
 201  430.8484
 202  386.3644
 203  401.8974
 204  459.7482
 205  432.4432
 206  318.1261
 207  314.9869
 208  389.2876
 209  421.2157
 210  393.5437
 211  411.0318
 212  396.0425
 213  377.2759
 214  399.8018
 215  308.2481
 216  434.0265
 217  497.944
 218  409.1818
 219  413.4136
 220  377.6317
 221  404.265
 222  414.1684
 223  412.4615
 224  455.5128
 225  506.7622
 226  404.3164
 227  438.2236
 228  470.8008
 229  544.116
 230  492.7492
 231  542.626
 232  545.6069
 233  505.0121
 234  502.9298
 235  519.8594
 236  523.2393
 237  398.5989
 238  391.6153
 239  554.6805
 240  495.2287
 241  531.6816
 242  457.7876
 243  459.2311
 244  512.9445
 245  486.4132
 246  507.3188
 247  512.3841
 248  521.7552
 249  474.2023
 250  511.9998
 251  463.0194
 252  564.0863
 253  514.0895
 254  435.179
 255  478.6761
 256  529.4048
 257  532.0418
 258  470.5729
 259  509.6303
 260  499.3126
 261  478.7684
 262  438.4968
 263  484.7736
 264  495.8447
 265  487.8347
 266  496.5015
 267  489.7413
 268  450.9911
 269  443.3516
 270  347.0417
 271  414.9312
 272  402.8526
 273  308.7465
 274  293.228
 275  418.9979
 276  401.6045
 277  334.75
 278  424.2499
 279  416.9238
 280  472.1476
 281  476.5654
 282  521.9227
 283  453.5346
 284  474.242
 285  446.3391
 286  489.123
 287  501.766
 288  509.3628
 289  508.5142
 290  618.9177
 291  634.4996
 292  594.3801
 293  472.1202
 294  423.4354
 295  459.7754
 296  557.9886
 297  586.4908
 298  518.3987
 299  536.0997
 300  440.4887
 301  435.7138
 302  506.1595
 303  604.8371
 304  565.7825
 305  547.0365
 306  393.0126
 307  524.8937
 308  437.6035
 309  458.9052
 310  469.4655
 311  506.463
 312  606.8527
 313  527.7227
 314  495.1923
 315  533.1359
 316  610.278
 317  597.3118
 318  548.5455
 319  576.5282
 320  502.6211
 321  586.3619
 322  483.3745
 323  457.3635
 324  426.3199
 325  506.0248
 326  510.6378
 327  524.676
 328  511.8383
 329  446.083
 330  486.5315
 331  448.6047
 332  461.679
 333  472.4107
 334  410.7345
 335  434.2157
 336  562.3741
 337  579.9139
 338  449.695
 339  453.9604
 340  444.8506
 341  431.4617
 342  434.5625
 343  462.1165
 344  544.6526
 345  498.6475
 346  475.6328
 347  472.5799
 348  436.5862
 349  462.5472
 350  498.1868
 351  521.5316
 352  454.8174
 353  337.4653
 354  271.6532
 355  350.6275
 356  393.8066
 357  440.3788
 358  405.1921
 359  448.8819
 360  519.3816
 361  396.9002
 362  319.389
 363  447.8973
 364  361.7542
 365  441.7334
 366  447.1757
 367  611.4179
 368  540.6556
 369  481.5032
 370  432.5035
 371  484.8706
 372  562.6514
 373  436.7657
 374  446.4407
 375  481.6852
 376  569.8846
 377  583.0433
 378  491.369
 379  499.2733
 380  519.4297
 381  521.7725
 382  581.7925
 383  494.104
 384  503.1216
 385  451.6575
 386  496.5583
 387  464.0077
 388  493.6789
 389  491.1592
 390  452.6847
 391  377.9871
 392  486.9526
 393  506.7028
 394  564.4051
 395  468.6656
 396  552.8506
 397  599.2872
 398  479.4028
 399  490.5493
 400  362.8643
 401  360.6003
 402  355.2417
 403  328.406
 404  341.8257
 405  299.0876
 406  334.8324
 407  302.2019
 408  342.6188
 409  342.9348
 410  385.6051
 411  364.1873
 412  310.9654
 413  413.8145
 414  429.0606
 415  379.9107
 416  363.167
 417  435.2142
 418  445.6795
 419  439.3148
 420  405.1502
 421  354.1268
 422  394.9536
 423  403.2481
 424  472.3796
 425  465.4264
 426  456.2206
 427  387.0922
 428  335.0977
 429  438.0391
 430  531.9226
 431  426.0684
 432  406.363
 433  459.9373
 434  446.4743
 435  337.2293
 436  386.6416
 437  426.7975
 438  417.6877
 439  368.0989
 440  344.1711
 441  308.6315
 442  369.5223
 443  324.5711
 444  363.6157
 445  367.1767
 446  352.7284
 447  332.0267
 448  335.7501
 449  322.1619
 450  388.5175
 451  443.5835
 452  447.7839
 453  452.864
 454  475.8954
 455  443.7895
 456  473.66
 457  492.415
 458  398.6097
 459  454.1681
 460  490.6413
 461  507.1019
 462  488.6273
 463  515.552
 464  535.8688
 465  537.1909
 466  559.7651
 467  375.8868
 468  468.2056
 469  553.1152
 470  587.1862
 471  525.3302
 472  611.0297
 473  565.184
 474  555.8141
 475  502.4568
 476  526.7544
 477  515.9936
 478  565.058
 479  511.8569
 480  483.8943
 481  428.2422
 482  423.6137
 483  492.149
 484  576.7731
 485  560.09
 486  512.0842
 487  477.0606
 488  441.8483
 489  412.9691
 490  444.0689
 491  545.8054
 492  558.0242
 493  609.4549
 494  569.3513
 495  491.9114
 496  427.0572
 497  528.488
 498  487.1547
 499  425.6574
 500  383.3039
 501  426.0606
 502  432.5678
 503  508.1906
 504  530.6588
 505  534.3289
 506  510.8503
 507  437.3919
 508  509.8751
 509  753.42
 510  821.6629
 511  907.9869
