# Input file       =  1201432719.115438_cleaned.dat
# Candidate        =  PSR_0332+5434
# Telescope        =  AR
# Epoch_topo       =  58149.471077724978
# Epoch_bary       =  N/A
# T_sample         =  0.002
# Data Folded      =  7143424
# Data Avg         =  0.0127067799744697
# Data StdDev      =  1.00000831895085 
# Profile Bins     =  512
# Profile Avg      =  177.235541428285 
# Profile StdDev   =  118.119567104567 
# Reduced chi-sqr  =  1.982
# Prob(Noise)      <  2.35e-35   (~12.4 sigma)
# P_topo (ms)      =  714.575664071996  +/- 0.000115
# P'_topo (s/s)    =  -0                +/- 6.23e-11
# P''_topo (s/s^2) =  0                 +/- 2.83e-14
# P_bary (ms)      =  N/A
# P'_bary (s/s)    =  N/A
# P''_bary (s/s^2) =  N/A
# P_orb (s)        =  N/A
# asin(i)/c (s)    =  N/A
# eccentricity     =  N/A
# w (rad)          =  N/A
# T_peri           =  N/A
######################################################
   0  1007.17
   1  996.548
   2  627.818
   3  356.6767
   4  171.0356
   5  253.3062
   6  207.9263
   7  42.35632
   8  270.4278
   9  312.0964
  10  327.8916
  11  273.4561
  12  300.1594
  13  361.8266
  14  202.938
  15  187.7073
  16  124.7305
  17  104.1338
  18  56.45382
  19  156.5584
  20  239.9018
  21  257.6591
  22  284.998
  23  226.4657
  24  146.2082
  25  219.9244
  26  192.534
  27  353.9635
  28  342.2667
  29  331.9857
  30  336.6707
  31  117.076
  32  152.7859
  33  100.1556
  34  171.1562
  35  266.627
  36  261.4263
  37  100.455
  38  117.1597
  39  193.5378
  40  63.19987
  41  96.82824
  42  239.3212
  43  256.812
  44  357.1958
  45  235.4017
  46  200.3767
  47  222.2246
  48  198.1164
  49  201.1755
  50  120.5791
  51  138.2046
  52  102.2918
  53  235.701
  54  227.7832
  55  164.678
  56  152.6514
  57  138.6528
  58  36.94025
  59  -35.45983
  60  9.298909
  61  211.4445
  62  182.2739
  63  237.6161
  64  140.6901
  65  9.127295
  66  116.6116
  67  198.9085
  68  142.063
  69  197.3274
  70  96.35676
  71  -45.72937
  72  -15.20946
  73  216.2109
  74  114.7081
  75  52.51682
  76  227.2949
  77  248.1585
  78  203.0521
  79  164.1479
  80  250.5146
  81  173.7022
  82  51.2848
  83  270.2122
  84  187.0803
  85  214.3137
  86  247.1339
  87  91.09165
  88  137.4003
  89  177.5528
  90  103.9338
  91  26.29069
  92  204.4553
  93  337.7781
  94  357.3835
  95  302.5398
  96  163.3367
  97  103.1435
  98  71.46534
  99  177.4762
 100  204.8783
 101  66.57071
 102  172.8429
 103  192.7303
 104  117.6194
 105  9.658154
 106  -26.72251
 107  178.5582
 108  267.9126
 109  273.7777
 110  350.2922
 111  311.7287
 112  136.4858
 113  181.6449
 114  187.103
 115  -64.21592
 116  -26.38892
 117  45.03261
 118  103.9429
 119  176.0747
 120  179.9396
 121  219.0846
 122  229.908
 123  296.0388
 124  213.0722
 125  206.6406
 126  250.2666
 127  267.9202
 128  303.3372
 129  272.9371
 130  217.2715
 131  129.0582
 132  44.79958
 133  108.5783
 134  159.0927
 135  184.5524
 136  153.504
 137  179.443
 138  213.5321
 139  141.7782
 140  118.73
 141  367.3761
 142  334.9155
 143  316.6661
 144  304.8709
 145  220.1545
 146  215.341
 147  123.3813
 148  186.8358
 149  129.9585
 150  70.81817
 151  -24.49814
 152  83.83392
 153  138.3479
 154  217.2093
 155  27.26755
 156  36.83153
 157  12.77351
 158  109.3113
 159  168.3828
 160  129.3495
 161  291.9522
 162  278.3842
 163  99.03537
 164  -48.07546
 165  -2.767713
 166  126.3136
 167  150.5299
 168  63.2059
 169  144.175
 170  134.575
 171  288.9161
 172  300.7704
 173  150.8038
 174  113.6106
 175  84.88969
 176  179.6213
 177  126.4163
 178  165.6051
 179  82.87196
 180  75.14375
 181  210.5466
 182  174.6155
 183  170.2109
 184  313.5753
 185  332.6942
 186  246.257
 187  110.9412
 188  15.31746
 189  73.78303
 190  115.8879
 191  135.3399
 192  243.2359
 193  245.7578
 194  82.2757
 195  176.6855
 196  220.8449
 197  132.5143
 198  100.3988
 199  152.0141
 200  310.3994
 201  234.9753
 202  195.8235
 203  80.3928
 204  152.1042
 205  248.8027
 206  133.3145
 207  24.27899
 208  101.8504
 209  191.3776
 210  263.9581
 211  190.5021
 212  262.9543
 213  220.608
 214  211.1998
 215  62.18283
 216  155.1944
 217  266.7132
 218  225.5417
 219  177.5027
 220  259.8461
 221  232.3501
 222  117.5801
 223  126.9753
 224  201.2922
 225  310.9227
 226  328.9231
 227  200.891
 228  180.7125
 229  205.0298
 230  270.2924
 231  112.483
 232  176.1537
 233  146.9296
 234  272.0677
 235  77.38177
 236  69.16638
 237  57.26698
 238  77.09553
 239  78.97132
 240  36.56799
 241  79.17365
 242  86.74903
 243  60.01708
 244  102.8403
 245  223.5297
 246  246.372
 247  136.4383
 248  -98.34614
 249  -87.83138
 250  274.896
 251  257.6538
 252  126.6673
 253  241.1234
 254  211.5637
 255  89.54812
 256  152.3707
 257  156.572
 258  222.0582
 259  344.2067
 260  168.189
 261  252.1675
 262  140.4966
 263  208.4889
 264  149.5699
 265  149.0038
 266  106.3845
 267  90.74319
 268  222.3068
 269  116.8587
 270  129.7706
 271  70.79932
 272  117.7409
 273  114.7845
 274  226.2263
 275  313.6848
 276  179.3642
 277  40.28307
 278  212.346
 279  174.8466
 280  213.4793
 281  139.4888
 282  158.1258
 283  214.219
 284  265.5069
 285  281.8888
 286  66.05988
 287  29.34484
 288  94.14754
 289  99.19063
 290  250.0171
 291  304.0988
 292  205.0785
 293  287.6862
 294  281.1476
 295  117.235
 296  -29.01845
 297  190.1944
 298  41.56294
 299  111.4843
 300  132.7529
 301  172.1724
 302  184.671
 303  148.5045
 304  117.3327
 305  96.40284
 306  151.3345
 307  198.8559
 308  298.5256
 309  181.7202
 310  154.912
 311  152.6251
 312  136.2167
 313  183.559
 314  180.995
 315  265.7339
 316  279.5475
 317  218.2298
 318  349.6591
 319  166.3194
 320  141.4259
 321  75.75469
 322  69.83698
 323  99.55663
 324  170.1059
 325  225.5322
 326  236.5866
 327  325.7114
 328  199.736
 329  108.514
 330  227.4513
 331  262.1947
 332  243.5183
 333  191.7172
 334  113.1245
 335  61.93214
 336  95.16776
 337  239.4411
 338  217.2228
 339  131.879
 340  195.3008
 341  236.8229
 342  289.9148
 343  331.4104
 344  138.9713
 345  80.00811
 346  80.12661
 347  114.2632
 348  193.8532
 349  249.2359
 350  265.3452
 351  125.2531
 352  171.0412
 353  114.4196
 354  89.78941
 355  125.6245
 356  104.08
 357  155.2837
 358  199.1621
 359  369.3603
 360  243.7032
 361  94.58337
 362  95.93458
 363  123.0416
 364  54.33796
 365  224.7992
 366  274.2858
 367  110.7012
 368  196.2045
 369  87.15547
 370  90.90145
 371  100.5917
 372  169.5099
 373  169.9891
 374  127.4712
 375  139.8563
 376  125.2707
 377  75.60217
 378  190.6867
 379  212.3986
 380  128.558
 381  150.6505
 382  80.37914
 383  -33.01358
 384  108.8042
 385  78.3162
 386  78.37777
 387  230.3516
 388  169.7367
 389  134.753
 390  86.45097
 391  109.8752
 392  133.1781
 393  72.21889
 394  114.813
 395  76.75739
 396  64.451
 397  110.154
 398  217.5653
 399  192.1193
 400  34.98755
 401  81.8706
 402  82.09155
 403  169.9641
 404  105.2543
 405  89.11452
 406  231.7176
 407  362.8625
 408  407.265
 409  115.5736
 410  161.3121
 411  291.9784
 412  142.7879
 413  33.72566
 414  276.2384
 415  181.4118
 416  137.2931
 417  157.5138
 418  84.90593
 419  115.5293
 420  172.9287
 421  161.767
 422  289.0258
 423  372.8644
 424  428.7251
 425  467.4344
 426  378.9577
 427  285.2136
 428  170.7494
 429  48.46717
 430  112.5938
 431  219.4313
 432  266.4415
 433  232.7707
 434  111.6344
 435  116.8777
 436  102.472
 437  132.6986
 438  157.0714
 439  175.1008
 440  195.2471
 441  265.8916
 442  275.4785
 443  205.3166
 444  183.4348
 445  109.4667
 446  74.8371
 447  114.4694
 448  205.4305
 449  168.9397
 450  166.1687
 451  100.4014
 452  108.464
 453  2.317526
 454  167.7879
 455  104.9209
 456  85.07023
 457  145.2966
 458  107.7629
 459  10.10904
 460  20.07628
 461  234.2984
 462  177.4158
 463  74.99509
 464  63.03391
 465  104.366
 466  136.9765
 467  100.6186
 468  125.8354
 469  109.1519
 470  -42.35807
 471  59.61044
 472  202.7464
 473  193.517
 474  141.3912
 475  204.5051
 476  146.0846
 477  71.32643
 478  -65.79131
 479  -73.44518
 480  94.36601
 481  101.0486
 482  65.21551
 483  120.2768
 484  96.15965
 485  154.8043
 486  228.5502
 487  87.85046
 488  133.9754
 489  348.6416
 490  292.6656
 491  308.4327
 492  356.3488
 493  417.2901
 494  390.5681
 495  283.5919
 496  136.0495
 497  158.4142
 498  112.1193
 499  111.4035
 500  200.2345
 501  312.5169
 502  337.3691
 503  175.6453
 504  186.7882
 505  193.0015
 506  304.3525
 507  365.061
 508  529.1135
 509  479.128
 510  870.8399
 511  1079.73
