# Input file       =  1201691254.111097_cleaned.dat
# Candidate        =  PSR_0332+5434
# Telescope        =  AR
# Epoch_topo       =  58152.463380915477
# Epoch_bary       =  N/A
# T_sample         =  0.002
# Data Folded      =  7143424
# Data Avg         =  0.00989029643166743
# Data StdDev      =  1.00005112384954 
# Profile Bins     =  512
# Profile Avg      =  137.996017077753 
# Profile StdDev   =  118.124623158609 
# Reduced chi-sqr  =  1.857
# Prob(Noise)      <  1.16e-28   (~11.0 sigma)
# P_topo (ms)      =  714.576847282728  +/- 5.01e-05
# P'_topo (s/s)    =  -0                +/- 2.72e-11
# P''_topo (s/s^2) =  0                 +/- 1.23e-14
# P_bary (ms)      =  N/A
# P'_bary (s/s)    =  N/A
# P''_bary (s/s^2) =  N/A
# P_orb (s)        =  N/A
# asin(i)/c (s)    =  N/A
# eccentricity     =  N/A
# w (rad)          =  N/A
# T_peri           =  N/A
######################################################
   0  797.7104
   1  896.5586
   2  789.435
   3  538.5094
   4  279.9206
   5  99.4548
   6  169.8273
   7  239.1312
   8  110.1168
   9  59.72188
  10  240.7932
  11  317.7457
  12  251.6323
  13  142.6459
  14  95.33815
  15  114.7757
  16  256.6399
  17  146.4515
  18  167.8276
  19  226.6146
  20  207.588
  21  70.0568
  22  105.4286
  23  -7.869865
  24  -13.89088
  25  -58.29041
  26  5.118246
  27  139.7446
  28  180.2706
  29  265.7883
  30  105.8489
  31  122.8177
  32  110.316
  33  63.62479
  34  163.1773
  35  240.9634
  36  190.768
  37  183.0705
  38  77.2774
  39  88.1489
  40  241.5723
  41  293.5879
  42  258.2306
  43  258.3132
  44  173.8547
  45  221.1296
  46  230.5118
  47  150.8575
  48  130.4654
  49  88.07012
  50  79.00303
  51  134.2625
  52  82.5376
  53  138.1875
  54  150.9991
  55  162.7799
  56  204.1295
  57  148.2847
  58  228.0734
  59  237.1396
  60  111.7495
  61  187.3305
  62  229.514
  63  182.2033
  64  156.0202
  65  -60.12594
  66  -56.40953
  67  63.29889
  68  140.2596
  69  263.1024
  70  229.301
  71  159.3542
  72  105.2344
  73  91.53703
  74  122.7832
  75  136.9167
  76  198.5128
  77  195.1938
  78  142.4946
  79  100.711
  80  41.15636
  81  133.2218
  82  223.2951
  83  293.7335
  84  372.8337
  85  277.4534
  86  63.79414
  87  91.41194
  88  233.9702
  89  149.1948
  90  -24.57154
  91  11.93428
  92  58.73904
  93  122.283
  94  201.3175
  95  209.5777
  96  136.4038
  97  -56.29501
  98  -15.97881
  99  95.30147
 100  160.5816
 101  260.0747
 102  309.3925
 103  162.2001
 104  92.74074
 105  -13.82646
 106  -62.51571
 107  -77.31834
 108  91.87576
 109  333.0743
 110  164.2802
 111  207.1928
 112  53.87629
 113  -42.29491
 114  23.71186
 115  -61.36999
 116  -27.50456
 117  -30.91958
 118  179.9044
 119  159.8183
 120  0.6570585
 121  79.4994
 122  120.2052
 123  191.2
 124  129.3842
 125  93.21169
 126  202.0041
 127  79.46684
 128  6.203849
 129  114.6557
 130  126.418
 131  -7.518393
 132  38.3363
 133  54.92406
 134  105.7886
 135  227.7127
 136  85.75047
 137  37.77175
 138  71.58855
 139  37.16091
 140  17.88109
 141  32.10525
 142  161.8802
 143  210.1032
 144  66.29544
 145  94.57346
 146  127.9709
 147  252.4394
 148  166.0994
 149  46.52034
 150  64.97856
 151  152.6599
 152  148.8599
 153  185.1168
 154  143.5852
 155  56.69078
 156  134.2615
 157  104.3324
 158  178.8756
 159  224.4726
 160  204.6331
 161  103.9772
 162  91.47539
 163  -31.62312
 164  43.95684
 165  111.0691
 166  82.20844
 167  160.0177
 168  224.312
 169  281.5746
 170  107.8596
 171  -3.445568
 172  59.07023
 173  -22.14656
 174  114.4878
 175  342.4377
 176  365.2318
 177  208.8234
 178  99.59757
 179  -3.183833
 180  83.15266
 181  191.4889
 182  189.5822
 183  118.363
 184  194.4737
 185  226.7245
 186  204.0538
 187  293.5826
 188  219.1229
 189  120.9688
 190  84.39142
 191  37.53995
 192  143.0187
 193  229.9046
 194  155.1484
 195  104.8846
 196  155.3165
 197  220.8871
 198  136.44
 199  132.1578
 200  148.3629
 201  186.3355
 202  141.07
 203  -107.6328
 204  9.808842
 205  84.4501
 206  85.05956
 207  -1.191804
 208  -14.19536
 209  41.11907
 210  180.4163
 211  158.6225
 212  47.48034
 213  11.63483
 214  146.4958
 215  197.5308
 216  244.2774
 217  268.228
 218  324.7188
 219  236.0752
 220  40.34928
 221  71.38593
 222  188.6213
 223  153.2155
 224  161.0297
 225  113.1534
 226  157.7134
 227  106.4602
 228  158.2328
 229  194.5432
 230  104.9064
 231  -3.962615
 232  119.8498
 233  175.6318
 234  79.27582
 235  160.9339
 236  142.5349
 237  45.75891
 238  10.54393
 239  0.2590083
 240  149.8792
 241  193.4651
 242  182.5632
 243  205.7546
 244  64.93692
 245  152.2655
 246  151.9818
 247  192.7167
 248  54.96839
 249  -66.65015
 250  147.0828
 251  227.7465
 252  85.87502
 253  56.19416
 254  119.6092
 255  141.8919
 256  131.4161
 257  181.5185
 258  195.8863
 259  182.1809
 260  181.5763
 261  99.31187
 262  148.7139
 263  97.54282
 264  -49.9416
 265  -64.56207
 266  65.1526
 267  168.5554
 268  47.2533
 269  -50.35894
 270  5.106841
 271  59.28942
 272  78.89523
 273  -91.78704
 274  13.86559
 275  150.2771
 276  173.3291
 277  37.32473
 278  -11.11856
 279  6.822933
 280  -5.961431
 281  26.41763
 282  -5.310122
 283  91.74732
 284  265.7128
 285  198.057
 286  70.31134
 287  23.85548
 288  26.28422
 289  146.4214
 290  238.7048
 291  212.0889
 292  75.1534
 293  69.79072
 294  -1.480098
 295  23.77896
 296  8.071618
 297  -10.31349
 298  61.72818
 299  276.9015
 300  248.3095
 301  195.5861
 302  139.6965
 303  71.54752
 304  78.34355
 305  160.7586
 306  175.5488
 307  143.939
 308  140.5172
 309  149.2558
 310  81.0824
 311  -26.91848
 312  -82.24828
 313  -23.41352
 314  126.3247
 315  195.3349
 316  229.1616
 317  152.12
 318  214.6399
 319  196.9024
 320  166.464
 321  73.98531
 322  94.29885
 323  127.8389
 324  144.328
 325  104.3263
 326  161.7496
 327  177.4592
 328  71.54081
 329  4.294898
 330  75.91399
 331  99.23405
 332  154.843
 333  334.9014
 334  328.6936
 335  184.7637
 336  207.2852
 337  105.2665
 338  73.09725
 339  30.0199
 340  166.5848
 341  146.5627
 342  152.2391
 343  247.4021
 344  132.1624
 345  109.6668
 346  93.57922
 347  4.336711
 348  -88.67503
 349  76.38284
 350  229.1173
 351  134.4523
 352  -33.16473
 353  74.90942
 354  161.2179
 355  162.8378
 356  212.5107
 357  324.0261
 358  349.0229
 359  276.8822
 360  53.32204
 361  173.4827
 362  208.3268
 363  173.8491
 364  148.3607
 365  178.2755
 366  214.4713
 367  158.1286
 368  95.29745
 369  94.39758
 370  120.9948
 371  142.7398
 372  224.3049
 373  157.9841
 374  352.6396
 375  348.6106
 376  253.1198
 377  227.7921
 378  77.30465
 379  60.56878
 380  144.9342
 381  170.6619
 382  185.9862
 383  288.68
 384  237.6416
 385  93.0806
 386  36.08371
 387  24.70949
 388  73.12266
 389  211.38
 390  306.1355
 391  246.3053
 392  235.0001
 393  296.4718
 394  116.7504
 395  42.94292
 396  9.390063
 397  46.25434
 398  139.9962
 399  150.6528
 400  81.74307
 401  -17.75857
 402  54.77074
 403  124.8205
 404  149.825
 405  133.8827
 406  145.1225
 407  117.7067
 408  90.58038
 409  -1.075334
 410  37.979
 411  -1.90638
 412  86.60161
 413  189.3618
 414  107.5134
 415  246.3325
 416  246.4953
 417  85.24878
 418  45.32658
 419  88.64771
 420  42.52908
 421  -57.88482
 422  -31.89594
 423  186.5147
 424  265.2243
 425  184.0972
 426  112.0768
 427  68.47837
 428  62.79868
 429  39.3064
 430  6.514245
 431  76.30664
 432  179.7715
 433  211.2866
 434  117.7161
 435  83.40858
 436  10.01303
 437  75.71704
 438  72.21632
 439  129.7013
 440  172.6126
 441  153.5502
 442  142.1994
 443  134.9185
 444  56.31424
 445  38.66275
 446  125.0131
 447  109.1559
 448  114.1913
 449  264.2929
 450  279.4223
 451  54.39747
 452  -12.08209
 453  20.28227
 454  50.59463
 455  176.4338
 456  221.1726
 457  170.4921
 458  186.6561
 459  137.9236
 460  133.4611
 461  65.93939
 462  68.69836
 463  208.2578
 464  206.6245
 465  323.9712
 466  333.4706
 467  208.4083
 468  236.9258
 469  161.6083
 470  218.3954
 471  181.7917
 472  141.5433
 473  131.115
 474  20.54348
 475  236.8123
 476  274.1911
 477  212.3049
 478  70.42805
 479  130.5008
 480  254.3564
 481  273.323
 482  199.6694
 483  180.7193
 484  137.3098
 485  31.11559
 486  50.3171
 487  0.9574767
 488  86.32671
 489  46.57102
 490  30.08039
 491  194.5137
 492  103.2009
 493  69.56232
 494  5.752171
 495  40.80638
 496  13.12335
 497  89.14636
 498  311.3084
 499  275.1355
 500  158.3568
 501  50.5705
 502  101.5576
 503  68.95507
 504  218.6017
 505  286.9544
 506  371.5021
 507  473.496
 508  493.895
 509  548.0415
 510  690.5248
 511  736.1215
