# Input file       =  1201001850.126311_cleaned.dat
# Candidate        =  PSR_0332+5434
# Telescope        =  AR
# Epoch_topo       =  58144.484168128598
# Epoch_bary       =  N/A
# T_sample         =  0.002
# Data Folded      =  7471104
# Data Avg         =  0.0150936400343748
# Data StdDev      =  1.00010271383751 
# Profile Bins     =  512
# Profile Avg      =  220.181373416852 
# Profile StdDev   =  120.809758523811 
# Reduced chi-sqr  =  1.475
# Prob(Noise)      <  1.34e-11   (~6.7 sigma)
# P_topo (ms)      =  714.573378753532  +/- 7.52e-05
# P'_topo (s/s)    =  -0                +/- 3.9e-11
# P''_topo (s/s^2) =  0                 +/- 1.69e-14
# P_bary (ms)      =  N/A
# P'_bary (s/s)    =  N/A
# P''_bary (s/s^2) =  N/A
# P_orb (s)        =  N/A
# asin(i)/c (s)    =  N/A
# eccentricity     =  N/A
# w (rad)          =  N/A
# T_peri           =  N/A
######################################################
   0  860.0751
   1  872.7896
   2  633.8842
   3  454.3648
   4  297.3433
   5  256.9442
   6  190.0076
   7  194.6865
   8  274.2364
   9  355.3912
  10  371.5372
  11  348.8585
  12  487.3651
  13  280.9948
  14  215.4164
  15  175.3521
  16  165.8351
  17  200.2183
  18  190.5157
  19  131.1779
  20  67.50562
  21  72.18726
  22  24.17412
  23  116.6769
  24  129.6811
  25  142.0141
  26  216.4274
  27  220.8963
  28  83.16584
  29  77.19853
  30  79.14507
  31  7.823852
  32  14.98097
  33  41.12392
  34  217.8896
  35  307.6118
  36  136.1217
  37  97.52023
  38  211.8808
  39  163.0948
  40  250.5674
  41  276.0131
  42  352.0427
  43  268.7257
  44  190.0572
  45  116.3999
  46  165.1872
  47  171.6992
  48  131.7533
  49  97.30518
  50  290.4672
  51  336.5262
  52  252.9794
  53  311.2199
  54  223.2754
  55  149.084
  56  232.6584
  57  171.3393
  58  220.5224
  59  343.4681
  60  197.2995
  61  204.9859
  62  317.8892
  63  209.1716
  64  18.20529
  65  137.0991
  66  239.1826
  67  173.4597
  68  262.4178
  69  221.1113
  70  84.92587
  71  148.9155
  72  330.1039
  73  391.1134
  74  273.3991
  75  361.0841
  76  390.418
  77  214.5898
  78  137.0657
  79  103.0123
  80  112.9837
  81  161.6431
  82  194.83
  83  239.8288
  84  174.2486
  85  159.4048
  86  175.3989
  87  115.7945
  88  68.23601
  89  280.1202
  90  233.003
  91  275.2455
  92  222.843
  93  283.1266
  94  176.8795
  95  129.6608
  96  141.8975
  97  247.056
  98  299.6457
  99  333.8948
 100  285.909
 101  288.1138
 102  181.8121
 103  276.5687
 104  264.7696
 105  164.5801
 106  209.0284
 107  274.6114
 108  175.7747
 109  219.8068
 110  185.6733
 111  162.4045
 112  177.662
 113  219.0816
 114  260.336
 115  185.0616
 116  139.7468
 117  178.5902
 118  108.984
 119  68.51953
 120  139.0455
 121  181.3152
 122  80.71611
 123  104.5158
 124  223.5817
 125  212.9149
 126  183.9138
 127  173.972
 128  278.0042
 129  286.352
 130  232.4738
 131  216.3637
 132  299.1461
 133  513.6255
 134  275.986
 135  10.40849
 136  45.95308
 137  165.7801
 138  215.0753
 139  117.4681
 140  238.8044
 141  374.4085
 142  444.4814
 143  278.7772
 144  146.3585
 145  242.299
 146  250.1001
 147  113.4978
 148  120.9316
 149  159.7059
 150  169.6943
 151  147.0418
 152  41.4234
 153  82.33835
 154  156.324
 155  233.1887
 156  243.0027
 157  371.9413
 158  371.6784
 159  174.7484
 160  241.5893
 161  242.842
 162  236.1725
 163  280.0493
 164  271.671
 165  291.5622
 166  283.2318
 167  367.8834
 168  330.5687
 169  198.099
 170  202.4208
 171  345.0912
 172  149.7942
 173  89.26424
 174  191.4379
 175  215.0658
 176  243.2989
 177  308.5449
 178  262.8285
 179  173.2039
 180  103.8026
 181  225.4656
 182  319.6727
 183  207.3683
 184  206.0035
 185  248.5018
 186  303.5318
 187  193.8896
 188  129.4565
 189  282.4504
 190  174.2755
 191  252.0895
 192  332.3829
 193  249.4179
 194  288.2462
 195  299.9331
 196  84.22315
 197  120.7866
 198  236.0108
 199  341.1028
 200  205.3358
 201  170.957
 202  164.2322
 203  308.6336
 204  198.202
 205  204.9944
 206  191.5758
 207  400.3792
 208  398.7168
 209  343.2274
 210  313.8857
 211  172.496
 212  222.2718
 213  287.5224
 214  303.1695
 215  240.9647
 216  305.4985
 217  330.8109
 218  284.9293
 219  255.8346
 220  178.9349
 221  189.7584
 222  210.4107
 223  317.2116
 224  345.0899
 225  253.1965
 226  217.1137
 227  150.0549
 228  187.017
 229  119.7808
 230  70.51782
 231  270.1331
 232  429.0523
 233  259.7851
 234  163.0701
 235  48.84501
 236  194.965
 237  106.9128
 238  96.68176
 239  188.9466
 240  233.2277
 241  286.3443
 242  344.0358
 243  308.0055
 244  169.2728
 245  282.7586
 246  346.519
 247  199.6477
 248  200.2567
 249  233.9676
 250  148.3783
 251  136.9643
 252  148.8442
 253  204.5613
 254  21.50862
 255  -15.32003
 256  152.7972
 257  317.9442
 258  160.2098
 259  147.5983
 260  212.347
 261  159.3671
 262  217.707
 263  174.4505
 264  291.6876
 265  294.2139
 266  190.4973
 267  93.31556
 268  89.67592
 269  116.793
 270  189.0622
 271  350.8239
 272  293.7064
 273  327.1966
 274  257.3144
 275  169.116
 276  98.49533
 277  70.93935
 278  157.691
 279  199.3102
 280  213.5106
 281  341.4361
 282  223.5638
 283  182.254
 284  309.2655
 285  228.1884
 286  114.4129
 287  84.96893
 288  62.30781
 289  231.1857
 290  190.1187
 291  175.9796
 292  146.7036
 293  210.0976
 294  205.4615
 295  90.75888
 296  141.0533
 297  125.0029
 298  239.6216
 299  233.3702
 300  210.4138
 301  255.6592
 302  159.1684
 303  222.0063
 304  219.9848
 305  227.6742
 306  172.1013
 307  310.6873
 308  262.974
 309  235.0572
 310  248.2341
 311  195.6958
 312  216.3435
 313  175.5449
 314  174.7903
 315  170.2647
 316  294.9811
 317  324.5528
 318  196.9451
 319  147.6365
 320  214.1186
 321  77.26705
 322  280.2939
 323  401.3463
 324  350.6345
 325  169.8156
 326  180.159
 327  224.9918
 328  252.2596
 329  70.6388
 330  128.2917
 331  206.8457
 332  97.37695
 333  222.8329
 334  292.6047
 335  316.2003
 336  90.48913
 337  53.20752
 338  246.2529
 339  299.6348
 340  310.1166
 341  306.9079
 342  212.4213
 343  67.14896
 344  60.59199
 345  141.4672
 346  210.4572
 347  102.3888
 348  96.45364
 349  93.14304
 350  158.359
 351  83.76513
 352  137.3583
 353  175.9109
 354  164.704
 355  126.9049
 356  348.6431
 357  272.4054
 358  204.5745
 359  256.2528
 360  330.385
 361  263.0863
 362  146.5206
 363  69.50365
 364  100.7656
 365  133.6817
 366  58.50734
 367  -0.8988486
 368  134.5444
 369  276.2417
 370  298.2578
 371  235.249
 372  105.4025
 373  137.0695
 374  189.9283
 375  183.8194
 376  144.8672
 377  109.2392
 378  148.3972
 379  137.1755
 380  283.22
 381  286.3748
 382  175.3398
 383  238.3349
 384  133.1284
 385  141.916
 386  114.5517
 387  148.0167
 388  186.9081
 389  276.9692
 390  281.2047
 391  179.0986
 392  207.3232
 393  296.4531
 394  413.4531
 395  336.9031
 396  279.5292
 397  242.7633
 398  262.7864
 399  149.4243
 400  248.7784
 401  258.2121
 402  62.43068
 403  103.6532
 404  99.17834
 405  271.4116
 406  387.1324
 407  268.1321
 408  145.8814
 409  164.4775
 410  127.5207
 411  152.824
 412  203.0005
 413  220.7163
 414  161.968
 415  99.19082
 416  209.0009
 417  209.0181
 418  225.3322
 419  133.0581
 420  62.88913
 421  194.7352
 422  339.0138
 423  272.5473
 424  252.3355
 425  188.4121
 426  204.4936
 427  90.0255
 428  141.1335
 429  291.4532
 430  240.0109
 431  201.597
 432  233.3307
 433  276.0414
 434  182.0251
 435  128.5948
 436  195.8438
 437  310.0047
 438  326.8543
 439  354.7127
 440  331.1848
 441  337.7921
 442  309.5966
 443  226.5376
 444  226.6847
 445  217.3741
 446  323.4001
 447  356.1102
 448  399.325
 449  398.3822
 450  438.0348
 451  445.2936
 452  389.1155
 453  451.5313
 454  262.4865
 455  309.6522
 456  289.6423
 457  181.1186
 458  157.4951
 459  188.7109
 460  219.9376
 461  249.6973
 462  265.6828
 463  321.4283
 464  324.5565
 465  204.9815
 466  142.6552
 467  83.13482
 468  107.8073
 469  143.5549
 470  158.8668
 471  69.32307
 472  275.4614
 473  225.0743
 474  283.6392
 475  263.1031
 476  239.1938
 477  369.3848
 478  270.7071
 479  287.6779
 480  368.5046
 481  239.6381
 482  65.85583
 483  44.35546
 484  57.6629
 485  194.348
 486  130.2712
 487  161.7031
 488  308.9167
 489  282.366
 490  146.3366
 491  242.688
 492  277.9244
 493  248.4093
 494  268.8841
 495  215.421
 496  249.6146
 497  202.1533
 498  219.2843
 499  146.1198
 500  130.4637
 501  214.656
 502  201.0334
 503  135.7158
 504  292.8687
 505  472.0844
 506  565.7993
 507  394.7975
 508  240.7903
 509  372.8333
 510  644.9289
 511  776.9068
