# Input file       =  1201017031.099187_cleaned.dat
# Candidate        =  PSR_0332+5434
# Telescope        =  AR
# Epoch_topo       =  58144.659873833181
# Epoch_bary       =  N/A
# T_sample         =  0.002
# Data Folded      =  7340032
# Data Avg         =  0.0185087814115635
# Data StdDev      =  1.00003881345013 
# Profile Bins     =  512
# Profile Avg      =  265.370311672992 
# Profile StdDev   =  119.737683629002 
# Reduced chi-sqr  =  1.205
# Prob(Noise)      <  0.000965   (~3.1 sigma)
# P_topo (ms)      =  714.573491488644  +/- 0.000309
# P'_topo (s/s)    =  -0                +/- 1.63e-10
# P''_topo (s/s^2) =  0                 +/- 7.2e-14
# P_bary (ms)      =  N/A
# P'_bary (s/s)    =  N/A
# P''_bary (s/s^2) =  N/A
# P_orb (s)        =  N/A
# asin(i)/c (s)    =  N/A
# eccentricity     =  N/A
# w (rad)          =  N/A
# T_peri           =  N/A
######################################################
   0  847.3184
   1  827.7637
   2  707.2889
   3  454.9745
   4  302.421
   5  279.4485
   6  278.1267
   7  245.0201
   8  270.7349
   9  235.7748
  10  263.051
  11  371.6497
  12  423.5562
  13  372.2764
  14  372.3784
  15  326.7289
  16  311.0052
  17  324.535
  18  345.576
  19  330.882
  20  179.8353
  21  157.6203
  22  230.1446
  23  187.4329
  24  103.6615
  25  181.9304
  26  190.3362
  27  287.9306
  28  316.0242
  29  368.0962
  30  316.7336
  31  269.4131
  32  252.7987
  33  193.2993
  34  150.8646
  35  150.904
  36  189.4679
  37  269.2796
  38  288.0843
  39  234.3693
  40  65.73993
  41  191.3813
  42  305.86
  43  264.253
  44  275.9948
  45  254.3038
  46  406.0461
  47  341.6202
  48  177.3531
  49  124.1898
  50  199.985
  51  186.2577
  52  248.6594
  53  177.5253
  54  242.3587
  55  150.6445
  56  134.7538
  57  308.1614
  58  254.4
  59  188.1241
  60  227.0216
  61  321.3338
  62  229.121
  63  269.6923
  64  275.6534
  65  326.8562
  66  223.2621
  67  260.0059
  68  302.4808
  69  371.2751
  70  429.9662
  71  415.0216
  72  411.8637
  73  368.6217
  74  281.4364
  75  141.1877
  76  173.8901
  77  285.2267
  78  314.7277
  79  340.8918
  80  299.0227
  81  305.2522
  82  177.2253
  83  287.2082
  84  290.3685
  85  307.6371
  86  227.9116
  87  119.0351
  88  190.6286
  89  229.6782
  90  240.549
  91  152.0754
  92  239.3765
  93  258.1987
  94  251.5611
  95  329.1237
  96  335.1241
  97  166.0144
  98  239.7494
  99  322.3925
 100  431.4229
 101  467.844
 102  371.0284
 103  195.2841
 104  273.4738
 105  322.1981
 106  190.9948
 107  159.8534
 108  340.6816
 109  395.1176
 110  382.789
 111  396.8211
 112  362.2526
 113  166.8185
 114  131.5434
 115  275.9055
 116  314.5987
 117  252.4295
 118  237.2671
 119  216.071
 120  250.5655
 121  241.7963
 122  183.5341
 123  175.6226
 124  177.2452
 125  277.6074
 126  340.0097
 127  390.9161
 128  297.8367
 129  223.4747
 130  299.9336
 131  341.309
 132  225.6877
 133  359.5793
 134  357.6909
 135  189.3285
 136  172.5109
 137  193.712
 138  334.1518
 139  340.2338
 140  379.0206
 141  418.5787
 142  404.2854
 143  310.1206
 144  304.6636
 145  371.9706
 146  290.5586
 147  369.8107
 148  357.4646
 149  368.4959
 150  411.3618
 151  523.803
 152  411.3246
 153  308.2756
 154  402.4466
 155  294.8576
 156  236.3343
 157  371.0151
 158  321.9856
 159  295.3699
 160  275.0651
 161  386.3293
 162  204.7106
 163  131.0218
 164  108.7847
 165  179.1184
 166  225.4549
 167  272.7884
 168  311.4447
 169  282.5045
 170  195.2381
 171  244.9805
 172  269.7744
 173  133.4702
 174  133.2611
 175  262.9077
 176  277.2824
 177  156.2795
 178  287.2965
 179  299.5109
 180  193.0309
 181  219.1084
 182  198.4088
 183  166.4381
 184  199.3036
 185  229.0319
 186  251.6071
 187  252.5879
 188  215.2355
 189  206.3835
 190  202.8987
 191  181.5153
 192  198.8511
 193  288.6902
 194  307.8099
 195  244.8582
 196  189.4494
 197  268.7742
 198  216.0799
 199  324.2369
 200  236.047
 201  303.5026
 202  238.4576
 203  173.7077
 204  259.2752
 205  217.5277
 206  177.7261
 207  143.8105
 208  270.1248
 209  250.6688
 210  207.6161
 211  275.6567
 212  291.7566
 213  270.4606
 214  194.9487
 215  228.477
 216  244.6111
 217  232.3663
 218  265.2311
 219  287.0636
 220  305.4275
 221  239.8112
 222  257.0797
 223  273.8865
 224  369.1314
 225  267.5923
 226  237.5788
 227  203.9433
 228  280.0758
 229  238.9093
 230  276.689
 231  357.4141
 232  354.2687
 233  362.97
 234  326.3376
 235  315.626
 236  179.5122
 237  148.0048
 238  265.1457
 239  336.556
 240  323.561
 241  215.6841
 242  101.2196
 243  280.9181
 244  348.0517
 245  299.5095
 246  252.8175
 247  246.8734
 248  119.1836
 249  144.3531
 250  149.4312
 251  203.5603
 252  348.6978
 253  287.6262
 254  407.0862
 255  358.1836
 256  309.134
 257  392.2817
 258  256.9508
 259  107.3744
 260  109.3014
 261  282.8572
 262  222.9973
 263  187.8366
 264  213.6444
 265  249.668
 266  298.4242
 267  351.1482
 268  314.0794
 269  298.2086
 270  277.267
 271  206.0174
 272  268.4261
 273  324.5734
 274  414.525
 275  345.3732
 276  299.8117
 277  365.0596
 278  272.1454
 279  197.686
 280  227.3831
 281  278.2216
 282  345.2321
 283  432.6888
 284  328.364
 285  301.3185
 286  236.9864
 287  303.4339
 288  410.4018
 289  204.8004
 290  188.7874
 291  246.5071
 292  189.3879
 293  183.1016
 294  366.1787
 295  392.5299
 296  316.3957
 297  273.4748
 298  202.0609
 299  221.3481
 300  265.2616
 301  297.2478
 302  358.6243
 303  328.6154
 304  317.3983
 305  287.2652
 306  368.6811
 307  251.7482
 308  246.2271
 309  269.0765
 310  301.7872
 311  256.0932
 312  294.4882
 313  300.2599
 314  315.4271
 315  275.6959
 316  396.922
 317  447.7193
 318  315.4469
 319  285.8228
 320  294.0389
 321  160.8239
 322  325.7119
 323  312.7715
 324  232.8537
 325  93.14496
 326  145.6375
 327  213.5968
 328  170.111
 329  143.0038
 330  169.3051
 331  90.67816
 332  59.77325
 333  125.819
 334  150.1735
 335  324.2378
 336  208.5336
 337  60.94669
 338  175.1212
 339  246.1891
 340  261.1692
 341  310.6796
 342  308.6798
 343  246.995
 344  224.6503
 345  279.6648
 346  243.1472
 347  176.1217
 348  346.3983
 349  273.7913
 350  225.1339
 351  204.5964
 352  169.8474
 353  122.7144
 354  111.9163
 355  155.5033
 356  258.4703
 357  382.9066
 358  248.9399
 359  217.6269
 360  206.796
 361  181.8818
 362  212.4391
 363  232.8479
 364  214.5646
 365  238.315
 366  342.0353
 367  338.5109
 368  183.8412
 369  172.2005
 370  179.2093
 371  259.3608
 372  188.6798
 373  136.6085
 374  171.4216
 375  139.2203
 376  187.144
 377  207.0673
 378  147.6016
 379  141.0273
 380  177.8958
 381  269.5385
 382  113.4753
 383  193.2755
 384  153.0917
 385  125.943
 386  39.8431
 387  98.3718
 388  179.2716
 389  158.815
 390  269.4297
 391  282.1812
 392  366.0354
 393  278.7384
 394  307.7074
 395  310.0067
 396  300.6746
 397  282.2774
 398  266.0383
 399  305.4756
 400  179.5422
 401  282.3423
 402  224.8875
 403  276.1216
 404  113.8482
 405  142.9977
 406  237.2581
 407  106.4777
 408  185.8406
 409  222.618
 410  327.6359
 411  319.3932
 412  242.6178
 413  184.4965
 414  185.0674
 415  150.5058
 416  218.5197
 417  276.8175
 418  245.591
 419  175.5165
 420  137.5628
 421  237.5702
 422  287.4588
 423  292.8446
 424  285.7329
 425  288.7444
 426  292.5747
 427  230.5509
 428  109.2673
 429  134.7858
 430  284.982
 431  235.1186
 432  327.1939
 433  380.8307
 434  224.2639
 435  249.4901
 436  322.4195
 437  349.0714
 438  314.3533
 439  264.618
 440  344.9606
 441  380.1311
 442  311.8753
 443  243.3608
 444  268.7884
 445  244.8964
 446  286.3404
 447  359.6786
 448  310.8235
 449  174.567
 450  265.9752
 451  276.3408
 452  159.2738
 453  198.6368
 454  379.8623
 455  285.1221
 456  163.5373
 457  251.4236
 458  359.4066
 459  318.4884
 460  296.5251
 461  361.498
 462  482.0204
 463  287.0132
 464  218.7811
 465  263.5995
 466  278.9908
 467  301.5471
 468  168.6521
 469  202.173
 470  235.6365
 471  296.2198
 472  158.5839
 473  199.5049
 474  202.7696
 475  223.2028
 476  229.1674
 477  153.7631
 478  210.0863
 479  257.2547
 480  220.4029
 481  129.464
 482  175.131
 483  249.0822
 484  264.5139
 485  218.9963
 486  181.2322
 487  388.2705
 488  375.8693
 489  286.2807
 490  388.5442
 491  456.5097
 492  401.5333
 493  90.08077
 494  147.7509
 495  228.5482
 496  305.8705
 497  183.7558
 498  253.3945
 499  280.0882
 500  304.4405
 501  349.6996
 502  385.9949
 503  401.999
 504  375.6169
 505  357.131
 506  289.6257
 507  285.686
 508  482.1566
 509  547.6024
 510  645.9949
 511  740.6643
