# Input file       =  1201462217.127175_cleaned.dat
# Candidate        =  PSR_0332+5434
# Telescope        =  AR
# Epoch_topo       =  58149.812489897857
# Epoch_bary       =  N/A
# T_sample         =  0.002
# Data Folded      =  7340032
# Data Avg         =  0.0187442254221502
# Data StdDev      =  1.00003465722123 
# Profile Bins     =  512
# Profile Avg      =  268.74724895427  
# Profile StdDev   =  119.737185991097 
# Reduced chi-sqr  =  1.193
# Prob(Noise)      <  0.00172   (~2.9 sigma)
# P_topo (ms)      =  714.576160556744  +/- 0.000231
# P'_topo (s/s)    =  -0                +/- 1.22e-10
# P''_topo (s/s^2) =  0                 +/- 5.37e-14
# P_bary (ms)      =  N/A
# P'_bary (s/s)    =  N/A
# P''_bary (s/s^2) =  N/A
# P_orb (s)        =  N/A
# asin(i)/c (s)    =  N/A
# eccentricity     =  N/A
# w (rad)          =  N/A
# T_peri           =  N/A
######################################################
   0  830.5999
   1  773.6395
   2  847.6252
   3  648.167
   4  377.5218
   5  231.9897
   6  132.3649
   7  291.4097
   8  328.3737
   9  126.5443
  10  127.8799
  11  116.5363
  12  210.4471
  13  279.1137
  14  427.5625
  15  353.3899
  16  272.7144
  17  262.2806
  18  204.8159
  19  222.2484
  20  211.1603
  21  98.91132
  22  60.69445
  23  300.6082
  24  278.3224
  25  183.4725
  26  239.4565
  27  363.6106
  28  173.0296
  29  200.5116
  30  374.0768
  31  256.2442
  32  151.9561
  33  157.9252
  34  241.7549
  35  323.0697
  36  337.2355
  37  262.4229
  38  133.4165
  39  171.6266
  40  188.9881
  41  232.4674
  42  225.6903
  43  210.2762
  44  178.4364
  45  269.4283
  46  222.8086
  47  180.1208
  48  344.4367
  49  365.6831
  50  185.6292
  51  171.9948
  52  284.2324
  53  302.7286
  54  313.6151
  55  177.2232
  56  173.0912
  57  227.2836
  58  306.0935
  59  328.5717
  60  381.9016
  61  332.5319
  62  291.3842
  63  310.7229
  64  286.9108
  65  288.2746
  66  242.4642
  67  110.0201
  68  219.6093
  69  246.0861
  70  265.5227
  71  226.9154
  72  295.6742
  73  332.7857
  74  311.3432
  75  244.1941
  76  250.9195
  77  170.0279
  78  228.9084
  79  368.4512
  80  295.4724
  81  80.88721
  82  311.3445
  83  341.4353
  84  359.5034
  85  337.9417
  86  276.4641
  87  266.1819
  88  192.7644
  89  248.9148
  90  436.7897
  91  411.2411
  92  275.978
  93  107.3265
  94  84.32455
  95  223.4426
  96  275.3556
  97  267.3525
  98  245.6929
  99  275.0352
 100  344.4216
 101  274.3594
 102  293.8314
 103  288.3649
 104  114.1098
 105  202.2044
 106  279.8661
 107  191.2523
 108  217.3274
 109  383.753
 110  301.4982
 111  227.9843
 112  369.1701
 113  309.1947
 114  148.0178
 115  150.8991
 116  238.2334
 117  108.3745
 118  78.12032
 119  197.3622
 120  296.7334
 121  267.4203
 122  236.846
 123  266.7504
 124  259.667
 125  375.9458
 126  351.9336
 127  337.016
 128  260.0057
 129  211.1349
 130  308.5306
 131  279.6134
 132  281.2916
 133  381.9769
 134  257.2057
 135  89.922
 136  135.2953
 137  309.5601
 138  267.4215
 139  429.3116
 140  486.3514
 141  325.6083
 142  262.6513
 143  295.8639
 144  348.1723
 145  434.7453
 146  373.0426
 147  293.8729
 148  257.0088
 149  322.5845
 150  218.3407
 151  142.3185
 152  328.4966
 153  246.4035
 154  185.3649
 155  300.8952
 156  263.1033
 157  160.6917
 158  290.6105
 159  291.2271
 160  310.7608
 161  170.2153
 162  305.5502
 163  321.6354
 164  290.1537
 165  172.5745
 166  279.3545
 167  294.0358
 168  262.9017
 169  332.8646
 170  288.7804
 171  347.5507
 172  374.1561
 173  418.0819
 174  304.2534
 175  336.0714
 176  296.1775
 177  218.4945
 178  305.0667
 179  403.5628
 180  447.1962
 181  387.8657
 182  330.9874
 183  281.3048
 184  315.0068
 185  215.0013
 186  273.0637
 187  286.7491
 188  273.3401
 189  222.4449
 190  354.2611
 191  370.817
 192  322.9628
 193  260.9368
 194  419.3619
 195  292.6761
 196  194.6465
 197  269.5793
 198  367.3619
 199  363.9879
 200  282.9425
 201  289.5274
 202  331.0403
 203  278.4015
 204  454.3347
 205  318.0854
 206  265.4869
 207  418.4404
 208  384.9589
 209  312.8831
 210  201.5283
 211  306.8567
 212  327.8738
 213  267.8106
 214  252.7525
 215  299.6077
 216  197.7822
 217  277.7763
 218  385.2325
 219  383.1225
 220  270.8793
 221  241.7609
 222  300.0797
 223  401.9064
 224  275.7743
 225  249.6574
 226  234.135
 227  233.7857
 228  298.2288
 229  228.0651
 230  330.6922
 231  406.8678
 232  211.5101
 233  170.9532
 234  108.9683
 235  258.0532
 236  324.8479
 237  301.5499
 238  198.6461
 239  190.6375
 240  244.4904
 241  105.6357
 242  241.5376
 243  280.3776
 244  254.6548
 245  227.2743
 246  207.0412
 247  226.0254
 248  252.3995
 249  221.3029
 250  85.15164
 251  175.4436
 252  283.9893
 253  322.4767
 254  326.7238
 255  339.0794
 256  247.4049
 257  294.5067
 258  267.1479
 259  260.5594
 260  256.7205
 261  193.0506
 262  319.8539
 263  158.3703
 264  313.0669
 265  245.4779
 266  229.06
 267  201.2988
 268  290.2204
 269  367.3602
 270  217.407
 271  236.9431
 272  293.7708
 273  170.1693
 274  198.1141
 275  267.6873
 276  217.8873
 277  187.0867
 278  228.9508
 279  307.3146
 280  244.4729
 281  326.5919
 282  296.9451
 283  225.2299
 284  184.8957
 285  215.1423
 286  144.5231
 287  118.3332
 288  154.4222
 289  299.6095
 290  257.1683
 291  217.56
 292  265.3542
 293  262.0458
 294  317.0019
 295  365.7525
 296  304.758
 297  227.9645
 298  292.2857
 299  318.2521
 300  360.7644
 301  291.7993
 302  153.6394
 303  66.77969
 304  148.645
 305  237.8483
 306  215.915
 307  210.4314
 308  264.7768
 309  245.8445
 310  297.9424
 311  188.4482
 312  219.6656
 313  307.52
 314  211.7383
 315  229.1876
 316  312.5989
 317  368.8863
 318  334.2191
 319  322.1172
 320  358.6551
 321  359.1603
 322  424.5877
 323  296.023
 324  238.9262
 325  222.727
 326  395.1271
 327  305.3379
 328  206.2961
 329  303.8235
 330  436.1367
 331  290.6134
 332  126.2012
 333  263.3177
 334  279.3492
 335  256.5765
 336  144.8127
 337  151.6478
 338  285.1577
 339  306.2047
 340  296.1531
 341  270.4206
 342  178.7864
 343  99.64069
 344  159.9016
 345  279.5157
 346  204.601
 347  227.5614
 348  170.9635
 349  182.2599
 350  223.2786
 351  188.8876
 352  229.3124
 353  279.5464
 354  258.5799
 355  242.6736
 356  136.4671
 357  147.6337
 358  214.9263
 359  332.3896
 360  220.0376
 361  104.1442
 362  210.7629
 363  320.6572
 364  395.4426
 365  381.0659
 366  128.4859
 367  281.5828
 368  261.4389
 369  277.1582
 370  352.7763
 371  260.2496
 372  217.3466
 373  256.5269
 374  331.8875
 375  335.429
 376  252.435
 377  198.3459
 378  230.9345
 379  188.5455
 380  297.1778
 381  363.2135
 382  251.338
 383  157.3733
 384  240.736
 385  315.7169
 386  202.5185
 387  263.5679
 388  328.5103
 389  239.4125
 390  289.9759
 391  234.5225
 392  228.4592
 393  258.706
 394  345.5973
 395  303.9536
 396  271.7348
 397  167.4047
 398  208.394
 399  251.1466
 400  212.348
 401  172.687
 402  223.7025
 403  242.7217
 404  297.4247
 405  259.1052
 406  302.3046
 407  318.5624
 408  223.8622
 409  298.597
 410  200.0083
 411  309.465
 412  293.5544
 413  245.0766
 414  232.9844
 415  213.8801
 416  223.5119
 417  247.3408
 418  249.6119
 419  119.0324
 420  194.389
 421  167.3698
 422  178.4517
 423  214.268
 424  126.6792
 425  202.1051
 426  256.2021
 427  253.4034
 428  253.171
 429  262.7971
 430  255.8273
 431  253.4634
 432  215.0884
 433  284.084
 434  267.1604
 435  226.8766
 436  315.8505
 437  325.4893
 438  272.6291
 439  203.762
 440  77.07067
 441  139.6973
 442  125.2846
 443  186.892
 444  179.8562
 445  201.6512
 446  319.3581
 447  233.8605
 448  150.1109
 449  292.5444
 450  276.9617
 451  209.538
 452  195.7586
 453  276.0804
 454  391.2048
 455  361.0167
 456  361.5286
 457  269.9962
 458  277.0203
 459  217.7155
 460  213.495
 461  321.0527
 462  276.8751
 463  290.0612
 464  331.9216
 465  366.9835
 466  270.6925
 467  250.2663
 468  243.3184
 469  342.2142
 470  202.0192
 471  149.9353
 472  212.8089
 473  303.5741
 474  293.0042
 475  324.2772
 476  272.5472
 477  342.1678
 478  251.7488
 479  69.03539
 480  202.0466
 481  237.8839
 482  359.005
 483  353.4241
 484  359.19
 485  337.9425
 486  333.5299
 487  327.5684
 488  182.0884
 489  213.4558
 490  266.4049
 491  316.9771
 492  333.8087
 493  299.1942
 494  359.5444
 495  403.7628
 496  330.2909
 497  209.3708
 498  187.5785
 499  249.8745
 500  228.3363
 501  262.5194
 502  208.3052
 503  253.5593
 504  354.6471
 505  247.9021
 506  282.0486
 507  341.3529
 508  381.667
 509  562.0334
 510  721.1003
 511  921.0406
