# Input file       =  1201720771.121948_cleaned.dat
# Candidate        =  PSR_0332+5434
# Telescope        =  AR
# Epoch_topo       =  58152.805012985511
# Epoch_bary       =  N/A
# T_sample         =  0.002
# Data Folded      =  7340032
# Data Avg         =  0.0204898172002385
# Data StdDev      =  1.00005155319895 
# Profile Bins     =  512
# Profile Avg      =  293.730553664646 
# Profile StdDev   =  119.739208997812 
# Reduced chi-sqr  =  1.182
# Prob(Noise)      <  0.00281   (~2.8 sigma)
# P_topo (ms)      =  714.577329791754  +/- 0.000242
# P'_topo (s/s)    =  -0                +/- 1.28e-10
# P''_topo (s/s^2) =  0                 +/- 5.64e-14
# P_bary (ms)      =  N/A
# P'_bary (s/s)    =  N/A
# P''_bary (s/s^2) =  N/A
# P_orb (s)        =  N/A
# asin(i)/c (s)    =  N/A
# eccentricity     =  N/A
# w (rad)          =  N/A
# T_peri           =  N/A
######################################################
   0  899.2987
   1  921.4932
   2  728.2062
   3  479.8662
   4  451.3382
   5  490.8538
   6  274.5619
   7  358.9655
   8  414.9396
   9  376.2857
  10  268.1221
  11  251.9664
  12  299.2133
  13  411.8943
  14  460.6338
  15  459.1901
  16  390.5249
  17  352.8022
  18  263.5046
  19  263.4188
  20  231.5791
  21  272.5473
  22  297.0655
  23  375.5895
  24  393.6973
  25  288.0865
  26  195.7066
  27  231.5275
  28  297.106
  29  312.1279
  30  340.4145
  31  398.1965
  32  356.976
  33  419.4762
  34  357.5503
  35  299.9218
  36  218.9741
  37  215.8111
  38  267.3595
  39  283.9778
  40  209.2593
  41  269.4559
  42  253.6724
  43  180.7402
  44  263.7262
  45  296.4995
  46  355.5456
  47  309.2505
  48  306.2971
  49  274.5399
  50  338.968
  51  341.3114
  52  201.0825
  53  255.4394
  54  381.3319
  55  431.0887
  56  326.146
  57  403.0293
  58  390.0372
  59  241.0678
  60  291.9107
  61  297.7924
  62  260.2535
  63  373.5088
  64  304.7078
  65  237.1643
  66  251.748
  67  313.7629
  68  299.8455
  69  250.3744
  70  290.8882
  71  315.4765
  72  185.5003
  73  240.9343
  74  346.1568
  75  259.4637
  76  176.5907
  77  195.8607
  78  135.2949
  79  193.8567
  80  260.882
  81  255.4521
  82  272.5989
  83  297.0424
  84  381.3395
  85  342.2006
  86  303.4559
  87  232.9397
  88  148.735
  89  115.1665
  90  188.8931
  91  250.3661
  92  199.2288
  93  272.3246
  94  300.2108
  95  168.9318
  96  264.8053
  97  337.6402
  98  353.9696
  99  369.3077
 100  407.0709
 101  277.9413
 102  264.0744
 103  367.6859
 104  380.6393
 105  274.7054
 106  322.6898
 107  284.4579
 108  270.4294
 109  272.6061
 110  312.3226
 111  229.2622
 112  69.81418
 113  223.8228
 114  306.0132
 115  156.6099
 116  243.3315
 117  230.681
 118  245.0973
 119  428.9226
 120  399.3244
 121  403.3689
 122  170.7182
 123  244.2913
 124  399.2721
 125  347.0761
 126  348.1663
 127  364.2026
 128  370.2878
 129  463.6451
 130  281.4313
 131  303.8125
 132  353.1472
 133  284.4641
 134  285.1502
 135  186.2802
 136  284.3447
 137  226.8116
 138  222.9505
 139  294.4208
 140  330.7465
 141  235.1908
 142  223.4678
 143  227.7755
 144  318.0856
 145  289.5084
 146  269.4158
 147  278.0436
 148  263.3574
 149  445.7586
 150  347.7837
 151  423.4052
 152  309.3742
 153  379.6352
 154  378.1564
 155  372.0724
 156  377.7269
 157  299.6503
 158  261.735
 159  246.2192
 160  252.9721
 161  258.5066
 162  268.3443
 163  363.7478
 164  367.6609
 165  321.1518
 166  381.5222
 167  217.9848
 168  242.322
 169  245.2419
 170  313.4196
 171  346.3401
 172  248.6437
 173  341.0696
 174  285.2246
 175  325.6885
 176  336.1334
 177  291.8404
 178  128.079
 179  253.6952
 180  248.6359
 181  317.2693
 182  389.321
 183  355.1621
 184  268.176
 185  209.395
 186  222.2871
 187  174.238
 188  271.7704
 189  353.7981
 190  276.2021
 191  230.4726
 192  241.5698
 193  201.6438
 194  185.1374
 195  371.6971
 196  367.6889
 197  332.1315
 198  244.4892
 199  278.9634
 200  267.7488
 201  181.1592
 202  213.5184
 203  286.8629
 204  315.111
 205  396.2251
 206  422.7928
 207  262.126
 208  281.0301
 209  229.6587
 210  240.5457
 211  248.5641
 212  275.4087
 213  236.4327
 214  333.2532
 215  343.6104
 216  288.671
 217  324.2271
 218  277.9785
 219  299.95
 220  236.6995
 221  271.6483
 222  361.9654
 223  294.9987
 224  313.8551
 225  234.3499
 226  372.0768
 227  422.3779
 228  337.1112
 229  228.0496
 230  187.671
 231  359.1479
 232  419.2867
 233  342.0747
 234  284.2207
 235  193.9504
 236  198.5482
 237  275.1517
 238  386.6598
 239  321.3147
 240  287.6858
 241  333.1833
 242  233.6121
 243  236.0164
 244  229.4058
 245  242.243
 246  223.1223
 247  258.942
 248  373.7454
 249  236.767
 250  271.2386
 251  340.6848
 252  409.8582
 253  326.9755
 254  315.5092
 255  426.2499
 256  511.02
 257  464.8038
 258  432.1508
 259  448.4308
 260  216.2434
 261  153.2689
 262  297.4938
 263  323.2634
 264  120.4398
 265  177.7441
 266  404.1292
 267  402.0452
 268  210.72
 269  208.389
 270  306.0413
 271  323.2301
 272  328.1099
 273  371.6006
 274  399.8727
 275  221.845
 276  252.0965
 277  373.5191
 278  343.6341
 279  251.9274
 280  335.475
 281  378.6577
 282  319.4594
 283  358.2059
 284  445.9333
 285  401.8851
 286  307.4737
 287  273.0446
 288  246.0974
 289  293.7143
 290  152.5577
 291  218.6152
 292  251.0458
 293  116.2137
 294  298.1125
 295  404.0599
 296  336.4911
 297  181.2522
 298  275.0858
 299  361.1332
 300  445.7863
 301  423.7162
 302  362.0312
 303  296.3159
 304  401.003
 305  298.3154
 306  344.3907
 307  375.3176
 308  337.5122
 309  220.2825
 310  221.7918
 311  282.585
 312  354.4378
 313  266.1334
 314  191.0441
 315  180.5261
 316  269.0916
 317  243.0829
 318  368.8481
 319  320.3681
 320  229.8987
 321  278.5124
 322  332.4612
 323  401.2126
 324  406.702
 325  268.6938
 326  268.9928
 327  226.1109
 328  260.9167
 329  363.2029
 330  349.9998
 331  200.8502
 332  212.6405
 333  249.4864
 334  229.6635
 335  273.1754
 336  306.0327
 337  334.2095
 338  334.8228
 339  349.872
 340  267.3805
 341  187.3977
 342  200.9985
 343  253.2197
 344  293.6597
 345  367.312
 346  426.9096
 347  384.3761
 348  300.1044
 349  220.3554
 350  321.502
 351  452.2171
 352  296.6316
 353  265.588
 354  314.1514
 355  348.0709
 356  268.1057
 357  329.0535
 358  298.6096
 359  277.2765
 360  331.6172
 361  325.0323
 362  309.0158
 363  320.3025
 364  258.5041
 365  197.5145
 366  177.3764
 367  314.7493
 368  362.4947
 369  257.9026
 370  435.7509
 371  272.3244
 372  192.9237
 373  191.8279
 374  309.8968
 375  221.0551
 376  226.6765
 377  310.3083
 378  338.0271
 379  388.3889
 380  397.2558
 381  408.4343
 382  397.1401
 383  343.0217
 384  198.7941
 385  155.3351
 386  234.5502
 387  154.0166
 388  207.8404
 389  400.9198
 390  359.0472
 391  299.5291
 392  299.9872
 393  325.2503
 394  211.8563
 395  229.0193
 396  206.9026
 397  146.284
 398  180.5978
 399  196.6711
 400  223.0938
 401  242.7155
 402  144.2843
 403  154.742
 404  133.8949
 405  196.4233
 406  251.551
 407  185.7416
 408  141.5423
 409  234.7766
 410  344.2331
 411  271.4859
 412  241.1887
 413  280.3495
 414  208.825
 415  140.7984
 416  259.7952
 417  248.3473
 418  125.8063
 419  177.9647
 420  225.6213
 421  323.7236
 422  289.2823
 423  155.4671
 424  202.3083
 425  155.4598
 426  207.3313
 427  128.2233
 428  121.4092
 429  180.6893
 430  144.5707
 431  245.5311
 432  320.9621
 433  348.1378
 434  238.4358
 435  324.1418
 436  114.846
 437  133.1114
 438  348.7771
 439  322.1608
 440  205.1785
 441  201.0831
 442  237.2386
 443  108.8529
 444  97.2807
 445  250.3661
 446  309.7914
 447  244.5197
 448  167.842
 449  265.1391
 450  301.7107
 451  214.419
 452  297.3385
 453  351.7059
 454  347.0529
 455  279.0013
 456  339.7516
 457  262.6021
 458  156.8543
 459  235.6334
 460  328.788
 461  267.7184
 462  257.0309
 463  256.7605
 464  209.9392
 465  205.7959
 466  195.065
 467  319.5803
 468  380.1845
 469  293.4785
 470  377.3863
 471  263.7072
 472  175.5819
 473  230.3154
 474  305.099
 475  335.0573
 476  303.3734
 477  242.6564
 478  200.3959
 479  273.6153
 480  332.777
 481  343.7673
 482  377.8919
 483  249.8687
 484  265.8666
 485  341.8027
 486  355.9409
 487  265.9365
 488  287.4077
 489  159.7489
 490  168.6679
 491  256.0126
 492  301.0259
 493  405.4117
 494  314.0441
 495  319.1051
 496  186.4166
 497  256.937
 498  303.8122
 499  374.2269
 500  379.8044
 501  223.2289
 502  315.3527
 503  319.7065
 504  309.6569
 505  401.1859
 506  424.1031
 507  467.3959
 508  527.1784
 509  540.1379
 510  686.7148
 511  797.436
