# Input file       =  1201533515.12507_cleaned.dat
# Candidate        =  PSR_0332+5434
# Telescope        =  AR
# Epoch_topo       =  58150.637698206832
# Epoch_bary       =  N/A
# T_sample         =  0.002
# Data Folded      =  7340032
# Data Avg         =  0.028798287839119
# Data StdDev      =  1.00004909190211 
# Profile Bins     =  512
# Profile Avg      =  412.863389473034 
# Profile StdDev   =  119.738914299267 
# Reduced chi-sqr  =  1.264
# Prob(Noise)      <  4.47e-05   (~3.9 sigma)
# P_topo (ms)      =  714.576160689356  +/- 0.000244
# P'_topo (s/s)    =  -0                +/- 1.29e-10
# P''_topo (s/s^2) =  0                 +/- 5.69e-14
# P_bary (ms)      =  N/A
# P'_bary (s/s)    =  N/A
# P''_bary (s/s^2) =  N/A
# P_orb (s)        =  N/A
# asin(i)/c (s)    =  N/A
# eccentricity     =  N/A
# w (rad)          =  N/A
# T_peri           =  N/A
######################################################
   0  1158.619
   1  1057.557
   2  807.5548
   3  578.3867
   4  383.0577
   5  275.1314
   6  304.5223
   7  270.0865
   8  322.8831
   9  330.5156
  10  322.1025
  11  483.3604
  12  434.2197
  13  477.3295
  14  441.0153
  15  449.8142
  16  475.5844
  17  505.5734
  18  428.6267
  19  414.9133
  20  354.2056
  21  424.7969
  22  435.7975
  23  398.8541
  24  382.7442
  25  329.8825
  26  295.0125
  27  333.6447
  28  374.8428
  29  480.299
  30  398.5088
  31  336.847
  32  464.9682
  33  391.9174
  34  467.3725
  35  404.106
  36  374.4566
  37  433.0421
  38  492.9641
  39  424.9814
  40  351.5235
  41  397.4165
  42  384.2903
  43  333.4902
  44  392.3953
  45  607.8896
  46  495.5971
  47  382.6107
  48  419.5633
  49  423.9782
  50  386.2648
  51  392.5172
  52  351.0264
  53  430.7768
  54  438.6337
  55  405.4895
  56  407.9521
  57  370.9055
  58  388.5843
  59  390.1028
  60  387.3603
  61  401.6289
  62  407.595
  63  276.3427
  64  316.3592
  65  282.2773
  66  325.8665
  67  366.4606
  68  277.6785
  69  264.8232
  70  346.1365
  71  299.4303
  72  277.3927
  73  243.1532
  74  238.2439
  75  359.4829
  76  328.4337
  77  377.9115
  78  394.2721
  79  490.4601
  80  381.1714
  81  395.3882
  82  406.451
  83  442.4893
  84  399.533
  85  406.0846
  86  405.5759
  87  475.4478
  88  474.8495
  89  413.09
  90  428.343
  91  385.3845
  92  421.9797
  93  365.3912
  94  323.6674
  95  458.6769
  96  424.7833
  97  458.597
  98  487.0591
  99  326.6253
 100  428.1669
 101  402.1247
 102  502.9676
 103  511.9416
 104  417.7507
 105  411.3138
 106  491.6105
 107  582.0942
 108  500.4913
 109  443.9817
 110  426.4721
 111  457.1162
 112  407.5481
 113  347.8492
 114  486.8261
 115  512.6772
 116  508.2325
 117  467.9517
 118  400.2768
 119  327.6671
 120  282.428
 121  315.978
 122  379.3517
 123  437.7829
 124  386.9842
 125  397.856
 126  365.9784
 127  376.105
 128  332.2509
 129  462.9515
 130  451.9039
 131  456.4073
 132  456.143
 133  385.0526
 134  325.1981
 135  232.2048
 136  293.6738
 137  407.781
 138  537.4146
 139  456.7461
 140  355.9355
 141  366.369
 142  379.8625
 143  319.4408
 144  475.282
 145  485.6376
 146  485.8636
 147  346.447
 148  315.1205
 149  415.2625
 150  420.362
 151  423.2163
 152  452.3214
 153  545.0242
 154  415.9175
 155  284.915
 156  398.779
 157  398.3912
 158  421.3013
 159  346.543
 160  385.5237
 161  398.4011
 162  340.8835
 163  332.5776
 164  348.479
 165  383.1934
 166  491.3993
 167  382.8684
 168  195.641
 169  274.5141
 170  287.2726
 171  432.6142
 172  476.5922
 173  515.7991
 174  524.9135
 175  360.0516
 176  409.5677
 177  331.4831
 178  324.166
 179  345.4947
 180  337.1754
 181  431.9528
 182  351.1881
 183  346.4153
 184  354.5327
 185  344.1612
 186  404.2189
 187  345.9854
 188  398.6331
 189  356.974
 190  354.6533
 191  375.6292
 192  362.3103
 193  360.0185
 194  356.309
 195  452.2361
 196  440.4085
 197  317.6158
 198  372.5853
 199  427.8013
 200  371.2628
 201  352.257
 202  335.4585
 203  299.5341
 204  343.1681
 205  368.3686
 206  408.417
 207  383.9673
 208  401.2088
 209  399.8892
 210  367.4066
 211  421.0927
 212  353.7153
 213  354.2647
 214  340.4787
 215  334.5256
 216  325.2773
 217  411.9466
 218  354.9046
 219  277.0634
 220  344.4989
 221  324.2061
 222  281.4647
 223  364.1351
 224  301.1648
 225  289.9423
 226  400.2791
 227  381.6385
 228  292.6514
 229  351.0509
 230  426.1517
 231  486.0383
 232  457.5345
 233  462.1245
 234  432.2943
 235  439.813
 236  408.2894
 237  413.8717
 238  364.853
 239  433.4597
 240  507.0138
 241  419.2313
 242  361.4975
 243  294.3372
 244  279.4558
 245  400.5612
 246  397.2267
 247  350.662
 248  419.7339
 249  374.8589
 250  339.0507
 251  330.5532
 252  271.0078
 253  377.0163
 254  460.5442
 255  358.889
 256  343.9969
 257  418.7247
 258  290.0229
 259  370.8964
 260  398.3699
 261  344.5738
 262  307.0903
 263  347.611
 264  404.5253
 265  353.1029
 266  254.1649
 267  363.5023
 268  511.99
 269  610.1187
 270  560.3249
 271  466.9204
 272  468.9079
 273  405.5146
 274  291.4972
 275  332.5703
 276  381.9554
 277  464.2475
 278  430.4949
 279  370.0008
 280  452.6347
 281  429.5166
 282  301.8203
 283  404.4467
 284  492.1136
 285  414.443
 286  312.0183
 287  413.5325
 288  448.1167
 289  507.754
 290  406.4034
 291  446.0973
 292  462.492
 293  376.0738
 294  381.9837
 295  328.2236
 296  429.4735
 297  389.2135
 298  403.2754
 299  365.7204
 300  232.985
 301  312.6952
 302  360.7199
 303  453.6098
 304  416.3863
 305  398.6666
 306  402.2469
 307  357.5465
 308  354.4481
 309  353.0652
 310  239.1018
 311  273.8192
 312  422.0657
 313  429.9511
 314  514.1264
 315  558.3999
 316  390.6576
 317  317.4744
 318  324.4296
 319  386.0936
 320  415.9483
 321  446.0304
 322  418.7197
 323  377.1506
 324  462.2764
 325  366.2518
 326  355.9431
 327  367.1504
 328  451.9406
 329  611.3821
 330  465.1664
 331  364.1068
 332  500.1774
 333  458.9963
 334  418.1997
 335  398.1424
 336  397.3817
 337  415.4782
 338  464.0024
 339  559.3474
 340  384.6231
 341  385.3359
 342  372.6237
 343  340.5274
 344  377.881
 345  531.3896
 346  510.3711
 347  494.2434
 348  418.7576
 349  385.7508
 350  427.4258
 351  426.9618
 352  383.701
 353  254.938
 354  353.5833
 355  393.7921
 356  390.5659
 357  434.5805
 358  301.8961
 359  314.8255
 360  342.5564
 361  342.1232
 362  318.6891
 363  370.9375
 364  413.5876
 365  386.0857
 366  405.9988
 367  377.251
 368  457.0307
 369  582.6186
 370  514.0267
 371  521.6619
 372  455.9187
 373  415.0483
 374  401.3043
 375  498.2984
 376  565.2377
 377  543.8284
 378  637.7927
 379  550.5655
 380  490.1503
 381  539.5943
 382  602.6581
 383  583.9269
 384  571.7847
 385  578.9681
 386  594.4415
 387  476.1477
 388  555.5209
 389  661.3505
 390  487.5624
 391  501.564
 392  529.8734
 393  494.5829
 394  502.4284
 395  586.9631
 396  591.7456
 397  517.4578
 398  622.217
 399  537.436
 400  468.7287
 401  482.9726
 402  463.2534
 403  510.3299
 404  589.2314
 405  657.0901
 406  474.8848
 407  467.3287
 408  442.7318
 409  501.9959
 410  542.9859
 411  488.5845
 412  465.1565
 413  409.762
 414  489.6035
 415  435.3779
 416  446.2351
 417  383.1778
 418  353.5574
 419  413.2377
 420  306.0247
 421  423.5976
 422  381.582
 423  412.6356
 424  409.6868
 425  516.1841
 426  401.5858
 427  298.6277
 428  309.8105
 429  410.2605
 430  446.226
 431  421.2138
 432  429.0215
 433  493.1725
 434  412.7692
 435  384.8145
 436  485.6363
 437  545.6552
 438  411.0578
 439  481.5963
 440  403.339
 441  403.7065
 442  453.9552
 443  408.6739
 444  383.2022
 445  471.2501
 446  389.6942
 447  384.4984
 448  408.8566
 449  335.1216
 450  413.7227
 451  377.1993
 452  379.2795
 453  347.838
 454  387.7638
 455  396.9359
 456  402.1978
 457  452.5838
 458  420.8448
 459  441.5851
 460  471.1011
 461  348.6456
 462  380.2462
 463  362.5836
 464  340.2366
 465  383.9045
 466  455.9982
 467  489.7867
 468  325.6869
 469  253.6551
 470  433.9641
 471  431.9114
 472  424.891
 473  469.5219
 474  597.2162
 475  464.7649
 476  410.435
 477  405.572
 478  395.4863
 479  331.9433
 480  303.4203
 481  313.8299
 482  358.9673
 483  369.1889
 484  360.2322
 485  416.0662
 486  395.6681
 487  403.7958
 488  377.0289
 489  324.2858
 490  513.2212
 491  467.4134
 492  414.2263
 493  373.4824
 494  298.5312
 495  299.1933
 496  278.1191
 497  246.9344
 498  260.9524
 499  297.9215
 500  448.8391
 501  405.663
 502  376.0392
 503  313.8997
 504  320.3048
 505  462.1449
 506  544.5321
 507  580.1324
 508  615.8051
 509  709.5999
 510  856.3878
 511  1019.784
