# Input file       =  1201705856.10787_cleaned.dat
# Candidate        =  PSR_0332+5434
# Telescope        =  AR
# Epoch_topo       =  58152.632385507757
# Epoch_bary       =  N/A
# T_sample         =  0.002
# Data Folded      =  7340032
# Data Avg         =  0.0299990982886123
# Data StdDev      =  1.00011254511466 
# Profile Bins     =  512
# Profile Avg      =  430.638192018325 
# Profile StdDev   =  119.746511745073 
# Reduced chi-sqr  =  1.144
# Prob(Noise)      <  0.0133   (~2.2 sigma)
# P_topo (ms)      =  714.576929076002  +/- 0.000327
# P'_topo (s/s)    =  -0                +/- 1.72e-10
# P''_topo (s/s^2) =  0                 +/- 7.61e-14
# P_bary (ms)      =  N/A
# P'_bary (s/s)    =  N/A
# P''_bary (s/s^2) =  N/A
# P_orb (s)        =  N/A
# asin(i)/c (s)    =  N/A
# eccentricity     =  N/A
# w (rad)          =  N/A
# T_peri           =  N/A
######################################################
   0  1026.979
   1  965.0945
   2  858.894
   3  768.097
   4  731.8538
   5  682.8117
   6  493.0656
   7  496.876
   8  651.0278
   9  597.0255
  10  461.1281
  11  462.4964
  12  528.8669
  13  462.431
  14  377.9039
  15  443.6104
  16  473.3533
  17  485.0298
  18  494.3076
  19  449.1927
  20  461.4535
  21  522.0414
  22  468.653
  23  432.8618
  24  428.8466
  25  369.2278
  26  503.2859
  27  420.6389
  28  391.1547
  29  362.6356
  30  345.3872
  31  415.2687
  32  561.6984
  33  527.8099
  34  412.883
  35  400.7804
  36  408.761
  37  504.1619
  38  307.2146
  39  322.6803
  40  417.3008
  41  388.845
  42  506.8961
  43  527.3975
  44  458.7561
  45  509.4726
  46  403.8433
  47  239.5519
  48  356.9705
  49  461.3678
  50  407.5979
  51  290.8549
  52  346.1653
  53  479.6638
  54  293.5486
  55  235.8856
  56  288.8672
  57  294.2138
  58  326.7812
  59  372.5928
  60  381.039
  61  315.8057
  62  322.4331
  63  406.2781
  64  359.9723
  65  400.1676
  66  508.2986
  67  510.1368
  68  447.6856
  69  418.302
  70  463.6187
  71  445.1965
  72  361.7374
  73  381.2357
  74  395.4514
  75  436.2433
  76  499.9189
  77  450.4594
  78  417.1508
  79  396.4419
  80  474.5751
  81  507.4775
  82  540.5806
  83  444.6528
  84  459.8002
  85  509.9467
  86  404.3222
  87  474.5406
  88  513.2557
  89  437.6359
  90  503.7213
  91  609.5804
  92  579.798
  93  528.3138
  94  513.8697
  95  442.4733
  96  411.491
  97  376.9855
  98  489.4593
  99  416.6527
 100  378.7482
 101  452.3969
 102  484.393
 103  442.1718
 104  356.7128
 105  355.7385
 106  412.0263
 107  402.0739
 108  281.786
 109  366.7607
 110  391.8577
 111  400.9615
 112  371.1769
 113  488.0437
 114  512.5847
 115  450.13
 116  436.7024
 117  311.7345
 118  317.4445
 119  299.4756
 120  347.6076
 121  455.8447
 122  406.4632
 123  433.4965
 124  284.3965
 125  260.0255
 126  349.1487
 127  302.0079
 128  310.2083
 129  347.0903
 130  321.7408
 131  429.8148
 132  448.2194
 133  401.3987
 134  398.4467
 135  386.9848
 136  333.2793
 137  379.3001
 138  392.207
 139  460.0819
 140  500.5059
 141  362.2104
 142  371.1968
 143  327.7281
 144  390.7717
 145  463.488
 146  389.4334
 147  377.2885
 148  407.5926
 149  516.8729
 150  339.1005
 151  375.9745
 152  496.1984
 153  476.9916
 154  461.4279
 155  339.0038
 156  416.0166
 157  483.0187
 158  370.0917
 159  375.7516
 160  394.067
 161  296.2861
 162  276.2437
 163  337.4395
 164  314.7641
 165  409.9081
 166  455.4904
 167  359.3253
 168  423.016
 169  374.4681
 170  394.3055
 171  346.7532
 172  295.054
 173  442.0578
 174  478.1998
 175  412.5144
 176  495.463
 177  444.032
 178  374.7054
 179  311.5242
 180  381.994
 181  346.0417
 182  294.9361
 183  331.4017
 184  238.0295
 185  273.7687
 186  286.1192
 187  393.1206
 188  438.3552
 189  412.0399
 190  454.3158
 191  377.1573
 192  297.1928
 193  267.7138
 194  413.3228
 195  412.8131
 196  346.6548
 197  327.2939
 198  387.9207
 199  519.364
 200  475.4798
 201  417.7723
 202  412.4095
 203  335.8187
 204  344.8473
 205  457.6065
 206  444.498
 207  533.114
 208  542.4673
 209  532.5504
 210  404.9818
 211  380.4477
 212  421.3904
 213  370.9991
 214  596.093
 215  515.0859
 216  456.8085
 217  427.9903
 218  378.5069
 219  548.9931
 220  391.4803
 221  372.7517
 222  410.1898
 223  462.5034
 224  365.2795
 225  275.1539
 226  371.5592
 227  470.9726
 228  369.6477
 229  348.0889
 230  447.9964
 231  500.94
 232  446.2754
 233  389.9131
 234  392.0275
 235  419.774
 236  349.7317
 237  321.7657
 238  337.5297
 239  366.801
 240  393.1222
 241  387.3884
 242  312.3098
 243  285.1705
 244  441.4085
 245  551.4115
 246  473.5174
 247  355.4952
 248  308.5335
 249  339.9771
 250  438.9778
 251  525.8138
 252  500.2598
 253  444.0026
 254  359.623
 255  253.5718
 256  271.7245
 257  336.5122
 258  473.4368
 259  498.2379
 260  398.3912
 261  335.0096
 262  394.2827
 263  464.453
 264  406.8947
 265  449.8286
 266  430.8051
 267  359.8713
 268  406.2881
 269  374.0892
 270  383.5045
 271  438.8093
 272  526.233
 273  415.3701
 274  440.6325
 275  422.97
 276  282.1927
 277  389.1502
 278  439.3233
 279  445.2993
 280  403.615
 281  384.4127
 282  405.8348
 283  347.317
 284  396.7019
 285  392.0978
 286  394.4993
 287  433.0724
 288  485.5009
 289  508.9664
 290  528.829
 291  484.7911
 292  479.026
 293  352.6113
 294  358.6412
 295  384.7732
 296  473.5793
 297  431.0168
 298  432.488
 299  574.4124
 300  449.4288
 301  548.5038
 302  605.2515
 303  481.265
 304  390.0044
 305  366.7136
 306  451.6385
 307  385.331
 308  467.7181
 309  448.8467
 310  366.4621
 311  323.1738
 312  403.6566
 313  396.6009
 314  432.7022
 315  337.7591
 316  401.4797
 317  416.7167
 318  336.8726
 319  318.019
 320  381.1563
 321  390.1264
 322  356.5612
 323  442.0922
 324  476.0338
 325  478.3587
 326  486.3148
 327  391.0821
 328  341.0338
 329  330.4367
 330  426.5049
 331  506.0246
 332  399.0154
 333  342.3408
 334  362.3387
 335  339.7632
 336  413.5149
 337  367.1997
 338  409.4936
 339  399.4939
 340  390.3871
 341  436.6729
 342  387.3138
 343  448.8161
 344  332.5405
 345  255.8457
 346  360.4815
 347  513.803
 348  464.2077
 349  391.5376
 350  396.0625
 351  413.8786
 352  350.9459
 353  458.272
 354  422.8411
 355  454.2231
 356  436.9363
 357  333.9052
 358  343.8128
 359  369.0582
 360  383.3799
 361  548.5682
 362  485.9392
 363  455.7849
 364  410.9382
 365  360.1737
 366  370.0536
 367  383.5946
 368  455.6178
 369  349.2241
 370  334.4528
 371  329.6294
 372  395.8106
 373  432.3531
 374  463.3981
 375  469.0114
 376  271.4757
 377  301.6592
 378  422.4928
 379  561.1915
 380  444.0809
 381  422.118
 382  466.0637
 383  534.1251
 384  436.2555
 385  428.1298
 386  292.6322
 387  396.7147
 388  521.8531
 389  427.0425
 390  386.8557
 391  446.1356
 392  470.8203
 393  396.9139
 394  458.9181
 395  510.5507
 396  424.1812
 397  378.4344
 398  286.7707
 399  352.7557
 400  382.8485
 401  426.7404
 402  417.5117
 403  386.4695
 404  371.6553
 405  382.9788
 406  524.5195
 407  543.7737
 408  515.6104
 409  508.2584
 410  571.3216
 411  419.0998
 412  436.2507
 413  507.2182
 414  524.0612
 415  517.9905
 416  489.118
 417  551.2055
 418  449.8417
 419  421.1166
 420  540.1826
 421  548.5108
 422  600.3846
 423  521.3108
 424  383.0597
 425  466.4317
 426  480.4067
 427  423.6982
 428  524.1411
 429  504.7961
 430  565.2175
 431  605.8068
 432  570.7639
 433  507.0155
 434  432.9764
 435  399.2011
 436  517.17
 437  502.9285
 438  437.8232
 439  424.5455
 440  498.0843
 441  607.4171
 442  571.9457
 443  483.7472
 444  419.488
 445  393.3519
 446  492.9939
 447  436.2509
 448  431.789
 449  516.494
 450  514.4479
 451  465.5964
 452  493.5026
 453  441.7377
 454  352.3832
 455  427.4115
 456  559.5783
 457  593.6697
 458  560.5773
 459  486.5862
 460  471.7062
 461  395.3141
 462  486.1941
 463  451.0641
 464  458.4073
 465  479.332
 466  422.9447
 467  423.3029
 468  377.0597
 469  406.1279
 470  311.5426
 471  308.1589
 472  432.7027
 473  467.8111
 474  559.686
 475  494.0628
 476  355.9537
 477  316.4372
 478  468.2632
 479  465.6898
 480  365.6401
 481  384.0406
 482  429.3269
 483  414.4129
 484  410.4977
 485  440.6154
 486  386.7282
 487  433.9478
 488  419.2462
 489  474.7477
 490  376.1877
 491  351.9875
 492  289.4673
 493  372.5583
 494  500.2354
 495  543.5552
 496  565.7341
 497  496.7471
 498  556.7158
 499  545.2571
 500  482.8603
 501  434.5804
 502  495.2953
 503  524.5759
 504  446.8054
 505  561.3617
 506  501.4642
 507  632.2263
 508  652.9598
 509  619.5079
 510  762.7538
 511  925.6606
