# Input file       =  1201346468.110104_cleaned.dat
# Candidate        =  PSR_0332+5434
# Telescope        =  AR
# Epoch_topo       =  58148.472802200282
# Epoch_bary       =  N/A
# T_sample         =  0.002
# Data Folded      =  7208960
# Data Avg         =  0.0211542027514226
# Data StdDev      =  1.00009842444084 
# Profile Bins     =  512
# Profile Avg      =  297.873507990954 
# Profile StdDev   =  118.670854756559 
# Reduced chi-sqr  =  1.539
# Prob(Noise)      <  4.9e-14   (~7.4 sigma)
# P_topo (ms)      =  714.57523901552   +/- 0.000128
# P'_topo (s/s)    =  -0                +/- 6.85e-11
# P''_topo (s/s^2) =  0                 +/- 3.08e-14
# P_bary (ms)      =  N/A
# P'_bary (s/s)    =  N/A
# P''_bary (s/s^2) =  N/A
# P_orb (s)        =  N/A
# asin(i)/c (s)    =  N/A
# eccentricity     =  N/A
# w (rad)          =  N/A
# T_peri           =  N/A
######################################################
   0  1049.883
   1  952.8448
   2  831.3314
   3  601.6561
   4  367.1207
   5  347.6421
   6  300.4567
   7  314.8367
   8  295.0203
   9  275.146
  10  364.3788
  11  428.9384
  12  400.6728
  13  364.9063
  14  236.2253
  15  375.3734
  16  416.7049
  17  287.2817
  18  289.1684
  19  302.4481
  20  335.6243
  21  240.21
  22  169.6985
  23  227.4166
  24  280.7259
  25  266.3325
  26  294.2359
  27  275.1209
  28  302.1103
  29  383.7068
  30  351.9003
  31  342.7335
  32  287.3459
  33  279.369
  34  316.7047
  35  284.5005
  36  370.298
  37  230.7908
  38  268.4323
  39  253.7555
  40  413.1665
  41  452.5956
  42  338.4388
  43  276.9924
  44  208.129
  45  215.1322
  46  273.412
  47  329.4297
  48  442.5464
  49  401.111
  50  361.7935
  51  185.2141
  52  225.0011
  53  279.3028
  54  400.3422
  55  410.9116
  56  382.0174
  57  334.1187
  58  429.1388
  59  420.9971
  60  292.0376
  61  402.7043
  62  357.6591
  63  248.1968
  64  278.2574
  65  344.2224
  66  275.7147
  67  248.6183
  68  320.1544
  69  277.7662
  70  229.2477
  71  311.2636
  72  269.9428
  73  204.4434
  74  259.5171
  75  241.7072
  76  302.87
  77  266.597
  78  389.5297
  79  430.8825
  80  332.6875
  81  272.4949
  82  347.3271
  83  301.2291
  84  157.1408
  85  191.3663
  86  140.8702
  87  244.591
  88  198.5553
  89  235.1516
  90  271.1121
  91  309.0096
  92  359.1198
  93  445.2029
  94  392.0128
  95  234.4817
  96  193.816
  97  269.2431
  98  410.3633
  99  435.1815
 100  507.6596
 101  501.9729
 102  335.3343
 103  279.4083
 104  282.4765
 105  416.8273
 106  339.243
 107  332.0746
 108  250.7102
 109  304.1424
 110  325.796
 111  262.9983
 112  142.5668
 113  272.9565
 114  444.2954
 115  474.1884
 116  375.3604
 117  394.1107
 118  396.8862
 119  299.2019
 120  354.647
 121  330.9548
 122  220.3957
 123  201.1715
 124  187.6803
 125  257.1465
 126  319.9746
 127  287.4036
 128  328.2063
 129  253.1234
 130  338.8842
 131  333.9403
 132  360.5257
 133  403.5865
 134  353.8236
 135  327.9265
 136  332.7529
 137  303.1851
 138  305.6041
 139  273.2912
 140  370.3843
 141  265.0695
 142  224.8874
 143  216.6224
 144  174.4023
 145  385.5924
 146  295.884
 147  240.9081
 148  382.331
 149  378.2379
 150  342.6462
 151  284.6495
 152  313.5425
 153  337.8136
 154  202.0407
 155  227.3603
 156  367.361
 157  232.2027
 158  189.9283
 159  184.7662
 160  251.2075
 161  350.5111
 162  265.8115
 163  289.8882
 164  255.7296
 165  352.0624
 166  466.0666
 167  280.0934
 168  230.5867
 169  357.7905
 170  243.4438
 171  212.2011
 172  379.2961
 173  381.3383
 174  256.2017
 175  262.5351
 176  412.3312
 177  308.0701
 178  116.4313
 179  180.3234
 180  293.2825
 181  351.5128
 182  409.0424
 183  420.643
 184  389.4243
 185  270.0186
 186  239.701
 187  178.6523
 188  261.4004
 189  279.1459
 190  214.9675
 191  191.1925
 192  329.9474
 193  366.5432
 194  269.5695
 195  185.7384
 196  257.8602
 197  401.7219
 198  391.9659
 199  253.7084
 200  234.5302
 201  238.0773
 202  401.2137
 203  480.7233
 204  351.6519
 205  171.9434
 206  225.9725
 207  120.5506
 208  193.2603
 209  211.5865
 210  222.6239
 211  286.0248
 212  256.0719
 213  332.2956
 214  270.5148
 215  338.6424
 216  306.6778
 217  178.4304
 218  277.0499
 219  332.4656
 220  206.0735
 221  185.9069
 222  224.1366
 223  196.1675
 224  151.897
 225  69.03093
 226  98.51594
 227  214.3706
 228  183.6048
 229  220.9283
 230  390.1265
 231  380.1836
 232  318.6259
 233  325.3437
 234  234.5951
 235  300.9563
 236  362.9501
 237  307.1111
 238  256.1703
 239  306.981
 240  308.9841
 241  229.6346
 242  137.4342
 243  349.637
 244  360.2878
 245  335.3302
 246  345.8745
 247  338.9769
 248  429.8433
 249  418.9329
 250  384.9799
 251  298.9737
 252  310.0486
 253  284.9589
 254  378.7104
 255  495.5234
 256  443.2891
 257  341.5811
 258  299.8058
 259  326.9093
 260  290.7397
 261  315.3253
 262  282.7673
 263  347.5493
 264  465.9715
 265  478.2301
 266  403.9085
 267  429.1569
 268  469.3595
 269  308.7711
 270  168.3931
 271  142.9527
 272  275.3938
 273  288.3672
 274  355.4785
 275  292.8308
 276  303.2683
 277  339.2764
 278  346.3193
 279  341.8066
 280  326.3954
 281  306.5666
 282  422.5782
 283  201.6253
 284  224.985
 285  332.53
 286  339.2019
 287  292.0831
 288  245.646
 289  296.9782
 290  236.6555
 291  269.3951
 292  242.3818
 293  236.0564
 294  256.9853
 295  165.7446
 296  241.7327
 297  283.7838
 298  287.0727
 299  233.5366
 300  391.013
 301  319.4075
 302  208.1346
 303  192.8174
 304  239.5728
 305  152.7479
 306  130.546
 307  76.34071
 308  163.4925
 309  315.8184
 310  331.2166
 311  347.4075
 312  412.7618
 313  289.0333
 314  241.3287
 315  178.7271
 316  240.1068
 317  202.523
 318  249.3768
 319  264.0323
 320  241.9206
 321  248.0012
 322  332.5565
 323  359.8982
 324  232.9207
 325  209.11
 326  216.9009
 327  445.4413
 328  413.2327
 329  429.734
 330  458.1614
 331  409.0794
 332  295.1486
 333  309.3841
 334  233.7755
 335  234.2033
 336  335.7374
 337  287.0115
 338  261.5461
 339  218.6211
 340  117.0552
 341  105.7896
 342  217.4765
 343  193.8072
 344  326.4562
 345  308.8676
 346  244.1561
 347  231.9778
 348  261.4649
 349  217.6535
 350  314.9954
 351  314.217
 352  295.4569
 353  196.8812
 354  275.4379
 355  276.8105
 356  192.5546
 357  190.4908
 358  239.9939
 359  199.5283
 360  243.4437
 361  268.9342
 362  238.7364
 363  352.8633
 364  275.6973
 365  234.4947
 366  225.6779
 367  253.8964
 368  160.9873
 369  244.7541
 370  279.7422
 371  238.2171
 372  260.6321
 373  70.49782
 374  85.83739
 375  116.0629
 376  210.8157
 377  132.9241
 378  247.7526
 379  325.4554
 380  264.1956
 381  246.6216
 382  233.5047
 383  203.6192
 384  233.3176
 385  311.9485
 386  270.7075
 387  150.3247
 388  160.1521
 389  136.6642
 390  102.2341
 391  78.31837
 392  153.4294
 393  252.7924
 394  314.6975
 395  338.4835
 396  371.5668
 397  322.5711
 398  251.025
 399  199.6136
 400  260.5207
 401  289.0023
 402  344.0223
 403  348.0272
 404  217.0513
 405  293.3366
 406  406.2744
 407  338.0045
 408  259.4316
 409  249.5031
 410  378.0467
 411  337.9125
 412  348.4985
 413  371.4774
 414  414.6965
 415  245.4299
 416  165.5288
 417  356.7077
 418  490.2308
 419  503.4597
 420  455.642
 421  367.7344
 422  323.0373
 423  166.9533
 424  136.1092
 425  108.9065
 426  86.14749
 427  172.6374
 428  390.1769
 429  479.377
 430  348.4279
 431  216.5512
 432  316.1945
 433  312.3477
 434  304.4819
 435  307.3888
 436  284.6364
 437  341.6306
 438  342.7601
 439  239.6141
 440  249.3211
 441  196.2778
 442  174.9035
 443  302.4545
 444  317.5669
 445  370.0247
 446  296.2254
 447  220.7768
 448  229.6859
 449  251.9465
 450  317.5066
 451  240.3042
 452  191.8812
 453  186.776
 454  164.7725
 455  92.9754
 456  140.8002
 457  245.3511
 458  146.4624
 459  223.169
 460  242.4903
 461  383.2577
 462  236.7089
 463  337.6868
 464  265.882
 465  154.9687
 466  266.4367
 467  319.4417
 468  323.6804
 469  191.2325
 470  293.6868
 471  179.4452
 472  192.619
 473  218.5352
 474  246.53
 475  392.1956
 476  374.2878
 477  423.2334
 478  396.3289
 479  351.469
 480  425.1983
 481  481.6895
 482  376.4633
 483  385.6633
 484  318.2195
 485  250.8982
 486  203.0411
 487  261.0538
 488  366.4165
 489  290.3465
 490  270.2797
 491  337.831
 492  320.2839
 493  287.6454
 494  328.6917
 495  438.6428
 496  498.5713
 497  289.507
 498  338.8513
 499  319.6893
 500  283.0436
 501  334.8181
 502  382.7444
 503  414.8671
 504  240.5248
 505  244.0115
 506  390.55
 507  349.4906
 508  456.5861
 509  575.6553
 510  759.1412
 511  976.8866
