# Input file       =  1201289859.116976_cleaned.dat
# Candidate        =  PSR_0332+5434
# Telescope        =  AR
# Epoch_topo       =  58147.817605520555
# Epoch_bary       =  N/A
# T_sample         =  0.002
# Data Folded      =  7340032
# Data Avg         =  0.0183305103948417
# Data StdDev      =  1.00005429693063 
# Profile Bins     =  512
# Profile Avg      =  262.78745613383  
# Profile StdDev   =  119.739537513137 
# Reduced chi-sqr  =  1.195
# Prob(Noise)      <  0.00155   (~3.0 sigma)
# P_topo (ms)      =  714.575303608725  +/- 0.000239
# P'_topo (s/s)    =  -0                +/- 1.26e-10
# P''_topo (s/s^2) =  0                 +/- 5.57e-14
# P_bary (ms)      =  N/A
# P'_bary (s/s)    =  N/A
# P''_bary (s/s^2) =  N/A
# P_orb (s)        =  N/A
# asin(i)/c (s)    =  N/A
# eccentricity     =  N/A
# w (rad)          =  N/A
# T_peri           =  N/A
######################################################
   0  781.5089
   1  646.8742
   2  498.9419
   3  370.7964
   4  322.4426
   5  264.1405
   6  226.4418
   7  286.9774
   8  316.5076
   9  350.5337
  10  352.3649
  11  220.6545
  12  281.5856
  13  387.6389
  14  315.5569
  15  244.1363
  16  157.8807
  17  187.6834
  18  173.8311
  19  185.1754
  20  138.6888
  21  210.5402
  22  305.9112
  23  303.1568
  24  246.388
  25  212.3033
  26  275.9238
  27  188.6362
  28  306.7356
  29  359.8119
  30  314.8922
  31  336.7315
  32  311.4639
  33  229.4238
  34  120.3144
  35  77.09962
  36  201.0604
  37  219.3519
  38  215.1607
  39  107.655
  40  97.31178
  41  340.7458
  42  373.1287
  43  303.1253
  44  200.7895
  45  174.6874
  46  163.0417
  47  152.684
  48  192.6538
  49  249.8188
  50  225.0708
  51  317.7579
  52  264.412
  53  254.7758
  54  246.6913
  55  177.7763
  56  305.262
  57  297.2159
  58  280.1678
  59  270.841
  60  174.4546
  61  243.2713
  62  335.978
  63  255.2718
  64  236.893
  65  242.82
  66  240.5886
  67  249.7699
  68  243.0418
  69  202.5404
  70  284.6932
  71  235.1979
  72  222.5615
  73  263.9101
  74  235.2821
  75  232.1041
  76  244.086
  77  337.5252
  78  372.296
  79  255.8073
  80  248.9617
  81  318.6481
  82  252.0393
  83  237.2156
  84  223.5148
  85  158.7342
  86  212.8413
  87  240.6602
  88  108.6067
  89  164.3774
  90  267.6939
  91  251.5343
  92  269.7258
  93  248.7646
  94  118.8834
  95  194.9672
  96  285.7113
  97  172.8944
  98  246.8722
  99  364.9026
 100  335.8304
 101  129.3194
 102  192.221
 103  144.3322
 104  168.9776
 105  179.1073
 106  169.2922
 107  264.2194
 108  257.6978
 109  212.8623
 110  201.8549
 111  358.5693
 112  326.9232
 113  334.5257
 114  259.4883
 115  202.3365
 116  219.4617
 117  201.4212
 118  215.979
 119  131.9919
 120  194.5396
 121  251.0721
 122  271.5903
 123  235.7999
 124  327.1576
 125  425.8479
 126  345.6914
 127  265.0544
 128  322.414
 129  376.8274
 130  324.3361
 131  138.6818
 132  239.1788
 133  414.271
 134  267.3781
 135  206.9498
 136  68.28197
 137  62.39948
 138  198.8809
 139  314.7758
 140  373.2527
 141  246.4587
 142  175.2057
 143  34.72148
 144  184.4492
 145  255.0296
 146  189.5978
 147  179.795
 148  285.6305
 149  320.0476
 150  259.1546
 151  279.2817
 152  221.2886
 153  271.8324
 154  242.2864
 155  381.6257
 156  250.3668
 157  242.0439
 158  116.0339
 159  143.1247
 160  164.3909
 161  231.0575
 162  259.4838
 163  245.2712
 164  201.911
 165  156.7508
 166  157.0472
 167  354.4799
 168  327.8121
 169  247.6402
 170  224.2277
 171  221.6743
 172  183.6173
 173  95.14714
 174  248.3133
 175  294.8739
 176  367.1438
 177  300.0705
 178  228.0412
 179  251.9584
 180  281.3347
 181  203.6072
 182  240.5643
 183  301.1711
 184  365.1472
 185  266.9027
 186  245.2167
 187  138.3492
 188  199.4609
 189  324.6834
 190  335.8787
 191  356.1444
 192  264.1471
 193  210.3439
 194  257.7985
 195  310.3954
 196  133.5986
 197  216.5791
 198  251.3822
 199  246.025
 200  202.8285
 201  253.6833
 202  191.2754
 203  248.2972
 204  219.8534
 205  195.9805
 206  299.2531
 207  297.2795
 208  180.7226
 209  165.4398
 210  153.9123
 211  240.543
 212  169.3331
 213  212.8157
 214  247.8006
 215  380.9646
 216  347.4149
 217  229.0094
 218  302.0346
 219  298.1874
 220  339.8755
 221  276.5529
 222  369.5635
 223  326.6824
 224  280.0322
 225  299.2014
 226  291.6639
 227  144.5556
 228  86.70616
 229  164.6552
 230  172.7305
 231  208.2022
 232  206.5362
 233  189.9057
 234  128.6862
 235  117.4822
 236  111.2918
 237  251.2288
 238  284.4673
 239  186.4885
 240  185.1284
 241  255.549
 242  189.004
 243  210.0454
 244  221.0327
 245  232.9797
 246  237.8693
 247  217.9695
 248  379.7207
 249  372.8487
 250  294.4668
 251  262.4619
 252  236.2184
 253  200.4059
 254  149.1788
 255  231.4145
 256  358.9419
 257  385.9424
 258  269.451
 259  322.4729
 260  200.5389
 261  169.5523
 262  311.9811
 263  277.3466
 264  294.7375
 265  324.2172
 266  215.2384
 267  288.4471
 268  442.717
 269  426.7056
 270  235.1941
 271  145.8779
 272  281.2982
 273  235.8509
 274  137.4252
 275  181.5813
 276  259.3657
 277  290.5595
 278  156.9002
 279  229.4236
 280  292.8541
 281  380.4858
 282  423.2665
 283  441.0737
 284  317.4389
 285  338.6321
 286  337.3636
 287  271.9463
 288  231.733
 289  202.9818
 290  319.1837
 291  315.5763
 292  349.973
 293  312.645
 294  321.4945
 295  284.9422
 296  142.6688
 297  167.1202
 298  270.9821
 299  221.6126
 300  342.1159
 301  193.6241
 302  194.0306
 303  123.4361
 304  203.8088
 305  227.7513
 306  160.8094
 307  123.7833
 308  320.0322
 309  293.1707
 310  252.1797
 311  110.9706
 312  66.46997
 313  213.8299
 314  356.2258
 315  401.8702
 316  232.648
 317  287.726
 318  307.8938
 319  209.0461
 320  138.4437
 321  129.9316
 322  191.4712
 323  201.6359
 324  227.383
 325  245.3255
 326  193.5629
 327  204.7129
 328  271.5862
 329  238.2478
 330  167.8511
 331  265.6767
 332  132.7919
 333  245.3003
 334  180.0102
 335  321.2799
 336  340.3094
 337  285.0142
 338  289.4143
 339  208.5832
 340  304.6369
 341  280.5046
 342  205.0629
 343  376.2799
 344  246.6469
 345  168.1722
 346  261.0124
 347  331.018
 348  389.141
 349  313.5531
 350  350.185
 351  371.6555
 352  402.6447
 353  274.5806
 354  445.0984
 355  400.8306
 356  338.1855
 357  372.5416
 358  366.2159
 359  318.2603
 360  329.61
 361  314.4194
 362  234.879
 363  240.213
 364  271.8047
 365  236.5211
 366  216.8011
 367  228.9704
 368  272.4253
 369  280.8202
 370  309.9233
 371  189.8974
 372  248.1219
 373  304.945
 374  423.9713
 375  263.7922
 376  254.8747
 377  322.059
 378  367.6965
 379  402.5573
 380  287.8193
 381  265.3697
 382  181.1889
 383  304.8004
 384  400.4737
 385  330.1776
 386  206.9014
 387  193.9562
 388  176.7973
 389  125.0112
 390  235.624
 391  402.843
 392  268.9734
 393  231.0571
 394  310.3454
 395  236.7323
 396  281.0072
 397  336.9672
 398  210.8152
 399  213.161
 400  249.8908
 401  286.1573
 402  224.5438
 403  206.8222
 404  278.6992
 405  227.6663
 406  173.1979
 407  163.2881
 408  228.8346
 409  266.1497
 410  226.3151
 411  131.7339
 412  176.575
 413  128.3493
 414  144.4453
 415  228.8224
 416  150.342
 417  256.5056
 418  432.2147
 419  264.3998
 420  272.7995
 421  234.8394
 422  218.5565
 423  306.7045
 424  249.9166
 425  341.6831
 426  356.3604
 427  248.7556
 428  273.2798
 429  291.9538
 430  314.9536
 431  275.1874
 432  269.2023
 433  370.8928
 434  304.0965
 435  175.5762
 436  237.081
 437  266.4804
 438  235.2263
 439  382.9207
 440  417.1619
 441  328.7309
 442  356.6474
 443  277.7576
 444  344.9954
 445  412.5894
 446  268.672
 447  250.301
 448  153.1968
 449  274.2271
 450  235.8595
 451  279.5276
 452  471.5854
 453  396.1661
 454  394.4955
 455  303.4463
 456  281.9816
 457  247.3266
 458  198.7339
 459  183.4954
 460  265.9049
 461  229.9191
 462  380.1772
 463  283.543
 464  228.1075
 465  156.4941
 466  269.0839
 467  188.1257
 468  99.91
 469  182.3586
 470  323.0175
 471  279.874
 472  200.3792
 473  131.9215
 474  118.5243
 475  200.5961
 476  235.0096
 477  318.0127
 478  248.5461
 479  261.0769
 480  268.8947
 481  261.9781
 482  307.4642
 483  316.4004
 484  119.6117
 485  96.01153
 486  92.7334
 487  214.3738
 488  225.632
 489  238.6115
 490  394.3132
 491  484.0915
 492  498.7868
 493  351.3575
 494  415.0176
 495  327.3333
 496  273.9146
 497  330.7159
 498  314.8226
 499  299.7464
 500  275.4184
 501  339.2842
 502  351.7932
 503  230.8323
 504  345.3785
 505  518.7468
 506  457.0528
 507  402.6503
 508  406.375
 509  637.0257
 510  851.5621
 511  929.7431
