# Input file       =  1201893636.114452_cleaned.dat
# Candidate        =  PSR_0332+5434
# Telescope        =  AR
# Epoch_topo       =  58154.805765213561
# Epoch_bary       =  N/A
# T_sample         =  0.002
# Data Folded      =  7340032
# Data Avg         =  0.015471644007381
# Data StdDev      =  1.00005152132365 
# Profile Bins     =  512
# Profile Avg      =  221.777814276561 
# Profile StdDev   =  119.739205181285 
# Reduced chi-sqr  =  1.141
# Prob(Noise)      <  0.0146   (~2.2 sigma)
# P_topo (ms)      =  714.578044481367  +/- 0.000245
# P'_topo (s/s)    =  -0                +/- 1.29e-10
# P''_topo (s/s^2) =  0                 +/- 5.72e-14
# P_bary (ms)      =  N/A
# P'_bary (s/s)    =  N/A
# P''_bary (s/s^2) =  N/A
# P_orb (s)        =  N/A
# asin(i)/c (s)    =  N/A
# eccentricity     =  N/A
# w (rad)          =  N/A
# T_peri           =  N/A
######################################################
   0  831.324
   1  813.6404
   2  607.4602
   3  507.3613
   4  452.4961
   5  361.8835
   6  260.961
   7  264.2053
   8  230.8828
   9  198.2137
  10  213.0338
  11  72.85104
  12  119.5555
  13  176.5609
  14  111.7162
  15  293.1941
  16  266.8396
  17  226.363
  18  234.7141
  19  349.8394
  20  307.0911
  21  214.8983
  22  269.1035
  23  269.9138
  24  130.9642
  25  116.158
  26  60.17272
  27  221.8371
  28  287.0544
  29  223.1243
  30  227.0339
  31  287.0919
  32  314.6099
  33  279.0524
  34  142.4517
  35  63.68763
  36  111.8297
  37  261.3145
  38  230.825
  39  164.7191
  40  165.578
  41  231.2003
  42  155.129
  43  235.9299
  44  365.2029
  45  286.8489
  46  231.4482
  47  205.5923
  48  187.5049
  49  151.3916
  50  146.0629
  51  186.6061
  52  138.1483
  53  192.4757
  54  225.3316
  55  181.427
  56  57.29593
  57  123.4622
  58  230.6192
  59  182.8904
  60  85.98431
  61  273.3334
  62  219.1928
  63  202.8732
  64  177.4887
  65  195.2976
  66  214.5564
  67  210.4597
  68  202.457
  69  212.9332
  70  242.4811
  71  275.8401
  72  253.6871
  73  257.2794
  74  299.6719
  75  224.0217
  76  237.1033
  77  326.7902
  78  321.8379
  79  187.2291
  80  205.871
  81  164.1126
  82  124.9073
  83  235.5635
  84  288.4323
  85  210.2819
  86  207.4895
  87  315.2934
  88  318.9851
  89  235.3801
  90  196.8143
  91  267.4924
  92  160.4258
  93  212.879
  94  102.7457
  95  114.6796
  96  331.4938
  97  232.4582
  98  99.07827
  99  121.9516
 100  193.0049
 101  61.2897
 102  42.90287
 103  140.9801
 104  183.0314
 105  257.2287
 106  341.4778
 107  375.6495
 108  282.7799
 109  216.6882
 110  206.5039
 111  242.2855
 112  228.7414
 113  199.0546
 114  232.5508
 115  346.7764
 116  225.5146
 117  249.8745
 118  225.0032
 119  240.2546
 120  131.2734
 121  162.7501
 122  181.343
 123  200.6662
 124  173.8505
 125  180.5547
 126  208.2602
 127  202.9433
 128  153.0179
 129  150.4732
 130  117.0474
 131  139.9016
 132  300.9654
 133  307.1696
 134  248.4196
 135  188.4644
 136  158.1945
 137  199.0546
 138  234.3345
 139  176.6954
 140  140.8114
 141  149.9655
 142  255.1964
 143  338.6436
 144  225.0234
 145  142.0827
 146  124.1274
 147  154.7621
 148  341.4305
 149  304.2267
 150  238.7237
 151  280.7123
 152  343.8287
 153  327.4119
 154  290.6591
 155  264.2304
 156  171.0045
 157  229.4479
 158  284.8207
 159  268.5602
 160  203.6538
 161  113.7401
 162  44.00303
 163  97.14143
 164  126.8595
 165  256.3039
 166  304.5021
 167  231.1258
 168  272.2997
 169  192.6881
 170  244.1221
 171  256.7746
 172  215.0724
 173  268.6991
 174  362.7726
 175  279.6999
 176  258.0631
 177  274.3549
 178  158.8263
 179  253.7037
 180  224.3179
 181  215.129
 182  292.7546
 183  423.6094
 184  205.4365
 185  108.5195
 186  257.0752
 187  304.1992
 188  192.5453
 189  204.459
 190  333.036
 191  271.5601
 192  237.9114
 193  180.3969
 194  190.4896
 195  238.2288
 196  214.0872
 197  252.7963
 198  203.7965
 199  190.3985
 200  172.6666
 201  127.3598
 202  207.6565
 203  207.8599
 204  168.2801
 205  193.7529
 206  142.9963
 207  52.17334
 208  141.8033
 209  318.9588
 210  291.1262
 211  235.9319
 212  177.1432
 213  165.3719
 214  222.3486
 215  185.3407
 216  240.5649
 217  196.5564
 218  199.5087
 219  206.1349
 220  271.5828
 221  200.3831
 222  157.4917
 223  123.8306
 224  165.6402
 225  282.0723
 226  350.6212
 227  272.242
 228  138.9083
 229  138.024
 230  184.2077
 231  144.7973
 232  63.5575
 233  140.5991
 234  193.6101
 235  179.9516
 236  139.0035
 237  185.579
 238  223.7816
 239  186.8679
 240  81.05202
 241  285.0481
 242  369.3394
 243  322.6802
 244  317.2723
 245  296.283
 246  227.0719
 247  151.8925
 248  187.8773
 249  177.0723
 250  103.9316
 251  138.8432
 252  191.0864
 253  351.6575
 254  187.1569
 255  71.84647
 256  168.2125
 257  263.4857
 258  328.2297
 259  227.4944
 260  200.4515
 261  221.709
 262  185.0156
 263  236.4015
 264  217.342
 265  164.3709
 266  139.2626
 267  145.9123
 268  174.246
 269  231.3248
 270  298.9511
 271  399.9009
 272  326.2685
 273  268.8987
 274  228.8857
 275  224.3366
 276  165.9551
 277  137.4432
 278  79.24068
 279  116.3533
 280  158.5976
 281  172.8501
 282  226.9251
 283  229.1768
 284  315.9847
 285  251.9393
 286  220.9599
 287  278.7981
 288  241.5281
 289  189.5655
 290  178.2452
 291  177.8021
 292  260.4621
 293  206.2395
 294  142.596
 295  218.7156
 296  177.347
 297  275.971
 298  274.6558
 299  188.9267
 300  87.69425
 301  212.8973
 302  197.9471
 303  240.2525
 304  224.0969
 305  341.6207
 306  344.0381
 307  231.9918
 308  218.9269
 309  195.5766
 310  234.1954
 311  208.9714
 312  236.3207
 313  134.2142
 314  210.6975
 315  280.4815
 316  108.9968
 317  118.2011
 318  130.5492
 319  262.8454
 320  157.1103
 321  161.4613
 322  278.2848
 323  380.6398
 324  320.3626
 325  239.8439
 326  277.9985
 327  345.9895
 328  204.963
 329  146.2984
 330  193.8665
 331  237.2642
 332  288.2359
 333  222.9752
 334  276.1566
 335  273.024
 336  207.4108
 337  260.4024
 338  269.6545
 339  210.4373
 340  244.9097
 341  352.5396
 342  240.6261
 343  184.6594
 344  260.975
 345  236.2064
 346  268.2284
 347  258.9673
 348  185.0648
 349  89.07642
 350  134.9145
 351  185.3039
 352  90.99794
 353  213.0383
 354  132.8414
 355  160.065
 356  166.1284
 357  198.5756
 358  293.1946
 359  244.7204
 360  200.9035
 361  94.00729
 362  164.7201
 363  121.3883
 364  231.0278
 365  214.096
 366  219.1544
 367  116.3441
 368  -27.37238
 369  141.5571
 370  315.1461
 371  289.9337
 372  283.6677
 373  255.4519
 374  254.1603
 375  281.4146
 376  258.5631
 377  151.2075
 378  163.3732
 379  246.0662
 380  133.4672
 381  153.9368
 382  126.3406
 383  156.8477
 384  219.1187
 385  106.0842
 386  142.8524
 387  266.8514
 388  218.9405
 389  129.068
 390  64.31846
 391  187.7025
 392  172.4203
 393  167.7463
 394  253.8354
 395  191.6525
 396  224.1275
 397  185.082
 398  254.5884
 399  209.2009
 400  166.2267
 401  207.6502
 402  223.7256
 403  302.1225
 404  302.8858
 405  181.0382
 406  151.8425
 407  153.6825
 408  187.5118
 409  227.7348
 410  163.0602
 411  174.9469
 412  242.8622
 413  241.4461
 414  188.9154
 415  281.0853
 416  328.7114
 417  198.4736
 418  226.0428
 419  292.4084
 420  240.0121
 421  178.042
 422  138.5417
 423  68.24155
 424  76.43261
 425  209.6148
 426  124.0275
 427  20.58642
 428  158.9361
 429  283.8918
 430  236.3981
 431  215.6631
 432  225.7877
 433  215.7449
 434  222.7245
 435  128.8272
 436  126.3425
 437  128.8437
 438  7.45633
 439  56.01954
 440  156.8653
 441  131.068
 442  132.7848
 443  105.0559
 444  232.2531
 445  319.214
 446  250.565
 447  206.5493
 448  255.7499
 449  211.33
 450  120.9472
 451  1.818567
 452  31.1007
 453  73.11839
 454  248.3878
 455  253.8415
 456  256.669
 457  193.91
 458  133.9452
 459  238.6931
 460  419.6496
 461  276.3267
 462  115.3138
 463  226.3383
 464  229.801
 465  257.2105
 466  191.7409
 467  191.0533
 468  113.214
 469  139.3138
 470  145.2765
 471  205.9933
 472  300.8413
 473  397.3228
 474  269.3336
 475  170.6511
 476  201.8477
 477  264.6302
 478  266.2751
 479  306.2426
 480  378.4958
 481  327.4269
 482  244.8086
 483  199.9214
 484  254.634
 485  288.5579
 486  244.3198
 487  329.581
 488  369.9422
 489  371.5143
 490  310.2763
 491  366.0821
 492  200.6198
 493  132.3685
 494  272.5729
 495  360.5209
 496  323.4573
 497  324.9183
 498  187.9428
 499  260.7232
 500  246.9312
 501  279.0409
 502  243.4893
 503  348.4182
 504  380.3189
 505  341.6801
 506  309.1765
 507  322.2652
 508  414.7312
 509  651.2544
 510  613.2587
 511  697.1241
