# Input file       =  1201949674.108761_cleaned.dat
# Candidate        =  PSR_0332+5434
# Telescope        =  AR
# Epoch_topo       =  58155.454353110661
# Epoch_bary       =  N/A
# T_sample         =  0.002
# Data Folded      =  7143424
# Data Avg         =  0.0163751586136162
# Data StdDev      =  1.00003515433135 
# Profile Bins     =  512
# Profile Avg      =  228.468380275639 
# Profile StdDev   =  118.122736861725 
# Reduced chi-sqr  =  1.686
# Prob(Noise)      <  2.47e-20   (~9.2 sigma)
# P_topo (ms)      =  714.577887542143  +/- 4.04e-05
# P'_topo (s/s)    =  -0                +/- 2.19e-11
# P''_topo (s/s^2) =  0                 +/- 9.93e-15
# P_bary (ms)      =  N/A
# P'_bary (s/s)    =  N/A
# P''_bary (s/s^2) =  N/A
# P_orb (s)        =  N/A
# asin(i)/c (s)    =  N/A
# eccentricity     =  N/A
# w (rad)          =  N/A
# T_peri           =  N/A
######################################################
   0  776.8096
   1  740.7879
   2  544.3841
   3  350.7524
   4  137.641
   5  122.1867
   6  240.9822
   7  215.3126
   8  194.74
   9  157.3229
  10  162.341
  11  230.2585
  12  199.5127
  13  138.8326
  14  204.4095
  15  352.0835
  16  324.3861
  17  344.5442
  18  366.9619
  19  280.6601
  20  206.9927
  21  183.5137
  22  122.8972
  23  157.1257
  24  146.395
  25  166.1598
  26  201.5425
  27  132.8788
  28  117.1778
  29  -12.38275
  30  61.3937
  31  191.6017
  32  283.143
  33  351.0223
  34  359.3452
  35  380.4047
  36  289.8109
  37  214.2923
  38  128.5822
  39  62.13008
  40  106.8161
  41  254.3694
  42  273.97
  43  179.0957
  44  204.0347
  45  146.6784
  46  148.6373
  47  107.5599
  48  342.6547
  49  479.7472
  50  385.9695
  51  178.6081
  52  203.9157
  53  140.6696
  54  90.95135
  55  84.94434
  56  115.1237
  57  170.4438
  58  211.1708
  59  224.8119
  60  203.0168
  61  123.8473
  62  146.9368
  63  174.6808
  64  173.8527
  65  191.7799
  66  211.1605
  67  142.7475
  68  196.2795
  69  184.6806
  70  215.4672
  71  99.01807
  72  79.53951
  73  159.4992
  74  286.5763
  75  289.1677
  76  272.7794
  77  211.0241
  78  114.8655
  79  196.6184
  80  64.55924
  81  201.5498
  82  375.6064
  83  314.0906
  84  71.81984
  85  -9.549361
  86  94.43618
  87  42.89788
  88  130.6209
  89  157.1464
  90  280.8996
  91  188.5036
  92  85.16778
  93  100.1704
  94  171.0131
  95  256.2673
  96  212.3671
  97  121.6545
  98  207.3054
  99  200.8821
 100  161.7282
 101  201.0235
 102  204.5384
 103  141.8661
 104  63.2184
 105  14.14218
 106  51.91311
 107  254.0857
 108  283.4407
 109  187.6625
 110  244.3692
 111  136.0047
 112  164.8044
 113  149.1148
 114  203.5707
 115  268.7609
 116  303.8611
 117  322.9185
 118  155.5679
 119  149.1618
 120  47.55698
 121  52.83409
 122  148.6519
 123  187.8572
 124  208.8135
 125  231.4796
 126  103.9785
 127  142.3308
 128  179.5473
 129  128.6853
 130  166.0308
 131  187.9179
 132  204.3798
 133  173.4594
 134  198.6189
 135  273.694
 136  168.5234
 137  90.38151
 138  26.31137
 139  125.1009
 140  200.8698
 141  288.0108
 142  207.7714
 143  65.76815
 144  -3.270759
 145  86.46107
 146  141.4464
 147  184.0462
 148  190.1544
 149  118.7344
 150  142.104
 151  208.4956
 152  235.2018
 153  118.2262
 154  128.472
 155  170.3272
 156  165.3211
 157  139.4999
 158  139.9729
 159  92.35432
 160  96.971
 161  154.5051
 162  60.97336
 163  119.2446
 164  277.3649
 165  225.3278
 166  190.4451
 167  109.4208
 168  231.5992
 169  123.8423
 170  52.68842
 171  123.5079
 172  83.87339
 173  215.5591
 174  216.9236
 175  159.3854
 176  261.6908
 177  219.0018
 178  186.8807
 179  199.5661
 180  263.5743
 181  343.5604
 182  296.1479
 183  155.9157
 184  145.2506
 185  193.9521
 186  169.0878
 187  91.80989
 188  112.9019
 189  244.4213
 190  223.8671
 191  162.0346
 192  148.6205
 193  109.4213
 194  174.4379
 195  235.5498
 196  207.1564
 197  329.774
 198  368.7575
 199  436.6044
 200  346.2526
 201  144.0215
 202  169.3516
 203  285.6943
 204  191.6095
 205  277.2624
 206  266.6672
 207  212.1761
 208  283.1601
 209  280.4785
 210  212.5212
 211  168.9795
 212  210.9302
 213  177.4967
 214  284.0385
 215  324.8761
 216  257.7614
 217  208.9269
 218  151.8642
 219  202.8022
 220  246.5137
 221  245.9829
 222  196.501
 223  250.5026
 224  256.9628
 225  245.9782
 226  113.3035
 227  186.7137
 228  135.0791
 229  203.3193
 230  321.7579
 231  296.5045
 232  315.1519
 233  365.32
 234  368.9081
 235  201.7194
 236  76.11113
 237  73.86877
 238  102.8373
 239  233.2862
 240  102.2929
 241  102.466
 242  284.6772
 243  240.7478
 244  178.4599
 245  125.184
 246  246.1924
 247  349.6144
 248  352.951
 249  232.8204
 250  196.8906
 251  216.8747
 252  188.1085
 253  126.1946
 254  290.6177
 255  290.8918
 256  276.4527
 257  168.6928
 258  240.9576
 259  303.515
 260  187.6437
 261  247.2339
 262  300.3067
 263  319.2483
 264  499.5478
 265  448.1992
 266  306.0779
 267  249.4855
 268  174.3279
 269  73.65922
 270  42.29837
 271  162.7904
 272  225.3695
 273  291.4398
 274  239.4347
 275  170.3991
 276  248.2708
 277  65.52402
 278  61.17233
 279  167.572
 280  439.1199
 281  456.7879
 282  429.9682
 283  345.39
 284  260.0878
 285  196.7071
 286  188.2585
 287  202.5865
 288  85.81948
 289  128.3247
 290  157.4487
 291  53.81098
 292  200.2779
 293  252.3414
 294  162.2519
 295  88.20972
 296  198.1431
 297  412.1181
 298  367.9802
 299  244.7657
 300  289.3846
 301  112.5121
 302  59.34483
 303  135.8014
 304  221.4522
 305  367.9329
 306  298.4637
 307  167.5819
 308  119.5826
 309  153.9503
 310  96.62167
 311  260.9839
 312  235.455
 313  273.5172
 314  341.744
 315  239.5619
 316  327.6191
 317  284.1983
 318  316.7512
 319  209.6896
 320  137.2541
 321  233.8282
 322  273.7558
 323  278.9288
 324  226.2074
 325  245.8668
 326  185.9742
 327  131.136
 328  364.6621
 329  502.7296
 330  432.9138
 331  370.8256
 332  279.677
 333  344.6114
 334  327.2041
 335  306.2057
 336  307.189
 337  315.4051
 338  394.7033
 339  402.542
 340  384.0193
 341  228.285
 342  210.0676
 343  210.6069
 344  330.6329
 345  426.0717
 346  397.9034
 347  502.7122
 348  512.0287
 349  331.8547
 350  164.7711
 351  203.2475
 352  108.8847
 353  134.1447
 354  169.0627
 355  246.574
 356  263.9445
 357  165.0392
 358  138.4605
 359  212.9007
 360  174.3344
 361  129.5521
 362  335.3241
 363  465.4753
 364  463.1586
 365  343.7882
 366  201.2506
 367  206.4622
 368  192.0811
 369  171.7758
 370  169.1163
 371  241.388
 372  246.9072
 373  157.8559
 374  278.7132
 375  186.0379
 376  65.43687
 377  82.36574
 378  247.5932
 379  316.4157
 380  255.4749
 381  215.5045
 382  281.5796
 383  329.9085
 384  240.337
 385  429.8759
 386  368.8946
 387  237.8689
 388  325.6309
 389  348.3507
 390  369.3211
 391  234.1674
 392  170.1559
 393  192.3814
 394  226.5204
 395  238.8992
 396  285.3077
 397  304.6519
 398  255.519
 399  261.1426
 400  241.1597
 401  283.43
 402  233.5327
 403  156.4628
 404  298.3942
 405  359.3915
 406  204.4424
 407  191.3134
 408  210.1779
 409  237.6051
 410  285.364
 411  332.3591
 412  507.4863
 413  489.8292
 414  465.254
 415  456.1627
 416  382.913
 417  293.0694
 418  189.442
 419  167.7477
 420  200.8243
 421  378.0009
 422  325.7776
 423  203.674
 424  201.916
 425  67.53458
 426  144.9687
 427  196.7399
 428  329.2571
 429  298.1792
 430  360.6194
 431  382.7722
 432  253.0657
 433  307.9036
 434  234.5763
 435  110.755
 436  122.2142
 437  308.479
 438  293.8833
 439  350.9909
 440  416.5937
 441  250.0832
 442  172.7404
 443  174.9765
 444  232.2061
 445  310.0175
 446  486.2135
 447  343.493
 448  192.1275
 449  214.2229
 450  214.724
 451  224.7586
 452  127.3217
 453  160.1463
 454  168.3725
 455  204.3562
 456  148.7591
 457  73.53735
 458  42.29884
 459  54.03237
 460  163.4664
 461  370.6394
 462  371.1009
 463  318.975
 464  211.0621
 465  262.916
 466  264.7944
 467  220.5878
 468  141.2396
 469  188.3502
 470  247.43
 471  247.4403
 472  316.5398
 473  316.986
 474  259.8469
 475  173.6802
 476  70.07061
 477  214.0852
 478  321.991
 479  371.682
 480  266.3439
 481  273.5988
 482  309.4567
 483  204.9976
 484  136.0345
 485  130.4826
 486  189.498
 487  335.5467
 488  235.3915
 489  133.7003
 490  112.6546
 491  237.2198
 492  136.7851
 493  263.4572
 494  307.15
 495  332.9391
 496  341.0891
 497  322.8982
 498  276.6814
 499  227.656
 500  164.7151
 501  142.0292
 502  158.1013
 503  382.6982
 504  390.9474
 505  282.2219
 506  289.8657
 507  282.3565
 508  244.1695
 509  520.7431
 510  788.4436
 511  845.1606
