# Input file       =  1201619709.104547_cleaned.dat
# Candidate        =  PSR_0332+5434
# Telescope        =  AR
# Epoch_topo       =  58151.635313710038
# Epoch_bary       =  N/A
# T_sample         =  0.002
# Data Folded      =  7340032
# Data Avg         =  0.0307583330389897
# Data StdDev      =  1.00007395256074 
# Profile Bins     =  512
# Profile Avg      =  440.973490948353 
# Profile StdDev   =  119.741890941412 
# Reduced chi-sqr  =  1.036
# Prob(Noise)      <  0.276   (~0.6 sigma)
# P_topo (ms)      =  714.576553239737  +/- 0.00049
# P'_topo (s/s)    =  -0                +/- 2.58e-10
# P''_topo (s/s^2) =  0                 +/- 1.14e-13
# P_bary (ms)      =  N/A
# P'_bary (s/s)    =  N/A
# P''_bary (s/s^2) =  N/A
# P_orb (s)        =  N/A
# asin(i)/c (s)    =  N/A
# eccentricity     =  N/A
# w (rad)          =  N/A
# T_peri           =  N/A
######################################################
   0  991.6546
   1  979.3785
   2  829.4536
   3  685.1973
   4  511.504
   5  400.5867
   6  425.5558
   7  499.6325
   8  552.0922
   9  550.3649
  10  538.0031
  11  444.2022
  12  434.5728
  13  472.9082
  14  519.4203
  15  507.6044
  16  576.0005
  17  480.5114
  18  332.5359
  19  408.2062
  20  464.1539
  21  440.2856
  22  419.1248
  23  376.5086
  24  362.9109
  25  291.1504
  26  323.8015
  27  254.1124
  28  262.6113
  29  428.069
  30  478.8631
  31  396.4489
  32  409.0244
  33  454.7209
  34  452.48
  35  482.8939
  36  391.7467
  37  289.7927
  38  198.7096
  39  307.3898
  40  368.3391
  41  436.0645
  42  375.2522
  43  417.3981
  44  457.2103
  45  358.397
  46  385.5734
  47  377.5408
  48  401.75
  49  474.3542
  50  483.3784
  51  462.3794
  52  366.8042
  53  337.8362
  54  437.2204
  55  519.8034
  56  524.7416
  57  519.7804
  58  463.7381
  59  430.445
  60  444.9627
  61  479.7101
  62  530.7758
  63  430.3175
  64  376.2835
  65  344.6676
  66  411.7726
  67  362.5936
  68  429.7096
  69  433.9876
  70  310.7223
  71  394.9292
  72  312.1181
  73  315.6599
  74  350.2517
  75  532.1031
  76  527.5522
  77  373.1675
  78  371.6335
  79  416.6344
  80  436.3582
  81  436.129
  82  375.7961
  83  307.6161
  84  277.4447
  85  451.1568
  86  402.0848
  87  371.1927
  88  375.551
  89  378.4308
  90  450.9851
  91  545.0977
  92  526.4532
  93  485.0026
  94  491.3849
  95  386.5535
  96  260.949
  97  470.8681
  98  530.1278
  99  480.2061
 100  549.4417
 101  458.5279
 102  422.9291
 103  496.5834
 104  475.0879
 105  417.5858
 106  328.9946
 107  388.9635
 108  382.8602
 109  394.7847
 110  346.1164
 111  308.9077
 112  274.7366
 113  429.0647
 114  458.8359
 115  495.1213
 116  432.5476
 117  286.9652
 118  346.5354
 119  432.6675
 120  455.1114
 121  467.1627
 122  493.8188
 123  428.5242
 124  464.1898
 125  528.6819
 126  531.977
 127  430.8144
 128  474.6887
 129  453.6336
 130  388.3593
 131  401.2557
 132  341.3224
 133  365.2917
 134  401.2532
 135  304.603
 136  313.6941
 137  391.8919
 138  380.6141
 139  283.4318
 140  420.4387
 141  481.3838
 142  480.0188
 143  464.0556
 144  462.4887
 145  552.3864
 146  625.7007
 147  575.3842
 148  542.2457
 149  418.4813
 150  357.3713
 151  436.9238
 152  460.2616
 153  507.6325
 154  421.8232
 155  453.8403
 156  397.0601
 157  435.9517
 158  445.1678
 159  389.3181
 160  459.6069
 161  544.9997
 162  362.9588
 163  398.9045
 164  512.3127
 165  483.231
 166  508.2649
 167  426.2426
 168  358.4977
 169  382.4223
 170  459.3564
 171  455.155
 172  365.3682
 173  372.716
 174  303.7382
 175  309.1115
 176  282.9044
 177  275.2634
 178  346.1245
 179  326.2065
 180  311.0542
 181  328.8013
 182  473.0679
 183  354.0259
 184  455.3719
 185  484.1327
 186  457.1756
 187  456.2115
 188  393.9525
 189  445.8281
 190  463.916
 191  448.934
 192  399.2296
 193  420.8909
 194  472.0358
 195  483.8913
 196  398.5279
 197  436.6702
 198  338.7971
 199  405.363
 200  357.9171
 201  410.0121
 202  390.7879
 203  450.2077
 204  359.8383
 205  320.4874
 206  413.8958
 207  317.0471
 208  277.7327
 209  341.1336
 210  427.9883
 211  522.5981
 212  488.5335
 213  496.2711
 214  444.2369
 215  431.6815
 216  547.824
 217  494.528
 218  470.6052
 219  536.6621
 220  601.8706
 221  612.4504
 222  535.2224
 223  507.7559
 224  396.6576
 225  426.2954
 226  474.0518
 227  517.4531
 228  410.9366
 229  437.866
 230  407.7444
 231  407.539
 232  461.4782
 233  477.9059
 234  473.8141
 235  576.5933
 236  548.1701
 237  491.331
 238  457.1694
 239  543.5831
 240  551.253
 241  614.9506
 242  559.2185
 243  525.5491
 244  548.4469
 245  529.9077
 246  488.6474
 247  467.0877
 248  467.9145
 249  408.9898
 250  499.432
 251  537.414
 252  490.0504
 253  437.0152
 254  546.7172
 255  495.3627
 256  495.4523
 257  368.371
 258  322.8949
 259  414.4818
 260  497.8901
 261  537.9998
 262  455.5085
 263  442.7292
 264  518.3664
 265  533.5754
 266  521.8683
 267  460.2619
 268  457.1206
 269  413.0909
 270  344.0434
 271  371.7465
 272  355.5026
 273  403.8409
 274  488.0323
 275  452.1477
 276  435.6365
 277  502.2242
 278  524.7516
 279  435.743
 280  286.3474
 281  403.1776
 282  434.8491
 283  408.3193
 284  426.2485
 285  477.9047
 286  590.6221
 287  555.0461
 288  423.8756
 289  276.1746
 290  314.7052
 291  416.8882
 292  483.9265
 293  445.5373
 294  405.7625
 295  441.0998
 296  425.3329
 297  436.422
 298  487.8774
 299  523.4318
 300  442.4335
 301  531.1989
 302  467.8969
 303  449.2181
 304  549.1795
 305  643.9786
 306  524.4185
 307  411.1171
 308  366.3766
 309  403.7043
 310  416.1438
 311  441.3234
 312  492.5511
 313  454.0488
 314  356.7476
 315  500.8566
 316  497.4569
 317  459.5926
 318  458.0457
 319  380.2115
 320  324.783
 321  313.2743
 322  375.0209
 323  394.9505
 324  427.5721
 325  324.8521
 326  395.6254
 327  540.8325
 328  502.2954
 329  343.0388
 330  400.5212
 331  428.1009
 332  402.8405
 333  315.1031
 334  402.3641
 335  391.5705
 336  389.3181
 337  394.8136
 338  352.8461
 339  385.5868
 340  366.9351
 341  380.8255
 342  318.6966
 343  256.3712
 344  365.0375
 345  358.8161
 346  339.0789
 347  331.8976
 348  293.8684
 349  392.0962
 350  418.2207
 351  436.0409
 352  440.0713
 353  332.0819
 354  368.1146
 355  443.7247
 356  517.4681
 357  493.6178
 358  413.7542
 359  349.0232
 360  422.2646
 361  466.0803
 362  513.724
 363  432.7935
 364  470.4149
 365  344.6071
 366  346.7851
 367  366.2341
 368  380.7446
 369  437.4204
 370  514.3873
 371  520.4327
 372  471.3914
 373  347.5062
 374  384.0299
 375  389.2907
 376  330.4839
 377  310.0614
 378  414.5442
 379  490.7929
 380  460.5117
 381  382.7188
 382  360.7311
 383  389.8329
 384  343.4873
 385  451.3698
 386  462.395
 387  454.1205
 388  363.2512
 389  343.4296
 390  362.103
 391  463.6761
 392  508.7075
 393  397.0235
 394  411.0661
 395  446.6206
 396  435.558
 397  487.1474
 398  516.6726
 399  444.7886
 400  422.6443
 401  448.3455
 402  440.7482
 403  577.0741
 404  546.9412
 405  539.8654
 406  549.1875
 407  498.8074
 408  413.471
 409  343.0074
 410  373.4903
 411  485.705
 412  499.5175
 413  487.841
 414  438.1672
 415  463.3842
 416  376.2716
 417  424.7927
 418  382.1221
 419  351.2149
 420  489.4207
 421  491.6998
 422  516.1345
 423  465.4883
 424  336.7593
 425  444.1259
 426  486.4393
 427  508.9057
 428  432.2704
 429  382.7173
 430  505.7094
 431  532.1109
 432  496.5768
 433  497.5548
 434  548.6848
 435  508.9219
 436  391.0949
 437  345.2786
 438  414.8088
 439  350.8007
 440  380.5622
 441  517.3605
 442  505.2756
 443  372.7598
 444  451.5337
 445  419.4615
 446  439.5486
 447  347.9164
 448  410.515
 449  472.6497
 450  486.1336
 451  535.6483
 452  518.8127
 453  470.6529
 454  555.8851
 455  513.4685
 456  524.7084
 457  514.6602
 458  582.4877
 459  557.4719
 460  441.6711
 461  460.127
 462  466.0028
 463  432.14
 464  470.8246
 465  531.5656
 466  492.656
 467  328.7735
 468  358.245
 469  455.5502
 470  475.6461
 471  527.7986
 472  487.8659
 473  549.4537
 474  512.1036
 475  407.0471
 476  402.2822
 477  386.9629
 478  369.6758
 479  440.6954
 480  412.9687
 481  424.124
 482  401.6631
 483  447.5252
 484  333.5575
 485  330.2057
 486  399.8874
 487  483.4583
 488  427.4144
 489  353.8876
 490  440.066
 491  346.1417
 492  427.4161
 493  454.1714
 494  491.8035
 495  505.4701
 496  473.4001
 497  464.0009
 498  487.5598
 499  545.2277
 500  493.7687
 501  479.8252
 502  572.0466
 503  501.4448
 504  409.2433
 505  473.6641
 506  531.5658
 507  545.7399
 508  649.3877
 509  698.6365
 510  759.1991
 511  945.9376
