# Input file       =  1201705856.10787_cleaned.dat
# Candidate        =  PSR_0332+5434
# Telescope        =  AR
# Epoch_topo       =  58152.632385507757
# Epoch_bary       =  N/A
# T_sample         =  0.002
# Data Folded      =  7340032
# Data Avg         =  0.0299990982886123
# Data StdDev      =  1.00011254511466 
# Profile Bins     =  512
# Profile Avg      =  430.638191982891 
# Profile StdDev   =  119.746511745073 
# Reduced chi-sqr  =  1.130
# Prob(Noise)      <  0.0223   (~2.0 sigma)
# P_topo (ms)      =  714.57692918018   +/- 0.00032
# P'_topo (s/s)    =  -0                +/- 1.69e-10
# P''_topo (s/s^2) =  0                 +/- 7.45e-14
# P_bary (ms)      =  N/A
# P'_bary (s/s)    =  N/A
# P''_bary (s/s^2) =  N/A
# P_orb (s)        =  N/A
# asin(i)/c (s)    =  N/A
# eccentricity     =  N/A
# w (rad)          =  N/A
# T_peri           =  N/A
######################################################
   0  1009.739
   1  912.6003
   2  799.5414
   3  752.7437
   4  710.1997
   5  589.8761
   6  433.8083
   7  607.4119
   8  644.46
   9  503.8658
  10  444.5681
  11  514.2524
  12  503.979
  13  409.1532
  14  388.1443
  15  476.0675
  16  483.0628
  17  496.7452
  18  474.0629
  19  433.6473
  20  507.92
  21  481.2041
  22  443.0392
  23  446.6434
  24  378.9828
  25  452.1426
  26  465.7471
  27  394.0637
  28  383.2084
  29  341.5861
  30  370.4891
  31  503.0381
  32  587.3459
  33  426.9921
  34  430.6595
  35  370.1611
  36  498.1365
  37  404.7961
  38  276.9862
  39  394.1189
  40  389.438
  41  446.279
  42  546.6379
  43  485.8457
  44  477.9532
  45  477.9535
  46  280.5724
  47  273.4307
  48  447.057
  49  444.9076
  50  348.3033
  51  279.3654
  52  453.7856
  53  381.1935
  54  231.8753
  55  282.785
  56  294.3015
  57  311.053
  58  352.8193
  59  385.558
  60  341.0833
  61  296.4933
  62  385.6384
  63  384.9217
  64  372.2399
  65  465.3947
  66  526.4005
  67  468.3902
  68  419.8971
  69  436.014
  70  468.7631
  71  393.134
  72  362.6607
  73  406.9987
  74  398.6446
  75  473.8484
  76  487.5311
  77  421.5688
  78  411.4479
  79  437.9156
  80  490.589
  81  533.4746
  82  490.3055
  83  432.6404
  84  509.1614
  85  453.1137
  86  418.6736
  87  518.9632
  88  474.2766
  89  447.7572
  90  577.6656
  91  602.6473
  92  549.2917
  93  520.882
  94  485.2531
  95  408.2565
  96  398.9789
  97  419.7184
  98  486.0901
  99  356.608
 100  428.0661
 101  482.4618
 102  463.4906
 103  392.0688
 104  337.9634
 105  384.8061
 106  433.8035
 107  319.806
 108  324.0118
 109  387.2825
 110  401.2807
 111  368.4498
 112  432.0198
 113  529.3364
 114  465.5268
 115  458.2674
 116  364.9193
 117  300.099
 118  308.1966
 119  309.6612
 120  422.3896
 121  435.7131
 122  426.7385
 123  364.7863
 124  233.8162
 125  320.9287
 126  332.8087
 127  290.9426
 128  345.0008
 129  331.0112
 130  359.1581
 131  466.1702
 132  415.3837
 133  394.3581
 134  415.4165
 135  335.5931
 136  353.9045
 137  382.7937
 138  424.9093
 139  509.5155
 140  426.6915
 141  344.6739
 142  363.7759
 143  346.4646
 144  454.0587
 145  423.9262
 146  370.8715
 147  364.0997
 148  500.4646
 149  425.0141
 150  328.6951
 151  443.875
 152  496.0452
 153  488.0038
 154  383.2969
 155  367.6457
 156  463.0282
 157  430.9911
 158  348.7419
 159  408.8383
 160  347.046
 161  258.8853
 162  317.3148
 163  316.4108
 164  344.0667
 165  486.3225
 166  383.0957
 167  391.4233
 168  407.6982
 169  367.0203
 170  391.644
 171  299.1295
 172  356.7537
 173  511.3948
 174  415.1108
 175  466.5614
 176  468.449
 177  401.803
 178  338.5921
 179  342.8672
 180  399.5429
 181  283.9762
 182  317.8949
 183  275.8891
 184  253.675
 185  281.7526
 186  352.7997
 187  412.6428
 188  428.4648
 189  427.9785
 190  429.9514
 191  336.7684
 192  254.3709
 193  342.2567
 194  435.1779
 195  375.808
 196  339.6014
 197  330.1612
 198  485.1906
 199  500.3767
 200  442.3156
 201  406.0614
 202  385.7229
 203  306.6322
 204  430.4466
 205  451.1609
 206  489.4846
 207  552.2069
 208  537.9686
 209  470.3125
 210  364.6445
 211  419.1334
 212  369.5254
 213  497.8258
 214  583.877
 215  458.4069
 216  464.9414
 217  370.4352
 218  491.8975
 219  472.0862
 220  351.3034
 221  391.4559
 222  449.2628
 223  418.5476
 224  312.56
 225  302.4839
 226  461.7584
 227  420.0262
 228  333.883
 229  403.4421
 230  486.7352
 231  477.6455
 232  408.7182
 233  373.3583
 234  425.6971
 235  377.8195
 236  324.195
 237  350.5172
 238  331.8465
 239  396.262
 240  382.7591
 241  368.4622
 242  275.1135
 243  368.9552
 244  511.3466
 245  522.6893
 246  396.1639
 247  320.9694
 248  318.4386
 249  389.587
 250  510.2728
 251  513.4252
 252  470.6862
 253  399.3546
 254  278.7677
 255  266.7324
 256  285.6271
 257  427.4051
 258  503.8734
 259  454.6927
 260  350.3101
 261  353.6571
 262  457.06
 263  424.2584
 264  422.7287
 265  457.042
 266  375.9207
 267  385.4831
 268  401.4333
 269  360.3287
 270  411.8499
 271  496.53
 272  477.6531
 273  402.1741
 274  471.2898
 275  309.9427
 276  343.3725
 277  422.818
 278  460.7845
 279  406.2965
 280  389.1537
 281  381.061
 282  394.8602
 283  357.4881
 284  420.0383
 285  382.2948
 286  418.36
 287  456.0335
 288  497.3948
 289  522.0426
 290  498.5072
 291  508.9835
 292  392.6866
 293  353.7067
 294  356.5622
 295  457.9011
 296  454.6152
 297  407.7415
 298  521.3488
 299  518.4843
 300  460.2542
 301  623.9916
 302  539.6268
 303  421.226
 304  365.4475
 305  413.9251
 306  429.4301
 307  407.1626
 308  485.7143
 309  392.8947
 310  338.549
 311  357.2943
 312  415.6181
 313  418.5175
 314  380.7614
 315  345.5303
 316  438.8324
 317  362.5653
 318  322.2954
 319  342.8458
 320  409.8982
 321  361.9865
 322  393.8353
 323  477.7152
 324  470.0624
 325  505.219
 326  423.3388
 327  361.7055
 328  314.4787
 329  375.5799
 330  494.7415
 331  455.5029
 332  356.127
 333  347.3706
 334  345.0211
 335  389.8257
 336  386.4872
 337  389.2567
 338  413.11
 339  382.4008
 340  427.7863
 341  405.8444
 342  411.0933
 343  412.448
 344  258.5459
 345  289.6966
 346  475.0325
 347  505.1389
 348  409.1112
 349  385.5176
 350  430.5642
 351  347.2149
 352  423.5294
 353  435.0865
 354  440.8154
 355  456.3019
 356  377.0588
 357  325.9862
 358  376.0807
 359  355.6198
 360  476.0685
 361  538.9713
 362  458.7166
 363  435.2042
 364  387.1446
 365  363.7293
 366  358.375
 367  432.0088
 368  398.5045
 369  336.9427
 370  339.4181
 371  362.018
 372  418.3547
 373  436.7197
 374  495.3375
 375  356.049
 376  266.0714
 377  355.8513
 378  517.362
 379  512.4622
 380  416.2671
 381  440.5707
 382  524.9735
 383  465.7249
 384  451.3509
 385  337.7158
 386  336.2257
 387  472.3381
 388  496.0761
 389  377.3372
 390  425.6689
 391  469.029
 392  426.9204
 393  401.9767
 394  520.117
 395  444.9245
 396  415.2321
 397  302.714
 398  336.9222
 399  355.9621
 400  422.6168
 401  422.7856
 402  404.0337
 403  377.5598
 404  360.4397
 405  468.1698
 406  549.7382
 407  534.3566
 408  491.9233
 409  553.519
 410  496.2321
 411  391.5099
 412  507.5186
 413  513.3066
 414  530.6738
 415  481.0133
 416  538.951
 417  502.7834
 418  400.869
 419  496.3132
 420  559.4534
 421  568.3176
 422  582.5598
 423  420.4909
 424  416.5712
 425  499.4481
 426  436.2429
 427  472.6868
 428  528.4643
 429  525.7572
 430  597.1331
 431  585.9804
 432  548.6013
 433  455.699
 434  409.109
 435  444.2287
 436  538.3284
 437  458.8564
 438  427.5862
 439  441.0381
 440  587.2724
 441  590.4518
 442  533.3764
 443  435.6239
 444  406.6384
 445  430.7431
 446  488.6451
 447  393.5374
 448  489.4845
 449  528.016
 450  479.382
 451  483.1193
 452  486.8901
 453  386.8057
 454  373.52
 455  513.3236
 456  581.9426
 457  585.4556
 458  513.4035
 459  491.3867
 460  405.6371
 461  447.6526
 462  471.5947
 463  434.4847
 464  483.4432
 465  450.6269
 466  422.3697
 467  398.9709
 468  393.1501
 469  360.9325
 470  284.0272
 471  383.8651
 472  451.7427
 473  523.0977
 474  539.8726
 475  418.4665
 476  304.9819
 477  402.4818
 478  503.6086
 479  395.6306
 480  369.9092
 481  410.3484
 482  422.0364
 483  416.8677
 484  414.613
 485  421.3305
 486  401.7859
 487  424.5956
 488  456.5767
 489  430.6154
 490  349.907
 491  329.1767
 492  311.3521
 493  454.2696
 494  522.7381
 495  577.4398
 496  512.4766
 497  527.772
 498  560.3434
 499  511.9894
 500  442.9043
 501  461.4714
 502  524.8855
 503  469.7812
 504  508.6094
 505  530.7077
 506  565.7137
 507  675.1271
 508  609.2561
 509  689.2813
 510  848.088
 511  1004.604
