# Input file       =  1201361171.110048_cleaned.dat
# Candidate        =  PSR_0332+5434
# Telescope        =  AR
# Epoch_topo       =  58148.642975810741
# Epoch_bary       =  N/A
# T_sample         =  0.002
# Data Folded      =  7340032
# Data Avg         =  0.031831135758774
# Data StdDev      =  0.999838833699006
# Profile Bins     =  512
# Profile Avg      =  455.869265957317 
# Profile StdDev   =  119.713739446186 
# Reduced chi-sqr  =  0.901
# Prob(Noise)      <  0.948   (~0.0 sigma)
# P_topo (ms)      =  714.575329988001  +/- 0.000364
# P'_topo (s/s)    =  -0                +/- 1.92e-10
# P''_topo (s/s^2) =  0                 +/- 8.49e-14
# P_bary (ms)      =  N/A
# P'_bary (s/s)    =  N/A
# P''_bary (s/s^2) =  N/A
# P_orb (s)        =  N/A
# asin(i)/c (s)    =  N/A
# eccentricity     =  N/A
# w (rad)          =  N/A
# T_peri           =  N/A
######################################################
   0  872.9055
   1  869.4286
   2  685.7512
   3  586.9234
   4  469.0569
   5  363.423
   6  447.4985
   7  457.1797
   8  453.4326
   9  378.6183
  10  315.1341
  11  384
  12  412.212
  13  410.9491
  14  497.7428
  15  501.1785
  16  368.6862
  17  348.415
  18  352.5476
  19  422.3381
  20  507.3133
  21  453.3181
  22  429.3031
  23  433.0264
  24  431.8074
  25  474.9323
  26  410.1319
  27  395.9459
  28  446.9213
  29  437.785
  30  335.0435
  31  282.1816
  32  331.5293
  33  399.9568
  34  477.6322
  35  439.1899
  36  429.7134
  37  414.4727
  38  463.4997
  39  382.3057
  40  313.2007
  41  407.9737
  42  495.0117
  43  436.8284
  44  431.1718
  45  498.4941
  46  363.4091
  47  312.6893
  48  381.8006
  49  438.6473
  50  392.0084
  51  399.3119
  52  386.6187
  53  412.8697
  54  405.0686
  55  305.5177
  56  288.8491
  57  328.3625
  58  313.8498
  59  407.9525
  60  387.2878
  61  341.0818
  62  409.3649
  63  348.2368
  64  301.1013
  65  334.1859
  66  384.2658
  67  349.5657
  68  392.7154
  69  485.975
  70  588.6419
  71  436.7614
  72  471.5621
  73  395.7678
  74  353.7835
  75  445.6529
  76  355.8781
  77  344.1399
  78  380.1605
  79  366.0228
  80  327.4159
  81  351.7937
  82  354.9081
  83  369.1602
  84  487.1195
  85  524.3204
  86  431.1716
  87  375.3948
  88  412.751
  89  307.8021
  90  397.4455
  91  521.0457
  92  501.2794
  93  553.0192
  94  497.9214
  95  405.6264
  96  556.4326
  97  574.6157
  98  495.325
  99  323.1586
 100  239.3778
 101  305.7184
 102  440.1419
 103  411.6439
 104  430.3053
 105  422.5399
 106  436.7843
 107  528.8778
 108  499.5105
 109  406.5023
 110  418.9993
 111  428.2859
 112  429.9316
 113  481.4445
 114  382.9471
 115  339.9107
 116  405.27
 117  442.592
 118  458.1139
 119  434.9075
 120  513.5421
 121  447.4743
 122  485.473
 123  422.4365
 124  420.5229
 125  451.0667
 126  433.1666
 127  446.106
 128  417.3253
 129  426.4763
 130  413.7246
 131  415.8167
 132  488.8938
 133  425.5497
 134  463.5785
 135  495.4516
 136  449.0786
 137  471.8009
 138  511.5909
 139  482.3616
 140  453.2689
 141  565.1288
 142  461.77
 143  502.38
 144  463.0302
 145  428.9035
 146  359.3716
 147  417.3027
 148  454.4341
 149  488.2746
 150  465.2574
 151  373.2941
 152  236.5725
 153  245.1855
 154  403.7455
 155  516.5009
 156  423.4387
 157  401.0782
 158  452.2969
 159  464.4894
 160  504.2785
 161  519.3526
 162  499.4542
 163  517.3441
 164  520.3284
 165  405.8699
 166  423.6981
 167  380.9104
 168  344.122
 169  367.3313
 170  440.3927
 171  353.4058
 172  410.7592
 173  433.2406
 174  438.6344
 175  341.2259
 176  367.3367
 177  383.7258
 178  472.5073
 179  487.1972
 180  469.4602
 181  297.3193
 182  336.2662
 183  528.6267
 184  487.4786
 185  457.7479
 186  345.3463
 187  511.8784
 188  542.6299
 189  479.5058
 190  422.5836
 191  444.7176
 192  470.9059
 193  414.4418
 194  423.7185
 195  383.6527
 196  385.0836
 197  341.9381
 198  339.6673
 199  394.9482
 200  425.179
 201  422.8854
 202  331.1028
 203  347.2365
 204  485.8217
 205  474.419
 206  416.9389
 207  443.0815
 208  486.1347
 209  478.9645
 210  362.1846
 211  370.9582
 212  442.3965
 213  420.1109
 214  435.7205
 215  527.9014
 216  512.007
 217  469.0549
 218  565.8972
 219  649.5643
 220  554.8358
 221  530.5198
 222  500.7759
 223  510.6233
 224  495.7987
 225  475.9039
 226  425.8445
 227  476.3942
 228  509.7398
 229  450.3507
 230  515.749
 231  425.6364
 232  529.5815
 233  634.1992
 234  567.7982
 235  479.9067
 236  483.6403
 237  496.4202
 238  489.322
 239  490.996
 240  455.0536
 241  477.456
 242  461.7011
 243  487.1928
 244  466.6242
 245  496.1148
 246  480.5877
 247  508.8932
 248  519.3572
 249  573.761
 250  605.5438
 251  504.9059
 252  523.0955
 253  546.2491
 254  546.1945
 255  582.7885
 256  543.1744
 257  556.4752
 258  602.3388
 259  530.723
 260  536.5898
 261  511.2341
 262  573.4323
 263  582.5452
 264  504.662
 265  605.2156
 266  574.2999
 267  491.7558
 268  503.3264
 269  510.7018
 270  461.7213
 271  502.4775
 272  533.7521
 273  484.7307
 274  570.9778
 275  678.8274
 276  518.0279
 277  375.6983
 278  505.9508
 279  540.0515
 280  486.4417
 281  505.0013
 282  560.8053
 283  502.7302
 284  488.9982
 285  545.6747
 286  534.8752
 287  381.3119
 288  308.9127
 289  359.4438
 290  482.8541
 291  548.7166
 292  510.2546
 293  530.0712
 294  608.1701
 295  529.2269
 296  471.4611
 297  464.4607
 298  537.524
 299  468.0756
 300  476.2887
 301  494.8536
 302  553.6144
 303  583.0975
 304  453.5098
 305  430.3359
 306  432.7418
 307  425.7027
 308  381.8827
 309  433.8775
 310  460.5313
 311  391.0894
 312  434.0821
 313  428.7369
 314  466.2036
 315  523.8766
 316  390.4411
 317  356.4654
 318  444.7726
 319  490.8555
 320  424.2336
 321  412.5639
 322  408.063
 323  454.0792
 324  553.6811
 325  565.7266
 326  549.701
 327  516.809
 328  511.0661
 329  486.4272
 330  459.9151
 331  511.3985
 332  466.4254
 333  509.6504
 334  516.8409
 335  545.8259
 336  544.0661
 337  518.6068
 338  439.751
 339  402.1659
 340  476.8908
 341  522.379
 342  409.1061
 343  337.6976
 344  480.4379
 345  418.3576
 346  390.6549
 347  426.0809
 348  395.5264
 349  470.1284
 350  410.7719
 351  327.6661
 352  457.2203
 353  394.1135
 354  350.0089
 355  461.6367
 356  392.589
 357  302.7077
 358  261.9554
 359  441.5005
 360  461.332
 361  389.7213
 362  384.131
 363  444.2625
 364  403.2086
 365  456.0892
 366  470.2314
 367  417.9818
 368  373.5172
 369  337.344
 370  359.2729
 371  368.3261
 372  421.317
 373  423.0901
 374  475.6942
 375  496.5731
 376  475.4084
 377  420.6343
 378  338.1603
 379  353.9459
 380  430.8215
 381  450.2586
 382  505.1667
 383  563.0105
 384  456.3996
 385  459.474
 386  573.8286
 387  458.5506
 388  423.016
 389  484.3061
 390  499.1335
 391  469.3198
 392  526.7505
 393  486.5547
 394  480.6087
 395  419.6823
 396  493.2075
 397  534.4122
 398  437.47
 399  534.1357
 400  581.7667
 401  565.7991
 402  499.2074
 403  410.0894
 404  496.6234
 405  420.2769
 406  343.5992
 407  424.7574
 408  509.551
 409  584.2921
 410  551.7153
 411  563.2826
 412  501.1642
 413  426.588
 414  469.2743
 415  559.9757
 416  491.5265
 417  597.4119
 418  583.8274
 419  473.3268
 420  463.8192
 421  434.3638
 422  447.9236
 423  467.6534
 424  480.1796
 425  440.9101
 426  490.452
 427  505.5204
 428  454.9146
 429  504.6469
 430  525.1976
 431  479.5557
 432  514.1588
 433  527.4031
 434  392.546
 435  435.6241
 436  480.9513
 437  478.8893
 438  569.2017
 439  515.6847
 440  384.6927
 441  447.5826
 442  463.4058
 443  474.1331
 444  598.5539
 445  571.7385
 446  697.1061
 447  611.3826
 448  557.4528
 449  481.0482
 450  454.4004
 451  461.9506
 452  400.6203
 453  419.6011
 454  498.1518
 455  443.6591
 456  428.7374
 457  455.2823
 458  375.2041
 459  504.9458
 460  492.2749
 461  487.0844
 462  490.2752
 463  484.2199
 464  458.2863
 465  490.9057
 466  452.3494
 467  492.8979
 468  416.4566
 469  454.0745
 470  355.7828
 471  280.0066
 472  409.9694
 473  436.644
 474  354.0883
 475  406.7556
 476  371.3808
 477  358.522
 478  345.4221
 479  393.3707
 480  443.0098
 481  442.3013
 482  366.318
 483  349.132
 484  427.4201
 485  472.1616
 486  449.3779
 487  391.9153
 488  405.2816
 489  364.5145
 490  403.8854
 491  462.9786
 492  537.0075
 493  515.1305
 494  433.9194
 495  411.8961
 496  371.9335
 497  393.219
 498  427.6305
 499  390.6755
 500  509.9053
 501  478.2923
 502  421.1082
 503  444.4293
 504  580.6769
 505  556.4402
 506  454.6599
 507  418.7556
 508  491.3069
 509  683.5165
 510  794.2783
 511  960.4509
