# Input file       =  1201376082.115093_cleaned.dat
# Candidate        =  PSR_0332+5434
# Telescope        =  AR
# Epoch_topo       =  58148.815556887654
# Epoch_bary       =  N/A
# T_sample         =  0.002
# Data Folded      =  7340032
# Data Avg         =  0.0229321305344219
# Data StdDev      =  1.00007559758771 
# Profile Bins     =  512
# Profile Avg      =  328.777963543543 
# Profile StdDev   =  119.742087905485 
# Reduced chi-sqr  =  1.332
# Prob(Noise)      <  6.67e-07   (~4.8 sigma)
# P_topo (ms)      =  714.575741207166  +/- 0.000212
# P'_topo (s/s)    =  -0                +/- 1.12e-10
# P''_topo (s/s^2) =  0                 +/- 4.94e-14
# P_bary (ms)      =  N/A
# P'_bary (s/s)    =  N/A
# P''_bary (s/s^2) =  N/A
# P_orb (s)        =  N/A
# asin(i)/c (s)    =  N/A
# eccentricity     =  N/A
# w (rad)          =  N/A
# T_peri           =  N/A
######################################################
   0  977.784
   1  1107.72
   2  991.9969
   3  754.8286
   4  351.8838
   5  295.2161
   6  408.614
   7  485.6147
   8  403.3427
   9  438.3418
  10  406.8676
  11  424.5153
  12  538.7376
  13  481.7131
  14  406.8882
  15  275.8561
  16  381.2374
  17  352.8082
  18  424.5966
  19  318.2293
  20  316.8808
  21  386.2003
  22  384.3097
  23  219.9534
  24  236.2874
  25  295.4327
  26  388.2968
  27  395.1519
  28  312.9234
  29  329.2022
  30  330.2684
  31  412.3468
  32  421.3732
  33  355.548
  34  326.4636
  35  270.619
  36  297.2516
  37  329.1458
  38  263.5652
  39  190.3413
  40  194.0594
  41  173.5968
  42  311.0052
  43  287.0882
  44  341.8526
  45  368.11
  46  340.1841
  47  338.1479
  48  338.6038
  49  321.088
  50  251.1338
  51  177.8486
  52  193.3271
  53  266.7521
  54  320.789
  55  300.1435
  56  336.3462
  57  331.9019
  58  332.9951
  59  297.0249
  60  220.8781
  61  256.7377
  62  326.8504
  63  293.0458
  64  233.2248
  65  274.4136
  66  343.7866
  67  277.6899
  68  297.5833
  69  519.1239
  70  435.6358
  71  366.6192
  72  386.7188
  73  337.5127
  74  318.1049
  75  268.3008
  76  364.6064
  77  333.3671
  78  291.9802
  79  385.1354
  80  304.6451
  81  219.612
  82  351.1463
  83  400.4394
  84  289.9099
  85  235.3204
  86  291.5598
  87  484.989
  88  393.2763
  89  279.0703
  90  355.3251
  91  279.4929
  92  305.6095
  93  281.69
  94  358.713
  95  213.2997
  96  223.0618
  97  285.5318
  98  337.8467
  99  303.5701
 100  207.0626
 101  291.2152
 102  288.9895
 103  178.2718
 104  168.5768
 105  249.6314
 106  240.1246
 107  245.3626
 108  232.5526
 109  309.3284
 110  385.0984
 111  285.322
 112  173.0675
 113  225.0436
 114  233.405
 115  292.5161
 116  321.1308
 117  292.9857
 118  286.7066
 119  306.8766
 120  236.2104
 121  271.4123
 122  310.367
 123  312.0295
 124  373.0976
 125  380.1248
 126  413.7239
 127  359.403
 128  374.6196
 129  328.0743
 130  309.3325
 131  317.8621
 132  352.6799
 133  402.2622
 134  330.5312
 135  371.5471
 136  419.9376
 137  388.8872
 138  254.1386
 139  280.283
 140  439.6121
 141  333.4671
 142  300.5118
 143  382.2585
 144  374.1746
 145  297.2348
 146  290.3319
 147  227.4251
 148  260.1985
 149  295.065
 150  362.4661
 151  343.128
 152  346.8251
 153  204.2739
 154  215.4551
 155  214.2716
 156  224.461
 157  340.3381
 158  433.7434
 159  328.78
 160  299.4592
 161  342.0728
 162  131.049
 163  195.1
 164  332.734
 165  237.4948
 166  199.3198
 167  265.0629
 168  464.9485
 169  316.6382
 170  372.4539
 171  410.0098
 172  343.2973
 173  301.972
 174  421.6885
 175  415.4667
 176  359.6422
 177  271.6251
 178  202.1253
 179  312.0026
 180  450.3871
 181  332.0306
 182  334.1595
 183  312.0266
 184  423.2844
 185  310.1799
 186  260.5186
 187  313.407
 188  324.1367
 189  389.4419
 190  397.4789
 191  360.0179
 192  353.4024
 193  335.8956
 194  306.956
 195  180.4162
 196  252.1184
 197  407.8203
 198  361.6147
 199  255.0714
 200  218.3655
 201  279.8838
 202  359.815
 203  374.5841
 204  333.2745
 205  255.6681
 206  437.9436
 207  559.3563
 208  387.1272
 209  398.0841
 210  446.9835
 211  392.0445
 212  291.2504
 213  238.9781
 214  166.2
 215  354.6057
 216  419.8942
 217  391.2628
 218  375.4911
 219  378.4681
 220  241.9555
 221  183.8698
 222  283.1764
 223  344.8543
 224  272.2769
 225  224.7881
 226  410.6626
 227  378.4134
 228  261.7454
 229  210.1503
 230  345.9391
 231  415.2835
 232  427.2759
 233  357.7056
 234  240.3491
 235  246.9849
 236  336.7224
 237  341.7144
 238  335.4369
 239  500.1328
 240  501.0533
 241  280.498
 242  158.7291
 243  297.1784
 244  437.7701
 245  327.709
 246  405.4701
 247  449.2867
 248  410.28
 249  362.2643
 250  287.7468
 251  304.1186
 252  264.2719
 253  284.4172
 254  357.9487
 255  301.7267
 256  292.8127
 257  268.3339
 258  207.8798
 259  200.8522
 260  157.8846
 261  122.8614
 262  203.2821
 263  197.944
 264  293.9101
 265  377.6457
 266  397.9074
 267  307.1038
 268  295.6518
 269  312.3342
 270  322.9798
 271  328.3387
 272  366.5286
 273  452.7066
 274  443.288
 275  376.6374
 276  358.2227
 277  320.9337
 278  345.6962
 279  315.0548
 280  276.8918
 281  318.208
 282  280.2469
 283  227.5502
 284  247.1781
 285  115.7451
 286  223.2616
 287  394.1922
 288  333.3167
 289  275.4898
 290  295.7137
 291  445.7767
 292  443.6754
 293  378.0082
 294  406.1256
 295  421.1317
 296  398.168
 297  304.3915
 298  311.5532
 299  393.1874
 300  350.5518
 301  282.5017
 302  264.9232
 303  223.6648
 304  266.802
 305  422.6609
 306  329.6354
 307  259.9981
 308  209.1863
 309  156.9
 310  129.6474
 311  261.8654
 312  427.8916
 313  316.7881
 314  347.6462
 315  312.8357
 316  390.0602
 317  408.8563
 318  273.2047
 319  270.4489
 320  291.3755
 321  261.1772
 322  111.1644
 323  199.8021
 324  390.3059
 325  299.3785
 326  167.2079
 327  189.8621
 328  344.8275
 329  350.4913
 330  295.7342
 331  345.3992
 332  361.8193
 333  297.7816
 334  175.7921
 335  179.2491
 336  302.61
 337  249.3829
 338  218.9223
 339  294.702
 340  357.5238
 341  335.1667
 342  283.5924
 343  309.6418
 344  338.5136
 345  334.8482
 346  332.0687
 347  442.9855
 348  291.2926
 349  320.72
 350  291.9685
 351  278.7884
 352  266.6348
 353  235.0485
 354  247.3016
 355  248.3351
 356  222.5055
 357  247.9591
 358  310.5474
 359  358.4887
 360  343.0241
 361  248.3918
 362  313.9583
 363  390.7043
 364  446.8596
 365  326.6495
 366  305.8533
 367  309.5275
 368  356.3056
 369  377.0042
 370  371.5507
 371  416.181
 372  385.0781
 373  310.5237
 374  405.8948
 375  455.5128
 376  398.5317
 377  290.2595
 378  296.4783
 379  313.054
 380  362.2712
 381  364.2305
 382  502.474
 383  493.7088
 384  383.6339
 385  339.7485
 386  304.5747
 387  386.6493
 388  385.1072
 389  408.748
 390  323.5992
 391  369.2482
 392  243.5653
 393  316.9848
 394  313.6116
 395  194.0579
 396  242.7498
 397  334.8962
 398  297.528
 399  392.2256
 400  400.8835
 401  405.9757
 402  331.7291
 403  361.3149
 404  394.4612
 405  549.9154
 406  492.0062
 407  399.561
 408  494.9486
 409  374.617
 410  426.6204
 411  380.886
 412  359.7226
 413  353.9624
 414  302.838
 415  420.3654
 416  310.8158
 417  273.956
 418  298.7427
 419  364.4192
 420  336.65
 421  317.9141
 422  233.5682
 423  311.0584
 424  315.5847
 425  308.7829
 426  360.9681
 427  310.0549
 428  210.6526
 429  315.2882
 430  317.3477
 431  356.9802
 432  397.8041
 433  319.5516
 434  146.3842
 435  383.6088
 436  454.2346
 437  250.3046
 438  316.3199
 439  435.929
 440  447.7243
 441  311.2895
 442  308.4646
 443  370.3347
 444  303.0426
 445  390.7169
 446  498.6381
 447  375.0619
 448  286.4343
 449  302.4518
 450  295.1666
 451  272.3438
 452  344.8432
 453  340.4957
 454  359.2573
 455  374.3014
 456  237.4201
 457  332.3026
 458  332.4619
 459  204.0434
 460  178.0808
 461  278.243
 462  330.0022
 463  254.3933
 464  299.5533
 465  166.7782
 466  110.053
 467  201.2711
 468  199.4418
 469  286.0386
 470  223.1793
 471  295.053
 472  339.4196
 473  193.4649
 474  323.859
 475  278.3968
 476  328.0708
 477  347.5435
 478  371.1124
 479  356.4109
 480  251.4564
 481  217.7258
 482  383.5632
 483  342.6039
 484  356.8954
 485  366.0362
 486  371.8656
 487  375.0738
 488  383.8444
 489  292.0134
 490  267.1727
 491  316.6525
 492  309.358
 493  328.2761
 494  378.4264
 495  357.2631
 496  463.6581
 497  416.0861
 498  263.8489
 499  273.3073
 500  341.5045
 501  339.1773
 502  303.3447
 503  248.9825
 504  236.542
 505  315.3162
 506  422.7738
 507  473.8814
 508  445.6546
 509  555.8002
 510  720.3993
 511  854.0795
