# Input file       =  1201634619.11026_cleaned.dat
# Candidate        =  PSR_0332+5434
# Telescope        =  AR
# Epoch_topo       =  58151.807883220601
# Epoch_bary       =  N/A
# T_sample         =  0.002
# Data Folded      =  7340032
# Data Avg         =  0.0149116338069507
# Data StdDev      =  1.00002027179845 
# Profile Bins     =  512
# Profile Avg      =  213.726693768231 
# Profile StdDev   =  119.735463580747 
# Reduced chi-sqr  =  1.043
# Prob(Noise)      <  0.244   (~0.7 sigma)
# P_topo (ms)      =  714.576956707305  +/- 0.000682
# P'_topo (s/s)    =  -0                +/- 3.6e-10
# P''_topo (s/s^2) =  0                 +/- 1.59e-13
# P_bary (ms)      =  N/A
# P'_bary (s/s)    =  N/A
# P''_bary (s/s^2) =  N/A
# P_orb (s)        =  N/A
# asin(i)/c (s)    =  N/A
# eccentricity     =  N/A
# w (rad)          =  N/A
# T_peri           =  N/A
######################################################
   0  869.7916
   1  733.4827
   2  546.6807
   3  371.8462
   4  270.9186
   5  150.4669
   6  189.2748
   7  205.6742
   8  209.0062
   9  199.1656
  10  290.8528
  11  270.1224
  12  189.83
  13  255.6502
  14  247.7684
  15  174.8937
  16  247.3695
  17  258.1757
  18  303.1721
  19  198.8317
  20  189.9583
  21  135.0363
  22  142.9234
  23  178.0886
  24  236.0604
  25  160.1303
  26  139.4064
  27  252.941
  28  215.0333
  29  150.6091
  30  275.6256
  31  329.3347
  32  373.6073
  33  216.1138
  34  148.4698
  35  73.27863
  36  115.3612
  37  177.0248
  38  250.9519
  39  242.8202
  40  145.1131
  41  56.70119
  42  -26.65463
  43  131.6931
  44  280.1165
  45  216.6229
  46  259.1581
  47  302.4818
  48  202.2629
  49  154.4788
  50  80.58259
  51  26.58676
  52  84.95667
  53  135.4414
  54  208.8955
  55  96.7797
  56  134.6116
  57  247.082
  58  261.0253
  59  179.6081
  60  325.4702
  61  272.1492
  62  192.111
  63  203.0696
  64  250.4653
  65  303.3045
  66  173.0099
  67  156.2954
  68  169.0562
  69  166.2862
  70  257.6292
  71  222.6533
  72  278.4937
  73  241.7891
  74  230.4449
  75  245.9268
  76  219.4886
  77  204.916
  78  152.1929
  79  339.5876
  80  248.9797
  81  193.5893
  82  112.1988
  83  68.86523
  84  205.7269
  85  169.8145
  86  171.4398
  87  183.1653
  88  257.5079
  89  215.5551
  90  171.3699
  91  140.1896
  92  241.228
  93  262.5416
  94  341.3391
  95  180.4882
  96  220.5985
  97  226.2136
  98  248.7907
  99  189.5086
 100  196.0413
 101  298.9181
 102  172.4189
 103  226.5339
 104  280.7032
 105  220.2724
 106  82.30775
 107  -20.25965
 108  106.4988
 109  370.2119
 110  420.7138
 111  436.6982
 112  381.9733
 113  144.5611
 114  81.60262
 115  161.4489
 116  158.6877
 117  242.7972
 118  214.7587
 119  205.5585
 120  174.1417
 121  278.2275
 122  284.3848
 123  239.3296
 124  208.9286
 125  161.5291
 126  199.1674
 127  147.2751
 128  218.1245
 129  269.7484
 130  275.8797
 131  289.0269
 132  189.494
 133  140.7294
 134  308.4202
 135  312.5047
 136  144.1893
 137  159.4256
 138  300.5227
 139  267.2041
 140  87.84642
 141  44.2052
 142  245.7398
 143  272.5434
 144  359.5789
 145  382.7272
 146  280.4213
 147  176.2295
 148  153.6294
 149  100.3565
 150  153.7014
 151  230.7379
 152  268.6461
 153  285.5134
 154  273.8679
 155  252.1361
 156  197.5342
 157  245.9288
 158  249.0942
 159  191.8556
 160  224.0255
 161  161.6037
 162  147.5666
 163  128.7908
 164  147.6665
 165  153.5808
 166  216.6167
 167  259.8106
 168  200.2672
 169  234.2664
 170  109.9528
 171  191.4851
 172  256.0439
 173  106.3841
 174  56.0603
 175  181.1682
 176  161.8827
 177  177.1339
 178  197.1065
 179  279.4495
 180  301.1415
 181  316.3646
 182  259.4308
 183  237.1353
 184  231.0553
 185  222.1729
 186  258.3759
 187  215.4394
 188  257.4343
 189  206.5553
 190  218.693
 191  297.8754
 192  211.0798
 193  230.5938
 194  94.98731
 195  127.2883
 196  211.172
 197  206.1272
 198  266.8857
 199  307.6622
 200  225.0756
 201  162.4065
 202  100.8705
 203  254.7359
 204  243.8127
 205  153.1698
 206  225.8042
 207  267.6794
 208  169.3239
 209  133.6628
 210  236.7682
 211  188.1031
 212  142.409
 213  165.5877
 214  105.172
 215  147.2536
 216  97.94839
 217  182.6779
 218  315.4802
 219  201.6815
 220  189.6764
 221  223.3103
 222  304.9098
 223  144.7719
 224  162.5501
 225  246.6746
 226  195.0116
 227  72.14489
 228  243.2059
 229  367.7243
 230  230.2636
 231  20.18845
 232  102.0379
 233  150.7974
 234  164.1381
 235  288.6879
 236  270.9245
 237  198.2849
 238  327.5965
 239  204.8089
 240  278.1816
 241  280.1027
 242  226.2498
 243  215.8875
 244  337.443
 245  289.7641
 246  109.821
 247  90.07851
 248  298.6652
 249  262.2534
 250  212.3173
 251  204.9137
 252  198.0434
 253  153.5099
 254  246.7962
 255  278.047
 256  171.5778
 257  219.6987
 258  196.0192
 259  243.9404
 260  201.626
 261  225.9084
 262  176.3326
 263  157.1308
 264  208.7942
 265  294.3534
 266  182.6665
 267  53.30874
 268  82.11664
 269  226.9517
 270  247.5088
 271  207.7423
 272  196.2719
 273  148.4529
 274  231.5219
 275  215.7878
 276  163.8824
 277  249.9896
 278  336.8734
 279  263.6829
 280  273.9555
 281  262.4998
 282  304.5262
 283  195.446
 284  173.9911
 285  194.1077
 286  240.2097
 287  322.4924
 288  309.8912
 289  228.2454
 290  331.2466
 291  260.7515
 292  219.2138
 293  207.7286
 294  283.9618
 295  139.7014
 296  164.6413
 297  193.3755
 298  267.3361
 299  90.64632
 300  237.4892
 301  326.595
 302  160.9268
 303  102.8765
 304  88.56139
 305  137.3495
 306  284.6158
 307  125.4769
 308  117.1241
 309  132.5007
 310  326.864
 311  226.3249
 312  223.1708
 313  207.711
 314  408.9879
 315  295.9416
 316  242.203
 317  204.571
 318  218.9286
 319  241.2729
 320  245.958
 321  141.1103
 322  185.6464
 323  187.1485
 324  175.2314
 325  183.5202
 326  178.6893
 327  320.8249
 328  254.0141
 329  237.9962
 330  260.2045
 331  141.7628
 332  138.4495
 333  140.1752
 334  150.021
 335  235.2898
 336  178.791
 337  222.8837
 338  229.9211
 339  162.6621
 340  266.3293
 341  298.7269
 342  206.4461
 343  191.0211
 344  266.3482
 345  306.7701
 346  187.5296
 347  243.6174
 348  290.409
 349  218.2443
 350  171.2464
 351  317.0551
 352  325.1188
 353  165.1446
 354  148.0434
 355  264.284
 356  283.2256
 357  336.2193
 358  224.1997
 359  197.2003
 360  175.3677
 361  222.6605
 362  146.497
 363  180.5316
 364  300.866
 365  250.9977
 366  219.0029
 367  177.2195
 368  96.91068
 369  74.70149
 370  193.6132
 371  185.0604
 372  230.6127
 373  199.2303
 374  153.901
 375  98.41113
 376  103.6563
 377  192.9963
 378  171.549
 379  300.5206
 380  282.9686
 381  130.9366
 382  118.3027
 383  167.6655
 384  187.2293
 385  140.0812
 386  151.7487
 387  153.6447
 388  159.6544
 389  198.7619
 390  137.9832
 391  160.7727
 392  166.5273
 393  208.0203
 394  310.6505
 395  117.1302
 396  83.17609
 397  65.45004
 398  153.434
 399  136.6886
 400  96.30695
 401  71.21017
 402  155.9759
 403  133.8291
 404  157.2072
 405  138.3448
 406  167.1921
 407  181.6952
 408  130.2402
 409  21.8401
 410  44.55276
 411  133.7182
 412  166.8106
 413  118.818
 414  128.2791
 415  181.0845
 416  214.2865
 417  195.697
 418  303.9293
 419  276.3891
 420  131.5837
 421  77.27528
 422  53.44501
 423  148.5865
 424  283.6156
 425  354.2081
 426  293.9149
 427  243.6214
 428  169.6078
 429  87.74566
 430  214.305
 431  293.5567
 432  236.6043
 433  262.5359
 434  180.697
 435  281.4996
 436  192.9665
 437  124.021
 438  169.2898
 439  219.4225
 440  289.1969
 441  263.9468
 442  214.7106
 443  192.9859
 444  151.4925
 445  289.8051
 446  230.1268
 447  230.5053
 448  184.1003
 449  272.3282
 450  355.5347
 451  188.272
 452  174.6169
 453  289.1448
 454  195.4654
 455  148.485
 456  215.7051
 457  143.7011
 458  100.9978
 459  250.5479
 460  224.8115
 461  147.1386
 462  35.20757
 463  37.07592
 464  113.8019
 465  79.28048
 466  188.7073
 467  86.19167
 468  110.1336
 469  195.7698
 470  218.6242
 471  194.4056
 472  230.3243
 473  203.1845
 474  253.7476
 475  264.7312
 476  245.3019
 477  153.7053
 478  227.7745
 479  263.5239
 480  302.0223
 481  225.793
 482  206.722
 483  304.0365
 484  158.4555
 485  272.9975
 486  223.6962
 487  197.8303
 488  343.0761
 489  327.3731
 490  337.8397
 491  346.1071
 492  306.1647
 493  317.9465
 494  217.7745
 495  220.7838
 496  241.0662
 497  273.4195
 498  241.756
 499  257.1076
 500  373.9481
 501  337.3378
 502  193.6703
 503  246.1575
 504  271.0775
 505  317.7141
 506  196.5534
 507  269.984
 508  432.7845
 509  467.1069
 510  557.8969
 511  695.1671
