# Input file       =  1201346468.110104_cleaned.dat
# Candidate        =  PSR_0332+5434
# Telescope        =  AR
# Epoch_topo       =  58148.472802200282
# Epoch_bary       =  N/A
# T_sample         =  0.002
# Data Folded      =  7208960
# Data Avg         =  0.0211542027514226
# Data StdDev      =  1.00009842444084 
# Profile Bins     =  512
# Profile Avg      =  297.873508077585 
# Profile StdDev   =  118.670854756559 
# Reduced chi-sqr  =  1.555
# Prob(Noise)      <  1.08e-14   (~7.6 sigma)
# P_topo (ms)      =  714.57523929426   +/- 0.000125
# P'_topo (s/s)    =  -0                +/- 6.74e-11
# P''_topo (s/s^2) =  0                 +/- 3.03e-14
# P_bary (ms)      =  N/A
# P'_bary (s/s)    =  N/A
# P''_bary (s/s^2) =  N/A
# P_orb (s)        =  N/A
# asin(i)/c (s)    =  N/A
# eccentricity     =  N/A
# w (rad)          =  N/A
# T_peri           =  N/A
######################################################
   0  1040.895
   1  1005.241
   2  921.6377
   3  728.3608
   4  494.7473
   5  336.9919
   6  324.6973
   7  313.8488
   8  293.5838
   9  300.5276
  10  292.8737
  11  420.5399
  12  388.581
  13  410.0753
  14  297.3624
  15  272.7545
  16  443.7109
  17  327.624
  18  302.429
  19  277.3945
  20  339.4716
  21  298.6548
  22  200.0078
  23  174.3188
  24  260.8798
  25  295.4904
  26  256.1043
  27  316.1892
  28  249.0551
  29  358.9908
  30  359.6674
  31  347.9493
  32  323.7393
  33  276.0201
  34  316.5958
  35  271.3649
  36  357.328
  37  302.4987
  38  236.6554
  39  244.3923
  40  317.7703
  41  449.9137
  42  426.9801
  43  286.2186
  44  260.3143
  45  185.7085
  46  254.9084
  47  269.0065
  48  401.2417
  49  434.8552
  50  419.4428
  51  250.1787
  52  184.4546
  53  245.5105
  54  336.1948
  55  424.1603
  56  384.0298
  57  373.4398
  58  337.1188
  59  488.479
  60  326.5765
  61  348.8673
  62  404.3027
  63  309.2586
  64  228.9467
  65  329.743
  66  317.1696
  67  238.4464
  68  291.5861
  69  297.1823
  70  268.1204
  71  244.9503
  72  347.4981
  73  184.7555
  74  260.2887
  75  216.3145
  76  292.3222
  77  282.5666
  78  312.6721
  79  433.6842
  80  385.1136
  81  288.7364
  82  278.2004
  83  376.6732
  84  224.442
  85  165.4742
  86  184.7681
  87  154.3818
  88  260.6743
  89  171.0286
  90  279.6259
  91  268.5633
  92  343.9881
  93  375.7668
  94  454.4464
  95  310.7414
  96  213.3637
  97  205.1839
  98  346.3495
  99  424.5968
 100  461.8926
 101  531.9481
 102  420.8632
 103  304.1026
 104  263.4483
 105  342.5638
 106  405.9978
 107  325.9761
 108  310.8307
 109  240.628
 110  337.5888
 111  313.3434
 112  184.8341
 113  173.0372
 114  353.8808
 115  501.4106
 116  412.604
 117  387.3532
 118  381.9325
 119  381.8678
 120  293.9678
 121  386.1042
 122  262.4869
 123  210.9064
 124  189.2634
 125  213.4398
 126  275.1396
 127  324.8426
 128  301.1812
 129  301.4433
 130  277.9758
 131  352.0809
 132  327.1257
 133  385.6712
 134  392.1436
 135  334.6013
 136  336.826
 137  313.9369
 138  300.2988
 139  286.5002
 140  314.5819
 141  347.9243
 142  224.9361
 143  243.8337
 144  174.6941
 145  258.8089
 146  393.1928
 147  219.7013
 148  309.0035
 149  404.576
 150  357.7942
 151  332.9812
 152  271.5331
 153  346.6668
 154  271.6425
 155  180.9056
 156  292.7641
 157  362.6967
 158  171.6118
 159  221.1954
 160  163.1474
 161  317.9236
 162  314.2684
 163  272.2919
 164  294.9271
 165  264.1833
 166  419.6876
 167  423.633
 168  200.7718
 169  292.4509
 170  351.0845
 171  186.1327
 172  290.413
 173  389.8443
 174  327.0881
 175  233.8357
 176  338.8864
 177  411.0546
 178  196.922
 179  127.0172
 180  226.4096
 181  322.3033
 182  382.8912
 183  428.9033
 184  408.1833
 185  341.7234
 186  235.1411
 187  218.3382
 188  200.4971
 189  293.3461
 190  253.976
 191  183.0987
 192  236.7151
 193  374.9437
 194  334.7924
 195  217.7951
 196  196.8636
 197  334.774
 198  437.8299
 199  326.2493
 200  224.8967
 201  217.9972
 202  305.3092
 203  449.8993
 204  457.5065
 205  237.8202
 206  199.4348
 207  177.8141
 208  150.2789
 209  217.3882
 210  204.3058
 211  258.3842
 212  271.6283
 213  280.0288
 214  322.155
 215  271.9929
 216  360.4137
 217  234.2224
 218  190.3882
 219  339.6508
 220  281.9088
 221  175.4683
 222  208.7857
 223  222.7466
 224  176.9822
 225  107.2522
 226  60.47044
 227  162.7284
 228  208.5531
 229  186.2612
 230  282.6578
 231  424.0049
 232  320.5156
 233  355.3683
 234  273.6187
 235  251.8567
 236  335.6861
 237  344.3956
 238  284.5177
 239  265.1245
 240  327.5229
 241  277.3987
 242  168.9232
 243  199.5388
 244  409.2874
 245  317.3189
 246  366.723
 247  316.5759
 248  394.1847
 249  416.8152
 250  419.3024
 251  335.3594
 252  306.2292
 253  289.097
 254  318.7737
 255  431.3729
 256  509.8564
 257  383.5551
 258  322.9081
 259  292.9493
 260  329.0563
 261  273.8994
 262  331.6611
 263  267.6323
 264  435.9016
 265  474.3891
 266  465.4619
 267  381.6358
 268  457.1987
 269  418.4532
 270  245.9548
 271  133.0041
 272  203.8873
 273  285.4608
 274  320.5682
 275  347.2994
 276  263.8269
 277  322.5759
 278  336.673
 279  353.4637
 280  341.5984
 281  314.72
 282  341.9361
 283  386.2005
 284  144.5055
 285  314.0445
 286  324.843
 287  306.4092
 288  287.7672
 289  243.6975
 290  303.9445
 291  202.2768
 292  294.6018
 293  194.1734
 294  287.923
 295  216.9764
 296  178.0078
 297  274.9562
 298  282.5018
 299  268.9591
 300  287.8878
 301  399.4468
 302  234.5838
 303  203.3679
 304  206.8473
 305  233.1637
 306  111.8518
 307  133.2218
 308  69.37415
 309  257.9046
 310  328.2139
 311  322.0562
 312  387.0212
 313  357.0356
 314  273.6912
 315  196.4241
 316  216.5925
 317  224.5132
 318  209.8339
 319  280.1117
 320  246.4875
 321  244.2397
 322  264.6609
 323  365.5409
 324  309.0811
 325  197.2852
 326  224.6232
 327  282.4229
 328  490.4987
 329  374.2475
 330  475.503
 331  449.103
 332  341.3372
 333  295.304
 334  296.9626
 335  200.2583
 336  293.0756
 337  314.6216
 338  287.8993
 339  239.1009
 340  181.5974
 341  76.55374
 342  176.2557
 343  200.4242
 344  244.9098
 345  349.8424
 346  281.8887
 347  224.4061
 348  247.7288
 349  224.9216
 350  275.3895
 351  310.6419
 352  316.7781
 353  241.6027
 354  228.3504
 355  288.9034
 356  247.1031
 357  159.8216
 358  232.9372
 359  224.0154
 360  205.5888
 361  270.6372
 362  241.8569
 363  279.2231
 364  358.9102
 365  231.4875
 366  233.8456
 367  228.3161
 368  224.3333
 369  178.2518
 370  289.6172
 371  234.6192
 372  287.7639
 373  156.9652
 374  71.78602
 375  74.03783
 376  176.5902
 377  170.933
 378  175.4599
 379  292.762
 380  318.184
 381  242.8275
 382  253.9033
 383  208.1661
 384  205.1853
 385  266.4908
 386  320.6332
 387  222.1167
 388  141.2244
 389  157.7477
 390  115.13
 391  79.63838
 392  106.1496
 393  189.2697
 394  306.4136
 395  301.0388
 396  375.2148
 397  333.6624
 398  316.8317
 399  213.9057
 400  222.1094
 401  280.6746
 402  291.8792
 403  393.7986
 404  271.4771
 405  216.9477
 406  376.5562
 407  365.0729
 408  313.3911
 409  213.3333
 410  343.2519
 411  347.0111
 412  356.6546
 413  343.7263
 414  401.4529
 415  354.5091
 416  179.6373
 417  224.078
 418  443.8331
 419  509.8133
 420  486.1196
 421  417.4945
 422  345.1313
 423  270.0861
 424  134.4681
 425  131.0549
 426  89.94816
 427  91.22162
 428  276.6823
 429  448.5466
 430  458.9321
 431  254.0577
 432  246.3458
 433  343.1729
 434  287.1223
 435  336.9164
 436  274.0505
 437  316.1386
 438  347.7765
 439  309.2967
 440  204.9545
 441  273.9087
 442  133.19
 443  271.4852
 444  300.4036
 445  344.8292
 446  347.3412
 447  247.3012
 448  226.7299
 449  228.0786
 450  287.6017
 451  288.0768
 452  220.7353
 453  191.9864
 454  181.9715
 455  133.9485
 456  81.2188
 457  213.5924
 458  192.5079
 459  162.6663
 460  235.4925
 461  312.3771
 462  339.2634
 463  253.0332
 464  336.766
 465  196.5644
 466  181.1747
 467  310.8648
 468  338.3464
 469  250.4973
 470  227.8678
 471  263.1394
 472  170.0631
 473  202.9491
 474  236.851
 475  302.2403
 476  406.3083
 477  370.3229
 478  441.4885
 479  352.5486
 480  379.9211
 481  461.3819
 482  448.7823
 483  366.3606
 484  377.3315
 485  269.2469
 486  231.0683
 487  213.4181
 488  319.4433
 489  357.625
 490  246.8583
 491  318.3448
 492  310.7078
 493  326.9141
 494  261.9958
 495  394.5508
 496  475.6987
 497  433.9581
 498  268.9987
 499  375.8729
 500  263.2083
 501  315.1591
 502  347.2461
 503  414.8192
 504  343.0544
 505  200.9979
 506  329.044
 507  394.9255
 508  360.6526
 509  519.5928
 510  637.0553
 511  864.2342
