# Input file       =  1201792005.108639_cleaned.dat
# Candidate        =  PSR_0332+5434
# Telescope        =  AR
# Epoch_topo       =  58153.629480424061
# Epoch_bary       =  N/A
# T_sample         =  0.002
# Data Folded      =  7340032
# Data Avg         =  0.0317760472546822
# Data StdDev      =  1.00006298139653 
# Profile Bins     =  512
# Profile Avg      =  455.785869975447 
# Profile StdDev   =  119.740577330608 
# Reduced chi-sqr  =  1.083
# Prob(Noise)      <  0.0936   (~1.3 sigma)
# P_topo (ms)      =  714.577289260436  +/- 0.000431
# P'_topo (s/s)    =  -0                +/- 2.27e-10
# P''_topo (s/s^2) =  0                 +/- 1e-13
# P_bary (ms)      =  N/A
# P'_bary (s/s)    =  N/A
# P''_bary (s/s^2) =  N/A
# P_orb (s)        =  N/A
# asin(i)/c (s)    =  N/A
# eccentricity     =  N/A
# w (rad)          =  N/A
# T_peri           =  N/A
######################################################
   0  1038.399
   1  979.5109
   2  793.4599
   3  678.5993
   4  593.9334
   5  590.7437
   6  506.0326
   7  462.3547
   8  450.9017
   9  430.4193
  10  425.8054
  11  431.6715
  12  494.3614
  13  410.8347
  14  474.6011
  15  501.1498
  16  454.3032
  17  368.4854
  18  433.5963
  19  526.7988
  20  531.743
  21  456.3829
  22  354.8146
  23  322.0253
  24  412.1017
  25  455.351
  26  380.5283
  27  350.3385
  28  405.9549
  29  481.8676
  30  436.8407
  31  496.6882
  32  571.7444
  33  516.6495
  34  509.9807
  35  601.4885
  36  593.7871
  37  546.8241
  38  554.3593
  39  558.5468
  40  522.075
  41  485.1573
  42  451.317
  43  475.2873
  44  518.5283
  45  490.7055
  46  505.7064
  47  500.4609
  48  561.6485
  49  444.5186
  50  390.5066
  51  296.6936
  52  389.7802
  53  419.1504
  54  436.3759
  55  460.7502
  56  424.1042
  57  498.6143
  58  435.1335
  59  450.765
  60  449.095
  61  371.6263
  62  296.8581
  63  364.3939
  64  295.3864
  65  287.3445
  66  344.172
  67  400.0635
  68  446.142
  69  357.9594
  70  416.8269
  71  412.9213
  72  387.6544
  73  382.4058
  74  353.3732
  75  459.2267
  76  453.526
  77  327.247
  78  359.9133
  79  438.3248
  80  447.295
  81  374.1307
  82  391.2687
  83  499.3967
  84  433.3399
  85  324.9503
  86  315.8617
  87  386.6212
  88  369.2403
  89  319.4911
  90  425.2332
  91  393.0775
  92  374.4768
  93  426.1602
  94  484.973
  95  411.2545
  96  325.9356
  97  421.5335
  98  446.6772
  99  466.1716
 100  526.4091
 101  528.1211
 102  366.7891
 103  365.29
 104  478.03
 105  385.2652
 106  306.9773
 107  344.3586
 108  306.7694
 109  345.91
 110  310.3327
 111  399.5568
 112  385.4557
 113  335.4073
 114  390.7469
 115  416.6223
 116  420.6427
 117  477.0764
 118  505.989
 119  459.5227
 120  442.438
 121  518.6702
 122  529.5303
 123  487.2787
 124  429.9814
 125  451.3893
 126  398.796
 127  416.5973
 128  399.9822
 129  513.9922
 130  495.0733
 131  410.2225
 132  433.3008
 133  437.9187
 134  440.9249
 135  450.5128
 136  464.0599
 137  408.1996
 138  437.5811
 139  496.7287
 140  439.0166
 141  462.032
 142  502.9793
 143  405.2776
 144  426.4234
 145  302.9762
 146  388.0095
 147  483.2622
 148  495.2806
 149  468.082
 150  479.9809
 151  483.181
 152  427.9018
 153  468.0116
 154  448.2219
 155  468.35
 156  586.1808
 157  614.6121
 158  580.2175
 159  488.4471
 160  465.5445
 161  507.6129
 162  445.9376
 163  577.2681
 164  450.0038
 165  519.7192
 166  579.5627
 167  438.6885
 168  451.3795
 169  473.7152
 170  442.7782
 171  416.2026
 172  371.9555
 173  370.9678
 174  405.2698
 175  436.37
 176  539.0919
 177  478.6568
 178  461.1381
 179  450.8138
 180  510.7318
 181  386.5328
 182  466.9451
 183  541.1889
 184  516.2731
 185  389.2425
 186  441.2146
 187  485.9959
 188  566.1475
 189  584.2393
 190  610.1862
 191  639.9559
 192  693.048
 193  541.4083
 194  612.7214
 195  528.3188
 196  537.916
 197  515.8984
 198  688.8089
 199  646.5251
 200  600.3298
 201  600.4062
 202  639.939
 203  649.9563
 204  607.418
 205  557.1788
 206  598.4418
 207  512.6995
 208  531.7458
 209  601.1212
 210  585.5731
 211  578.5047
 212  626.5261
 213  618.4658
 214  528.0555
 215  433.095
 216  479.2141
 217  385.365
 218  508.9119
 219  542.9344
 220  476.9924
 221  430.1432
 222  490.9966
 223  442.7661
 224  417.0616
 225  456.8279
 226  461.6594
 227  430.2852
 228  436.4979
 229  443.2981
 230  519.9734
 231  595.1985
 232  572.688
 233  393.8182
 234  396.1616
 235  456.3528
 236  468.8783
 237  487.3707
 238  507.026
 239  424.6942
 240  380.3403
 241  502.0761
 242  470.2287
 243  428.5483
 244  400.3432
 245  417.4965
 246  493.3779
 247  383.6252
 248  365.9564
 249  385.3542
 250  401.5081
 251  367.692
 252  405.854
 253  362.4367
 254  346.8891
 255  531.5006
 256  554.0465
 257  470.692
 258  474.5116
 259  413.2455
 260  404.3355
 261  436.4053
 262  494.9046
 263  382.8278
 264  396.1307
 265  423.5281
 266  389.4731
 267  344.4665
 268  438.505
 269  416.658
 270  376.545
 271  454.9327
 272  463.0781
 273  467.0697
 274  465.2937
 275  274.1166
 276  314.1221
 277  381.6347
 278  476.517
 279  478.6952
 280  412.8498
 281  367.3573
 282  493.3781
 283  475.6813
 284  450.3816
 285  333.5914
 286  384.7166
 287  464.2569
 288  464.6891
 289  453.4703
 290  351.3922
 291  424.6066
 292  462.9471
 293  475.0947
 294  601.6503
 295  582.8411
 296  360.006
 297  291.2954
 298  344.6821
 299  363.3766
 300  402.2824
 301  454.7085
 302  509.7433
 303  537.184
 304  594.2662
 305  509.8642
 306  451.0847
 307  563.6987
 308  616.8066
 309  620.7128
 310  551.4439
 311  564.7896
 312  594.3788
 313  478.8366
 314  531.5692
 315  509.9772
 316  539.1301
 317  553.1991
 318  508.7524
 319  465.4389
 320  367.6943
 321  320.1259
 322  387.6949
 323  340.1059
 324  247.8359
 325  331.7941
 326  328.3753
 327  293.2217
 328  367.8127
 329  289.0653
 330  376.9206
 331  402.7855
 332  318.6053
 333  406.6525
 334  502.8759
 335  549.8848
 336  449.8313
 337  351.9883
 338  435.9425
 339  419.8165
 340  553.472
 341  522.5952
 342  569.874
 343  512.0071
 344  424.4815
 345  466.0778
 346  493.628
 347  428.5828
 348  453.667
 349  469.2624
 350  442.0424
 351  467.2801
 352  463.1291
 353  382.4962
 354  373.0804
 355  344.6376
 356  445.0773
 357  447.1042
 358  468.3546
 359  472.049
 360  411.1336
 361  452.4729
 362  470.0921
 363  373.1653
 364  385.6158
 365  396.4108
 366  355.5399
 367  463.8801
 368  427.094
 369  432.6009
 370  454.0528
 371  377.7584
 372  382.2639
 373  431.4151
 374  486.6024
 375  510.8297
 376  442.7428
 377  339.3142
 378  389.9286
 379  413.7911
 380  501.5349
 381  436.4025
 382  514.5928
 383  458.9829
 384  427.8498
 385  489.3795
 386  438.0109
 387  423.3598
 388  462.8365
 389  490.3741
 390  555.4769
 391  428.3027
 392  439.1995
 393  521.7415
 394  498.2591
 395  483.7745
 396  497.1512
 397  461.6435
 398  468.3654
 399  465.3177
 400  408.9337
 401  418.9231
 402  395.3148
 403  388.4928
 404  448.7209
 405  450.0004
 406  352.8083
 407  441.9029
 408  597.6423
 409  469.0687
 410  447.6443
 411  514.9727
 412  643.7877
 413  472.1665
 414  490.729
 415  441.9856
 416  426.1758
 417  543.2266
 418  466.2264
 419  492.881
 420  542.2701
 421  487.5173
 422  495.9241
 423  412.4644
 424  446.0312
 425  475.2557
 426  498.0531
 427  441.3275
 428  391.981
 429  475.6759
 430  450.3434
 431  390.2647
 432  329.3548
 433  430.5117
 434  453.6259
 435  497.1931
 436  439.0183
 437  423.0896
 438  429.2664
 439  404.831
 440  434.3142
 441  414.0763
 442  448.2046
 443  391.8297
 444  377.2586
 445  359.5748
 446  422.1517
 447  525.8267
 448  490.6935
 449  530.1255
 450  434.812
 451  394.7928
 452  362.8591
 453  479.7396
 454  439.3371
 455  435.5266
 456  385.8043
 457  368.2293
 458  480.5186
 459  511.7697
 460  459.678
 461  462.8013
 462  404.4581
 463  350.0891
 464  298.1145
 465  464.1129
 466  411.1093
 467  410.6012
 468  353.2622
 469  343.6013
 470  387.213
 471  430.6438
 472  465.296
 473  418.6592
 474  365.0614
 475  289.9513
 476  254.4924
 477  226.8859
 478  340.1913
 479  432.3737
 480  461.4449
 481  438.5752
 482  428.3285
 483  415.5124
 484  327.7428
 485  388.9603
 486  540.2285
 487  401.7444
 488  404.7499
 489  409.8021
 490  441.8694
 491  512.2083
 492  500.7959
 493  476.9211
 494  562.9594
 495  613.3281
 496  509.2545
 497  531.6181
 498  410.3414
 499  393.6624
 500  386.9285
 501  369.4672
 502  442.9756
 503  467.4601
 504  602.0718
 505  539.6958
 506  482.3912
 507  458.6857
 508  435.1215
 509  627.9814
 510  851.6323
 511  947.7325
