# Input file       =  1201777429.120752_cleaned.dat
# Candidate        =  PSR_0332+5434
# Telescope        =  AR
# Epoch_topo       =  58153.460776860557
# Epoch_bary       =  N/A
# T_sample         =  0.002
# Data Folded      =  7143424
# Data Avg         =  0.0123737487382793
# Data StdDev      =  1.00002081327441 
# Profile Bins     =  512
# Profile Avg      =  172.671559893687 
# Profile StdDev   =  118.121042916379 
# Reduced chi-sqr  =  1.686
# Prob(Noise)      <  2.59e-20   (~9.2 sigma)
# P_topo (ms)      =  714.577210265748  +/- 6.05e-05
# P'_topo (s/s)    =  -0                +/- 3.28e-11
# P''_topo (s/s^2) =  0                 +/- 1.49e-14
# P_bary (ms)      =  N/A
# P'_bary (s/s)    =  N/A
# P''_bary (s/s^2) =  N/A
# P_orb (s)        =  N/A
# asin(i)/c (s)    =  N/A
# eccentricity     =  N/A
# w (rad)          =  N/A
# T_peri           =  N/A
######################################################
   0  952.8806
   1  825.6894
   2  618.2653
   3  386.4788
   4  242.6128
   5  248.8235
   6  257.6856
   7  226.5202
   8  239.2654
   9  176.4093
  10  161.7248
  11  36.37023
  12  217.689
  13  303.2552
  14  368.8091
  15  221.2804
  16  226.2547
  17  349.0457
  18  333.9887
  19  281.8195
  20  152.0814
  21  45.05112
  22  83.35612
  23  215.218
  24  261.4711
  25  270.6158
  26  219.4159
  27  108.9721
  28  63.20299
  29  140.5825
  30  146.2641
  31  331.3065
  32  324.3111
  33  201.1135
  34  181.9988
  35  79.05257
  36  -10.66039
  37  -10.34541
  38  57.3848
  39  239.0596
  40  307.6549
  41  257.5674
  42  208.0821
  43  109.2175
  44  43.09818
  45  27.67598
  46  147.2082
  47  236.069
  48  154.0837
  49  276.2011
  50  171.4112
  51  119.4216
  52  213.9642
  53  212.6848
  54  257.2951
  55  247.9184
  56  335.6329
  57  388.9867
  58  332.0616
  59  149.0513
  60  92.21947
  61  231.3157
  62  249.3279
  63  177.6255
  64  100.696
  65  239.0067
  66  104.791
  67  68.96284
  68  104.9036
  69  199.4991
  70  109.4112
  71  178.0838
  72  181.5546
  73  194.1691
  74  236.2175
  75  273.3641
  76  179.8892
  77  95.69022
  78  127.1513
  79  206.5306
  80  161.6963
  81  263.6309
  82  298.864
  83  358.6592
  84  326.6363
  85  43.26503
  86  16.46981
  87  113.2784
  88  210.5184
  89  252.7083
  90  250.9291
  91  272.5694
  92  193.0926
  93  45.8089
  94  61.95576
  95  85.89006
  96  237.3404
  97  309.854
  98  194.828
  99  180.461
 100  146.3521
 101  -2.405738
 102  36.9143
 103  128.03
 104  153.599
 105  185.8176
 106  247.6037
 107  172.8325
 108  110.9345
 109  174.0039
 110  50.56627
 111  32.41843
 112  174.653
 113  126.8924
 114  156.8669
 115  211.8913
 116  172.8327
 117  123.5415
 118  55.1313
 119  62.82278
 120  56.48371
 121  141.5427
 122  138.8182
 123  147.6545
 124  270.7047
 125  249.3757
 126  185.2967
 127  78.72231
 128  112.3879
 129  221.1327
 130  151.3489
 131  274.6444
 132  247.1682
 133  172.2307
 134  80.92358
 135  68.8394
 136  222.7043
 137  152.1062
 138  78.81781
 139  90.74747
 140  85.62615
 141  62.64571
 142  110.8123
 143  229.7139
 144  111.512
 145  91.56893
 146  259.1001
 147  256.164
 148  328.1325
 149  305.9691
 150  282.1338
 151  127.685
 152  166.52
 153  222.0278
 154  95.41107
 155  110.2567
 156  261.9649
 157  250.1984
 158  164.2299
 159  178.7267
 160  56.61351
 161  240.6899
 162  395.7778
 163  249.0137
 164  92.06434
 165  139.509
 166  330.5404
 167  237.7052
 168  51.71438
 169  61.13235
 170  206.822
 171  243.7816
 172  214.0015
 173  219.0985
 174  110.8895
 175  187.3602
 176  162.5345
 177  213.0439
 178  226.5621
 179  184.5661
 180  281.0834
 181  127.2105
 182  179.0024
 183  210.5348
 184  53.39853
 185  17.20982
 186  -1.453992
 187  -68.58798
 188  5.916407
 189  247.5874
 190  235.924
 191  162.3748
 192  61.09731
 193  -101.6231
 194  172.3227
 195  221.0816
 196  97.85724
 197  121.6381
 198  148.8213
 199  134.0936
 200  177.5
 201  91.54443
 202  93.18822
 203  126.9521
 204  91.90673
 205  74.90425
 206  192.2822
 207  331.5462
 208  225.6117
 209  94.34062
 210  169.1447
 211  21.6141
 212  33.7551
 213  152.3425
 214  84.63937
 215  225.0544
 216  219.1883
 217  149.1599
 218  15.35966
 219  34.62654
 220  2.835335
 221  80.44492
 222  152.6145
 223  222.2853
 224  334.8152
 225  361.7936
 226  213.1673
 227  131.0888
 228  263.2037
 229  194.0719
 230  63.17895
 231  157.3894
 232  163.9684
 233  133.6883
 234  120.3668
 235  -14.68075
 236  79.25903
 237  143.7203
 238  142.7847
 239  -3.890096
 240  -29.1205
 241  193.3881
 242  286.6937
 243  152.2143
 244  75.68336
 245  119.2025
 246  142.7836
 247  201.9484
 248  231.6955
 249  218.4691
 250  67.93
 251  -38.63298
 252  103.9999
 253  149.0666
 254  162.8941
 255  160.1774
 256  180.8622
 257  223.7718
 258  133.6168
 259  106.0216
 260  168.2846
 261  305.1653
 262  269.7783
 263  199.5262
 264  235.0864
 265  163.9033
 266  138.9091
 267  92.9532
 268  176.2859
 269  144.1888
 270  14.25475
 271  201.5186
 272  236.6313
 273  228.5277
 274  142.2596
 275  98.24516
 276  56.61503
 277  158.3206
 278  251.2433
 279  279.662
 280  354.6632
 281  323.5435
 282  288.4465
 283  210.1773
 284  141.3766
 285  132.2924
 286  115.7562
 287  190.1022
 288  200.5016
 289  91.31908
 290  176.3933
 291  211.5074
 292  82.54018
 293  115.4253
 294  200.7953
 295  177.0875
 296  235.2847
 297  318.1949
 298  316.7408
 299  246.5302
 300  252.6419
 301  176.426
 302  185.719
 303  210.2178
 304  205.7776
 305  183.1234
 306  109.2518
 307  152.392
 308  201.1847
 309  120.8337
 310  162.9979
 311  281.5573
 312  436.1764
 313  275.2297
 314  281.0054
 315  314.6424
 316  202.8503
 317  127.6547
 318  64.09721
 319  107.0415
 320  254.0778
 321  279.5193
 322  220.3193
 323  204.7876
 324  193.1564
 325  47.2903
 326  -22.90419
 327  150.5036
 328  257.8759
 329  218.8363
 330  229.3314
 331  282.0049
 332  164.9935
 333  -1.390685
 334  -43.88126
 335  -0.3820791
 336  141.229
 337  240.1622
 338  154.2911
 339  111.9447
 340  125.1579
 341  182.5219
 342  164.6903
 343  228.878
 344  277.3901
 345  188.1893
 346  100.1237
 347  120.7976
 348  243.0138
 349  251.5683
 350  116.7566
 351  154.9994
 352  72.16223
 353  108.1487
 354  185.3378
 355  205.1658
 356  60.64636
 357  144.212
 358  168.9515
 359  130.952
 360  179.1443
 361  192.4812
 362  160.2919
 363  222.6224
 364  170.8559
 365  102.1588
 366  -28.82821
 367  -64.01092
 368  233.8884
 369  328.6667
 370  298.7979
 371  292.2423
 372  232.6281
 373  379.133
 374  214.6044
 375  208.1546
 376  142.9548
 377  318.5478
 378  192.5412
 379  75.61347
 380  136.7337
 381  146.8313
 382  111.0962
 383  131.3824
 384  107.5556
 385  62.43715
 386  130.7307
 387  122.9292
 388  216.8711
 389  91.57106
 390  21.6178
 391  58.25769
 392  126.8205
 393  167.5815
 394  69.09422
 395  105.3191
 396  174.2242
 397  244.1465
 398  185.0196
 399  136.1178
 400  94.46016
 401  169.0777
 402  139.5487
 403  42.21684
 404  141.6401
 405  50.25571
 406  84.89246
 407  141.8856
 408  76.66159
 409  94.04043
 410  157.0317
 411  178.5167
 412  350.0179
 413  326.7755
 414  184.8356
 415  233.5838
 416  102.2156
 417  44.88485
 418  73.24936
 419  139.9073
 420  122.3168
 421  203.8343
 422  150.4409
 423  12.4844
 424  108.9305
 425  162.9525
 426  206.1256
 427  256.6223
 428  287.3541
 429  398.7898
 430  179.7804
 431  158.5262
 432  60.67408
 433  99.3875
 434  147.5539
 435  261.124
 436  175.1957
 437  94.65256
 438  109.5968
 439  167.481
 440  121.2045
 441  272.3592
 442  319.4971
 443  320.347
 444  209.8595
 445  151.6559
 446  287.9348
 447  288.9356
 448  52.69744
 449  75.30003
 450  131.3683
 451  126.5258
 452  176.4178
 453  202.0336
 454  234.6277
 455  206.356
 456  23.67157
 457  122.5963
 458  209.0822
 459  218.4286
 460  125.2092
 461  82.95221
 462  166.4552
 463  245.3812
 464  247.527
 465  234.4177
 466  189.2399
 467  139.236
 468  180.9238
 469  142.9248
 470  115.3235
 471  111.3466
 472  118.4113
 473  126.5433
 474  1.057445
 475  24.68093
 476  131.7558
 477  47.17082
 478  173.6823
 479  78.25343
 480  -13.1775
 481  -5.46748
 482  0.7630879
 483  90.02497
 484  67.55067
 485  85.0839
 486  40.54433
 487  181.4418
 488  177.3063
 489  89.27422
 490  19.07787
 491  125.9186
 492  73.14179
 493  131.181
 494  195.5383
 495  207.2848
 496  219.5339
 497  207.1707
 498  87.18575
 499  18.31544
 500  183.3242
 501  268.6097
 502  147.8685
 503  158.1051
 504  241.5517
 505  246.1918
 506  214.2012
 507  269.2894
 508  375.0669
 509  442.2527
 510  788.5241
 511  920.9768
