# Input file       =  1201964296.100175_cleaned.dat
# Candidate        =  PSR_0332+5434
# Telescope        =  AR
# Epoch_topo       =  58155.623589122391
# Epoch_bary       =  N/A
# T_sample         =  0.002
# Data Folded      =  7340032
# Data Avg         =  0.0326313395796567
# Data StdDev      =  1.00004495685658 
# Profile Bins     =  512
# Profile Avg      =  467.707041993273 
# Profile StdDev   =  119.73841919771  
# Reduced chi-sqr  =  1.160
# Prob(Noise)      <  0.00702   (~2.5 sigma)
# P_topo (ms)      =  714.577959579328  +/- 0.000533
# P'_topo (s/s)    =  -0                +/- 2.81e-10
# P''_topo (s/s^2) =  0                 +/- 1.24e-13
# P_bary (ms)      =  N/A
# P'_bary (s/s)    =  N/A
# P''_bary (s/s^2) =  N/A
# P_orb (s)        =  N/A
# asin(i)/c (s)    =  N/A
# eccentricity     =  N/A
# w (rad)          =  N/A
# T_peri           =  N/A
######################################################
   0  993.8076
   1  923.5063
   2  850.1401
   3  639.408
   4  571.9082
   5  663.6793
   6  616.5365
   7  605.4243
   8  553.051
   9  608.7864
  10  648.6633
  11  623.3829
  12  709.4789
  13  721.7434
  14  738.3576
  15  670.3531
  16  655.8908
  17  578.9097
  18  574.1974
  19  537.8267
  20  501.8853
  21  592.851
  22  564.7243
  23  429.8418
  24  444.9835
  25  557.0944
  26  549.1938
  27  517.5098
  28  476.2232
  29  459.974
  30  443.681
  31  471.8724
  32  546.1411
  33  578.5244
  34  573.8511
  35  576.9529
  36  463.3763
  37  529.0989
  38  544.9654
  39  614.4777
  40  619.8224
  41  578.6197
  42  541.7404
  43  575.3138
  44  461.045
  45  461.2916
  46  510.6567
  47  492.5417
  48  516.1296
  49  559.4508
  50  469.3868
  51  458.265
  52  464.3508
  53  598.6593
  54  549.1445
  55  412.0044
  56  356.5249
  57  335.9469
  58  476.8826
  59  537.4203
  60  552.8256
  61  531.2186
  62  562.7651
  63  556.424
  64  439.9713
  65  381.4412
  66  318.1111
  67  436.4747
  68  504.4256
  69  477.298
  70  344.7648
  71  400.6855
  72  531.9427
  73  573.3946
  74  458.7706
  75  370.5461
  76  288.3707
  77  399.8633
  78  338.148
  79  393.0518
  80  531.6025
  81  496.3514
  82  391.2466
  83  474.2657
  84  466.3153
  85  440.7804
  86  497.5156
  87  519.8279
  88  457.0365
  89  389.2431
  90  460.3701
  91  423.5568
  92  490.1804
  93  457.1403
  94  496.5483
  95  519.728
  96  479.7244
  97  518.5194
  98  429.4412
  99  328.6133
 100  455.584
 101  491.4584
 102  480.5557
 103  518.1056
 104  490.1571
 105  446.0701
 106  477.1516
 107  483.7197
 108  455.6778
 109  487.5587
 110  484.316
 111  519.9579
 112  441.9464
 113  385.701
 114  339.6029
 115  356.756
 116  467.5311
 117  498.1163
 118  511.0251
 119  427.3462
 120  484.7362
 121  468.332
 122  458.781
 123  442.0174
 124  363.5749
 125  339.067
 126  322.6135
 127  324.6701
 128  342.0406
 129  314.136
 130  351.6355
 131  375.4321
 132  354.5205
 133  290.071
 134  344.6318
 135  489.0326
 136  435.1535
 137  439.1103
 138  365.42
 139  413.9451
 140  404.8846
 141  319.1927
 142  362.9722
 143  399.1593
 144  443.9441
 145  352.462
 146  376.5491
 147  408.467
 148  460.3799
 149  480.9427
 150  427.0321
 151  455.0852
 152  402.2123
 153  473.1523
 154  464.6884
 155  399.197
 156  424.6177
 157  299.7814
 158  261.2351
 159  376.5194
 160  373.3362
 161  388.2841
 162  415.1306
 163  455.1252
 164  465.1967
 165  421.0477
 166  449.5629
 167  442.2982
 168  449.7957
 169  403.4155
 170  427.8927
 171  518.8304
 172  472.1357
 173  409.368
 174  560.3568
 175  599.263
 176  467.375
 177  355.6297
 178  427.2257
 179  499.4111
 180  448.8297
 181  468.3166
 182  424.1576
 183  467.9454
 184  446.5668
 185  458.9503
 186  458.5576
 187  400.4828
 188  281.2075
 189  291.9047
 190  394.7298
 191  387.099
 192  350.0853
 193  355.1691
 194  294.8532
 195  290.4973
 196  310.7112
 197  423.2739
 198  410.3637
 199  464.1017
 200  440.8521
 201  407.2927
 202  387.165
 203  440.7219
 204  455.9179
 205  366.736
 206  300.8069
 207  347.7798
 208  432.3381
 209  394.4024
 210  399.5032
 211  414.7165
 212  377.9072
 213  398.3394
 214  331.2036
 215  362.7083
 216  498.5768
 217  455.2925
 218  404.6725
 219  397.0341
 220  397.302
 221  393.7535
 222  432.2749
 223  420.0565
 224  498.3885
 225  459.233
 226  392.0751
 227  476.3009
 228  508.1149
 229  512.323
 230  510.7301
 231  560.783
 232  517.6393
 233  503.9953
 234  509.7624
 235  533.4483
 236  466.3119
 237  344.5926
 238  509.7782
 239  525.0154
 240  511.5838
 241  494.7518
 242  443.2668
 243  492.1172
 244  513.9432
 245  483.1214
 246  528.7956
 247  513.4222
 248  487.2622
 249  498.4866
 250  470.7351
 251  518.7368
 252  562.0569
 253  448.3358
 254  456.4904
 255  513.7768
 256  537.736
 257  509.2723
 258  476.5444
 259  524.5717
 260  463.4812
 261  464.6664
 262  450.5953
 263  513.9843
 264  476.5969
 265  490.1228
 266  504.2405
 267  459.551
 268  449.445
 269  386.8328
 270  370.3707
 271  443.1723
 272  344.2681
 273  275.6264
 274  360.3069
 275  433.9224
 276  354.9818
 277  377.7203
 278  432.9042
 279  426.7369
 280  487.0622
 281  493.3787
 282  511.0748
 283  445.7266
 284  472.1614
 285  458.785
 286  488.3952
 287  511.7075
 288  496.8587
 289  569.7007
 290  642.4536
 291  616.1711
 292  538.157
 293  427.3098
 294  444.5514
 295  501.4593
 296  600.8698
 297  539.5598
 298  538.8542
 299  482.7103
 300  416.8253
 301  474.7798
 302  562.8455
 303  592.726
 304  556.9877
 305  458.0855
 306  461.5422
 307  488.5956
 308  431.4097
 309  479.9158
 310  474.6003
 311  581.5301
 312  579.0519
 313  486.2548
 314  513.876
 315  563.6541
 316  616.0121
 317  565.6798
 318  580.9889
 319  522.3096
 320  537.7928
 321  553.5133
 322  450.8781
 323  454.3764
 324  456.6259
 325  527.554
 326  502.0756
 327  536.0601
 328  448.9694
 329  480.9909
 330  455.9313
 331  464.059
 332  473.1931
 333  437.7256
 334  401.22
 335  499.7512
 336  618.3402
 337  493.0721
 338  435.6169
 339  456.2733
 340  436.2565
 341  429.2378
 342  446.2119
 343  502.7755
 344  552.4877
 345  454.2044
 346  494.3172
 347  435.7293
 348  461.1154
 349  475.187
 350  517.1993
 351  497.0703
 352  388.8479
 353  286.5021
 354  294.2044
 355  391.7293
 356  417.2129
 357  452.6062
 358  385.1341
 359  514.9471
 360  470.5038
 361  301.9091
 362  429.4404
 363  379.0988
 364  412.3239
 365  433.4474
 366  541.5038
 367  600.942
 368  485.2597
 369  471.5532
 370  416.3508
 371  573.3387
 372  476.2792
 373  450.1001
 374  446.6507
 375  536.0351
 376  583.9586
 377  534.7322
 378  480.3481
 379  524.0817
 380  515.1611
 381  559.1506
 382  547.1383
 383  491.7504
 384  476.1102
 385  468.9667
 386  479.8851
 387  473.5221
 388  503.6466
 389  473.3076
 390  412.3656
 391  425.134
 392  505.0226
 393  539.4573
 394  507.2046
 395  493.6705
 396  614.3784
 397  517.198
 398  497.7669
 399  419.6179
 400  352.2012
 401  360.5885
 402  327.2826
 403  337.6299
 404  316.8698
 405  324.931
 406  312.8159
 407  314.9624
 408  358.0485
 409  357.2325
 410  402.1319
 411  306.8927
 412  371.5395
 413  420.8304
 414  422.8198
 415  348.273
 416  417.4385
 417  441.173
 418  442.1633
 419  430.2036
 420  357.3823
 421  379.3919
 422  397.7724
 423  434.416
 424  486.2116
 425  448.9998
 426  437.1743
 427  338.3601
 428  376.3862
 429  516.1525
 430  485.756
 431  392.8961
 432  434.568
 433  467.398
 434  380.5405
 435  355.5522
 436  406.7072
 437  445.7062
 438  365.6307
 439  383.0577
 440  284.919
 441  376.199
 442  324.4624
 443  359.5597
 444  358.8465
 445  364.3542
 446  338.8632
 447  324.2384
 448  344.9828
 449  325.2483
 450  453.5139
 451  427.1064
 452  469.1579
 453  454.8026
 454  462.5078
 455  445.7521
 456  511.6678
 457  437.7294
 458  407.193
 459  485.9408
 460  493.5324
 461  506.8123
 462  485.787
 463  542.6647
 464  519.0812
 465  581.7902
 466  448.0567
 467  406.5055
 468  520.3438
 469  594.2653
 470  542.4626
 471  561.274
 472  601.3293
 473  548.0173
 474  526.027
 475  510.4225
 476  513.6162
 477  555.5414
 478  544.2108
 479  489.3353
 480  461.2915
 481  409.6653
 482  452.2292
 483  550.2252
 484  588.9727
 485  523.7375
 486  496.6919
 487  435.2253
 488  442.533
 489  402.3227
 490  519.6136
 491  543.4691
 492  593.3395
 493  600.4928
 494  532.204
 495  435.3325
 496  478.4687
 497  524.7748
 498  453.9167
 499  382.3484
 500  424.9835
 501  413.4201
 502  484.5802
 503  531.1588
 504  529.1469
 505  532.1984
 506  459.3259
 507  440.7728
 508  658.5237
 509  814.3246
 510  845.8975
 511  1006.118
