# Input file       =  1201117473.116012_cleaned.dat
# Candidate        =  PSR_0332+5434
# Telescope        =  AR
# Epoch_topo       =  58145.822397176067
# Epoch_bary       =  N/A
# T_sample         =  0.002
# Data Folded      =  7340032
# Data Avg         =  0.0210463185604974
# Data StdDev      =  0.999865054535584
# Profile Bins     =  512
# Profile Avg      =  301.670087475727 
# Profile StdDev   =  119.716878946566 
# Reduced chi-sqr  =  0.989
# Prob(Noise)      <  0.56   (~0.0 sigma)
# P_topo (ms)      =  714.574382950743  +/- 0.000508
# P'_topo (s/s)    =  -0                +/- 2.68e-10
# P''_topo (s/s^2) =  0                 +/- 1.18e-13
# P_bary (ms)      =  N/A
# P'_bary (s/s)    =  N/A
# P''_bary (s/s^2) =  N/A
# P_orb (s)        =  N/A
# asin(i)/c (s)    =  N/A
# eccentricity     =  N/A
# w (rad)          =  N/A
# T_peri           =  N/A
######################################################
   0  778.8631
   1  673.8801
   2  618.0576
   3  432.2889
   4  329.1786
   5  328.3735
   6  335.2119
   7  329.1066
   8  298.7786
   9  251.7596
  10  300.3843
  11  258.9971
  12  371.4102
  13  421.7143
  14  322.5129
  15  326.0522
  16  352.1156
  17  372.1457
  18  334.9544
  19  419.8474
  20  337.7635
  21  204.791
  22  253.8594
  23  326.745
  24  333.5603
  25  261.3386
  26  264.381
  27  248.2001
  28  248.8414
  29  276.7055
  30  317.0521
  31  429.6944
  32  322.9993
  33  172.9984
  34  152.2388
  35  250.3122
  36  236.4339
  37  250.1394
  38  338.6449
  39  265.8189
  40  203.9411
  41  187.0061
  42  129.6461
  43  96.87304
  44  201.9456
  45  201.8271
  46  202.6535
  47  239.6654
  48  224.58
  49  142.5025
  50  164.1215
  51  191.7832
  52  123.9637
  53  91.25088
  54  119.3598
  55  271.9721
  56  300.0242
  57  254.3422
  58  241.0781
  59  248.1559
  60  228.5153
  61  268.4467
  62  251.9547
  63  180.1602
  64  275.7602
  65  238.7471
  66  212.832
  67  124.5165
  68  115.0505
  69  266.817
  70  403.4001
  71  399.1305
  72  228.6465
  73  143.4113
  74  310.7856
  75  450.2157
  76  347.5264
  77  232.1821
  78  237.7206
  79  304.4745
  80  263.4283
  81  256.1619
  82  293.1722
  83  292.4738
  84  215.5854
  85  249.5557
  86  295.8739
  87  207.8403
  88  274.4725
  89  286.7664
  90  320.8548
  91  199.7289
  92  235.4928
  93  365.9072
  94  381.7155
  95  365.2678
  96  372.4935
  97  360.8286
  98  305.4616
  99  271.3628
 100  286.4049
 101  259.1859
 102  219.2395
 103  301.4317
 104  253.3909
 105  190.2164
 106  157.6668
 107  251.1003
 108  188.5869
 109  299.919
 110  320.5912
 111  292.94
 112  296.5478
 113  339.9999
 114  365.2284
 115  225.2928
 116  303.2044
 117  333.2234
 118  350.0048
 119  228.4933
 120  217.2979
 121  236.6283
 122  249.9668
 123  263.0977
 124  386.2236
 125  381.1786
 126  296.3917
 127  234.0235
 128  309.7511
 129  439.0387
 130  343.3826
 131  245.8025
 132  355.4808
 133  327.6165
 134  247.8244
 135  255.8136
 136  284.0361
 137  345.7518
 138  300.394
 139  232.6156
 140  136.9334
 141  166.528
 142  250.6821
 143  347.1777
 144  227.6915
 145  220.831
 146  92.41455
 147  196.903
 148  302.718
 149  278.7537
 150  178.8903
 151  243.0482
 152  332.9338
 153  311.6404
 154  313.2186
 155  248.258
 156  333.6219
 157  349.2192
 158  373.1388
 159  397.6094
 160  353.7661
 161  305.5437
 162  270.8405
 163  284.8237
 164  242.3897
 165  266.7926
 166  280.5431
 167  282.4648
 168  341.5273
 169  329.5034
 170  302.4613
 171  231.0519
 172  242.4982
 173  336.4142
 174  333.4425
 175  392.0518
 176  281.3933
 177  303.4771
 178  310.7656
 179  428.0329
 180  353.7805
 181  257.4637
 182  266.696
 183  290.0374
 184  233.4921
 185  368.9721
 186  299.2257
 187  249.9894
 188  224.7573
 189  319.0225
 190  467.8745
 191  342.6779
 192  299.8756
 193  415.3646
 194  308.8512
 195  363.2231
 196  386.2714
 197  334.1881
 198  183.0216
 199  230.6495
 200  320.2106
 201  219.6806
 202  147.329
 203  263.0576
 204  332.2596
 205  225.5208
 206  197.117
 207  278.4548
 208  282.7894
 209  249.2729
 210  319.2877
 211  260.6022
 212  353.0865
 213  374.5891
 214  375.7232
 215  252.008
 216  247.3735
 217  290.103
 218  388.0013
 219  340.241
 220  327.0419
 221  344.7451
 222  340.8094
 223  266.5524
 224  285.7134
 225  191.6866
 226  260.4242
 227  390.1148
 228  346.6931
 229  287.885
 230  297.7766
 231  245.9545
 232  240.8634
 233  232.4996
 234  352.843
 235  369.7549
 236  326.6631
 237  408.1323
 238  438.9743
 239  298.7701
 240  242.3962
 241  283.6371
 242  432.6861
 243  435.3431
 244  370.381
 245  244.2269
 246  203.1197
 247  189.0819
 248  294.9123
 249  290.6933
 250  178.565
 251  238.7687
 252  293.5443
 253  208.8408
 254  172.306
 255  235.6151
 256  321.9547
 257  414.8172
 258  438.7361
 259  494.9459
 260  392.8344
 261  446.312
 262  475.7277
 263  391.1804
 264  336.583
 265  294.3373
 266  288.7549
 267  310.0742
 268  286.0755
 269  261.679
 270  264.2635
 271  197.7489
 272  271.4519
 273  264.2655
 274  413.0351
 275  267.3244
 276  206.0778
 277  351.1978
 278  380.4765
 279  323.6821
 280  322.8179
 281  438.3897
 282  348.1603
 283  428.7906
 284  306.4202
 285  370.1959
 286  438.5036
 287  367.7848
 288  438.512
 289  391.9756
 290  387.9804
 291  371.7123
 292  408.1351
 293  431.0521
 294  352.1158
 295  233.9437
 296  237.5032
 297  441.8552
 298  458.0405
 299  375.5217
 300  522.4061
 301  580.4545
 302  363.6638
 303  328.781
 304  426.9266
 305  268.6768
 306  299.7587
 307  406.958
 308  368.1039
 309  286.3066
 310  320.8271
 311  299.3731
 312  347.2972
 313  383.0056
 314  323.3177
 315  282.206
 316  399.656
 317  319.2339
 318  198.097
 319  227.4779
 320  215.9888
 321  319.1874
 322  385.3539
 323  243.1348
 324  195.6749
 325  179.6906
 326  273.9625
 327  260.2927
 328  324.2233
 329  420.8127
 330  339.994
 331  359.1502
 332  427.269
 333  379.7067
 334  219.5723
 335  268.0674
 336  252.3785
 337  255.7171
 338  369.3072
 339  342.269
 340  270.8027
 341  244.5409
 342  172.0452
 343  329.1025
 344  282.9506
 345  328.1449
 346  255.6703
 347  203.5427
 348  249.3987
 349  407.4475
 350  424.2262
 351  352.7224
 352  283.0999
 353  305.1103
 354  275.7866
 355  341.9057
 356  357.6021
 357  382.7108
 358  370.949
 359  258.2443
 360  241.5004
 361  216.7822
 362  256.8928
 363  203.9568
 364  176.0039
 365  172.8342
 366  307.2298
 367  311.4646
 368  349.4738
 369  276.7474
 370  216.6059
 371  249.6332
 372  261.1476
 373  300.9924
 374  195.4531
 375  158.4648
 376  250.7032
 377  291.8254
 378  431.6301
 379  306.8794
 380  302.5612
 381  288.8367
 382  368.6901
 383  376.5695
 384  221.1975
 385  296.0982
 386  241.5434
 387  163.5545
 388  198.1264
 389  305.3891
 390  91.29675
 391  178.1086
 392  284.9341
 393  260.4103
 394  267.1427
 395  392.2549
 396  410.2598
 397  212.4015
 398  218.6431
 399  353.8099
 400  243.4284
 401  218.812
 402  300.3905
 403  254.9226
 404  333.1688
 405  308.4172
 406  365.1804
 407  349.3181
 408  352.4178
 409  402.6297
 410  380.5693
 411  289.9315
 412  288.0214
 413  213.8157
 414  249.4965
 415  305.0942
 416  274.8379
 417  258.997
 418  286.8754
 419  245.4783
 420  144.6827
 421  213.8092
 422  263.6818
 423  301.0423
 424  340.1586
 425  316.901
 426  351.2759
 427  378.9947
 428  362.5948
 429  325.5153
 430  303.8181
 431  331.4845
 432  481.3803
 433  405.7124
 434  352.4745
 435  334.3492
 436  405.5097
 437  372.2705
 438  291.7462
 439  285.1667
 440  291.5629
 441  285.7596
 442  265.7769
 443  213.3942
 444  323.7529
 445  315.9482
 446  284.3643
 447  283.4628
 448  265.1699
 449  217.9765
 450  220.8192
 451  259.9457
 452  251.487
 453  393.0665
 454  456.9858
 455  309.403
 456  284.6233
 457  257.1005
 458  406.2526
 459  167.9388
 460  138.0544
 461  230.4129
 462  387.4466
 463  412.1313
 464  404.324
 465  387.1769
 466  387.1785
 467  256.1411
 468  291.711
 469  339.0519
 470  292.2346
 471  391.7399
 472  352.9331
 473  282.45
 474  252.3544
 475  251.4962
 476  246.1757
 477  306.8697
 478  268.7859
 479  291.0954
 480  247.9921
 481  149.0046
 482  161.8759
 483  258.0091
 484  350.0107
 485  351.4624
 486  331.9355
 487  332.5553
 488  241.0534
 489  277.7192
 490  342.4635
 491  273.1187
 492  248.0743
 493  329.0039
 494  384.8683
 495  242.7155
 496  176.2484
 497  314.1211
 498  381.1742
 499  366.4423
 500  287.0779
 501  351.6935
 502  433.2527
 503  347.4938
 504  437.0329
 505  440.2773
 506  381.1794
 507  416.3639
 508  464.4206
 509  540.0864
 510  645.3581
 511  674.0787
