# Input file       =  1201274952.113662_cleaned.dat
# Candidate        =  PSR_0332+5434
# Telescope        =  AR
# Epoch_topo       =  58147.645070759980
# Epoch_bary       =  N/A
# T_sample         =  0.002
# Data Folded      =  7340032
# Data Avg         =  0.0237060761834001
# Data StdDev      =  1.0001019739125  
# Profile Bins     =  512
# Profile Avg      =  339.469520583826 
# Profile StdDev   =  119.745246022941 
# Reduced chi-sqr  =  1.255
# Prob(Noise)      <  7.24e-05   (~3.8 sigma)
# P_topo (ms)      =  714.57489071209   +/- 0.000267
# P'_topo (s/s)    =  -0                +/- 1.41e-10
# P''_topo (s/s^2) =  0                 +/- 6.21e-14
# P_bary (ms)      =  N/A
# P'_bary (s/s)    =  N/A
# P''_bary (s/s^2) =  N/A
# P_orb (s)        =  N/A
# asin(i)/c (s)    =  N/A
# eccentricity     =  N/A
# w (rad)          =  N/A
# T_peri           =  N/A
######################################################
   0  978.2004
   1  886.1661
   2  726.7766
   3  533.5197
   4  390.3068
   5  404.4639
   6  310.7091
   7  382.6214
   8  500.4812
   9  419.2701
  10  330.6038
  11  377.0227
  12  417.4953
  13  469.6681
  14  472.1086
  15  420.3328
  16  414.6187
  17  438.0916
  18  504.5054
  19  556.7389
  20  390.0304
  21  341.7858
  22  385.4507
  23  428.9063
  24  379.0735
  25  310.4812
  26  349.5992
  27  366.1212
  28  306.2021
  29  368.1614
  30  443.4539
  31  370.3965
  32  387.0148
  33  375.0377
  34  303.6799
  35  317.8153
  36  380.1869
  37  417.1985
  38  341.191
  39  387.3524
  40  456.1468
  41  390.7558
  42  282.6266
  43  287.4498
  44  307.9334
  45  336.3131
  46  347.1186
  47  379.1179
  48  437.6404
  49  344.2528
  50  453.8711
  51  429.1825
  52  402.7672
  53  368.2326
  54  350.0135
  55  328.8995
  56  305.8962
  57  309.1306
  58  386.4541
  59  264.0122
  60  213.6873
  61  269.8786
  62  325.0546
  63  317.9268
  64  303.4096
  65  267.7548
  66  169.2265
  67  253.2933
  68  332.9436
  69  262.8819
  70  299.825
  71  333.2088
  72  362.939
  73  406.778
  74  244.4063
  75  269.823
  76  198.2537
  77  108.8295
  78  208.7406
  79  215.0317
  80  201.1093
  81  241.4622
  82  246.6025
  83  261.6038
  84  231.7013
  85  311.3618
  86  296.8771
  87  365.1833
  88  254.6136
  89  249.947
  90  317.6828
  91  335.3616
  92  359.2391
  93  368.9251
  94  291.3028
  95  271.1378
  96  337.156
  97  405.5887
  98  272.097
  99  323.6621
 100  368.637
 101  268.6117
 102  293.4875
 103  318.1379
 104  272.6464
 105  297.4596
 106  269.7465
 107  242.8149
 108  209.9865
 109  148.8838
 110  231.8533
 111  255.7194
 112  254.9681
 113  214.8203
 114  251.4734
 115  254.1255
 116  150.5853
 117  349.0376
 118  331.8138
 119  283.3613
 120  398.5982
 121  351.896
 122  279.0282
 123  269.554
 124  297.7806
 125  363.8331
 126  403.4814
 127  490.4213
 128  418.7313
 129  381.0605
 130  240.2282
 131  437.8032
 132  453.3794
 133  377.096
 134  374.2383
 135  424.6151
 136  377.3464
 137  375.0627
 138  432.3672
 139  436.2818
 140  311.2757
 141  374.8379
 142  343.9334
 143  428.2115
 144  505.2072
 145  438.3436
 146  329.8513
 147  359.7387
 148  431.717
 149  328.4648
 150  393.1068
 151  383.0046
 152  348.2293
 153  226.4614
 154  254.4494
 155  302.3409
 156  375.8731
 157  324.8292
 158  420.5179
 159  414.1039
 160  287.0614
 161  257.1618
 162  193.3163
 163  242.1395
 164  481.6676
 165  442.3075
 166  360.8732
 167  271.5804
 168  356.1516
 169  297.0909
 170  204.8127
 171  351.7863
 172  364.8284
 173  358.1458
 174  337.7866
 175  345.7527
 176  309.0848
 177  271.4414
 178  241.2737
 179  231.0448
 180  323.674
 181  309.1535
 182  287.8519
 183  370.8734
 184  357.7611
 185  334.7448
 186  292.2679
 187  286.0161
 188  234.8972
 189  356.7197
 190  342.8143
 191  280.9789
 192  249.0264
 193  204.7773
 194  329.3914
 195  317.8893
 196  310.9781
 197  405.9363
 198  230.6385
 199  200.5278
 200  182.791
 201  227.913
 202  202.0431
 203  238.1494
 204  265.6548
 205  220.6956
 206  250.3557
 207  309.3275
 208  238.1094
 209  276.1338
 210  367.2606
 211  411.2007
 212  384.8911
 213  282.8409
 214  340.1873
 215  396.2542
 216  260.8913
 217  280.3162
 218  256.9008
 219  182.3527
 220  294.376
 221  428.476
 222  421.3773
 223  332.9604
 224  219.9896
 225  293.8109
 226  286.5612
 227  238.8443
 228  121.0048
 229  217.0009
 230  310.2892
 231  292.9667
 232  267.1227
 233  218.9254
 234  259.7542
 235  232.6068
 236  258.5723
 237  158.8119
 238  243.0615
 239  397.0199
 240  330.3246
 241  272.7727
 242  338.6362
 243  297.0602
 244  198.459
 245  124.8409
 246  85.96527
 247  158.9974
 248  309.4995
 249  309.1173
 250  299.0564
 251  220.6932
 252  151.6761
 253  273.6006
 254  341.3947
 255  301.4121
 256  345.5402
 257  362.0633
 258  250.8412
 259  208.887
 260  235.4258
 261  271.8513
 262  296.4722
 263  299.3977
 264  221.6279
 265  265.1077
 266  235.8074
 267  240.4774
 268  280.3842
 269  266.5559
 270  330.5239
 271  409.5535
 272  385.7844
 273  411.8302
 274  284.0709
 275  242.0377
 276  243.0077
 277  298.2605
 278  365.7472
 279  365.7971
 280  350.6348
 281  383.5225
 282  375.7162
 283  377.8558
 284  376.7535
 285  401.1092
 286  349.7074
 287  312.1929
 288  364.5496
 289  362.968
 290  340.0003
 291  262.0172
 292  356.3974
 293  324.7069
 294  246.5642
 295  290.1736
 296  258.7127
 297  217.0921
 298  211.6187
 299  255.7747
 300  343.6937
 301  374.5442
 302  257.231
 303  270.1564
 304  382.0291
 305  331.1211
 306  309.3611
 307  316.4006
 308  227.2948
 309  352.3792
 310  366.0087
 311  333.9065
 312  348.5533
 313  335.3632
 314  437.9391
 315  404.6812
 316  502.551
 317  533.6646
 318  418.8914
 319  510.3186
 320  381.5189
 321  318.6352
 322  301.0031
 323  291.5024
 324  324.4601
 325  388.7419
 326  501.7043
 327  427.3346
 328  384.4914
 329  260.5103
 330  339.3465
 331  357.1445
 332  340.1985
 333  298.5385
 334  352.099
 335  452.067
 336  378.0808
 337  399.2259
 338  280.6182
 339  330.6789
 340  331.809
 341  318.9034
 342  354.2838
 343  390.7114
 344  416.0486
 345  421.941
 346  372.5995
 347  334.2606
 348  290.3273
 349  333.247
 350  449.4832
 351  445.8849
 352  384.6661
 353  308.1429
 354  335.8104
 355  330.8007
 356  329.3737
 357  373.0037
 358  374.2416
 359  346.7244
 360  325.8511
 361  359.6354
 362  398.372
 363  348.3002
 364  413.6643
 365  420.8685
 366  235.8273
 367  244.736
 368  358.9556
 369  340.3954
 370  315.425
 371  402.7729
 372  256.9805
 373  323.8357
 374  302.0964
 375  443.2614
 376  425.4842
 377  229.8741
 378  292.405
 379  250.1212
 380  389.6039
 381  394.5016
 382  402.5512
 383  346.4923
 384  308.7708
 385  343.6374
 386  329.4874
 387  358.5719
 388  387.2375
 389  314.064
 390  282.2776
 391  259.3818
 392  317.9023
 393  328.0825
 394  335.0126
 395  278.4437
 396  222.8137
 397  384.1857
 398  395.2355
 399  336.0312
 400  366.0385
 401  358.0312
 402  352.7398
 403  295.3521
 404  318.7994
 405  297.6037
 406  234.7838
 407  252.6936
 408  298.8022
 409  346.8467
 410  383.3456
 411  375.7697
 412  445.8701
 413  339.2696
 414  445.4158
 415  357.4685
 416  365.4538
 417  346.4334
 418  323.727
 419  446.6566
 420  409.8963
 421  400.7996
 422  469.217
 423  414.0134
 424  390.231
 425  421.9525
 426  480.927
 427  276.9404
 428  244.7955
 429  232.2362
 430  231.8424
 431  337.7868
 432  374.1957
 433  345.2958
 434  423.6401
 435  257.4293
 436  318.9159
 437  377.1305
 438  335.9747
 439  235.2154
 440  334.9139
 441  333.1975
 442  327.5406
 443  327.8311
 444  436.3148
 445  401.8257
 446  328.1053
 447  361.2249
 448  392.1055
 449  284.8459
 450  251.8152
 451  344.1865
 452  460.4345
 453  359.7585
 454  330.9487
 455  351.1006
 456  397.7894
 457  284.8367
 458  296.8498
 459  310.7256
 460  307.6264
 461  369.8602
 462  356.5437
 463  304.3216
 464  292.8591
 465  351.2203
 466  292.0998
 467  270.7123
 468  213.0042
 469  456.5612
 470  426.2531
 471  339.5857
 472  335.267
 473  466.3188
 474  288.0472
 475  275.9738
 476  287.5389
 477  364.0247
 478  399.9603
 479  399.8884
 480  359.281
 481  396.6163
 482  335.9713
 483  362.2724
 484  423.5025
 485  383.027
 486  462.3956
 487  360.8434
 488  489.2638
 489  477.4265
 490  488.1323
 491  289.1221
 492  268.2538
 493  551.3301
 494  485.4669
 495  355.1761
 496  348.6415
 497  452.9496
 498  413.8263
 499  264.4833
 500  354.4883
 501  477.0793
 502  397.299
 503  288.6696
 504  335.2607
 505  371.4568
 506  390.6257
 507  446.9663
 508  539.8131
 509  779.3173
 510  938.0504
 511  1017.15
