# Input file       =  1201087940.12175_cleaned.dat
# Candidate        =  PSR_0332+5434
# Telescope        =  AR
# Epoch_topo       =  58145.480580112846
# Epoch_bary       =  N/A
# T_sample         =  0.002
# Data Folded      =  7143424
# Data Avg         =  0.0102427636848012
# Data StdDev      =  1.00003457065352 
# Profile Bins     =  512
# Profile Avg      =  142.944388450619 
# Profile StdDev   =  118.122667918525 
# Reduced chi-sqr  =  1.590
# Prob(Noise)      <  3.94e-16   (~8.1 sigma)
# P_topo (ms)      =  714.573868539689  +/- 0.000288
# P'_topo (s/s)    =  -0                +/- 1.56e-10
# P''_topo (s/s^2) =  0                 +/- 7.09e-14
# P_bary (ms)      =  N/A
# P'_bary (s/s)    =  N/A
# P''_bary (s/s^2) =  N/A
# P_orb (s)        =  N/A
# asin(i)/c (s)    =  N/A
# eccentricity     =  N/A
# w (rad)          =  N/A
# T_peri           =  N/A
######################################################
   0  978.2117
   1  974.0156
   2  666.0352
   3  437.2884
   4  321.6019
   5  272.7904
   6  319.6041
   7  262.2178
   8  242.2476
   9  217.1216
  10  131.2347
  11  231.1581
  12  247.3757
  13  336.9266
  14  332.562
  15  219.6136
  16  142.6939
  17  157.3078
  18  48.28764
  19  69.14051
  20  51.23642
  21  73.43185
  22  113.7106
  23  121.9654
  24  142.2711
  25  302.1448
  26  118.8731
  27  119.1396
  28  -8.750676
  29  80.39357
  30  52.51189
  31  63.61469
  32  128.7989
  33  113.7359
  34  261.1967
  35  188.5948
  36  146.9114
  37  100.5555
  38  211.2197
  39  205.1741
  40  184.5969
  41  36.36126
  42  14.793
  43  146.6371
  44  232.5217
  45  225.1573
  46  106.6338
  47  161.6555
  48  197.8193
  49  229.2512
  50  172.4716
  51  31.33031
  52  175.4906
  53  82.29642
  54  9.523341
  55  206.3505
  56  204.0337
  57  115.5523
  58  197.4888
  59  170.0001
  60  171.773
  61  144.3399
  62  186.5432
  63  197.8627
  64  172.4474
  65  49.40077
  66  244.3332
  67  249.2494
  68  333.2643
  69  314.0126
  70  157.0838
  71  135.2066
  72  190.6545
  73  186.5787
  74  134.5816
  75  108.5764
  76  277.9806
  77  199.72
  78  9.694727
  79  166.5229
  80  177.6337
  81  57.16565
  82  2.071022
  83  11.43955
  84  128.071
  85  114.2298
  86  73.96922
  87  99.02402
  88  24.36476
  89  -50.15143
  90  62.52285
  91  140.0309
  92  123.0736
  93  172.6702
  94  212.8629
  95  225.1906
  96  145.3617
  97  155.656
  98  290.1772
  99  193.0178
 100  190.1939
 101  367.4139
 102  327.7097
 103  228.6108
 104  181.4965
 105  28.47356
 106  167.0045
 107  251.813
 108  149.7089
 109  -3.866176
 110  41.89724
 111  62.45774
 112  13.29958
 113  35.83044
 114  158.3714
 115  46.67631
 116  42.08976
 117  178.8998
 118  66.44757
 119  119.3229
 120  187.4612
 121  123.9126
 122  160.5121
 123  251.6584
 124  440.4738
 125  295.3119
 126  119.2614
 127  201.6579
 128  154.1341
 129  145.7523
 130  282.5886
 131  245.1436
 132  193.2224
 133  27.45396
 134  -32.25573
 135  104.9385
 136  123.1007
 137  120.4048
 138  244.4093
 139  87.63803
 140  71.8578
 141  55.98595
 142  224.7294
 143  230.9558
 144  42.7301
 145  124.8452
 146  40.96275
 147  118.0548
 148  154.8741
 149  110.474
 150  133.9663
 151  206.941
 152  77.2668
 153  137.5998
 154  173.2522
 155  175.0814
 156  44.18747
 157  190.8039
 158  232.023
 159  133.1509
 160  129.7758
 161  268.8242
 162  189.1396
 163  41.51809
 164  95.83207
 165  151.0478
 166  2.422164
 167  45.67327
 168  138.1675
 169  146.8719
 170  63.25187
 171  141.8808
 172  151.7136
 173  -17.94995
 174  -13.83451
 175  52.20951
 176  22.57384
 177  100.9958
 178  51.08228
 179  65.51398
 180  -9.678502
 181  54.31816
 182  55.8576
 183  69.84755
 184  113.258
 185  284.6335
 186  198.9489
 187  112.8514
 188  141.2426
 189  79.46724
 190  215.4946
 191  107.831
 192  147.1712
 193  103.7745
 194  108.4412
 195  147.3656
 196  146.1045
 197  -33.40943
 198  61.02818
 199  160.1327
 200  72.98907
 201  168.6753
 202  -62.40059
 203  108.2568
 204  204.4386
 205  177.7062
 206  94.10734
 207  66.19474
 208  277.1919
 209  196.5459
 210  197.2525
 211  58.32204
 212  42.52856
 213  82.85283
 214  249.2865
 215  267.7097
 216  206.7804
 217  151.0422
 218  153.5516
 219  90.36324
 220  64.98981
 221  103.1015
 222  174.7207
 223  166.8593
 224  148.7422
 225  201.7696
 226  156.2581
 227  199.1461
 228  143.521
 229  46.02917
 230  74.92841
 231  139.7561
 232  93.96059
 233  146.2506
 234  146.758
 235  77.09628
 236  32.59943
 237  131.7078
 238  5.2139
 239  117.1038
 240  118.7577
 241  148.6456
 242  121.652
 243  71.16182
 244  178.931
 245  135.6206
 246  -48.31894
 247  72.60609
 248  143.3551
 249  118.7463
 250  209.8264
 251  180.2783
 252  155.4352
 253  88.66553
 254  168.3567
 255  309.2142
 256  172.2894
 257  64.51997
 258  94.02959
 259  104.4211
 260  179.5382
 261  250.8517
 262  156.6626
 263  227.3862
 264  244.0425
 265  126.3855
 266  187.4323
 267  186.2384
 268  141.583
 269  171.5998
 270  427.1262
 271  295.0757
 272  120.636
 273  108.3625
 274  261.7173
 275  204.0546
 276  131.8582
 277  12.06939
 278  2.116469
 279  251.1858
 280  234.6005
 281  44.31648
 282  127.2558
 283  153.8251
 284  28.47728
 285  110.904
 286  238.4435
 287  130.1379
 288  -52.95957
 289  106.0117
 290  224.8988
 291  193.4604
 292  72.65783
 293  166.5471
 294  95.16219
 295  108.5882
 296  168.4371
 297  121.2039
 298  67.35793
 299  169.5709
 300  57.58772
 301  34.41209
 302  140.1928
 303  149.0159
 304  197.5037
 305  127.99
 306  43.95332
 307  170.0297
 308  250.4511
 309  250.9176
 310  172.0586
 311  104.6146
 312  168.8432
 313  197.5536
 314  149.6962
 315  133.0248
 316  178.1401
 317  -58.23339
 318  70.48008
 319  61.41988
 320  83.76423
 321  209.2338
 322  259.5466
 323  211.7505
 324  30.64261
 325  115.6395
 326  165.1677
 327  101.1779
 328  122.6029
 329  169.1338
 330  54.43246
 331  67.28024
 332  110.2262
 333  88.60141
 334  75.83336
 335  166.0123
 336  117.385
 337  103.7698
 338  187.2733
 339  49.49907
 340  109.1505
 341  220.8213
 342  147.1981
 343  155.0223
 344  43.94236
 345  139.3458
 346  76.34853
 347  32.58599
 348  122.1531
 349  211.4857
 350  24.83003
 351  66.84678
 352  64.99529
 353  166.9734
 354  135.8944
 355  147.0163
 356  135.9261
 357  208.2423
 358  192.7375
 359  164.8584
 360  32.37213
 361  62.38487
 362  305.7511
 363  361.6977
 364  142.0769
 365  166.513
 366  232.159
 367  237.7655
 368  88.37647
 369  137.2129
 370  232.9237
 371  167.1967
 372  203.0939
 373  182.1447
 374  83.20342
 375  83.8901
 376  51.13235
 377  131.1511
 378  188.6799
 379  215.5165
 380  82.93752
 381  131.3011
 382  173.6719
 383  74.47814
 384  109.6242
 385  161.5597
 386  258.5416
 387  204.7357
 388  182.9359
 389  220.112
 390  78.4516
 391  143.7381
 392  12.73219
 393  40.13279
 394  -1.679453
 395  39.24198
 396  -27.44723
 397  -11.23849
 398  52.0209
 399  68.55082
 400  138.6424
 401  90.25899
 402  -39.85735
 403  -35.19172
 404  -25.11151
 405  67.46907
 406  149.1174
 407  196.305
 408  247.5404
 409  117.1595
 410  157.3502
 411  164.3585
 412  73.04564
 413  123.7173
 414  182.514
 415  76.26311
 416  1.400757
 417  157.7371
 418  35.23889
 419  -57.05698
 420  -96.78952
 421  128.6037
 422  168.8727
 423  58.05616
 424  18.41372
 425  -9.153184
 426  -35.36561
 427  -13.2907
 428  -0.790859
 429  150.2528
 430  234.935
 431  254.245
 432  81.32676
 433  8.635032
 434  16.57034
 435  181.0936
 436  41.76486
 437  35.98383
 438  264.6273
 439  252.3823
 440  192.6962
 441  171.1881
 442  22.7764
 443  72.11941
 444  136.2533
 445  164.6659
 446  -14.82505
 447  53.83143
 448  182.5415
 449  133.9098
 450  112.5007
 451  245.4061
 452  276.1008
 453  192.7005
 454  124.6419
 455  129.4832
 456  19.14949
 457  70.83958
 458  181.2736
 459  174.4275
 460  172.228
 461  71.09638
 462  280.0888
 463  209.2914
 464  201.4797
 465  290.7881
 466  177.7749
 467  48.14305
 468  5.187662
 469  52.48743
 470  99.89671
 471  109.1385
 472  167.0712
 473  341.7186
 474  222.3199
 475  -14.00111
 476  26.39594
 477  87.40823
 478  25.82124
 479  -52.05429
 480  164.142
 481  201.9825
 482  81.23088
 483  -31.73374
 484  78.6451
 485  159.6781
 486  150.6935
 487  107.8357
 488  28.43227
 489  -47.85729
 490  120.0429
 491  297.5011
 492  260.9734
 493  232.1881
 494  294.2351
 495  247.3009
 496  280.0951
 497  284.3948
 498  242.4219
 499  181.777
 500  93.47292
 501  194.8452
 502  83.93597
 503  171.5804
 504  213.2681
 505  213.7748
 506  225.6859
 507  280.3455
 508  280.936
 509  321.7993
 510  461.0923
 511  671.9131
