# Input file       =  1201893636.114452_cleaned.dat
# Candidate        =  PSR_0332+5434
# Telescope        =  AR
# Epoch_topo       =  58154.805765213561
# Epoch_bary       =  N/A
# T_sample         =  0.002
# Data Folded      =  7340032
# Data Avg         =  0.015471644007381
# Data StdDev      =  1.00005152132365 
# Profile Bins     =  512
# Profile Avg      =  221.777814256601 
# Profile StdDev   =  119.739205181285 
# Reduced chi-sqr  =  1.146
# Prob(Noise)      <  0.0121   (~2.3 sigma)
# P_topo (ms)      =  714.578044363101  +/- 0.000215
# P'_topo (s/s)    =  -0                +/- 1.14e-10
# P''_topo (s/s^2) =  0                 +/- 5.01e-14
# P_bary (ms)      =  N/A
# P'_bary (s/s)    =  N/A
# P''_bary (s/s^2) =  N/A
# P_orb (s)        =  N/A
# asin(i)/c (s)    =  N/A
# eccentricity     =  N/A
# w (rad)          =  N/A
# T_peri           =  N/A
######################################################
   0  758.9803
   1  862.833
   2  721.9049
   3  556.5204
   4  485.4805
   5  428.1409
   6  306.4995
   7  252.2971
   8  233.3635
   9  224.7129
  10  201.4989
  11  165.1835
  12  46.69675
  13  184.3215
  14  127.7737
  15  181.5355
  16  318.0093
  17  243.3852
  18  216.1728
  19  282.4064
  20  342.2253
  21  273.2833
  22  210.9428
  23  312.0311
  24  196.3735
  25  118.336
  26  87.84141
  27  103.1923
  28  286.1758
  29  251.667
  30  225.0217
  31  241.3646
  32  307.2836
  33  315.2759
  34  222.8406
  35  88.16309
  36  74.75629
  37  179.3212
  38  271.243
  39  197.5097
  40  142.2943
  41  223.3437
  42  180.1884
  43  178.5788
  44  307.7882
  45  349.4206
  46  255.1348
  47  205.0369
  48  211.7622
  49  170.36
  50  138.4022
  51  167.5948
  52  163.6011
  53  156.6576
  54  203.098
  55  229.2555
  56  109.6881
  57  74.55305
  58  170.9291
  59  243.6507
  60  104.4632
  61  170.713
  62  272.7983
  63  217.4288
  64  196.112
  65  175.1335
  66  199.367
  67  212.2712
  68  219.9276
  69  197.2241
  70  209.9667
  71  257.7498
  72  269.8106
  73  251.0194
  74  281.203
  75  284.1966
  76  211.145
  77  270.183
  78  342.6746
  79  260.777
  80  200.4032
  81  194.4545
  82  127.4779
  83  147.1946
  84  291.1895
  85  262.1853
  86  185.0359
  87  238.0113
  88  345.1239
  89  285.3585
  90  213.3119
  91  237.2706
  92  231.5742
  93  157.3669
  94  196.2089
  95  47.92891
  96  240.0025
  97  312.5698
  98  165.3208
  99  97.79157
 100  144.8971
 101  170.24
 102  5.8418
 103  117.4129
 104  147.3552
 105  225.1725
 106  277.4544
 107  386.454
 108  335.8218
 109  233.2841
 110  212.6089
 111  227.9754
 112  239.5894
 113  214.7991
 114  181.2221
 115  309.0587
 116  290.7087
 117  228.6093
 118  238.214
 119  250.9948
 120  192.2315
 121  124.1561
 122  190.9756
 123  188.2359
 124  202.4045
 125  160.5021
 126  186.1367
 127  215.705
 128  184.4446
 129  140.8972
 130  166.7714
 131  90.50197
 132  215.1483
 133  324.7139
 134  272.9719
 135  237.8006
 136  135.3955
 137  182.6041
 138  207.5601
 139  235.007
 140  141.4098
 141  161.2411
 142  167.6605
 143  325.8157
 144  285.8677
 145  181.5396
 146  141.657
 147  106.7483
 148  228.2339
 149  349.284
 150  264.6076
 151  262.7198
 152  303.7823
 153  367.8133
 154  298.3944
 155  294.575
 156  197.4699
 157  181.2803
 158  271.6342
 159  286.1972
 160  252.8353
 161  152.8366
 162  85.06819
 163  48.2939
 164  115.3321
 165  165.5602
 166  305.0229
 167  266.6945
 168  252.4637
 169  240.4462
 170  207.1666
 171  255.5728
 172  242.2158
 173  222.1433
 174  312.287
 175  351.3076
 176  223.4628
 177  319.795
 178  180.8775
 179  208.5752
 180  241.8673
 181  232.4453
 182  216.857
 183  373.8098
 184  364.6455
 185  118.477
 186  173.904
 187  283.596
 188  285.2953
 189  147.6574
 190  300.0719
 191  287.2932
 192  276.0896
 193  199.1906
 194  183.864
 195  200.1138
 196  232.0364
 197  223.6051
 198  251.2149
 199  185.9397
 200  184.031
 201  158.3076
 202  136.9028
 203  245.6199
 204  166.5049
 205  192.5935
 206  180.5803
 207  87.06902
 208  68.81155
 209  220.6108
 210  351.3809
 211  238.6426
 212  233.337
 213  146.3638
 214  210.7446
 215  198.1828
 216  211.4753
 217  236.742
 218  175.4332
 219  201.7156
 220  243.0903
 221  251.4657
 222  185.0256
 223  116.3252
 224  139.3141
 225  200.4231
 226  347.8499
 227  325.2547
 228  226.3983
 229  103.7648
 230  157.269
 231  181.4179
 232  97.80713
 233  97.43761
 234  158.5841
 235  210.0815
 236  141.7386
 237  152.887
 238  200.2885
 239  239.4915
 240  135.135
 241  119.9547
 242  360.9608
 243  327.8033
 244  349.1689
 245  306.6311
 246  280.087
 247  179.4188
 248  155.7518
 249  205.3527
 250  108.3483
 251  148.9176
 252  136.3614
 253  292.3134
 254  299.7702
 255  93.31504
 256  112.638
 257  205.4944
 258  315.2571
 259  301.0663
 260  181.578
 261  215.5208
 262  195.8781
 263  224.7136
 264  244.5914
 265  184.0128
 266  151.8371
 267  127.3298
 268  162.3456
 269  186.6418
 270  259.5088
 271  351.0056
 272  383.2171
 273  282.6878
 274  259.5318
 275  221.4367
 276  220.0725
 277  142.361
 278  127.7159
 279  65.67602
 280  152.1012
 281  134.6001
 282  204.062
 283  222.043
 284  280.2725
 285  311.8694
 286  214.1786
 287  250.8066
 288  272.7698
 289  211.3485
 290  186.0752
 291  173.3408
 292  201.0445
 293  272.3948
 294  152.8229
 295  200.6252
 296  181.7829
 297  215.4038
 298  292.1859
 299  253.3336
 300  130.4984
 301  118.7987
 302  239.4658
 303  189.9537
 304  247.7614
 305  237.0025
 306  395.6413
 307  275.1993
 308  225.464
 309  200.0714
 310  227.8629
 311  216.9672
 312  222.941
 313  183.0986
 314  157.1466
 315  259.282
 316  217.0843
 317  82.43152
 318  124.1684
 319  201.3964
 320  229.4421
 321  145.1187
 322  189.0127
 323  352.1448
 324  355.1185
 325  282.3119
 326  247.3539
 327  320.452
 328  309.4059
 329  144.9148
 330  191.1581
 331  184.0469
 332  285.6949
 333  243.028
 334  256.0905
 335  279.6627
 336  238.6351
 337  218.9213
 338  293.5866
 339  209.0537
 340  220.0386
 341  287.199
 342  347.493
 343  185.1969
 344  216.4722
 345  267.963
 346  249.6259
 347  257.2888
 348  235.6438
 349  118.0978
 350  103.9293
 351  179.9057
 352  138.3809
 353  132.7221
 354  212.0117
 355  103.143
 356  191.9919
 357  158.6503
 358  258.7179
 359  272.019
 360  218.7185
 361  167.3227
 362  104.5425
 363  162.8868
 364  138.6081
 365  255.4697
 366  211.1305
 367  185.9839
 368  51.60621
 369  0.5251521
 370  252.6501
 371  294.2798
 372  285.5323
 373  280.6817
 374  256.0779
 375  263.6256
 376  288.553
 377  207.582
 378  121.6604
 379  233.0103
 380  195.9779
 381  138.5561
 382  135.1142
 383  115.3645
 384  206.3842
 385  178.6275
 386  99.14424
 387  198.6849
 388  278.428
 389  182.537
 390  74.62719
 391  110.9308
 392  199.4415
 393  149.4116
 394  213.0876
 395  229.4396
 396  210.134
 397  206.3375
 398  203.711
 399  255.844
 400  176.1823
 401  186.9042
 402  209.7148
 403  246.3883
 404  326.3326
 405  258.5168
 406  145.1891
 407  163.9665
 408  156.1754
 409  210.8728
 410  202.2296
 411  156.759
 412  206.5498
 413  263.2664
 414  193.2657
 415  217.0207
 416  332.5691
 417  278.3023
 418  179.7538
 419  271.2361
 420  286.4258
 421  201.8928
 422  169.1989
 423  104.6346
 424  62.09789
 425  135.1923
 426  214.2288
 427  35.15303
 428  70.0714
 429  214.813
 430  294.1211
 431  208.5563
 432  239.4373
 433  201.3079
 434  225.6058
 435  203.3694
 436  100.5268
 437  145.5183
 438  66.73152
 439  20.42175
 440  106.2898
 441  142.5651
 442  126.0583
 443  121.7578
 444  152.5994
 445  285.4002
 446  302.8826
 447  208.9859
 448  235.4677
 449  229.6999
 450  190.1403
 451  65.86311
 452  0.2012827
 453  35.37209
 454  140.188
 455  297.9252
 456  226.4384
 457  255.8318
 458  138.9067
 459  163.0287
 460  329.1798
 461  400.882
 462  179.5734
 463  158.692
 464  234.6099
 465  240.1692
 466  227.6333
 467  203.6153
 468  141.7451
 469  122.7912
 470  143.6822
 471  171.5878
 472  248.949
 473  341.3427
 474  372.2031
 475  203.4159
 476  165.408
 477  231.9506
 478  274.8405
 479  274.7487
 480  336.2151
 481  380.5703
 482  290.5375
 483  223.642
 484  198.2175
 485  282.6101
 486  273.0803
 487  268.2071
 488  346.0786
 489  379.1307
 490  353.7939
 491  337.621
 492  311.7623
 493  140.9677
 494  178.9688
 495  352.9247
 496  314.6706
 497  344.7784
 498  257.8134
 499  192.4469
 500  281.6151
 501  248.2309
 502  282.545
 503  262.8456
 504  373.6653
 505  364.3485
 506  328.7558
 507  318.2692
 508  328.7171
 509  521.6661
 510  660.6624
 511  630.629
