# Input file       =  1201289859.116976_cleaned.dat
# Candidate        =  PSR_0332+5434
# Telescope        =  AR
# Epoch_topo       =  58147.817605520555
# Epoch_bary       =  N/A
# T_sample         =  0.002
# Data Folded      =  7340032
# Data Avg         =  0.0183305103948417
# Data StdDev      =  1.00005429693063 
# Profile Bins     =  512
# Profile Avg      =  262.787456178177 
# Profile StdDev   =  119.739537513137 
# Reduced chi-sqr  =  1.193
# Prob(Noise)      <  0.00173   (~2.9 sigma)
# P_topo (ms)      =  714.575303606345  +/- 0.000179
# P'_topo (s/s)    =  -0                +/- 9.44e-11
# P''_topo (s/s^2) =  0                 +/- 4.17e-14
# P_bary (ms)      =  N/A
# P'_bary (s/s)    =  N/A
# P''_bary (s/s^2) =  N/A
# P_orb (s)        =  N/A
# asin(i)/c (s)    =  N/A
# eccentricity     =  N/A
# w (rad)          =  N/A
# T_peri           =  N/A
######################################################
   0  869.5495
   1  715.0397
   2  594.439
   3  424.0294
   4  352.3188
   5  287.7482
   6  252.7768
   7  232.3551
   8  307.9774
   9  313.8257
  10  384.9649
  11  301.0644
  12  218.2365
  13  347.8441
  14  365.0971
  15  280.4985
  16  198.0889
  17  164.2133
  18  192.7059
  19  167.0738
  20  167.9742
  21  142.4071
  22  276.2943
  23  317.8889
  24  279.876
  25  204.5251
  26  249.9353
  27  243.9534
  28  217.609
  29  348.6249
  30  339.2046
  31  314.1467
  32  355.7577
  33  268.1889
  34  188.9916
  35  74.84683
  36  132.429
  37  231.7268
  38  206.4178
  39  184.8405
  40  60.16636
  41  213.9301
  42  390.3222
  43  340.9562
  44  247.8764
  45  182.245
  46  172.2086
  47  151.0659
  48  171.8523
  49  228.1156
  50  241.2623
  51  248.9761
  52  309.3606
  53  231.7626
  54  281.1947
  55  197.2193
  56  231.7685
  57  317.945
  58  275.2136
  59  297.6195
  60  220.1394
  61  179.9996
  62  295.6693
  63  324.9999
  64  231.9339
  65  256.4608
  66  225.3808
  67  254.0529
  68  251.5303
  69  213.7901
  70  231.2797
  71  266.572
  72  225.3642
  73  240.5738
  74  262.1297
  75  217.1802
  76  245.4578
  77  262.1031
  78  383.823
  79  330.2693
  80  222.027
  81  296.3377
  82  289.7568
  83  232.4235
  84  260.6248
  85  180.4509
  86  176.8242
  87  229.1265
  88  196.6887
  89  80.94333
  90  257.1369
  91  253.0921
  92  266.1294
  93  267.8841
  94  180.7018
  95  127.5247
  96  254.0303
  97  261.5223
  98  151.5804
  99  323.9796
 100  375.1555
 101  237.8178
 102  129.8623
 103  187.8434
 104  135.2089
 105  193.9324
 106  161.2146
 107  214.9397
 108  261.747
 109  258.0263
 110  177.1552
 111  285.958
 112  340.9694
 113  339.1134
 114  305.6594
 115  230.6387
 116  204.8043
 117  213.8996
 118  219.9506
 119  167.8919
 120  160.9588
 121  215.09
 122  275.8318
 123  251.2045
 124  261.3328
 125  375.1912
 126  402.2183
 127  294.4016
 128  287.3034
 129  348.3234
 130  381.9236
 131  228.8439
 132  130.6161
 133  352.563
 134  373.0636
 135  240.4335
 136  162.1818
 137  18.73873
 138  125.9858
 139  247.1777
 140  369.063
 141  321.7936
 142  213.8801
 143  108.9065
 144  61.04193
 145  252.2155
 146  230.0973
 147  175.1731
 148  215.2927
 149  318.3219
 150  286.6891
 151  269.6936
 152  260.3284
 153  214.8955
 154  258.1678
 155  311.0573
 156  338.9731
 157  240.3134
 158  186.4102
 159  126.5141
 160  139.2571
 161  204.9958
 162  242.5873
 163  268.0496
 164  208.9115
 165  200.0107
 166  112.8836
 167  265.8726
 168  365.4623
 169  293.622
 170  228.2769
 171  217.7144
 172  224.0939
 173  118.6715
 174  150.541
 175  280.8136
 176  318.4144
 177  373.6552
 178  250.0324
 179  232.8194
 180  270.9737
 181  257.3629
 182  198.187
 183  277.5835
 184  335.0692
 185  330.6331
 186  239.7441
 187  216.8494
 188  126.8258
 189  270.2127
 190  328.852
 191  356.5256
 192  324.064
 193  231.8918
 194  201.0148
 195  317.2903
 196  231.7887
 197  136.458
 198  260.053
 199  236.5598
 200  224.8656
 201  220.1996
 202  260.0172
 203  187.2333
 204  270.7269
 205  167.584
 206  251.6813
 207  323.9308
 208  243.3931
 209  157.717
 210  153.94
 211  191.5826
 212  226.5544
 213  187.1247
 214  215.8265
 215  301.586
 216  396.3539
 217  280.804
 218  261.9897
 219  277.4909
 220  331.2205
 221  316.89
 222  303.0801
 223  380.1906
 224  275.8028
 225  296.816
 226  301.3482
 227  239.7645
 228  81.07209
 229  126.9957
 230  182.3846
 231  189.2318
 232  216.5183
 233  196.7703
 234  158.9977
 235  117.4694
 236  116.8443
 237  165.9256
 238  293.1022
 239  249.4093
 240  145.478
 241  230.3327
 242  227.3
 243  181.8934
 244  236.6087
 245  209.8432
 246  253.01
 247  211.9762
 248  277.062
 249  426.8297
 250  303.8104
 251  296.6352
 252  226.7102
 253  247.0237
 254  175.2794
 255  164.7157
 256  287.057
 257  397.4652
 258  321.2397
 259  291.6084
 260  304.2162
 261  140.6842
 262  245.036
 263  290.8202
 264  275.2442
 265  314.4758
 266  288.3042
 267  214.0966
 268  385.7108
 269  451.6788
 270  357.9825
 271  139.7011
 272  228.5946
 273  278.391
 274  183.7779
 275  142.9641
 276  204.9576
 277  313.0025
 278  216.071
 279  173.598
 280  256.2856
 281  336.2207
 282  400.9344
 283  454.011
 284  379.6035
 285  314.5252
 286  349.7716
 287  297.5881
 288  259.2057
 289  199.4652
 290  262.0689
 291  334.5852
 292  314.1682
 293  351.0159
 294  291.5356
 295  336.0517
 296  222.0858
 297  105.589
 298  247.4498
 299  230.6695
 300  288.7054
 301  292.0802
 302  176.4078
 303  176.9285
 304  142.3199
 305  223.9496
 306  216.5854
 307  99.89431
 308  230.8625
 309  298.6725
 310  295.1883
 311  187.4802
 312  83.66951
 313  111.4035
 314  277.4549
 315  423.7027
 316  311.6246
 317  250.8939
 318  292.3506
 319  289.9301
 320  165.7698
 321  122.2083
 322  167.3192
 323  179.3488
 324  220.0073
 325  225.4942
 326  243.5516
 327  177.5848
 328  233.1039
 329  280.5062
 330  179.071
 331  220.0821
 332  224.6993
 333  147.7715
 334  230.0762
 335  208.8182
 336  378.3726
 337  296.4172
 338  311.4159
 339  231.134
 340  251.5869
 341  321.5857
 342  226.4745
 343  278.5175
 344  354.7857
 345  166.1201
 346  214.5694
 347  284.1259
 348  373.1276
 349  351.8979
 350  332.0197
 351  350.6759
 352  410.7862
 353  330.0027
 354  314.419
 355  489.7982
 356  326.5356
 357  376.8207
 358  365.3589
 359  349.1858
 360  318.29
 361  313.1364
 362  294.1488
 363  209.0348
 364  282.8719
 365  260.6314
 366  219.7496
 367  217.3631
 368  246.3231
 369  259.9551
 370  313.4831
 371  253.741
 372  226.9695
 373  257.95
 374  381.5441
 375  361.1175
 376  218.2531
 377  287.9494
 378  338.3788
 379  405.9702
 380  359.0033
 381  275.4425
 382  216.6183
 383  219.2394
 384  366.4526
 385  394.6938
 386  260.4953
 387  175.734
 388  200.5446
 389  150.2501
 390  156.3682
 391  340.2693
 392  358.1494
 393  225.3035
 394  263.8679
 395  303.8881
 396  226.8183
 397  329.5492
 398  283.1022
 399  188.0875
 400  227.8955
 401  266.4818
 402  274.0713
 403  202.8869
 404  227.1862
 405  291.3865
 406  182.9369
 407  184.2618
 408  170.2531
 409  255.4246
 410  249.5359
 411  183.4609
 412  132.102
 413  188.4473
 414  91.77651
 415  213.4283
 416  195.8509
 417  166.443
 418  356.6401
 419  390.3874
 420  231.7068
 421  292.3455
 422  181.938
 423  276.4704
 424  284.4327
 425  275.7769
 426  374.8268
 427  299.7354
 428  255.4106
 429  280.5633
 430  299.872
 431  307.2469
 432  257.4262
 433  323.4352
 434  364.8606
 435  235.9721
 436  171.8604
 437  276.9692
 438  234.2041
 439  285.5482
 440  444.2751
 441  364.1335
 442  331.7214
 443  330.7967
 444  268.7512
 445  422.6086
 446  331.3431
 447  250.5889
 448  221.2038
 449  180.0345
 450  300.3315
 451  204.909
 452  383.0253
 453  445.9436
 454  399.0437
 455  357.6638
 456  301.7184
 457  253.0185
 458  252.3252
 459  151.4107
 460  252.983
 461  214.628
 462  301.3852
 463  366.9405
 464  244.27
 465  202.7929
 466  185.7489
 467  269.669
 468  131.3443
 469  101.9418
 470  260.6206
 471  325.2738
 472  250.6899
 473  164.5734
 474  108.6912
 475  155.7353
 476  212.7852
 477  274.5257
 478  305.9475
 479  229.8244
 480  293.3617
 481  242.1796
 482  279.7425
 483  329.3362
 484  233.3341
 485  93.48659
 486  93.30138
 487  137.692
 488  236.3001
 489  223.5857
 490  277.8489
 491  456.3344
 492  501.8459
 493  439.563
 494  364.6398
 495  405.0618
 496  292.6937
 497  287.8425
 498  334.0951
 499  301.2603
 500  300.5746
 501  274.8907
 502  383.9212
 503  274.6865
 504  263.1088
 505  430.8827
 506  507.7917
 507  435.3792
 508  366.0065
 509  500.5842
 510  730.9097
 511  939.1543
