# Input file       =  1201979202.113353_cleaned.dat
# Candidate        =  PSR_0332+5434
# Telescope        =  AR
# Epoch_topo       =  58155.796112423064
# Epoch_bary       =  N/A
# T_sample         =  0.002
# Data Folded      =  7340032
# Data Avg         =  0.0292899888931653
# Data StdDev      =  1.00008083412082 
# Profile Bins     =  512
# Profile Avg      =  419.995051819763 
# Profile StdDev   =  119.742714891495 
# Reduced chi-sqr  =  1.281
# Prob(Noise)      <  1.65e-05   (~4.2 sigma)
# P_topo (ms)      =  714.578350753302  +/- 0.000333
# P'_topo (s/s)    =  -0                +/- 1.76e-10
# P''_topo (s/s^2) =  0                 +/- 7.76e-14
# P_bary (ms)      =  N/A
# P'_bary (s/s)    =  N/A
# P''_bary (s/s^2) =  N/A
# P_orb (s)        =  N/A
# asin(i)/c (s)    =  N/A
# eccentricity     =  N/A
# w (rad)          =  N/A
# T_peri           =  N/A
######################################################
   0  1057.843
   1  992.9291
   2  812.7006
   3  722.0831
   4  428.1787
   5  433.0197
   6  480.7056
   7  509.8059
   8  466.7054
   9  446.5341
  10  505.1432
  11  508.7096
  12  436.173
  13  510.9236
  14  585.9592
  15  563.2753
  16  408.9001
  17  491.7056
  18  480.6658
  19  567.7134
  20  472.8112
  21  511.9564
  22  619.1824
  23  554.3979
  24  546.3968
  25  551.5696
  26  528.765
  27  583.1002
  28  619.1559
  29  458.9715
  30  403.0251
  31  450.0647
  32  474.2339
  33  423.0901
  34  368.4358
  35  433.9554
  36  335.032
  37  365.2148
  38  428.4526
  39  546.4419
  40  485.3065
  41  364.7751
  42  483.63
  43  465.4066
  44  465.7954
  45  337.7367
  46  358.5914
  47  463.0401
  48  522.9138
  49  519.4739
  50  470.2954
  51  413.4703
  52  413.2624
  53  471.6364
  54  537.4529
  55  459.5145
  56  490.7123
  57  398.2723
  58  443.494
  59  529.7979
  60  596.7154
  61  577.8901
  62  553.4062
  63  525.2493
  64  502.7125
  65  509.9973
  66  543.1966
  67  473.2843
  68  485.6663
  69  519.5574
  70  472.8843
  71  523.0038
  72  551.9933
  73  503.5021
  74  506.0762
  75  426.893
  76  370.2995
  77  417.6112
  78  484.2511
  79  478.2062
  80  463.7263
  81  510.0225
  82  463.1695
  83  290.3746
  84  287.5066
  85  355.8665
  86  300.87
  87  389.1287
  88  429.9203
  89  416.9363
  90  317.0719
  91  329.96
  92  386.6795
  93  454.8112
  94  457.1154
  95  422.0099
  96  414.7121
  97  389.9093
  98  430.1656
  99  346.7526
 100  440.2224
 101  457.0022
 102  402.8063
 103  380.6778
 104  421.1325
 105  418.6696
 106  443.7197
 107  476.1882
 108  408.1611
 109  413.5909
 110  424.9333
 111  354.1016
 112  498.0255
 113  529.0333
 114  412.6715
 115  358.8692
 116  448.916
 117  480.9471
 118  347.1443
 119  316.1291
 120  373.3776
 121  343.0916
 122  362.9627
 123  344.5333
 124  523.7507
 125  357.8754
 126  294.936
 127  343.3704
 128  449.049
 129  462.3474
 130  339.5829
 131  338.6508
 132  426.568
 133  482.262
 134  518.5451
 135  375.6195
 136  353.5547
 137  314.214
 138  496.6006
 139  524.0299
 140  312.4064
 141  325.9449
 142  423.7496
 143  459.1321
 144  495.2371
 145  406.6468
 146  420.9149
 147  311.7187
 148  414.2226
 149  548.345
 150  449.3408
 151  627.5754
 152  623.5606
 153  515.5975
 154  555.2204
 155  453.1399
 156  530.4641
 157  577.2139
 158  662.0862
 159  668.6359
 160  515.3084
 161  449.9998
 162  436.5804
 163  389.2743
 164  357.6126
 165  508.1347
 166  609.0817
 167  484.9568
 168  533.8774
 169  520.1641
 170  449.7959
 171  433.6756
 172  427.3211
 173  455.5837
 174  350.0334
 175  345.9931
 176  433.3284
 177  421.2281
 178  420.9648
 179  403.2296
 180  394.815
 181  464.6674
 182  424.2294
 183  376.9582
 184  474.6374
 185  503.9096
 186  399.7618
 187  327.8914
 188  282.7573
 189  400.196
 190  405.6355
 191  407.6526
 192  452.9467
 193  361.6171
 194  275.8766
 195  353.8394
 196  445.6642
 197  377.7475
 198  344.4723
 199  271.2185
 200  457.4106
 201  487.024
 202  433.2054
 203  342.5007
 204  346.5974
 205  417.2252
 206  487.6323
 207  476.8685
 208  384.3412
 209  439.7436
 210  446.7962
 211  408.3363
 212  282.3875
 213  391.789
 214  511.6316
 215  438.542
 216  425.052
 217  328.0307
 218  290.0056
 219  451.1573
 220  382.5496
 221  340.4159
 222  370.5239
 223  430.3687
 224  459.2854
 225  450.9111
 226  393.7147
 227  322.6238
 228  343.2904
 229  339.1701
 230  339.1174
 231  380.8825
 232  299.8195
 233  383.6896
 234  417.0294
 235  389.6716
 236  273.5529
 237  248.4825
 238  381.3915
 239  523.3645
 240  343.8019
 241  261.7575
 242  373.9138
 243  439.4452
 244  340.631
 245  473.5357
 246  426.1084
 247  419.6534
 248  379.8602
 249  354.4341
 250  349.5813
 251  338.7857
 252  384.276
 253  451.798
 254  441.5372
 255  382.6371
 256  356.1898
 257  457.7498
 258  482.9597
 259  303.213
 260  287.3689
 261  335.8828
 262  445.5906
 263  362.0475
 264  406.2857
 265  427.4431
 266  409.6718
 267  415.8342
 268  414.5868
 269  571.7673
 270  443.008
 271  311.8087
 272  323.7312
 273  353.7406
 274  410.6828
 275  435.4535
 276  503.5513
 277  385.6674
 278  499.6937
 279  437.4552
 280  428.7649
 281  479.3838
 282  398.2844
 283  434.0619
 284  346.3368
 285  378.2585
 286  397.0928
 287  308.3466
 288  366.2721
 289  453.3318
 290  392.7674
 291  384.4097
 292  390.3263
 293  372.5439
 294  311.6039
 295  359.5354
 296  418.5808
 297  332.1926
 298  357.4291
 299  279.2213
 300  384.2459
 301  364.0692
 302  420.1852
 303  350.5484
 304  370.6713
 305  353.5909
 306  397.9918
 307  304.572
 308  269.3582
 309  381.2276
 310  287.0005
 311  313.9803
 312  422.8848
 313  389.3563
 314  477.4395
 315  435.3551
 316  422.3198
 317  395.3328
 318  405.1943
 319  478.7355
 320  438.8309
 321  418.7144
 322  438.6122
 323  422.627
 324  384.3543
 325  410.3993
 326  322.3349
 327  425.7225
 328  395.9509
 329  343.1725
 330  307.3056
 331  300.628
 332  283.4076
 333  347.9409
 334  399.5611
 335  354.3665
 336  355.9706
 337  249.4703
 338  146.0403
 339  246.6797
 340  238.8165
 341  258.7705
 342  330.9601
 343  466.115
 344  393.2833
 345  310.0292
 346  333.3051
 347  440.8446
 348  465.2156
 349  469.7868
 350  374.0905
 351  255.0427
 352  354.1936
 353  410.7845
 354  282.5054
 355  431.0945
 356  504.0424
 357  448.9334
 358  384.196
 359  280.8957
 360  325.7376
 361  409.9774
 362  382.0297
 363  307.6506
 364  220.9891
 365  188.6964
 366  138.5308
 367  242.5025
 368  348.5776
 369  317.0132
 370  343.7269
 371  337.8629
 372  383.2061
 373  353.7641
 374  394.0431
 375  329.6958
 376  322.5301
 377  412.645
 378  403.2991
 379  318.4086
 380  274.5379
 381  266.7499
 382  300.5826
 383  324.7627
 384  309.5724
 385  373.2694
 386  419.436
 387  465.1634
 388  353.2385
 389  342.6321
 390  385.6071
 391  434.4188
 392  419.6334
 393  451.2529
 394  468.2459
 395  482.0866
 396  449.4381
 397  469.9959
 398  330.4182
 399  465.5007
 400  462.1409
 401  479.8104
 402  373.8095
 403  337.0706
 404  365.5478
 405  406.5459
 406  501.1104
 407  440.5903
 408  401.7447
 409  336.1132
 410  373.6156
 411  344.525
 412  358.1371
 413  417.1186
 414  437.6305
 415  372.997
 416  341.2618
 417  398.6551
 418  516.6601
 419  386.7277
 420  375.534
 421  339.1448
 422  430.4482
 423  563.0959
 424  520.7926
 425  404.7587
 426  335.616
 427  306.07
 428  344.5999
 429  354.861
 430  318.8411
 431  417.0983
 432  401.3625
 433  230.3483
 434  355.412
 435  423.6146
 436  473.1194
 437  452.0309
 438  429.0099
 439  549.5547
 440  505.6987
 441  419.691
 442  395.9577
 443  427.7696
 444  490.1232
 445  424.8908
 446  465.6982
 447  439.1745
 448  435.9422
 449  425.8858
 450  418.2018
 451  477.4468
 452  375.3885
 453  397.4583
 454  384.627
 455  473.9288
 456  422.5523
 457  383.552
 458  329.4407
 459  406.4638
 460  383.6046
 461  410.6241
 462  521.752
 463  435.0937
 464  472.088
 465  475.1772
 466  228.2653
 467  247.4607
 468  359.4364
 469  355.4112
 470  408.484
 471  376.7453
 472  362.0203
 473  403.9171
 474  348.2966
 475  360.9307
 476  352.1133
 477  366.2956
 478  388.4502
 479  491.9505
 480  356.0477
 481  303.6191
 482  353.1013
 483  366.0623
 484  368.926
 485  379.8557
 486  357.4009
 487  359.7878
 488  383.7485
 489  506.4029
 490  465.1296
 491  497.0592
 492  556.184
 493  536.734
 494  551.9169
 495  451.2093
 496  427.2055
 497  478.6292
 498  577.7472
 499  611.7383
 500  555.5249
 501  437.3731
 502  403.9774
 503  478.7021
 504  649.4363
 505  736.3082
 506  612.71
 507  529.7626
 508  502.204
 509  572.3307
 510  816.7349
 511  975.0007
