# Input file       =  1202668571.110739_cleaned.dat
# Candidate        =  PSR_0332+5434
# Telescope        =  AR
# Epoch_topo       =  58163.774920263182
# Epoch_bary       =  N/A
# T_sample         =  0.002
# Data Folded      =  7340032
# Data Avg         =  0.012598003031302
# Data StdDev      =  1.00002870215714 
# Profile Bins     =  512
# Profile Avg      =  180.681763304323 
# Profile StdDev   =  119.736472973191 
# Reduced chi-sqr  =  1.229
# Prob(Noise)      <  0.000303   (~3.4 sigma)
# P_topo (ms)      =  714.580308886717  +/- 0.000173
# P'_topo (s/s)    =  -0                +/- 9.15e-11
# P''_topo (s/s^2) =  0                 +/- 4.04e-14
# P_bary (ms)      =  N/A
# P'_bary (s/s)    =  N/A
# P''_bary (s/s^2) =  N/A
# P_orb (s)        =  N/A
# asin(i)/c (s)    =  N/A
# eccentricity     =  N/A
# w (rad)          =  N/A
# T_peri           =  N/A
######################################################
   0  850.1072
   1  754.8953
   2  674.5634
   3  448.0953
   4  317.4713
   5  298.5985
   6  419.1163
   7  452.3825
   8  267.7341
   9  171.6356
  10  217.2766
  11  274.2313
  12  233.1223
  13  252.9967
  14  169.4722
  15  245.5919
  16  253.0353
  17  307.4501
  18  355.7496
  19  291.5688
  20  162.3153
  21  99.64152
  22  190.8583
  23  288.8056
  24  243.6339
  25  223.4679
  26  243.6729
  27  273.8757
  28  370.2463
  29  319.5492
  30  235.0381
  31  229.902
  32  207.0223
  33  104.5657
  34  205.715
  35  76.47974
  36  -37.83648
  37  83.5509
  38  198.2918
  39  140.0318
  40  98.33105
  41  253.9459
  42  119.0359
  43  163.0819
  44  201.9206
  45  222.9313
  46  184.1204
  47  165.9505
  48  236.8297
  49  231.3232
  50  129.1991
  51  140.5397
  52  149.9146
  53  140.3898
  54  100.7113
  55  187.3623
  56  203.5527
  57  157.6247
  58  83.56299
  59  184.8981
  60  144.7973
  61  27.14191
  62  120.9493
  63  224.2251
  64  218.2135
  65  169.1872
  66  106.3573
  67  -8.866962
  68  142.3023
  69  198.0195
  70  176.527
  71  161.7935
  72  188.9028
  73  245.1626
  74  177.8575
  75  184.9078
  76  20.98629
  77  105.4874
  78  211.9991
  79  369.2129
  80  229.8936
  81  91.71618
  82  194.1775
  83  120.725
  84  83.71769
  85  78.93571
  86  164.6493
  87  187.8534
  88  285.2769
  89  216.0964
  90  247.7138
  91  222.9347
  92  203.6861
  93  84.24674
  94  200.2784
  95  279.507
  96  229.9923
  97  235.9594
  98  158.6431
  99  218.6202
 100  165.2326
 101  196.3631
 102  211.2088
 103  268.7163
 104  221.779
 105  111.5551
 106  229.1866
 107  237.7973
 108  114.2565
 109  121.9331
 110  196.0164
 111  201.9553
 112  143.6633
 113  45.57436
 114  171.5621
 115  191.6241
 116  174.6972
 117  239.0387
 118  154.9328
 119  152.7379
 120  68.83908
 121  105.9836
 122  187.7446
 123  190.1304
 124  180.8648
 125  50.61222
 126  99.13241
 127  86.7162
 128  161.9499
 129  168.265
 130  162.5807
 131  43.58257
 132  139.7761
 133  204.5529
 134  143.8378
 135  205.6859
 136  118.9804
 137  96.00281
 138  104.9942
 139  109.2616
 140  208.2028
 141  147.2744
 142  75.02235
 143  72.85838
 144  109.0193
 145  105.914
 146  141.3285
 147  98.22977
 148  86.94203
 149  227.2339
 150  230.3809
 151  83.91283
 152  108.6143
 153  210.5983
 154  36.13948
 155  -20.13479
 156  131.9223
 157  56.09676
 158  83.79514
 159  77.33968
 160  159.7605
 161  256.4589
 162  122.4489
 163  97.91967
 164  63.53403
 165  -10.47751
 166  91.27868
 167  169.0158
 168  152.6718
 169  368.6944
 170  226.0343
 171  262.5174
 172  308.4235
 173  223.1399
 174  212.5091
 175  67.81455
 176  64.19476
 177  133.4283
 178  177.433
 179  262.8408
 180  208.4548
 181  210.6028
 182  159.2085
 183  48.16637
 184  85.75998
 185  171.6308
 186  282.6942
 187  243.3971
 188  138.811
 189  163.7462
 190  152.0308
 191  46.74259
 192  68.07129
 193  127.1313
 194  119.2736
 195  246.4805
 196  261.6813
 197  167.0677
 198  38.78003
 199  165.5433
 200  291.5418
 201  218.4686
 202  98.55315
 203  136.7341
 204  27.82277
 205  -26.95051
 206  42.78288
 207  31.70294
 208  166.254
 209  149.5492
 210  237.5217
 211  280.72
 212  240.084
 213  159.5003
 214  217.0854
 215  263.5063
 216  312.5985
 217  215.2513
 218  106.0695
 219  79.58991
 220  262.4797
 221  413.4922
 222  204.8891
 223  214.6533
 224  253.6399
 225  174.045
 226  88.24771
 227  194.0187
 228  286.0425
 229  185.72
 230  169.7087
 231  84.2327
 232  215.4359
 233  219.5453
 234  203.2051
 235  158.7595
 236  264.4962
 237  186.0529
 238  92.22724
 239  121.0342
 240  92.86123
 241  181.4042
 242  245.1054
 243  224.8313
 244  173.0738
 245  132.9494
 246  135.1006
 247  148.4688
 248  109.3986
 249  203.5801
 250  247.2887
 251  303.5068
 252  252.0427
 253  112.5022
 254  56.4259
 255  192.5064
 256  211.4211
 257  145.1926
 258  280.7064
 259  383.8199
 260  165.4492
 261  30.96316
 262  143.3074
 263  255.6444
 264  99.90863
 265  138.2001
 266  236.4619
 267  206.3456
 268  235.9539
 269  299.6064
 270  205.7965
 271  115.5233
 272  18.82723
 273  111.6208
 274  124.0792
 275  142.5156
 276  178.5023
 277  204.0374
 278  228.0943
 279  256.4877
 280  245.8684
 281  243.4188
 282  79.02767
 283  77.3032
 284  41.44252
 285  82.38444
 286  103.2443
 287  123.386
 288  144.3659
 289  206.5781
 290  144.8033
 291  137.692
 292  20.83941
 293  -18.74929
 294  4.385422
 295  44.52024
 296  84.99051
 297  204.249
 298  189.3389
 299  147.2074
 300  195.3673
 301  280.7771
 302  293.3211
 303  202.8043
 304  236.5656
 305  243.8254
 306  130.2904
 307  191.0873
 308  178.7353
 309  76.34656
 310  226.0781
 311  280.9672
 312  186.3248
 313  270.3976
 314  218.2484
 315  139.8807
 316  134.6856
 317  119.0569
 318  220.9036
 319  237.0449
 320  220.3336
 321  191.7068
 322  43.48398
 323  132.6744
 324  236.7973
 325  109.314
 326  -8.017631
 327  25.58776
 328  70.73687
 329  82.17854
 330  235.7563
 331  155.993
 332  64.69366
 333  71.2414
 334  131.9169
 335  289.9948
 336  203.5691
 337  189.5554
 338  111.6635
 339  83.86632
 340  106.4782
 341  96.80053
 342  217.8448
 343  78.35912
 344  163.9086
 345  203.9442
 346  174.3988
 347  58.12025
 348  10.69014
 349  -12.22021
 350  114.2923
 351  271.5918
 352  299.9064
 353  198.2161
 354  135.8509
 355  63.05048
 356  71.3874
 357  108.8414
 358  160.4497
 359  123.7363
 360  155.1561
 361  260.3642
 362  107.8468
 363  69.99142
 364  26.72789
 365  87.54766
 366  111.9068
 367  61.65445
 368  168.6146
 369  126.4435
 370  135.1452
 371  162.4859
 372  107.0229
 373  246.4146
 374  152.0892
 375  148.5884
 376  339.1112
 377  264.3958
 378  179.8213
 379  95.02424
 380  124.3057
 381  190.2614
 382  236.7795
 383  217.619
 384  185.1173
 385  143.5117
 386  255.2247
 387  154.0761
 388  115.339
 389  152.4586
 390  159.0801
 391  207.6552
 392  142.3745
 393  159.5575
 394  44.22251
 395  63.89766
 396  151.3027
 397  204.7193
 398  281.9464
 399  57.88319
 400  52.69065
 401  164.664
 402  248.1764
 403  292.3404
 404  336.9606
 405  336.1934
 406  296.9071
 407  248.7692
 408  195.1969
 409  96.47702
 410  70.89749
 411  185.8255
 412  214.2631
 413  273.8669
 414  277.2691
 415  183.0694
 416  201.3331
 417  229.1195
 418  248.4832
 419  173.0023
 420  25.63288
 421  56.75598
 422  171.1945
 423  199.9776
 424  232.6879
 425  275.6069
 426  293.1305
 427  161.223
 428  178.1709
 429  198.1737
 430  162.0722
 431  189.3024
 432  241.3266
 433  224.5435
 434  119.3117
 435  104.4669
 436  157.8011
 437  145.4043
 438  225.2459
 439  204.7348
 440  104.0399
 441  150.1699
 442  244.3913
 443  269.1385
 444  139.7028
 445  184.246
 446  229.6706
 447  96.90405
 448  52.71081
 449  94.88599
 450  184.5011
 451  163.1634
 452  164.5229
 453  154.5912
 454  261.5083
 455  219.5572
 456  106.7171
 457  119.4522
 458  283.3207
 459  225.2525
 460  133.0654
 461  197.979
 462  247.1306
 463  257.6794
 464  269.5953
 465  194.4588
 466  189.5573
 467  208.2188
 468  150.7516
 469  91.59158
 470  140.6221
 471  165.295
 472  287.8639
 473  382.7527
 474  279.6419
 475  200.4242
 476  169.3952
 477  242.2364
 478  262.2108
 479  226.8284
 480  188.94
 481  245.2343
 482  283.9348
 483  240.5936
 484  211.756
 485  227.0519
 486  184.3225
 487  117.391
 488  157.4508
 489  246.7099
 490  89.22102
 491  123.0788
 492  221.7688
 493  306.9428
 494  319.2146
 495  354.4659
 496  332.3875
 497  196.5935
 498  115.7024
 499  158.1827
 500  216.7023
 501  237.7576
 502  211.6383
 503  228.0547
 504  296.8022
 505  242.7839
 506  221.7262
 507  293.9388
 508  403.5137
 509  358.3575
 510  420.6022
 511  683.1613
