# Input file       =  1202237599.111301_cleaned.dat
# Candidate        =  PSR_0332+5434
# Telescope        =  AR
# Epoch_topo       =  58158.786818417837
# Epoch_bary       =  N/A
# T_sample         =  0.002
# Data Folded      =  7340032
# Data Avg         =  0.01188601073751 
# Data StdDev      =  0.999995856906797
# Profile Bins     =  512
# Profile Avg      =  170.434939744391 
# Profile StdDev   =  119.732540311637 
# Reduced chi-sqr  =  1.279
# Prob(Noise)      <  1.91e-05   (~4.1 sigma)
# P_topo (ms)      =  714.579216930636  +/- 0.000232
# P'_topo (s/s)    =  -0                +/- 1.22e-10
# P''_topo (s/s^2) =  0                 +/- 5.4e-14
# P_bary (ms)      =  N/A
# P'_bary (s/s)    =  N/A
# P''_bary (s/s^2) =  N/A
# P_orb (s)        =  N/A
# asin(i)/c (s)    =  N/A
# eccentricity     =  N/A
# w (rad)          =  N/A
# T_peri           =  N/A
######################################################
   0  803.9195
   1  686.5093
   2  578.6048
   3  442.7081
   4  232.5987
   5  281.2429
   6  321.088
   7  253.063
   8  315.0561
   9  253.8253
  10  182.9431
  11  87.17723
  12  168.1445
  13  315.1657
  14  227.5863
  15  102.8991
  16  175.3415
  17  185.0629
  18  195.8497
  19  267.5069
  20  216.5808
  21  107.8755
  22  70.40212
  23  58.38143
  24  81.57214
  25  136.9755
  26  101.6457
  27  68.00347
  28  190.5603
  29  306.29
  30  160.4137
  31  34.3187
  32  65.15106
  33  194.0441
  34  340.268
  35  133.2348
  36  31.48163
  37  134.1038
  38  148.7525
  39  105.6931
  40  87.64447
  41  143.7683
  42  100.0107
  43  182.1171
  44  245.7397
  45  197.6892
  46  170.8984
  47  96.23569
  48  132.1302
  49  184.3103
  50  223.3041
  51  208.339
  52  316.8282
  53  278.7444
  54  257.105
  55  332.0645
  56  309.3161
  57  214.9987
  58  207.1054
  59  234.674
  60  244.6431
  61  114.9948
  62  47.58904
  63  146.4198
  64  88.32984
  65  176.6392
  66  59.48664
  67  101.8904
  68  47.72913
  69  93.21002
  70  231.2092
  71  269.3505
  72  204.2736
  73  175.102
  74  196.3581
  75  283.6258
  76  221.7785
  77  267.6017
  78  237.8175
  79  218.28
  80  215.2106
  81  118.8409
  82  125.0564
  83  158.7772
  84  115.7002
  85  215.6854
  86  239.1269
  87  90.46271
  88  151.2415
  89  135.0238
  90  223.6657
  91  183.737
  92  93.59611
  93  185.3222
  94  130.677
  95  105.3991
  96  148.748
  97  129.6101
  98  99.62424
  99  125.5839
 100  58.12686
 101  96.55946
 102  215.3567
 103  104.8084
 104  222.5984
 105  213.0461
 106  219.8909
 107  292.5225
 108  249.7495
 109  156.0742
 110  78.04866
 111  177.585
 112  274.5203
 113  166.9772
 114  205.3249
 115  199.2365
 116  338.3985
 117  310.2322
 118  273.9052
 119  270.2183
 120  247.4543
 121  167.7072
 122  201.08
 123  149.1647
 124  224.7531
 125  184.1654
 126  138.4025
 127  288.9046
 128  332.5506
 129  329.6794
 130  56.78944
 131  216.7082
 132  272.9932
 133  218.3817
 134  176.7171
 135  267.4908
 136  223.482
 137  136.2744
 138  213.3533
 139  146.9491
 140  173.8056
 141  74.94258
 142  180.3501
 143  244.4015
 144  214.1994
 145  281.8898
 146  402.8699
 147  326.8617
 148  196.1126
 149  131.8359
 150  227.8555
 151  304.036
 152  286.7765
 153  175.5699
 154  150.7652
 155  173.1713
 156  169.6763
 157  109.2501
 158  178.225
 159  139.7018
 160  155.1366
 161  155.9862
 162  151.3895
 163  254.9284
 164  249.9102
 165  281.8121
 166  275.7417
 167  227.3851
 168  67.77047
 169  97.45275
 170  210.9915
 171  106.9229
 172  76.30913
 173  107.3349
 174  77.79285
 175  101.9135
 176  239.4624
 177  165.5743
 178  134.5986
 179  43.97626
 180  114.9983
 181  177.7026
 182  179.0494
 183  198.0461
 184  206.2787
 185  278.5213
 186  167.2867
 187  65.99959
 188  125.231
 189  138.0645
 190  117.1481
 191  149.4091
 192  161.3818
 193  297.8735
 194  291.5887
 195  220.1685
 196  258.1285
 197  229.6839
 198  143.0982
 199  59.60424
 200  40.88796
 201  108.5149
 202  78.67322
 203  181.336
 204  255.1663
 205  123.8078
 206  61.5778
 207  94.68082
 208  93.54249
 209  90.45931
 210  136.9711
 211  274.3412
 212  241.8459
 213  200.7591
 214  202.2402
 215  167.5435
 216  215.2186
 217  123.8217
 218  128.577
 219  148.8574
 220  244.5477
 221  213.6987
 222  178.9871
 223  237.14
 224  104.2435
 225  126.0219
 226  102.0137
 227  213.0818
 228  231.9192
 229  112.169
 230  161.9725
 231  97.16434
 232  139.3756
 233  172.6495
 234  157.1102
 235  152.5896
 236  132.3997
 237  120.8467
 238  116.6106
 239  198.6521
 240  198.4888
 241  72.95149
 242  177.1415
 243  181.1176
 244  123.0125
 245  81.20198
 246  192.4774
 247  162.8316
 248  93.08773
 249  162.7073
 250  157.9153
 251  150.7394
 252  119.9615
 253  110.9954
 254  109.087
 255  125.8395
 256  145.9413
 257  121.7767
 258  172.6726
 259  148.8122
 260  201.5473
 261  285.5157
 262  209.4721
 263  183.6056
 264  189.3583
 265  238.7889
 266  240.2309
 267  210.5118
 268  140.7915
 269  28.70529
 270  155.8981
 271  208.0389
 272  212.803
 273  202.759
 274  194.1652
 275  199.6475
 276  222.9163
 277  116.2386
 278  159.9499
 279  22.1219
 280  105.0227
 281  60.53687
 282  66.08537
 283  105.3729
 284  93.27345
 285  153.025
 286  95.24243
 287  48.02885
 288  144.8954
 289  76.60825
 290  14.88351
 291  134.0399
 292  62.45786
 293  138.8959
 294  183.2397
 295  159.8671
 296  132.3934
 297  131.5602
 298  191.3904
 299  214.9746
 300  119.6394
 301  107.5452
 302  248.8014
 303  270.0701
 304  104.2279
 305  108.4618
 306  221.0237
 307  66.73772
 308  75.60067
 309  77.45038
 310  82.10941
 311  208.4297
 312  232.5564
 313  18.83762
 314  92.15131
 315  154.6306
 316  168.2766
 317  189.4305
 318  148.1364
 319  172.5392
 320  182.9095
 321  145.5874
 322  78.49887
 323  5.207188
 324  38.92096
 325  71.60544
 326  41.72855
 327  26.4782
 328  62.98078
 329  114.4734
 330  124.2649
 331  58.29721
 332  84.47316
 333  255.1815
 334  338.2282
 335  176.2928
 336  150.4376
 337  242.94
 338  89.34943
 339  56.01604
 340  199.2114
 341  179.081
 342  238.4197
 343  209.3098
 344  251.009
 345  124.4923
 346  331.6121
 347  262.5143
 348  155.695
 349  171.6552
 350  150.5076
 351  0.5048606
 352  63.33684
 353  113.3032
 354  80.1325
 355  67.79
 356  125.4586
 357  165.8067
 358  50.75525
 359  34.43214
 360  56.44983
 361  -3.817667
 362  26.41536
 363  83.38782
 364  263.9205
 365  210.4476
 366  93.30434
 367  54.81569
 368  97.02271
 369  202.8829
 370  194.8166
 371  241.3562
 372  173.3863
 373  142.1398
 374  162.0916
 375  172.539
 376  125.1438
 377  34.59155
 378  52.87209
 379  9.301059
 380  66.96165
 381  159.0177
 382  212.0564
 383  220.0198
 384  93.24178
 385  -39.85995
 386  4.726392
 387  69.52278
 388  45.99943
 389  28.27842
 390  -22.84834
 391  27.32841
 392  -46.302
 393  29.45736
 394  117.0387
 395  219.0391
 396  61.6408
 397  144.0843
 398  165.7223
 399  90.5099
 400  86.41171
 401  213.9857
 402  203.4795
 403  149.8511
 404  109.9486
 405  24.51355
 406  102.9328
 407  223.126
 408  312.6484
 409  298.0384
 410  264.7707
 411  237.8308
 412  264.6833
 413  126.7754
 414  45.13459
 415  85.51169
 416  55.64707
 417  70.34853
 418  164.0706
 419  152.4315
 420  92.52622
 421  149.2216
 422  155.7156
 423  236.6728
 424  178.9952
 425  156.8274
 426  150.4887
 427  133.1876
 428  152.2088
 429  241.0807
 430  174.5164
 431  130.5706
 432  220.3818
 433  314.2866
 434  209.8506
 435  235.1151
 436  115.2254
 437  44.96616
 438  26.52711
 439  151.2094
 440  277.8392
 441  323.9707
 442  194.5241
 443  104.4966
 444  99.43122
 445  103.6714
 446  120.7468
 447  85.20053
 448  114.985
 449  117.9814
 450  221.7971
 451  338.6164
 452  178.6054
 453  168.3001
 454  209.8057
 455  53.15498
 456  -11.44708
 457  141.5685
 458  201.9902
 459  241.1789
 460  89.08039
 461  219.6619
 462  245.0466
 463  215.242
 464  195.2682
 465  253.9402
 466  253.8796
 467  89.09288
 468  138.7092
 469  274.9838
 470  305.8377
 471  169.2467
 472  220.6721
 473  316.624
 474  153.9968
 475  31.63468
 476  167.0546
 477  108.3978
 478  253.3196
 479  128.6044
 480  154.8586
 481  106.0967
 482  53.24968
 483  35.87764
 484  159.5746
 485  76.13517
 486  173.2672
 487  168.7007
 488  50.69531
 489  61.39059
 490  134.3843
 491  301.5547
 492  317.9108
 493  254.7798
 494  262.6204
 495  238.642
 496  248.0881
 497  272.7762
 498  289.935
 499  246.9641
 500  268.8669
 501  262.5369
 502  320.9688
 503  260.1028
 504  118.5669
 505  194.084
 506  214.6768
 507  366.8601
 508  475.4476
 509  470.285
 510  633.7885
 511  818.0771
