# Input file       =  1202237599.111301_cleaned.dat
# Candidate        =  PSR_0332+5434
# Telescope        =  AR
# Epoch_topo       =  58158.786818417837
# Epoch_bary       =  N/A
# T_sample         =  0.002
# Data Folded      =  7340032
# Data Avg         =  0.01188601073751 
# Data StdDev      =  0.999995856906797
# Profile Bins     =  512
# Profile Avg      =  170.434939867936 
# Profile StdDev   =  119.732540311637 
# Reduced chi-sqr  =  1.280
# Prob(Noise)      <  1.81e-05   (~4.1 sigma)
# P_topo (ms)      =  714.57921707486   +/- 0.000234
# P'_topo (s/s)    =  -0                +/- 1.23e-10
# P''_topo (s/s^2) =  0                 +/- 5.45e-14
# P_bary (ms)      =  N/A
# P'_bary (s/s)    =  N/A
# P''_bary (s/s^2) =  N/A
# P_orb (s)        =  N/A
# asin(i)/c (s)    =  N/A
# eccentricity     =  N/A
# w (rad)          =  N/A
# T_peri           =  N/A
######################################################
   0  755.1315
   1  611.2739
   2  524.4833
   3  295.8139
   4  238.5771
   5  320.5066
   6  279.4604
   7  302.3816
   8  293.6273
   9  208.7077
  10  125.4292
  11  99.08298
  12  271.8097
  13  283.701
  14  136.4485
  15  127.8674
  16  209.3979
  17  161.7596
  18  253.9348
  19  239.9468
  20  151.1103
  21  83.33536
  22  77.34507
  23  62.15319
  24  120.6835
  25  129.8052
  26  55.99656
  27  138.8752
  28  248.6993
  29  290.9437
  30  34.62016
  31  59.78061
  32  104.4982
  33  309.5466
  34  247.5063
  35  44.99075
  36  93.09871
  37  151.4519
  38  122.4644
  39  85.91172
  40  121.98
  41  124.0635
  42  138.9038
  43  215.4568
  44  230.6684
  45  174.6496
  46  128.3765
  47  107.1448
  48  161.4448
  49  228.5415
  50  196.2629
  51  273.7845
  52  309.3229
  53  250.0302
  54  287.574
  55  333.1037
  56  253.3866
  57  213.3013
  58  215.9385
  59  262.5689
  60  173.5547
  61  56.25943
  62  107.6298
  63  120.7193
  64  128.2257
  65  128.3547
  66  51.11474
  67  105.2082
  68  31.36545
  69  192.9217
  70  269.0859
  71  232.6862
  72  182.1195
  73  179.7441
  74  253.2877
  75  251.0698
  76  249.0871
  77  246.0186
  78  232.7196
  79  205.7417
  80  183.265
  81  83.37347
  82  171.0916
  83  129.3488
  84  145.5034
  85  272.2935
  86  131.611
  87  115.872
  88  160.148
  89  157.2539
  90  257.9178
  91  97.68766
  92  149.5887
  93  149.7382
  94  118.4214
  95  120.2734
  96  166.1987
  97  86.34798
  98  125.0113
  99  100.8042
 100  30.67501
 101  204.6474
 102  140.6193
 103  160.7722
 104  243.1113
 105  197.7378
 106  250.396
 107  307.8132
 108  179.4785
 109  113.2442
 110  90.03411
 111  273.3388
 112  202.8975
 113  204.3369
 114  168.8104
 115  288.2873
 116  338.5039
 117  279.6705
 118  279.2745
 119  255.2252
 120  208.1826
 121  162.076
 122  212.2048
 123  153.3876
 124  264.2786
 125  98.78785
 126  241.5464
 127  307.3814
 128  357.2171
 129  178.8911
 130  84.57664
 131  309.0172
 132  221.6042
 133  210.6299
 134  198.5501
 135  267.9019
 136  156.6492
 137  171.8891
 138  191.9857
 139  156.7123
 140  118.6119
 141  115.6891
 142  235.0739
 143  233.3789
 144  226.312
 145  371.8653
 146  372.0064
 147  272.0165
 148  122.5089
 149  185.4158
 150  270.3624
 151  315.8765
 152  224.9688
 153  152.0699
 154  148.0575
 155  192.6649
 156  115.3751
 157  157.9976
 158  160.4066
 159  130.5566
 160  188.0868
 161  122.8832
 162  215.3425
 163  253.345
 164  270.7167
 165  285.7948
 166  259.5203
 167  134.171
 168  56.94728
 169  181.9543
 170  153.2464
 171  67.2318
 172  88.16943
 173  105.2201
 174  75.09084
 175  175.0235
 176  228.5382
 177  126.3581
 178  118.7135
 179  54.56355
 180  163.3529
 181  193.6497
 182  151.1258
 183  225.2028
 184  219.8852
 185  266.8777
 186  84.90223
 187  92.117
 188  145.589
 189  107.0104
 190  147.2873
 191  151.7739
 192  240.7794
 193  312.57
 194  232.5784
 195  234.4915
 196  255.7663
 197  194.478
 198  83.05031
 199  39.22961
 200  82.52911
 201  98.08557
 202  106.2188
 203  257.8578
 204  182.6696
 205  76.4864
 206  77.64331
 207  102.433
 208  88.48442
 209  94.10127
 210  216.9028
 211  290.2774
 212  206.6003
 213  213.3734
 214  171.8994
 215  202.3059
 216  169.6137
 217  96.05763
 218  137.107
 219  199.7072
 220  259.7815
 221  157.61
 222  243.0819
 223  152.9517
 224  135.4157
 225  97.95256
 226  151.2564
 227  253.0137
 228  139.6474
 229  138.222
 230  133.4194
 231  100.3622
 232  191.512
 233  156.9482
 234  154.2532
 235  152.6719
 236  104.7674
 237  120.4019
 238  133.6099
 239  236.7672
 240  108.7637
 241  123.1766
 242  204.8676
 243  153.897
 244  78.57367
 245  144.5075
 246  189.6839
 247  114.8001
 248  132.4518
 249  147.9203
 250  180.2215
 251  115.5755
 252  136.3708
 253  83.67262
 254  139.9599
 255  124.0412
 256  147.544
 257  131.6267
 258  176.4279
 259  149.9266
 260  266.0898
 261  251.1658
 262  184.1558
 263  202.3516
 264  198.9731
 265  267.2339
 266  200.846
 267  198.8001
 268  48.42859
 269  88.44028
 270  203.2009
 271  211.1305
 272  212.4044
 273  191.8757
 274  185.0259
 275  228.1791
 276  151.2993
 277  148.9533
 278  81.47706
 279  49.20494
 280  110.8488
 281  32.1134
 282  120.4985
 283  82.86196
 284  144.662
 285  104.6673
 286  64.6619
 287  75.72312
 288  168.9048
 289  -8.773213
 290  103.2102
 291  100.1906
 292  85.81044
 293  181.4405
 294  166.8935
 295  143.0315
 296  130.5504
 297  144.0452
 298  237.1802
 299  148.3361
 300  116.3709
 301  172.81
 302  296.3542
 303  171.9095
 304  77.00345
 305  184.3287
 306  162.1439
 307  25.01121
 308  107.2936
 309  49.25136
 310  158.8082
 311  255.992
 312  104.9507
 313  15.12873
 314  151.0496
 315  163.0297
 316  186.9991
 317  171.9163
 318  144.6227
 319  185.9561
 320  163.8921
 321  112.9434
 322  35.33571
 323  11.5521
 324  63.34568
 325  52.82203
 326  34.92299
 327  41.93531
 328  103.4728
 329  116.7423
 330  108.2
 331  43.45933
 332  188.6591
 333  301.5317
 334  282.0037
 335  93.44449
 336  260.4087
 337  141.041
 338  50.0876
 339  146.7466
 340  188.2907
 341  222.684
 342  211.3889
 343  254.6876
 344  162.1196
 345  226.5705
 346  336.6397
 347  200.3899
 348  127.7409
 349  198.3614
 350  38.54755
 351  16.49084
 352  105.3302
 353  101.1623
 354  71.49471
 355  82.66415
 356  175.5672
 357  94.51133
 358  37.18696
 359  64.42847
 360  13.28802
 361  2.460153
 362  44.73535
 363  184.1246
 364  276.0479
 365  137.6897
 366  51.19697
 367  77.25939
 368  167.5153
 369  191.4062
 370  222.2907
 371  206.807
 372  145.0546
 373  159.1437
 374  170.4028
 375  169.8285
 376  48.51333
 377  46.16337
 378  18.94036
 379  34.04412
 380  112.9953
 381  199.5999
 382  222.7459
 383  173.0169
 384  -0.3495507
 385  -24.88447
 386  59.20195
 387  50.73184
 388  44.32422
 389  -21.85916
 390  11.88068
 391  -17.17383
 392  -10.97274
 393  79.42722
 394  195.8834
 395  116.4282
 396  92.82568
 397  175.8101
 398  151.4285
 399  41.70935
 400  172.7449
 401  215.8736
 402  178.4661
 403  121.1357
 404  55.92386
 405  43.78118
 406  189.4105
 407  263.9482
 408  334.3586
 409  258.6659
 410  277.736
 411  231.8148
 412  242.4125
 413  19.16668
 414  106.299
 415  31.21254
 416  80.33671
 417  89.70056
 418  202.9266
 419  84.72756
 420  139.7993
 421  147.5806
 422  205.811
 423  214.5381
 424  148.8632
 425  153.1014
 426  161.2037
 427  123.035
 428  235.6175
 429  194.8111
 430  133.754
 431  159.3406
 432  296.8787
 433  261.044
 434  215.6485
 435  189.4697
 436  69.73182
 437  13.49968
 438  91.48254
 439  208.0366
 440  332.4313
 441  252.6425
 442  132.3099
 443  99.59882
 444  111.3872
 445  112.3639
 446  93.9223
 447  105.0515
 448  121.69
 449  160.1134
 450  298.8303
 451  283.2978
 452  113.7938
 453  244.9611
 454  109.4604
 455  -6.794572
 456  67.9964
 457  189.5835
 458  249.3296
 459  125.3052
 460  159.0186
 461  246.7897
 462  228.5392
 463  200.5192
 464  215.313
 465  282.0143
 466  154.6454
 467  82.61703
 468  240.1773
 469  307.4085
 470  225.742
 471  168.3239
 472  295.2561
 473  255.748
 474  33.03746
 475  137.2383
 476  122.8415
 477  191.6991
 478  193.3602
 479  126.2981
 480  151.5241
 481  63.92258
 482  32.97171
 483  102.5867
 484  122.0899
 485  103.0024
 486  215.1229
 487  102.1793
 488  36.51814
 489  88.27534
 490  223.0703
 491  331.4691
 492  293.2589
 493  240.337
 494  265.3075
 495  244.22
 496  252.2127
 497  297.1445
 498  255.7439
 499  253.002
 500  267.7036
 501  287.3865
 502  336.0085
 503  141.7272
 504  160.7987
 505  198.5572
 506  294.4178
 507  442.2365
 508  460.4152
 509  527.0251
 510  767.2238
 511  830.4445
