# Input file       =  1202208038.118441_cleaned.dat
# Candidate        =  PSR_0332+5434
# Telescope        =  AR
# Epoch_topo       =  58158.444677296771
# Epoch_bary       =  N/A
# T_sample         =  0.002
# Data Folded      =  7208960
# Data Avg         =  0.0156457952362509
# Data StdDev      =  0.999959089404653
# Profile Bins     =  512
# Profile Avg      =  220.273219450581 
# Profile StdDev   =  118.654321376006 
# Reduced chi-sqr  =  1.921
# Prob(Noise)      <  4.47e-32   (~11.7 sigma)
# P_topo (ms)      =  714.578775869623  +/- 0.000111
# P'_topo (s/s)    =  -0                +/- 5.95e-11
# P''_topo (s/s^2) =  0                 +/- 2.67e-14
# P_bary (ms)      =  N/A
# P'_bary (s/s)    =  N/A
# P''_bary (s/s^2) =  N/A
# P_orb (s)        =  N/A
# asin(i)/c (s)    =  N/A
# eccentricity     =  N/A
# w (rad)          =  N/A
# T_peri           =  N/A
######################################################
   0  1020.303
   1  972.805
   2  783.275
   3  626.9114
   4  428.2367
   5  333.1717
   6  330.1373
   7  255.1138
   8  289.014
   9  275.844
  10  119.6875
  11  305.5016
  12  408.6577
  13  324.6901
  14  251.9171
  15  220.0391
  16  104.9055
  17  70.20222
  18  197.1713
  19  95.59175
  20  171.5442
  21  238.0801
  22  234.3827
  23  306.2573
  24  331.1347
  25  289.8524
  26  180.9048
  27  116.8259
  28  126.9357
  29  282.5879
  30  417.4008
  31  351.8362
  32  169.6908
  33  134.5784
  34  81.55297
  35  53.6312
  36  179.7555
  37  194.1124
  38  240.9746
  39  349.7469
  40  189.8971
  41  83.57131
  42  155.777
  43  205.7732
  44  164.6474
  45  151.9618
  46  148.5642
  47  84.60879
  48  -23.94716
  49  -14.08523
  50  -36.00875
  51  218.1414
  52  276.9526
  53  185.9415
  54  132.2695
  55  314.1104
  56  391.714
  57  214.3452
  58  53.4119
  59  152.195
  60  115.1773
  61  -31.78108
  62  40.48079
  63  278.5406
  64  271.222
  65  275.5329
  66  178.87
  67  187.0575
  68  242.129
  69  293.326
  70  342.7686
  71  290.2711
  72  364.5103
  73  446.4135
  74  345.5486
  75  192.0382
  76  258.1407
  77  297.9227
  78  319.4089
  79  364.6484
  80  411.9155
  81  387.1154
  82  308.7762
  83  275.9222
  84  256.7812
  85  168.9141
  86  92.52177
  87  233.9712
  88  360.0204
  89  269.7003
  90  158.2915
  91  222.6087
  92  278.7208
  93  120.7232
  94  71.78727
  95  133.9397
  96  232.2833
  97  315.2898
  98  192.8937
  99  157.914
 100  167.9065
 101  147.2897
 102  203.1932
 103  272.2581
 104  316.7964
 105  277.7005
 106  282.8996
 107  389.6419
 108  357.7247
 109  219.4261
 110  238.2846
 111  315.7492
 112  290.7862
 113  194.6604
 114  76.34708
 115  85.73691
 116  176.2327
 117  200.7443
 118  220.1088
 119  163.6213
 120  185.5223
 121  232.7398
 122  209.8383
 123  229.6739
 124  197.2363
 125  157.3275
 126  270.1461
 127  174.5467
 128  99.12474
 129  252.7911
 130  269.6089
 131  141.1638
 132  58.4078
 133  145.1279
 134  210.0214
 135  195.1356
 136  130.1928
 137  167.1556
 138  211.311
 139  212.6959
 140  114.8424
 141  -12.92366
 142  60.60701
 143  9.516378
 144  75.50948
 145  184.1499
 146  126.6496
 147  150.6274
 148  144.2014
 149  72.57791
 150  42.20989
 151  135.9911
 152  101.3837
 153  183.8974
 154  57.29353
 155  104.3207
 156  240.9404
 157  225.6205
 158  214.7198
 159  108.382
 160  193.4945
 161  301.3648
 162  347.5181
 163  144.6635
 164  104.3858
 165  87.0228
 166  168.1831
 167  177.9132
 168  160.9555
 169  219.8069
 170  239.6834
 171  190.7988
 172  291.585
 173  338.7468
 174  194.3888
 175  245.8762
 176  235.3199
 177  150.5326
 178  165.4049
 179  156.8513
 180  121.0589
 181  249.4967
 182  113.0134
 183  163.1703
 184  292.6496
 185  316.0124
 186  343.9488
 187  353.2148
 188  430.2775
 189  284.7437
 190  290.7246
 191  385.828
 192  274.3765
 193  192.4797
 194  256.3774
 195  155.7261
 196  184.7534
 197  257.0683
 198  231.1233
 199  97.17069
 200  100.0422
 201  220.9058
 202  304.3482
 203  245.2039
 204  301.9824
 205  246.3517
 206  284.3667
 207  263.1217
 208  247.5353
 209  250.5332
 210  272.0348
 211  280.2785
 212  230.59
 213  341.9299
 214  241.3479
 215  192.2023
 216  167.7115
 217  213.5255
 218  320.776
 219  377.9675
 220  411.8111
 221  329.2083
 222  246.1982
 223  121.8319
 224  202.2942
 225  325.2728
 226  224.2283
 227  189.8319
 228  411.1434
 229  326.8173
 230  78.32702
 231  -0.6351011
 232  165.3577
 233  144.5216
 234  231.2929
 235  325.9131
 236  409.6147
 237  202.5959
 238  48.49102
 239  140.7353
 240  149.9283
 241  164.8517
 242  252.945
 243  229.5292
 244  219.8841
 245  205.8695
 246  254.665
 247  183.3163
 248  7.322062
 249  24.47133
 250  228.5322
 251  147.6225
 252  175.1002
 253  284.6901
 254  300.6483
 255  288.828
 256  265.025
 257  199.4965
 258  175.9506
 259  201.1605
 260  289.2061
 261  251.166
 262  187.4798
 263  193.8725
 264  64.25587
 265  103.8451
 266  281.3669
 267  311.7786
 268  347.9136
 269  326.7955
 270  272.4599
 271  211.4783
 272  185.7969
 273  241.3304
 274  340.2454
 275  298.7858
 276  286.4583
 277  131.3087
 278  200.9975
 279  273.143
 280  152.8013
 281  195.7348
 282  253.4322
 283  60.46693
 284  95.95045
 285  308.5325
 286  374.8741
 287  355.3099
 288  308.401
 289  265.0295
 290  276.4578
 291  201.5793
 292  160.6415
 293  204.7509
 294  393.5658
 295  299.7548
 296  209.2026
 297  199.728
 298  210.7456
 299  99.02341
 300  122.6305
 301  149.0114
 302  256.8869
 303  289.6376
 304  241.6319
 305  72.78257
 306  101.8016
 307  110.4691
 308  310.8337
 309  248.2376
 310  273.2765
 311  257.7271
 312  183.8759
 313  116.1007
 314  29.78913
 315  88.2774
 316  257.4566
 317  302.8654
 318  370.3343
 319  198.4495
 320  318.8052
 321  313.1741
 322  220.0282
 323  311.1747
 324  333.7744
 325  76.92851
 326  151.8533
 327  194.8873
 328  227.4895
 329  307.8915
 330  241.9586
 331  129.1967
 332  79.05054
 333  143.1528
 334  52.57453
 335  184.1832
 336  409.5887
 337  320.6656
 338  177.4095
 339  234.0648
 340  202.3718
 341  208.908
 342  255.0087
 343  340.3854
 344  410.6623
 345  429.743
 346  314.9927
 347  308.1153
 348  171.5317
 349  101.1496
 350  153.9375
 351  218.9748
 352  191.6661
 353  255.1923
 354  166.4006
 355  322.5659
 356  238.429
 357  36.4183
 358  223.3564
 359  179.6823
 360  315.3146
 361  324.6665
 362  244.6588
 363  169.0802
 364  64.68367
 365  167.1924
 366  225.3735
 367  111.1336
 368  184.1218
 369  282.8384
 370  152.832
 371  186.2219
 372  285.177
 373  366.8668
 374  331.9739
 375  233.7164
 376  202.0626
 377  242.5076
 378  216.8705
 379  272.9724
 380  258.1762
 381  147.0612
 382  209.0635
 383  177.0823
 384  278.4041
 385  333.6508
 386  150.0612
 387  151.8701
 388  206.0826
 389  169.6883
 390  137.6773
 391  90.91065
 392  43.76657
 393  93.69927
 394  195.2616
 395  287.1944
 396  284.5535
 397  111.7776
 398  138.4052
 399  266.9591
 400  255.9165
 401  305.8977
 402  219.4875
 403  188.9856
 404  210.7923
 405  79.11682
 406  242.689
 407  254.3854
 408  248.9693
 409  271.3264
 410  276.0873
 411  203.5074
 412  98.05394
 413  114.7799
 414  76.16492
 415  -70.18821
 416  115.5312
 417  223.9776
 418  215.0091
 419  189.3371
 420  183.3712
 421  288.6085
 422  322.9538
 423  302.6907
 424  196.632
 425  84.53831
 426  116.5398
 427  297.845
 428  267.0516
 429  276.8415
 430  251.4308
 431  184.7196
 432  132.9095
 433  84.64337
 434  126.3796
 435  274.831
 436  309.292
 437  227.8941
 438  85.78869
 439  141.9016
 440  185.0273
 441  -72.01693
 442  14.33404
 443  234.576
 444  193.7632
 445  231.0745
 446  163.9024
 447  124.5152
 448  198.6853
 449  156.7571
 450  138.1698
 451  222.1612
 452  278.2871
 453  262.4664
 454  31.77395
 455  38.96105
 456  142.0684
 457  99.15161
 458  108.6068
 459  122.9515
 460  268.3855
 461  270.9643
 462  200.2546
 463  215.2821
 464  86.70352
 465  135.688
 466  203.1858
 467  184.0834
 468  134.6694
 469  281.4262
 470  355.1482
 471  428.2205
 472  322.8436
 473  153.7449
 474  91.63133
 475  96.84589
 476  117.0186
 477  190.4596
 478  118.2986
 479  75.51403
 480  36.66235
 481  41.53857
 482  271.8372
 483  365.1132
 484  307.7408
 485  268.1581
 486  351.8611
 487  285.6813
 488  110.9086
 489  186.6007
 490  174.6061
 491  192.1694
 492  76.1978
 493  182.2372
 494  208.7241
 495  81.70238
 496  132.6976
 497  225.5282
 498  347.1087
 499  216.5842
 500  248.7497
 501  280.838
 502  384.9012
 503  312.1697
 504  354.3165
 505  440.3314
 506  239.6004
 507  179.2626
 508  364.0069
 509  598.851
 510  749.0983
 511  975.472
