# Input file       =  1202380413.111722_cleaned.dat
# Candidate        =  PSR_0332+5434
# Telescope        =  AR
# Epoch_topo       =  58160.439758237524
# Epoch_bary       =  N/A
# T_sample         =  0.002
# Data Folded      =  7143424
# Data Avg         =  0.0152881864047156
# Data StdDev      =  1.00005031487631 
# Profile Bins     =  512
# Profile Avg      =  213.356924741309 
# Profile StdDev   =  118.124527603836 
# Reduced chi-sqr  =  1.457
# Prob(Noise)      <  6.06e-11   (~6.4 sigma)
# P_topo (ms)      =  714.579278125288  +/- 0.000241
# P'_topo (s/s)    =  -0                +/- 1.31e-10
# P''_topo (s/s^2) =  0                 +/- 5.93e-14
# P_bary (ms)      =  N/A
# P'_bary (s/s)    =  N/A
# P''_bary (s/s^2) =  N/A
# P_orb (s)        =  N/A
# asin(i)/c (s)    =  N/A
# eccentricity     =  N/A
# w (rad)          =  N/A
# T_peri           =  N/A
######################################################
   0  835.2926
   1  776.447
   2  694.884
   3  566.6192
   4  269.2075
   5  229.4141
   6  356.5313
   7  217.9022
   8  235.9474
   9  200.7333
  10  230.7052
  11  237.1254
  12  346.136
  13  271.0072
  14  250.5484
  15  272.906
  16  220.6134
  17  139.9027
  18  189.0187
  19  312.801
  20  266.0125
  21  266.8047
  22  160.6939
  23  208.289
  24  223.6403
  25  197.0408
  26  174.6835
  27  129.3121
  28  169.7709
  29  237.2768
  30  344.8719
  31  311.3396
  32  229.7688
  33  197.5211
  34  293.7294
  35  280.8551
  36  273.2852
  37  268.8844
  38  209.0786
  39  233.7203
  40  295.1912
  41  353.9336
  42  213.0641
  43  143.4165
  44  70.38339
  45  128.3136
  46  143.6729
  47  259.5949
  48  226.3768
  49  178.3044
  50  289.7155
  51  227.3889
  52  283.9054
  53  191.1354
  54  107.934
  55  29.61425
  56  72.28304
  57  79.71019
  58  118.3623
  59  163.3236
  60  107.2386
  61  173.3079
  62  173.3112
  63  198.8948
  64  173.8044
  65  150.1184
  66  230.84
  67  159.4573
  68  219.7962
  69  159.6004
  70  172.0512
  71  190.0974
  72  164.091
  73  270.773
  74  300.6627
  75  252.8127
  76  262.8235
  77  239.9215
  78  199.0409
  79  207.0153
  80  221.9649
  81  221.0842
  82  267.0367
  83  166.74
  84  272.2208
  85  199.7194
  86  115.9552
  87  21.27928
  88  118.7463
  89  188.6649
  90  40.48462
  91  28.89053
  92  209.6798
  93  190.0997
  94  166.8336
  95  228.1067
  96  310.9383
  97  242.4488
  98  82.774
  99  126.8186
 100  242.6792
 101  136.3259
 102  23.87459
 103  60.01556
 104  167.858
 105  113.1117
 106  -98.42146
 107  61.15499
 108  250.047
 109  247.2028
 110  142.1029
 111  62.1056
 112  139.7573
 113  148.5631
 114  198.0485
 115  94.60894
 116  123.1195
 117  352.853
 118  412.9391
 119  243.4247
 120  148.7939
 121  140.0345
 122  193.8857
 123  115.3406
 124  72.27046
 125  149.3434
 126  191.6108
 127  108.9082
 128  113.3254
 129  178.7735
 130  197.4276
 131  251.5715
 132  363.6445
 133  262.7683
 134  209.773
 135  147.871
 136  323.4791
 137  329.2974
 138  205.9121
 139  108.9796
 140  305.9305
 141  190.1007
 142  141.8727
 143  151.5841
 144  72.72139
 145  179.2357
 146  307.8625
 147  295.3315
 148  381.906
 149  197.2833
 150  204.6346
 151  100.2125
 152  131.7923
 153  251.6481
 154  275.68
 155  234.9194
 156  172.4351
 157  133.2325
 158  172.3891
 159  80.10059
 160  49.9827
 161  156.524
 162  238.7678
 163  305.5189
 164  100.6771
 165  113.7049
 166  242.6733
 167  259.3575
 168  140.0507
 169  164.1217
 170  146.645
 171  124.2296
 172  43.96914
 173  83.52137
 174  139.4258
 175  219.941
 176  244.412
 177  141.2053
 178  63.69963
 179  200.1012
 180  217.8123
 181  227.1031
 182  188.3893
 183  188.5862
 184  10.09391
 185  56.41691
 186  219.7416
 187  281.2795
 188  176.8565
 189  140.0127
 190  185.601
 191  8.533078
 192  101.6
 193  90.32331
 194  59.94799
 195  103.6449
 196  217.2872
 197  268.3174
 198  68.46519
 199  275.7393
 200  207.7501
 201  129.1632
 202  204.9078
 203  291.3946
 204  310.156
 205  299.9073
 206  249.3741
 207  140.6939
 208  121.0499
 209  218.9829
 210  185.5566
 211  206.6644
 212  251.647
 213  152.0279
 214  271.453
 215  135.7613
 216  44.53941
 217  184.5146
 218  234.7187
 219  244.9295
 220  286.0567
 221  275.0464
 222  244.5176
 223  130.9668
 224  38.87736
 225  89.13157
 226  166.5996
 227  213.0406
 228  176.6343
 229  271.5902
 230  203.6164
 231  250.6912
 232  308.6794
 233  189.5058
 234  301.0364
 235  361.8296
 236  165.6456
 237  128.7575
 238  164.2018
 239  145.3638
 240  129.7584
 241  155.8231
 242  247.3028
 243  219.2458
 244  125.1378
 245  127.2625
 246  152.555
 247  91.01522
 248  176.9082
 249  226.6513
 250  164.8913
 251  158.5315
 252  294.015
 253  195.3654
 254  121.703
 255  234.6152
 256  335.8949
 257  269.7804
 258  233.4628
 259  286.2202
 260  342.7082
 261  336.8055
 262  353.3628
 263  316.6467
 264  156.3752
 265  10.88863
 266  44.34842
 267  208.0785
 268  164.1764
 269  125.8967
 270  228.5013
 271  265.4615
 272  192.0776
 273  220.0607
 274  207.7757
 275  200.2076
 276  80.54629
 277  148.1191
 278  300.339
 279  263.6971
 280  327.6765
 281  366.2162
 282  210.8091
 283  196.6485
 284  239.4193
 285  416.6602
 286  408.4809
 287  355.3318
 288  395.9168
 289  357.0939
 290  234.7931
 291  214.8274
 292  218.1929
 293  190.3554
 294  157.4952
 295  219.8106
 296  90.17376
 297  186.6208
 298  267.1405
 299  157.7398
 300  189.4659
 301  173.0837
 302  169.1451
 303  154.0122
 304  170.9747
 305  217.4237
 306  208.4355
 307  239.5958
 308  281.4488
 309  182.3979
 310  190.3185
 311  204.7958
 312  179.2947
 313  84.54398
 314  164.8767
 315  214.4821
 316  303.9604
 317  262.8814
 318  307.8038
 319  314.6129
 320  138.954
 321  141.8314
 322  157.5894
 323  394.5199
 324  254.4451
 325  184.0079
 326  254.3455
 327  124.9268
 328  280.7908
 329  240.3594
 330  243.9967
 331  339.0328
 332  257.1025
 333  336.756
 334  257.8724
 335  227.3041
 336  313.506
 337  257.3006
 338  257.9574
 339  321.6913
 340  277.3672
 341  226.4978
 342  240.2992
 343  192.8678
 344  195.037
 345  182.4498
 346  274.0451
 347  400.8819
 348  261.5169
 349  252.2661
 350  272.5188
 351  216.3826
 352  197.3747
 353  218.868
 354  218.581
 355  96.58999
 356  138.721
 357  380.7922
 358  151.6817
 359  117.6004
 360  261.1959
 361  255.5619
 362  195.6043
 363  183.4793
 364  293.0756
 365  377.8614
 366  262.8999
 367  274.3902
 368  231.4258
 369  151.2144
 370  172.7845
 371  262.2433
 372  231.8484
 373  39.72068
 374  45.34162
 375  97.31882
 376  115.5744
 377  144.4703
 378  315.0759
 379  176.6129
 380  188.5594
 381  122.3627
 382  269.4059
 383  213.7945
 384  155.7207
 385  187.4045
 386  305.5439
 387  294.0276
 388  87.94019
 389  70.56355
 390  160.7532
 391  68.7895
 392  148.097
 393  278.5373
 394  270.447
 395  204.7668
 396  223.0226
 397  159.2377
 398  286.9019
 399  139.1342
 400  171.9207
 401  150.3609
 402  52.11417
 403  137.7146
 404  44.76418
 405  69.67415
 406  148.6672
 407  155.4639
 408  145.8398
 409  124.3149
 410  193.696
 411  296.8446
 412  186.8126
 413  154.2955
 414  158.426
 415  271.3979
 416  223.9868
 417  167.9023
 418  314.0858
 419  399.987
 420  208.6457
 421  110.4703
 422  157.473
 423  170.6631
 424  260.6149
 425  429.4188
 426  303.1322
 427  229.9757
 428  140.574
 429  247.2703
 430  325.5818
 431  322.6435
 432  287.7583
 433  201.1245
 434  134.4584
 435  167.6983
 436  249.6931
 437  187.1559
 438  180.2501
 439  206.0011
 440  225.133
 441  228.5147
 442  212.3552
 443  268.2736
 444  222.334
 445  329.6819
 446  285.13
 447  116.6529
 448  203.596
 449  236.3673
 450  156.9306
 451  223.5482
 452  294.9985
 453  274.2791
 454  122.3028
 455  188.6949
 456  279.6652
 457  254.1333
 458  251.8422
 459  323.6341
 460  170.3086
 461  281.9686
 462  189.5748
 463  169.0481
 464  119.7705
 465  121.5486
 466  154.6078
 467  84.32883
 468  235.1015
 469  199.1324
 470  168.2845
 471  276.385
 472  309.5752
 473  190.91
 474  123.3093
 475  187.8323
 476  261.1526
 477  225.7208
 478  348.5793
 479  348.73
 480  314.7824
 481  252.4587
 482  97.0369
 483  283.4688
 484  316.5203
 485  252.1983
 486  102.2482
 487  95.57977
 488  175.0206
 489  259.8681
 490  257.4025
 491  356.8969
 492  331.5355
 493  435.5011
 494  371.5786
 495  264.917
 496  169.0311
 497  287.7058
 498  294.4721
 499  160.0729
 500  121.2964
 501  164.0246
 502  169.6126
 503  217.363
 504  305.959
 505  181.9601
 506  115.5589
 507  337.9156
 508  453.8172
 509  696.6784
 510  751.2368
 511  827.1063
