# Input file       =  1202121883.110952_cleaned.dat
# Candidate        =  PSR_0332+5434
# Telescope        =  AR
# Epoch_topo       =  58157.447512858242
# Epoch_bary       =  N/A
# T_sample         =  0.002
# Data Folded      =  7143424
# Data Avg         =  0.0168355628662588
# Data StdDev      =  1.00012195319797 
# Profile Bins     =  512
# Profile Avg      =  234.871843330946 
# Profile StdDev   =  118.132989420985 
# Reduced chi-sqr  =  1.728
# Prob(Noise)      <  2.83e-22   (~9.6 sigma)
# P_topo (ms)      =  714.578497434058  +/- 0.000143
# P'_topo (s/s)    =  -0                +/- 7.76e-11
# P''_topo (s/s^2) =  0                 +/- 3.52e-14
# P_bary (ms)      =  N/A
# P'_bary (s/s)    =  N/A
# P''_bary (s/s^2) =  N/A
# P_orb (s)        =  N/A
# asin(i)/c (s)    =  N/A
# eccentricity     =  N/A
# w (rad)          =  N/A
# T_peri           =  N/A
######################################################
   0  969.2356
   1  1020.137
   2  883.835
   3  588.0308
   4  368.6955
   5  185.7168
   6  195.0358
   7  51.42144
   8  81.13165
   9  219.7552
  10  240.6786
  11  252.2221
  12  339.6695
  13  380.0091
  14  282.6879
  15  227.4871
  16  286.3132
  17  268.1066
  18  270.0759
  19  374.7111
  20  265.1682
  21  210.1524
  22  247.8777
  23  175.994
  24  217.6375
  25  358.8932
  26  387.8028
  27  283.0509
  28  224.568
  29  193.8017
  30  121.0733
  31  262.6988
  32  324.8252
  33  247.2023
  34  151.9746
  35  282.6833
  36  274.8166
  37  110.2119
  38  82.12038
  39  148.2701
  40  195.7188
  41  219.7682
  42  219.192
  43  255.8303
  44  383.9579
  45  304.6876
  46  157.4702
  47  215.1296
  48  129.3208
  49  -1.815904
  50  115.1417
  51  255.3336
  52  343.1937
  53  224.8711
  54  199.4475
  55  214.8405
  56  159.1624
  57  332.2173
  58  292.8546
  59  254.0163
  60  379.4758
  61  353.4912
  62  278.0965
  63  160.2316
  64  115.4542
  65  110.9355
  66  146.1792
  67  212.4339
  68  258.531
  69  208.2232
  70  182.893
  71  178.8998
  72  205.5065
  73  257.8394
  74  285.6686
  75  206.1792
  76  248.0291
  77  310.2041
  78  325.9833
  79  325.6388
  80  269.6849
  81  204.9085
  82  199.7257
  83  304.4279
  84  345.6562
  85  371.4576
  86  390.5592
  87  300.0479
  88  138.5962
  89  99.40413
  90  150.2627
  91  202.6246
  92  405.4243
  93  487.4196
  94  472.3672
  95  192.4424
  96  245.7818
  97  264.7766
  98  314.4302
  99  359.3546
 100  287.915
 101  175.729
 102  143.71
 103  157.8307
 104  183.4622
 105  57.11296
 106  212.4152
 107  176.5627
 108  220.0628
 109  262.932
 110  81.93649
 111  164.0164
 112  194.5703
 113  188.9839
 114  337.8416
 115  325.6395
 116  159.7375
 117  74.55908
 118  161.4758
 119  195.9397
 120  248.5827
 121  233.0337
 122  148.3147
 123  263.5793
 124  364.6224
 125  308.0594
 126  252.0578
 127  267.5723
 128  116.5405
 129  244.3026
 130  279.2123
 131  211.9714
 132  111.1263
 133  90.79913
 134  146.8556
 135  214.269
 136  277.1042
 137  129.7165
 138  91.23833
 139  5.750396
 140  4.894167
 141  150.8985
 142  240.4723
 143  209.1969
 144  97.36905
 145  131.5572
 146  168.0151
 147  166.2793
 148  139.0224
 149  154.9747
 150  179.6381
 151  251.8795
 152  287.0662
 153  266.5717
 154  227.5566
 155  81.64975
 156  142.5795
 157  244.7939
 158  255.4412
 159  141.7287
 160  142.5941
 161  152.3237
 162  244.4923
 163  227.0649
 164  193.0533
 165  79.71063
 166  13.26195
 167  118.0829
 168  117.3905
 169  217.7939
 170  269.2699
 171  255.767
 172  88.04144
 173  133.4818
 174  312.449
 175  202.0197
 176  277.479
 177  252.282
 178  220.3935
 179  264.905
 180  140.8463
 181  76.01431
 182  141.5175
 183  146.4335
 184  30.40026
 185  148.943
 186  238.6982
 187  216.1394
 188  210.1907
 189  231.466
 190  332.6024
 191  195.9647
 192  208.1285
 193  143.2368
 194  189.1223
 195  318.5286
 196  257.6417
 197  94.21653
 198  60.33476
 199  125.5605
 200  187.3159
 201  92.03271
 202  230.4335
 203  221.5822
 204  45.57257
 205  35.56178
 206  -6.424477
 207  167.5004
 208  321.693
 209  253.4483
 210  182.9435
 211  79.05488
 212  122.818
 213  194.6334
 214  208.9226
 215  215.6873
 216  186.9257
 217  177.5288
 218  183.687
 219  119.2223
 220  203.5199
 221  149.7373
 222  7.104883
 223  127.3178
 224  180.8841
 225  175.0299
 226  129.8759
 227  176.8299
 228  138.6007
 229  189.6576
 230  256.799
 231  277.1965
 232  268.503
 233  174.4916
 234  136.6773
 235  124.3924
 236  222.1748
 237  361.3973
 238  296.9877
 239  146.622
 240  73.31931
 241  74.19845
 242  139.843
 243  212.3038
 244  211.2115
 245  212.1895
 246  294.4879
 247  190.1856
 248  102.6513
 249  178.4623
 250  187.8811
 251  132.9209
 252  108.6277
 253  221.4766
 254  349.5396
 255  212.0819
 256  166.1942
 257  311.1741
 258  307.722
 259  243.3622
 260  189.4283
 261  64.6239
 262  65.53819
 263  70.76888
 264  215.4347
 265  193.173
 266  194.6562
 267  212.8234
 268  101.3756
 269  203.5768
 270  206.162
 271  263.9381
 272  233.2058
 273  271.6799
 274  297.0351
 275  272.5818
 276  230.7704
 277  184.2788
 278  218.9519
 279  258.3871
 280  242.4236
 281  219.8488
 282  284.3259
 283  227.6906
 284  195.4203
 285  235.9673
 286  110.9967
 287  212.7178
 288  323.1948
 289  165.4336
 290  123.0047
 291  316.5953
 292  236.7434
 293  250.9325
 294  194.0029
 295  285.8088
 296  302.4402
 297  246.6619
 298  215.3056
 299  255.2108
 300  200.9915
 301  264.8737
 302  148.8044
 303  168.7504
 304  137.7043
 305  257.6438
 306  321.0702
 307  269.7635
 308  190.3136
 309  290.6658
 310  346.5747
 311  324.2643
 312  349.1676
 313  282.8964
 314  229.5063
 315  164.1036
 316  191.0658
 317  256.1278
 318  233.0935
 319  226.8595
 320  152.7388
 321  200.6057
 322  287.9621
 323  438.8907
 324  370.5174
 325  435.0023
 326  289.2735
 327  119.2429
 328  218.7381
 329  142.1537
 330  143.2574
 331  242.7266
 332  188.3083
 333  133.4824
 334  101.1343
 335  212.5784
 336  222.7879
 337  205.879
 338  295.0781
 339  313.3043
 340  178.1367
 341  199.8561
 342  244.4144
 343  190.3624
 344  147.8499
 345  59.16983
 346  171.3679
 347  248.632
 348  218.4636
 349  251.5521
 350  217.1262
 351  230.4428
 352  194.4733
 353  153.9236
 354  152.1758
 355  178.7832
 356  180.3244
 357  218.8353
 358  298.1443
 359  257.2917
 360  277.8945
 361  226.1341
 362  136.3752
 363  73.60417
 364  144.6815
 365  261.5113
 366  330.0555
 367  229.8065
 368  18.39775
 369  17.87248
 370  174.4518
 371  208.1304
 372  194.3181
 373  187.1166
 374  130.1924
 375  197.5682
 376  215.8569
 377  248.9229
 378  225.6829
 379  209.1627
 380  229.5207
 381  266.4639
 382  302.677
 383  274.1275
 384  262.2968
 385  287.1518
 386  243.4952
 387  374.3751
 388  461.3397
 389  219.301
 390  209.2498
 391  323.1368
 392  288.5985
 393  317.3606
 394  259.2144
 395  259.0194
 396  218.7253
 397  359.769
 398  354.4747
 399  237.1987
 400  278.5151
 401  266.9802
 402  161.4041
 403  106.8533
 404  119.3723
 405  297.7034
 406  366.4667
 407  426.1073
 408  333.4433
 409  161.607
 410  189.781
 411  202.4042
 412  221.6242
 413  165.5088
 414  179.7693
 415  188.0052
 416  207.5362
 417  178.4286
 418  207.5473
 419  217.0644
 420  185.2291
 421  221.2628
 422  279.2678
 423  240.6535
 424  237.1625
 425  188.7633
 426  172.4052
 427  197.9836
 428  167.4953
 429  217.873
 430  302.2564
 431  298.1165
 432  385.8954
 433  287.5295
 434  209.4484
 435  194.8126
 436  80.20897
 437  154.8084
 438  289.5053
 439  310.6422
 440  309.853
 441  203.3664
 442  160.5891
 443  284.1452
 444  239.2734
 445  251.282
 446  128.1193
 447  140.5942
 448  316.7215
 449  401.2744
 450  295.6826
 451  230.4724
 452  198.9956
 453  195.5569
 454  262.5878
 455  372.1003
 456  304.8339
 457  429.4613
 458  405.1415
 459  305.5969
 460  249.6426
 461  318.9256
 462  349.0768
 463  361.0677
 464  237.2319
 465  317.121
 466  321.7958
 467  247.5556
 468  178.1718
 469  199.9662
 470  288.0688
 471  282.7107
 472  403.5214
 473  429.9029
 474  335.2007
 475  249.7798
 476  219.1174
 477  236.2649
 478  236.0743
 479  378.3243
 480  412.4914
 481  298.3635
 482  258.8459
 483  316.5858
 484  298.5153
 485  310.1208
 486  306.6494
 487  376.2419
 488  319.0616
 489  226.5767
 490  334.8038
 491  448.0733
 492  277.7999
 493  212.3927
 494  262.0435
 495  289.1178
 496  361.3952
 497  333.7319
 498  307.0725
 499  333.8805
 500  281.2996
 501  389.2516
 502  326.5294
 503  285.4796
 504  281.7424
 505  336.5325
 506  313.847
 507  445.0316
 508  586.1684
 509  610.316
 510  730.8043
 511  917.7304
