# Input file       =  1202639010.116768_cleaned.dat
# Candidate        =  PSR_0332+5434
# Telescope        =  AR
# Epoch_topo       =  58163.432779129260
# Epoch_bary       =  N/A
# T_sample         =  0.002
# Data Folded      =  7208960
# Data Avg         =  0.0147789006354043
# Data StdDev      =  1.00005346709426 
# Profile Bins     =  512
# Profile Avg      =  208.19290660738  
# Profile StdDev   =  118.665520154867 
# Reduced chi-sqr  =  1.911
# Prob(Noise)      <  1.69e-31   (~11.6 sigma)
# P_topo (ms)      =  714.579893553874  +/- 0.000105
# P'_topo (s/s)    =  -0                +/- 5.63e-11
# P''_topo (s/s^2) =  0                 +/- 2.53e-14
# P_bary (ms)      =  N/A
# P'_bary (s/s)    =  N/A
# P''_bary (s/s^2) =  N/A
# P_orb (s)        =  N/A
# asin(i)/c (s)    =  N/A
# eccentricity     =  N/A
# w (rad)          =  N/A
# T_peri           =  N/A
######################################################
   0  940.5975
   1  823.5931
   2  600.9697
   3  433.2813
   4  435.0576
   5  289.0692
   6  355.8067
   7  424.4869
   8  243.8737
   9  324.4946
  10  267.1027
  11  137.8283
  12  145.7415
  13  256.1378
  14  230.4194
  15  201.1017
  16  351.8231
  17  297.8753
  18  281.2965
  19  371.3476
  20  336.291
  21  313.9199
  22  331.6619
  23  283.8839
  24  316.4984
  25  298.187
  26  343.102
  27  325.9921
  28  243.7116
  29  137.5692
  30  204.7908
  31  112.524
  32  226.5858
  33  242.0975
  34  241.6777
  35  350.4758
  36  333.9882
  37  213.5973
  38  257.582
  39  409.003
  40  288.3152
  41  176.0809
  42  328.6584
  43  290.8702
  44  255.1687
  45  206.1634
  46  65.81628
  47  222.2903
  48  265.9082
  49  257.8692
  50  479.3643
  51  359.4306
  52  391.7795
  53  357.8461
  54  387.0125
  55  388.3927
  56  237.4804
  57  254.6753
  58  298.1038
  59  331.7429
  60  338.5279
  61  224.9873
  62  234.2379
  63  235.5011
  64  253.5659
  65  125.9788
  66  214.8374
  67  292.2398
  68  371.4606
  69  290.8182
  70  271.2864
  71  284.0588
  72  375.2581
  73  366.6662
  74  133.7957
  75  169.0973
  76  212.2366
  77  284.8377
  78  197.4737
  79  142.4084
  80  186.1224
  81  207.8379
  82  119.1731
  83  207.5288
  84  291.8501
  85  192.1555
  86  123.6327
  87  151.9513
  88  237.667
  89  94.65783
  90  125.8421
  91  206.6025
  92  260.5723
  93  327.529
  94  283.7787
  95  334.1488
  96  308.7713
  97  245.6419
  98  328.364
  99  348.8262
 100  376.3709
 101  314.596
 102  329.2276
 103  452.0366
 104  318.7393
 105  271.4419
 106  125.9343
 107  68.17107
 108  178.0195
 109  276.9031
 110  314.5521
 111  166.5617
 112  179.6055
 113  347.8171
 114  379.0605
 115  284.7721
 116  214.2906
 117  371.8386
 118  492.3426
 119  223.0775
 120  117.7344
 121  205.2981
 122  223.4288
 123  122.9714
 124  122.4865
 125  338.1888
 126  338.0425
 127  293.179
 128  281.0066
 129  286.8071
 130  186.8257
 131  175.7276
 132  305.2401
 133  351.2361
 134  357.3999
 135  250.4124
 136  370.7489
 137  472.1356
 138  384.1033
 139  277.1009
 140  217.9873
 141  415.1849
 142  358.1524
 143  281.2928
 144  138.6967
 145  234.4516
 146  219.3829
 147  124.5888
 148  177.238
 149  260.2365
 150  255.0918
 151  290.6536
 152  408.8495
 153  388.2337
 154  329.7271
 155  324.8022
 156  304.4523
 157  381.0713
 158  403.2558
 159  306.1149
 160  198.4378
 161  129.2203
 162  235.8468
 163  219.8753
 164  208.5804
 165  277.0705
 166  374.6397
 167  334.1786
 168  195.4784
 169  167.9548
 170  168.9927
 171  290.6891
 172  183.9334
 173  197.3822
 174  306.9728
 175  267.9803
 176  232.7692
 177  185.2466
 178  180.646
 179  176.2582
 180  191.0507
 181  311.6195
 182  207.0071
 183  341.9343
 184  326.5786
 185  458.9634
 186  292.4833
 187  228.0432
 188  287.9026
 189  135.834
 190  104.4505
 191  214.6542
 192  225.5161
 193  75.29219
 194  60.52068
 195  116.3306
 196  143.7348
 197  66.43992
 198  42.30693
 199  172.4593
 200  227.5258
 201  221.0932
 202  47.07282
 203  178.5672
 204  278.8852
 205  200.8175
 206  203.4362
 207  108.448
 208  207.1375
 209  288.8418
 210  194.6296
 211  332.3064
 212  273.8165
 213  208.2579
 214  181.1196
 215  172.9192
 216  231.257
 217  237.7992
 218  279.1909
 219  248.0405
 220  82.68169
 221  86.74903
 222  177.7354
 223  299.0948
 224  331.4062
 225  327.882
 226  188.5617
 227  197.1206
 228  266.626
 229  248.6931
 230  231.7768
 231  381.1412
 232  329.2794
 233  359.6913
 234  381.6403
 235  263.9432
 236  165.6169
 237  189.9097
 238  175.6599
 239  212.8405
 240  224.6092
 241  216.1295
 242  263.0186
 243  220.3255
 244  102.7691
 245  78.59339
 246  128.2908
 247  209.4444
 248  193.1312
 249  190.397
 250  163.6317
 251  283.8081
 252  216.2051
 253  221.8751
 254  254.2399
 255  119.5467
 256  188.0627
 257  169.596
 258  53.34287
 259  116.0313
 260  139.7632
 261  122.5097
 262  140.6573
 263  115.6771
 264  164.5847
 265  224.6537
 266  252.7528
 267  426.0717
 268  341.4556
 269  266.9869
 270  295.6432
 271  150.602
 272  126.5017
 273  216.0891
 274  284.0114
 275  243.3927
 276  102.4228
 277  -10.2978
 278  64.54149
 279  162.8509
 280  212.131
 281  222.1754
 282  249.0323
 283  219.0952
 284  230.2224
 285  137.705
 286  161.381
 287  218.5196
 288  112.6467
 289  40.92957
 290  -24.03879
 291  90.59055
 292  154.1361
 293  25.76138
 294  125.8849
 295  215.968
 296  142.956
 297  91.81875
 298  236.3076
 299  273.9261
 300  262.5567
 301  152.9447
 302  48.04117
 303  35.29599
 304  95.367
 305  144.5076
 306  140.6715
 307  179.876
 308  221.6643
 309  83.18832
 310  12.78716
 311  -8.399769
 312  -35.00669
 313  42.86215
 314  193.0849
 315  166.744
 316  107.5241
 317  70.21451
 318  88.33043
 319  130.1826
 320  95.97138
 321  83.21289
 322  139.7263
 323  135.42
 324  194.2615
 325  116.29
 326  110.3039
 327  49.47576
 328  68.90611
 329  -11.31639
 330  96.37955
 331  116.8163
 332  119.8095
 333  103.0827
 334  122.5705
 335  153.391
 336  39.32617
 337  4.064882
 338  -24.56696
 339  35.90359
 340  121.9808
 341  159.3482
 342  63.72539
 343  104.7383
 344  26.65887
 345  -77.66108
 346  -81.11591
 347  6.188773
 348  154.0872
 349  196.9183
 350  62.9556
 351  91.43948
 352  197.1737
 353  224.3675
 354  151.9451
 355  274.3145
 356  88.77296
 357  -38.5438
 358  21.5455
 359  65.90668
 360  -19.76997
 361  -46.83591
 362  68.79414
 363  89.00454
 364  232.7923
 365  341.6298
 366  255.0251
 367  132.4868
 368  216.9069
 369  100.4779
 370  0.4677604
 371  150.5501
 372  263.8742
 373  170.939
 374  -23.07481
 375  145.2393
 376  94.80687
 377  65.00544
 378  91.66626
 379  107.3827
 380  132.1604
 381  128.0816
 382  232.6184
 383  316.7703
 384  258.3427
 385  197.357
 386  73.23898
 387  151.2773
 388  98.42783
 389  142.2664
 390  129.9874
 391  111.7711
 392  175.0701
 393  224.9747
 394  158.0138
 395  77.00809
 396  30.07874
 397  245.7257
 398  240.83
 399  205.6195
 400  174.675
 401  162.6944
 402  200.254
 403  38.77118
 404  67.89136
 405  123.8323
 406  184.6542
 407  53.84158
 408  102.4944
 409  99.15434
 410  153.1
 411  167.7147
 412  106.9591
 413  68.38966
 414  181.2266
 415  235.4456
 416  225.7091
 417  179.8085
 418  156.4171
 419  159.4438
 420  60.20876
 421  127.5584
 422  56.24561
 423  98.80412
 424  223.7284
 425  294.0476
 426  167.3552
 427  257.6081
 428  189.6834
 429  181.7219
 430  220.7348
 431  101.0631
 432  103.5505
 433  182.4021
 434  166.2847
 435  159.2245
 436  224.7422
 437  73.99897
 438  226.5712
 439  317.1434
 440  283.6152
 441  201.9898
 442  97.92448
 443  168.8687
 444  51.93333
 445  -65.48889
 446  121.6959
 447  200.801
 448  207.9819
 449  245.5563
 450  114.5833
 451  121.1058
 452  92.00459
 453  101.236
 454  232.7374
 455  237.9172
 456  331.7715
 457  38.19925
 458  26.69197
 459  93.28423
 460  0.8263706
 461  34.27172
 462  178.3565
 463  251.2582
 464  296.9599
 465  346.0138
 466  413.7857
 467  302.0656
 468  168.3454
 469  200.937
 470  160.5238
 471  217.3191
 472  127.0395
 473  162.6151
 474  210.9221
 475  87.173
 476  96.66668
 477  74.65904
 478  218.8512
 479  194.749
 480  229.4854
 481  316.8261
 482  306.538
 483  144.0036
 484  323.3105
 485  355.3576
 486  250.7401
 487  187.0282
 488  156.8354
 489  99.38226
 490  120.1419
 491  105.8559
 492  273.8775
 493  200.9424
 494  121.9321
 495  144.5166
 496  308.7811
 497  344.8611
 498  243.4383
 499  236.2621
 500  185.3591
 501  174.6955
 502  171.448
 503  191.1348
 504  254.5836
 505  351.7451
 506  286.9393
 507  180.0524
 508  291.7227
 509  463.2255
 510  638.6875
 511  868.5669
