# Input file       =  1202466588.126555_cleaned.dat
# Candidate        =  PSR_0332+5434
# Telescope        =  AR
# Epoch_topo       =  58161.437154242536
# Epoch_bary       =  N/A
# T_sample         =  0.002
# Data Folded      =  7208960
# Data Avg         =  0.017427727366393
# Data StdDev      =  1.00005813414594 
# Profile Bins     =  512
# Profile Avg      =  245.378917139542 
# Profile StdDev   =  118.666073943373 
# Reduced chi-sqr  =  1.480
# Prob(Noise)      <  9.01e-12   (~6.7 sigma)
# P_topo (ms)      =  714.579502057676  +/- 8.59e-05
# P'_topo (s/s)    =  -0                +/- 4.61e-11
# P''_topo (s/s^2) =  0                 +/- 2.07e-14
# P_bary (ms)      =  N/A
# P'_bary (s/s)    =  N/A
# P''_bary (s/s^2) =  N/A
# P_orb (s)        =  N/A
# asin(i)/c (s)    =  N/A
# eccentricity     =  N/A
# w (rad)          =  N/A
# T_peri           =  N/A
######################################################
   0  884.2762
   1  752.8485
   2  553.1124
   3  274.3943
   4  169.5103
   5  195.3413
   6  264.2668
   7  310.4555
   8  214.8123
   9  121.4773
  10  227.7638
  11  285.5936
  12  398.2437
  13  347.3063
  14  166.1173
  15  225.0807
  16  325.4677
  17  391.2088
  18  337.0339
  19  309.834
  20  214.218
  21  203.0939
  22  286.9488
  23  379.6782
  24  351.1772
  25  352.1841
  26  367.8144
  27  328.7148
  28  220.8235
  29  268.7542
  30  266.028
  31  307.8865
  32  309.7914
  33  300.8503
  34  244.9695
  35  101.767
  36  149.3552
  37  10.31739
  38  16.63947
  39  61.10479
  40  190.8714
  41  323.4143
  42  265.0977
  43  304.7686
  44  287.2739
  45  170.2648
  46  195.1711
  47  136.8882
  48  160.5504
  49  317.5329
  50  284.2651
  51  161.2723
  52  130.2627
  53  227.6406
  54  234.5373
  55  236.7311
  56  409.9288
  57  338.76
  58  160.8545
  59  273.9499
  60  273.3219
  61  292.1883
  62  362.7968
  63  343.4679
  64  248.5472
  65  146.7047
  66  245.2692
  67  256.1924
  68  207.995
  69  200.2742
  70  216.3802
  71  225.7756
  72  283.0043
  73  229.62
  74  315.1461
  75  282.5848
  76  146.2907
  77  129.5308
  78  180.212
  79  199.143
  80  200.1664
  81  153.8987
  82  159.8926
  83  222.2884
  84  320.9649
  85  114.8422
  86  125.6196
  87  146.8953
  88  229.9252
  89  267.448
  90  277.0237
  91  236.4709
  92  271.0079
  93  289.0005
  94  233.3516
  95  163.4189
  96  216.0012
  97  235.9307
  98  332.9987
  99  330.4507
 100  174.31
 101  100.0553
 102  202.1627
 103  249.793
 104  143.2881
 105  239.1482
 106  232.9555
 107  142.037
 108  170.2631
 109  293.9971
 110  285.4385
 111  299.748
 112  259.8577
 113  177.4801
 114  206.7976
 115  239.7279
 116  252.3281
 117  120.8793
 118  215.273
 119  219.56
 120  274.6386
 121  331.0045
 122  288.5304
 123  353.0374
 124  251.6689
 125  163.2918
 126  59.12677
 127  145.5961
 128  206.3788
 129  262.9457
 130  376.2395
 131  272.2907
 132  98.36952
 133  47.51777
 134  265.4906
 135  272.3532
 136  228.8074
 137  322.0435
 138  349.5576
 139  340.0567
 140  347.1544
 141  331.9937
 142  16.62216
 143  123.7768
 144  177.7293
 145  10.39961
 146  135.3479
 147  151.3879
 148  155.9259
 149  180.5519
 150  194.5097
 151  188.6164
 152  191.702
 153  241.3236
 154  315.1641
 155  368.3762
 156  197.0216
 157  192.7483
 158  -38.2882
 159  134.9913
 160  123.2429
 161  185.7862
 162  270.7038
 163  355.9631
 164  189.7395
 165  28.02238
 166  157.8206
 167  23.63541
 168  76.27028
 169  166.234
 170  188.8507
 171  141.8467
 172  292.3378
 173  310.3248
 174  240.4522
 175  258.6931
 176  297.8631
 177  347.4156
 178  387.4555
 179  223.1022
 180  127.6877
 181  149.2839
 182  196.7654
 183  148.1558
 184  244.6455
 185  317.8517
 186  249.396
 187  175.0712
 188  320.3752
 189  387.4325
 190  315.7423
 191  310.3354
 192  37.95698
 193  81.16737
 194  87.22456
 195  211.6874
 196  269.3391
 197  372.0065
 198  321.5097
 199  85.30043
 200  118.053
 201  250.3539
 202  238.076
 203  328.603
 204  396.2606
 205  244.6779
 206  253.5506
 207  375.0815
 208  241.5438
 209  185.032
 210  279.2942
 211  307.1039
 212  255.455
 213  231.0055
 214  161.0311
 215  190.4665
 216  217.9431
 217  208.9061
 218  225.3395
 219  306.0254
 220  251.6627
 221  375.4996
 222  206.5074
 223  237.8678
 224  188.492
 225  284.1456
 226  194.9503
 227  295.0511
 228  193.1651
 229  13.65663
 230  154.5532
 231  383.3334
 232  216.4913
 233  180.7268
 234  225.541
 235  237.0679
 236  282.0697
 237  247.0551
 238  136.4859
 239  191.0176
 240  181.5594
 241  234.3554
 242  251.7554
 243  278.4139
 244  286.8511
 245  200.2505
 246  157.6879
 247  117.6072
 248  211.5249
 249  209.3645
 250  219.7524
 251  157.7468
 252  206.9638
 253  204.4766
 254  226.7686
 255  303.6301
 256  412.0995
 257  342.7018
 258  245.5755
 259  213.2991
 260  188.9355
 261  217.7951
 262  278.9712
 263  372.4467
 264  369.3272
 265  256.5029
 266  152.3448
 267  196.9174
 268  262.3773
 269  375.5223
 270  241.8851
 271  283.5895
 272  309.7452
 273  294.0251
 274  304.6971
 275  415.2507
 276  399.5172
 277  275.7307
 278  209.5248
 279  176.6601
 280  115.9765
 281  159.3746
 282  211.8171
 283  175.892
 284  292.0279
 285  178.1723
 286  142.2427
 287  172.8436
 288  248.2372
 289  216.2462
 290  336.0688
 291  246.6084
 292  157.2721
 293  231.2991
 294  232.7245
 295  222.1414
 296  385.774
 297  448.9446
 298  260.7246
 299  213.4955
 300  295.6538
 301  160.9709
 302  162.7855
 303  285.1514
 304  263.8083
 305  468.2457
 306  409.3494
 307  371.4064
 308  324.5284
 309  316.955
 310  321.1812
 311  370.127
 312  353.7546
 313  381.5513
 314  427.7768
 315  236.2357
 316  85.71844
 317  194.0091
 318  224.0156
 319  214.7318
 320  298.6063
 321  244.9634
 322  338.956
 323  274.8887
 324  116.0756
 325  168.0962
 326  332.2163
 327  432.227
 328  207.8355
 329  142.9256
 330  292.4685
 331  348.146
 332  321.144
 333  132.6997
 334  60.08963
 335  172.1444
 336  428.939
 337  362.0785
 338  204.8695
 339  214.7926
 340  333.6756
 341  316.1528
 342  200.0682
 343  181.6018
 344  321.3039
 345  283.0227
 346  308.118
 347  246.9431
 348  44.23729
 349  16.74971
 350  161.3945
 351  196.2683
 352  132.9032
 353  328.9263
 354  462.3627
 355  337.076
 356  268.2175
 357  200.0264
 358  101.5518
 359  261.861
 360  287.7755
 361  262.8166
 362  292.239
 363  348.0292
 364  157.9657
 365  117.2565
 366  169.115
 367  109.8962
 368  136.7284
 369  274.7684
 370  369.5715
 371  416.2716
 372  400.9942
 373  312.9396
 374  263.6978
 375  116.4221
 376  124.7862
 377  231.3553
 378  301.2742
 379  211.556
 380  116.5754
 381  180.2284
 382  251.2096
 383  220.8353
 384  163.1207
 385  208.3988
 386  277.8813
 387  210.1536
 388  222.6315
 389  222.3162
 390  224.1964
 391  155.7713
 392  252.754
 393  238.2434
 394  233.6048
 395  274.6443
 396  284.9519
 397  240.9326
 398  260.8885
 399  224.2267
 400  279.8675
 401  404.3365
 402  372.3235
 403  260.3409
 404  418.0527
 405  371.0468
 406  221.6476
 407  174.8114
 408  120.2665
 409  115.7556
 410  211.5037
 411  418.1309
 412  201.6456
 413  194.576
 414  156.1457
 415  106.3142
 416  150.745
 417  203.9513
 418  188.3672
 419  251.3104
 420  386.0272
 421  381.8035
 422  359.7744
 423  286.3091
 424  359.6856
 425  357.2945
 426  316.7674
 427  307.1759
 428  125.3645
 429  160.9692
 430  200.0528
 431  94.00381
 432  222.3732
 433  153.3618
 434  229.8078
 435  290.7391
 436  302.9856
 437  384.1636
 438  421.8373
 439  351.2924
 440  198.7169
 441  343.2933
 442  289.4773
 443  283.2419
 444  319.5088
 445  205.2442
 446  273.691
 447  299.5032
 448  114.8142
 449  58.34127
 450  98.87307
 451  210.7782
 452  279.3046
 453  287.5517
 454  177.1082
 455  243.6213
 456  219.6447
 457  216.0062
 458  227.9339
 459  312.2797
 460  295.6329
 461  172.5287
 462  288.3094
 463  101.9058
 464  66.59007
 465  230.855
 466  240.6999
 467  270.7605
 468  383.2957
 469  376.3933
 470  309.6578
 471  287.2567
 472  309.157
 473  189.3563
 474  216.5801
 475  317.445
 476  206.4809
 477  235.0921
 478  254.5125
 479  258.3926
 480  223.2145
 481  183.577
 482  212.6898
 483  187.5265
 484  304.7929
 485  283.5045
 486  290.5761
 487  320.0918
 488  177.8376
 489  84.01933
 490  40.41333
 491  117.8226
 492  191.9481
 493  252.2081
 494  331.8656
 495  277.5455
 496  268.8668
 497  134.5449
 498  14.98688
 499  96.81034
 500  57.49968
 501  244.319
 502  202.778
 503  496.1392
 504  360.6863
 505  289.5315
 506  331.5076
 507  336.472
 508  513.9297
 509  674.7779
 510  663.5931
 511  806.2546
