# Input file       =  1202294239.113467_cleaned.dat
# Candidate        =  PSR_0332+5434
# Telescope        =  AR
# Epoch_topo       =  58159.442373998463
# Epoch_bary       =  N/A
# T_sample         =  0.002
# Data Folded      =  7143424
# Data Avg         =  0.014804011507289
# Data StdDev      =  1.0000321426838  
# Profile Bins     =  512
# Profile Avg      =  206.544543948944 
# Profile StdDev   =  118.122381130179 
# Reduced chi-sqr  =  1.892
# Prob(Noise)      <  1.62e-30   (~11.4 sigma)
# P_topo (ms)      =  714.5790358103    +/- 5.78e-05
# P'_topo (s/s)    =  -0                +/- 3.13e-11
# P''_topo (s/s^2) =  0                 +/- 1.42e-14
# P_bary (ms)      =  N/A
# P'_bary (s/s)    =  N/A
# P''_bary (s/s^2) =  N/A
# P_orb (s)        =  N/A
# asin(i)/c (s)    =  N/A
# eccentricity     =  N/A
# w (rad)          =  N/A
# T_peri           =  N/A
######################################################
   0  903.1359
   1  979.7462
   2  834.3898
   3  607.0636
   4  427.7914
   5  241.7664
   6  234.8215
   7  295.3745
   8  382.986
   9  358.8896
  10  266.2989
  11  342.4265
  12  263.8382
  13  128.3689
  14  256.6028
  15  135.4114
  16  164.6398
  17  204.9665
  18  168.2089
  19  300.7407
  20  177.6759
  21  181.7638
  22  173.9724
  23  167.2853
  24  97.87564
  25  126.5714
  26  255.1551
  27  379.3971
  28  316.2551
  29  279.497
  30  214.6202
  31  263.7187
  32  296.6385
  33  313.3785
  34  244.8079
  35  366.8473
  36  195.5715
  37  136.8276
  38  275.8535
  39  180.0302
  40  53.64677
  41  126.8553
  42  84.23419
  43  207.2927
  44  347.2879
  45  207.9771
  46  92.19557
  47  87.86126
  48  155.6891
  49  187.4896
  50  183.0688
  51  400.7435
  52  360.5468
  53  195.3846
  54  181.394
  55  188.006
  56  39.09515
  57  50.24918
  58  77.75333
  59  204.2789
  60  280.8831
  61  174.9379
  62  278.9172
  63  183.4291
  64  117.7711
  65  131.2097
  66  185.7449
  67  286.7581
  68  259.1415
  69  176.8629
  70  105.8667
  71  78.50424
  72  106.2778
  73  172.255
  74  125.653
  75  224.8581
  76  254.8115
  77  225.8201
  78  244.2068
  79  219.1135
  80  264.4456
  81  258.1735
  82  268.6236
  83  340.0858
  84  361.3006
  85  393.7607
  86  383.2336
  87  217.8274
  88  252.0629
  89  181.4559
  90  151.1712
  91  156.9831
  92  212.7571
  93  270.7922
  94  260.9944
  95  138.1329
  96  115.3418
  97  198.1597
  98  262.9592
  99  245.9926
 100  116.9043
 101  215.0054
 102  330.3002
 103  301.4016
 104  216.1973
 105  195.9747
 106  206.6433
 107  250.9268
 108  213.1616
 109  277.0237
 110  247.6161
 111  192.3309
 112  160.7439
 113  71.88768
 114  204.1668
 115  111.1985
 116  250.1302
 117  384.5806
 118  320.9058
 119  143.8429
 120  6.751951
 121  -14.32706
 122  130.4785
 123  219.3283
 124  191.7337
 125  236.6746
 126  203.5097
 127  354.5639
 128  211.9348
 129  186.2457
 130  260.7942
 131  208.0155
 132  150.9751
 133  158.0653
 134  325.6915
 135  505.1132
 136  322.7155
 137  400.7351
 138  418.445
 139  230.7925
 140  294.4376
 141  383.7645
 142  429.9424
 143  349.192
 144  321.5036
 145  199.3017
 146  182.2091
 147  112.945
 148  16.55619
 149  167.6011
 150  237.5722
 151  266.2401
 152  299.4066
 153  117.9249
 154  135.5227
 155  160.5674
 156  127.0461
 157  222.8424
 158  194.0395
 159  337.4086
 160  316.4164
 161  287.7122
 162  142.335
 163  140.0167
 164  63.39156
 165  78.95522
 166  181.4092
 167  370.1766
 168  453.4522
 169  314.0448
 170  309.0648
 171  247.8563
 172  174.4003
 173  185.3255
 174  314.8027
 175  439.5847
 176  394.2503
 177  230.9846
 178  218.5177
 179  173.5436
 180  214.0432
 181  238.3555
 182  172.8603
 183  174.2947
 184  147.3663
 185  49.40722
 186  116.0434
 187  97.00925
 188  180.8706
 189  105.0956
 190  178.9921
 191  275.5503
 192  272.9689
 193  289.5573
 194  220.43
 195  125.3271
 196  74.82738
 197  245.7322
 198  324.2747
 199  245.2221
 200  252.2513
 201  240.5382
 202  211.0371
 203  75.11591
 204  165.5306
 205  124.7947
 206  183.2307
 207  210.9438
 208  242.4301
 209  224.9966
 210  313.9771
 211  207.8658
 212  195.0876
 213  179.2564
 214  40.35027
 215  303.5995
 216  382.4437
 217  473.6175
 218  321.8584
 219  128.7889
 220  320.8503
 221  350.1861
 222  230.3106
 223  174.6436
 224  195.4563
 225  354.8748
 226  260.9912
 227  207.0772
 228  116.1983
 229  72.47112
 230  -10.04425
 231  62.80231
 232  241.0852
 233  303.6133
 234  159.5589
 235  105.9377
 236  118.6056
 237  -16.86177
 238  136.5999
 239  59.86894
 240  155.7993
 241  205.6584
 242  289.4727
 243  177.3971
 244  166.1302
 245  187.1359
 246  219.133
 247  106.1759
 248  194.0928
 249  271.7361
 250  209.8333
 251  160.5257
 252  227.5289
 253  131.5798
 254  123.2638
 255  22.92933
 256  -9.833117
 257  144.9209
 258  247.9789
 259  292.9239
 260  129.9017
 261  122.0838
 262  139.5086
 263  239.5058
 264  77.84583
 265  107.3714
 266  185.0743
 267  259.5043
 268  69.00375
 269  92.54914
 270  120.2903
 271  173.55
 272  156.7618
 273  186.0494
 274  356.6562
 275  263.5058
 276  249.2904
 277  204.5354
 278  228.8053
 279  302.0247
 280  107.1437
 281  97.91161
 282  51.16191
 283  -33.61309
 284  35.01094
 285  288.6309
 286  276.5447
 287  207.7861
 288  131.4335
 289  200.7571
 290  107.2814
 291  181.5415
 292  237.6217
 293  305.2302
 294  130.1448
 295  29.29881
 296  118.116
 297  82.03012
 298  151.1967
 299  152.6008
 300  145.2571
 301  167.9455
 302  154.4294
 303  133.8956
 304  66.54004
 305  194.2349
 306  201.9527
 307  289.335
 308  354.3286
 309  289.1236
 310  262.7182
 311  114.7282
 312  -78.11485
 313  -57.89856
 314  42.27554
 315  170.4983
 316  326.9844
 317  308.3685
 318  150.1444
 319  139.1591
 320  172.1819
 321  123.3099
 322  181.3314
 323  165.6488
 324  186.8077
 325  206.4816
 326  134.6785
 327  -22.43532
 328  201.5029
 329  225.7377
 330  193.5097
 331  231.25
 332  213.5852
 333  146.526
 334  191.3164
 335  101.5627
 336  73.41696
 337  0.1634045
 338  120.8372
 339  146.4538
 340  318.7704
 341  317.3422
 342  181.4879
 343  44.05898
 344  92.58276
 345  146.3329
 346  41.44175
 347  44.99957
 348  75.30674
 349  225.9559
 350  265.7521
 351  183.6776
 352  152.2769
 353  84.21056
 354  144.2941
 355  158.3974
 356  102.1603
 357  128.9874
 358  260.6228
 359  103.9778
 360  130.4705
 361  164.1391
 362  161.8273
 363  123.675
 364  164.5533
 365  254.6151
 366  361.1528
 367  322.4434
 368  227.8787
 369  191.3829
 370  131.7213
 371  165.2646
 372  98.81435
 373  78.85289
 374  180.0268
 375  231.7956
 376  242.8429
 377  149.534
 378  -11.81028
 379  125.4487
 380  192.0978
 381  108.0028
 382  115.6824
 383  209.9624
 384  147.9924
 385  159.011
 386  130.7681
 387  44.8143
 388  46.97453
 389  141.844
 390  132.4484
 391  176.2221
 392  118.7926
 393  106.9482
 394  154.8624
 395  137.7013
 396  169.5496
 397  309.9404
 398  282.429
 399  188.9214
 400  195.8209
 401  302.8178
 402  265.112
 403  121.0876
 404  133.011
 405  196.7726
 406  356.7339
 407  316.6405
 408  273.0853
 409  186.9127
 410  134.2408
 411  90.50414
 412  232.9435
 413  75.93356
 414  -30.02804
 415  -32.30516
 416  105.8038
 417  157.5071
 418  91.56475
 419  238.4903
 420  139.7425
 421  209.7505
 422  226.8934
 423  223.3126
 424  249.3733
 425  215.8691
 426  268.5177
 427  180.111
 428  167.2624
 429  63.47317
 430  193.3927
 431  239.8329
 432  270.4125
 433  182.6517
 434  156.5233
 435  282.1323
 436  317.9019
 437  310.0289
 438  305.184
 439  211.4347
 440  370.8401
 441  459.6522
 442  316.3439
 443  280.2787
 444  142.4803
 445  162.1809
 446  167.4195
 447  270.6991
 448  198.5308
 449  202.0676
 450  181.9535
 451  125.1462
 452  80.03158
 453  105.3
 454  128.9035
 455  229.8099
 456  220.7548
 457  326.9268
 458  192.66
 459  167.2358
 460  121.5327
 461  138.1557
 462  186.8846
 463  190.1716
 464  349.2143
 465  374.5428
 466  220.4111
 467  207.6879
 468  65.62199
 469  164.9149
 470  231.0111
 471  121.3544
 472  167.8281
 473  280.9474
 474  279.9767
 475  193.2069
 476  122.1093
 477  208.4464
 478  177.1739
 479  221.6559
 480  209.5734
 481  259.2962
 482  234.3755
 483  169.1258
 484  110.0474
 485  40.00458
 486  84.34
 487  315.6361
 488  247.0603
 489  308.1159
 490  268.514
 491  223.3469
 492  340.0107
 493  264.2577
 494  255.2268
 495  201.0302
 496  157.9678
 497  340.9776
 498  317.312
 499  234.8903
 500  251.481
 501  192.5466
 502  95.80937
 503  149.2108
 504  95.61951
 505  127.1025
 506  220.1962
 507  385.4756
 508  569.1017
 509  482.3784
 510  756.8287
 511  886.2552
