# Input file       =  1202035820.10998_cleaned.dat
# Candidate        =  PSR_0332+5434
# Telescope        =  AR
# Epoch_topo       =  58156.451413309958
# Epoch_bary       =  N/A
# T_sample         =  0.002
# Data Folded      =  7405568
# Data Avg         =  0.0204969317584497
# Data StdDev      =  1.00007319196922 
# Profile Bins     =  512
# Profile Avg      =  296.465748141727 
# Profile StdDev   =  120.275173559509 
# Reduced chi-sqr  =  1.435
# Prob(Noise)      <  3.52e-10   (~6.2 sigma)
# P_topo (ms)      =  714.57820092797   +/- 0.000296
# P'_topo (s/s)    =  -0                +/- 1.55e-10
# P''_topo (s/s^2) =  0                 +/- 6.77e-14
# P_bary (ms)      =  N/A
# P'_bary (s/s)    =  N/A
# P''_bary (s/s^2) =  N/A
# P_orb (s)        =  N/A
# asin(i)/c (s)    =  N/A
# eccentricity     =  N/A
# w (rad)          =  N/A
# T_peri           =  N/A
######################################################
   0  1023.758
   1  954.9895
   2  771.7675
   3  581.9997
   4  497.2732
   5  357.7898
   6  261.0596
   7  338.2552
   8  325.1175
   9  267.0859
  10  307.8128
  11  401.7903
  12  436.3398
  13  411.1025
  14  468.0258
  15  467.3444
  16  393.8092
  17  338.6346
  18  314.7556
  19  342.8004
  20  265.721
  21  315.7722
  22  404.0653
  23  332.977
  24  211.4368
  25  288.6067
  26  137.6405
  27  120.5723
  28  231.3449
  29  318.9724
  30  301.2327
  31  287.8954
  32  196.4345
  33  230.3402
  34  259.5529
  35  240.5868
  36  153.3858
  37  229.4982
  38  307.7904
  39  250.3085
  40  314.6687
  41  360.7018
  42  264.1807
  43  254.4028
  44  225.1182
  45  319.3881
  46  369.495
  47  306.5226
  48  274.6392
  49  201.9761
  50  136.645
  51  71.18899
  52  145.6129
  53  141.9926
  54  258.7205
  55  375.0577
  56  330.7922
  57  288.303
  58  176.5371
  59  292.4431
  60  377.2471
  61  218.9697
  62  238.6917
  63  244.3955
  64  215.4029
  65  218.273
  66  263.6292
  67  298.1425
  68  206.3063
  69  301.4713
  70  357.656
  71  245.9501
  72  143.1089
  73  304.2917
  74  395.6682
  75  310.5124
  76  251.9998
  77  273.0396
  78  199.2126
  79  238.2408
  80  170.9936
  81  260.2905
  82  332.2327
  83  337.7393
  84  303.2682
  85  252.1058
  86  310.2
  87  323.2892
  88  244.64
  89  376.9628
  90  316.795
  91  226.5144
  92  293.0454
  93  235.4327
  94  201.2798
  95  260.5454
  96  340.0375
  97  325.0873
  98  284.5492
  99  266.7449
 100  255.7475
 101  218.4634
 102  268.3894
 103  402.4526
 104  254.8085
 105  197.4282
 106  271.7818
 107  268.9291
 108  215.0876
 109  337.1476
 110  383.9433
 111  225.045
 112  208.6435
 113  217.0047
 114  311.9012
 115  315.8989
 116  310.5488
 117  398.3442
 118  325.6683
 119  314.2375
 120  280.3633
 121  182.6761
 122  320.2882
 123  306.2649
 124  177.9758
 125  281.5587
 126  379.2174
 127  441.4552
 128  426.0402
 129  396.2141
 130  373.0256
 131  342.1544
 132  221.9724
 133  284.7166
 134  291.7843
 135  347.4446
 136  360.3702
 137  281.3269
 138  441.1037
 139  318.7449
 140  194.3701
 141  398.1536
 142  509.1985
 143  438.8091
 144  337.2913
 145  356.954
 146  413.2014
 147  275.1701
 148  432.9885
 149  465.1253
 150  477.7253
 151  413.2432
 152  365.1653
 153  381.8329
 154  295.4718
 155  331.0568
 156  348.2941
 157  392.1944
 158  317.1005
 159  322.9751
 160  380.8047
 161  436.4093
 162  405.261
 163  287.6093
 164  138.962
 165  298.7874
 166  370.0732
 167  359.2628
 168  334.6686
 169  361.5941
 170  252.9144
 171  300.1601
 172  286.0544
 173  268.6944
 174  218.2695
 175  249.3769
 176  271.9561
 177  273.2012
 178  418.9561
 179  352.5669
 180  233.7718
 181  226.3171
 182  229.0992
 183  37.01937
 184  224.5657
 185  348.3042
 186  289.3141
 187  312.8535
 188  242.2666
 189  250.034
 190  352.4164
 191  396.8207
 192  449.2695
 193  316.19
 194  465.207
 195  373.4218
 196  282.1322
 197  251.1704
 198  237.0938
 199  226.1169
 200  196.9183
 201  341.0509
 202  232.133
 203  191.0104
 204  224.9156
 205  266.3059
 206  330.7308
 207  231.2202
 208  183.855
 209  263.1871
 210  342.2657
 211  296.6192
 212  330.7649
 213  325.5806
 214  263.7333
 215  213.5482
 216  265.1685
 217  356.1616
 218  276.3274
 219  415.2097
 220  349.993
 221  267.7775
 222  372.0811
 223  338.6031
 224  422.2003
 225  463.2222
 226  423.9145
 227  250.7058
 228  170.0573
 229  226.9757
 230  232.4283
 231  198.8148
 232  179.5239
 233  207.4437
 234  232.6585
 235  209.8963
 236  238.0186
 237  274.6112
 238  339.4023
 239  269.1585
 240  218.9161
 241  213.9765
 242  389.8601
 243  311.6679
 244  262.9062
 245  256.1952
 246  289.5891
 247  229.076
 248  186.4391
 249  238.6374
 250  257.0715
 251  151.1514
 252  290.6568
 253  357.3263
 254  235.0881
 255  221.9127
 256  193.8558
 257  130.6225
 258  219.4434
 259  186.3281
 260  179.6605
 261  288.6316
 262  294.3062
 263  337.8357
 264  294.6023
 265  329.4166
 266  398.2988
 267  386.0592
 268  371.3005
 269  363.7758
 270  354.398
 271  395.3877
 272  331.7408
 273  435.4845
 274  390.6513
 275  342.7954
 276  208.5389
 277  237.5848
 278  250.6015
 279  224.8821
 280  323.3215
 281  351.0825
 282  304.1219
 283  305.0659
 284  377.8051
 285  356.2685
 286  355.4121
 287  381.6373
 288  403.7723
 289  336.7079
 290  366.9293
 291  378.6301
 292  238.6106
 293  406.1315
 294  360.1708
 295  341.4952
 296  357.7534
 297  331.7051
 298  354.6087
 299  355.1897
 300  400.3372
 301  481.9014
 302  433.412
 303  364.4491
 304  338.6306
 305  348.8252
 306  259.2259
 307  161.9391
 308  203.8421
 309  257.9907
 310  277.9849
 311  269.781
 312  223.5062
 313  187.488
 314  173.4562
 315  210.6614
 316  107.6522
 317  106.3649
 318  130.191
 319  206.3991
 320  247.654
 321  391.3671
 322  300.2504
 323  303.608
 324  395.7714
 325  245.2043
 326  345.3578
 327  350.3132
 328  267.1938
 329  344.9052
 330  388.3597
 331  287.1747
 332  268.7963
 333  396.536
 334  211.1562
 335  222.3471
 336  312.3652
 337  255.3849
 338  269.7291
 339  305.7964
 340  274.6147
 341  177.9426
 342  235.7693
 343  211.418
 344  136.3717
 345  295.4193
 346  309.3052
 347  251.0279
 348  368.9605
 349  300.2037
 350  207.6022
 351  252.5074
 352  200.9572
 353  238.2825
 354  237.9749
 355  263.709
 356  213.7705
 357  233.4663
 358  288.7124
 359  228.0749
 360  469.5905
 361  385.3461
 362  223.0723
 363  194.6758
 364  94.19892
 365  175.9259
 366  346.8532
 367  340.1246
 368  259.1763
 369  254.6972
 370  274.4009
 371  247.1104
 372  165.3379
 373  337.9225
 374  368.0225
 375  279.1723
 376  272.2951
 377  158.4822
 378  122.0006
 379  350.2953
 380  299.9491
 381  244.2619
 382  312.9812
 383  298.3001
 384  249.4925
 385  291.619
 386  391.2283
 387  379.018
 388  218.7936
 389  324.2098
 390  179.674
 391  275.9658
 392  362.3326
 393  269.7392
 394  379.4543
 395  341.1036
 396  344.1392
 397  278.1653
 398  202.817
 399  236.1759
 400  160.8759
 401  237.4849
 402  322.1197
 403  219.0478
 404  298.9477
 405  252.8568
 406  210.148
 407  319.6262
 408  341.5847
 409  311.4958
 410  340.5954
 411  316.6527
 412  250.5334
 413  267.3243
 414  245.5259
 415  266.6829
 416  199.4568
 417  350.2113
 418  403.7097
 419  411.7905
 420  309.6891
 421  303.7785
 422  415.2875
 423  348.1635
 424  221.5672
 425  235.9453
 426  390.5171
 427  200.7266
 428  164.5951
 429  141.0476
 430  256.8333
 431  261.8603
 432  237.0899
 433  202.6333
 434  267.5941
 435  292.8039
 436  247.6736
 437  256.2639
 438  286.1849
 439  181.8403
 440  130.3355
 441  194.7682
 442  235.3326
 443  153.6893
 444  216.0769
 445  248.1492
 446  151.3813
 447  263.9333
 448  305.1744
 449  312.6355
 450  326.5992
 451  236.4018
 452  248.586
 453  201.3942
 454  251.1306
 455  314.9828
 456  222.3496
 457  180.1644
 458  343.481
 459  288.3506
 460  152.3559
 461  260.9897
 462  271.45
 463  243.7844
 464  258.393
 465  262.4353
 466  151.4408
 467  98.42689
 468  305.4864
 469  435.8006
 470  256.9063
 471  186.3941
 472  238.9604
 473  241.8793
 474  261.4449
 475  237.722
 476  274.6599
 477  156.5772
 478  360.2046
 479  311.8945
 480  381.4916
 481  380.0662
 482  227.0553
 483  262.304
 484  374.8357
 485  329.5402
 486  234.0509
 487  214.3583
 488  354.0388
 489  339.2552
 490  188.9298
 491  317.6366
 492  400.4895
 493  383.3439
 494  332.8815
 495  351.0226
 496  353.2818
 497  255.2291
 498  234.3194
 499  249.088
 500  178.76
 501  217.3489
 502  347.2598
 503  375.8674
 504  415.0345
 505  527.0485
 506  389.7352
 507  372.6233
 508  550.2957
 509  783.0165
 510  882.2333
 511  962.8772
