# Input file       =  1202653658.112638_cleaned.dat
# Candidate        =  PSR_0332+5434
# Telescope        =  AR
# Epoch_topo       =  58163.602316118493
# Epoch_bary       =  N/A
# T_sample         =  0.002
# Data Folded      =  7340032
# Data Avg         =  -0.0288998456673802
# Data StdDev      =  1.00102019143504 
# Profile Bins     =  512
# Profile Avg      =  -414.306082532692
# Profile StdDev   =  119.855186994969 
# Reduced chi-sqr  =  0.997
# Prob(Noise)      <  0.512   (~0.0 sigma)
# P_topo (ms)      =  714.579941921082  +/- 0.000383
# P'_topo (s/s)    =  -0                +/- 2.02e-10
# P''_topo (s/s^2) =  0                 +/- 8.92e-14
# P_bary (ms)      =  N/A
# P'_bary (s/s)    =  N/A
# P''_bary (s/s^2) =  N/A
# P_orb (s)        =  N/A
# asin(i)/c (s)    =  N/A
# eccentricity     =  N/A
# w (rad)          =  N/A
# T_peri           =  N/A
######################################################
   0  133.3604
   1  96.42687
   2  -12.2049
   3  -36.03357
   4  -193.999
   5  -182.712
   6  -234.4605
   7  -295.9537
   8  -421.7374
   9  -353.5379
  10  -348.2581
  11  -351.5208
  12  -356.204
  13  -429.0557
  14  -326.5629
  15  -341.8039
  16  -319.788
  17  -308.4299
  18  -256.7371
  19  -247.3765
  20  -291.3113
  21  -344.1928
  22  -325.3715
  23  -376.8069
  24  -349.6315
  25  -382.6889
  26  -409.7829
  27  -428.6807
  28  -437.0629
  29  -494.7528
  30  -478.8796
  31  -447.8792
  32  -440.0441
  33  -426.7121
  34  -383.1585
  35  -353.739
  36  -383.7755
  37  -466.6096
  38  -427.7439
  39  -457.5415
  40  -487.0123
  41  -403.7739
  42  -344.8974
  43  -426.8057
  44  -390.7729
  45  -420.7477
  46  -434.4128
  47  -402.5523
  48  -465.2342
  49  -506.6169
  50  -443.623
  51  -416.3503
  52  -427.5446
  53  -418.3699
  54  -468.913
  55  -502.0883
  56  -533.1118
  57  -505.4361
  58  -484.0396
  59  -423.4967
  60  -354.5695
  61  -373.2767
  62  -465.5344
  63  -493.14
  64  -457.0112
  65  -486.1488
  66  -392.0308
  67  -460.6139
  68  -472.735
  69  -537.9179
  70  -532.9448
  71  -489.5183
  72  -424.8306
  73  -497.6133
  74  -509.505
  75  -538.2111
  76  -521.6487
  77  -518.9409
  78  -532.0666
  79  -426.4844
  80  -428.279
  81  -422.8467
  82  -420.2505
  83  -437.3717
  84  -421.2567
  85  -477.015
  86  -414.4718
  87  -329.8281
  88  -354.3898
  89  -481.6656
  90  -500.9328
  91  -388.4166
  92  -375.3735
  93  -389.931
  94  -476.3189
  95  -429.8454
  96  -470.7646
  97  -494.2403
  98  -482.4472
  99  -451.3153
 100  -395.9489
 101  -329.0151
 102  -373.3821
 103  -501.0639
 104  -474.8413
 105  -419.6638
 106  -471.0056
 107  -504.0201
 108  -447.4941
 109  -441.5486
 110  -485.5914
 111  -479.4416
 112  -462.7755
 113  -399.8007
 114  -483.696
 115  -450.6852
 116  -429.9792
 117  -469.1981
 118  -476.8096
 119  -467.477
 120  -423.0022
 121  -525.4849
 122  -511.821
 123  -494.4833
 124  -469.3789
 125  -447.2218
 126  -451.128
 127  -533.9802
 128  -486.826
 129  -457.3026
 130  -476.0356
 131  -435.7108
 132  -413.7775
 133  -486.8561
 134  -535.1674
 135  -395.1703
 136  -345.9832
 137  -344.3481
 138  -325.3544
 139  -315.6635
 140  -308.4977
 141  -355.4167
 142  -281.6982
 143  -450.0693
 144  -378.9793
 145  -384.789
 146  -444.4763
 147  -409.7468
 148  -425.3467
 149  -476.8779
 150  -467.4383
 151  -490.5993
 152  -418.0104
 153  -425.0755
 154  -455.909
 155  -464.8439
 156  -516.5881
 157  -486.4063
 158  -525.2166
 159  -504.9754
 160  -365.7039
 161  -468.5832
 162  -475.9518
 163  -455.8038
 164  -479.7179
 165  -453.2706
 166  -453.8289
 167  -513.627
 168  -577.6403
 169  -556.8231
 170  -499.3447
 171  -519.3345
 172  -543.4993
 173  -485.8477
 174  -538.1699
 175  -554.6627
 176  -555.9946
 177  -463.9829
 178  -449.9941
 179  -434.0202
 180  -356.7715
 181  -353.0629
 182  -359.0482
 183  -340.1816
 184  -393.8011
 185  -421.7585
 186  -395.3185
 187  -433.5842
 188  -369.3953
 189  -404.8703
 190  -512.345
 191  -562.7461
 192  -399.8833
 193  -373.8587
 194  -394.2982
 195  -436.3393
 196  -322.2791
 197  -323.1009
 198  -435.0211
 199  -439.0437
 200  -429.1991
 201  -444.1563
 202  -395.562
 203  -391.2059
 204  -268.2483
 205  -322.4979
 206  -391.6486
 207  -382.018
 208  -395.3962
 209  -391.9672
 210  -398.8252
 211  -409.9286
 212  -366.1573
 213  -393.1073
 214  -417.3926
 215  -407.9092
 216  -446.1157
 217  -512.1099
 218  -400.5798
 219  -331.6319
 220  -346.3999
 221  -395.6796
 222  -397.3409
 223  -387.039
 224  -333.86
 225  -358.9179
 226  -343.5579
 227  -379.9407
 228  -335.6982
 229  -378.7937
 230  -401.1079
 231  -462.4088
 232  -406.1304
 233  -384.6988
 234  -393.1174
 235  -350.3432
 236  -368.028
 237  -392.0201
 238  -430.2504
 239  -412.7964
 240  -418.2683
 241  -470.7661
 242  -499.5557
 243  -455.8732
 244  -434.106
 245  -448.5565
 246  -367.7628
 247  -393.1662
 248  -317.5426
 249  -334.6112
 250  -354.1397
 251  -409.8057
 252  -357.0505
 253  -296.8453
 254  -401.9435
 255  -452.7692
 256  -491.5159
 257  -551.9509
 258  -496.9241
 259  -447.4413
 260  -426.7816
 261  -406.3057
 262  -394.3839
 263  -388.8368
 264  -425.9416
 265  -503.2717
 266  -459.9699
 267  -438.4617
 268  -473.128
 269  -456.6215
 270  -530.0305
 271  -455.3251
 272  -425.93
 273  -435.987
 274  -448.7818
 275  -482.1928
 276  -347.8906
 277  -348.3475
 278  -406.5412
 279  -461.4039
 280  -403.2936
 281  -388.0347
 282  -410.5963
 283  -456.3406
 284  -443.0375
 285  -426.0642
 286  -432.0456
 287  -493.0529
 288  -486.3759
 289  -499.2063
 290  -416.7054
 291  -494.7297
 292  -435.4831
 293  -459.1711
 294  -453.1965
 295  -483.0197
 296  -468.6431
 297  -448.2411
 298  -471.9023
 299  -463.0284
 300  -436.0481
 301  -513.4893
 302  -485.1296
 303  -421.2913
 304  -378.1417
 305  -452.9023
 306  -439.3345
 307  -505.4355
 308  -466.4522
 309  -483.0544
 310  -519.7245
 311  -512.1553
 312  -415.8461
 313  -430.3904
 314  -407.516
 315  -545.1636
 316  -573.2948
 317  -535.0217
 318  -545.6561
 319  -545.8952
 320  -528.625
 321  -491.3836
 322  -452.2203
 323  -429.6283
 324  -413.4167
 325  -452.7554
 326  -506.7024
 327  -530.9495
 328  -534.2701
 329  -553.4177
 330  -484.2356
 331  -490.2184
 332  -522.7012
 333  -501.4481
 334  -492.3176
 335  -490.3544
 336  -525.3831
 337  -544.275
 338  -480.821
 339  -390.9746
 340  -459.7215
 341  -442.896
 342  -376.2272
 343  -379.3726
 344  -440.7475
 345  -395.2182
 346  -397.8392
 347  -361.2916
 348  -408.9256
 349  -358.8408
 350  -280.6644
 351  -346.4655
 352  -439.2232
 353  -468.0834
 354  -435.1463
 355  -436.8704
 356  -420.5865
 357  -466.1747
 358  -414.891
 359  -383.0576
 360  -399.874
 361  -385.6168
 362  -365.7001
 363  -448.4517
 364  -417.0932
 365  -418.3446
 366  -329.1306
 367  -352.2772
 368  -361.3868
 369  -366.2585
 370  -337.3684
 371  -338.2841
 372  -366.697
 373  -433.947
 374  -375.1768
 375  -385.079
 376  -477.597
 377  -480.0536
 378  -562.5121
 379  -571.6699
 380  -472.5518
 381  -415.8333
 382  -426.9834
 383  -474.5598
 384  -484.5813
 385  -477.0066
 386  -450.9505
 387  -443.0901
 388  -364.2758
 389  -417.1643
 390  -491.9824
 391  -420.9391
 392  -370.0041
 393  -372.3997
 394  -475.6556
 395  -468.28
 396  -477.578
 397  -446.0683
 398  -423.1066
 399  -457.7478
 400  -399.7784
 401  -354.4793
 402  -404.5248
 403  -412.4474
 404  -428.4562
 405  -457.1395
 406  -365.0936
 407  -443.4749
 408  -501.7142
 409  -484.2339
 410  -421.0892
 411  -376.6382
 412  -437.2021
 413  -366.7321
 414  -365.2015
 415  -319.7786
 416  -411.7583
 417  -405.2157
 418  -380.2951
 419  -369.7057
 420  -366.6627
 421  -391.0001
 422  -530.114
 423  -402.5526
 424  -405.1397
 425  -365.9133
 426  -359.5998
 427  -357.4397
 428  -310.5768
 429  -386.5788
 430  -480.0539
 431  -451.217
 432  -347.5106
 433  -223.9437
 434  -258.3661
 435  -277.958
 436  -320.1474
 437  -395.0376
 438  -383.9162
 439  -394.335
 440  -415.7284
 441  -389.4678
 442  -402.7966
 443  -276.0827
 444  -323.7027
 445  -363.2894
 446  -329.3809
 447  -304.5352
 448  -267.0963
 449  -351.1776
 450  -438.6749
 451  -365.5904
 452  -398.9136
 453  -391.9609
 454  -421.577
 455  -424.9877
 456  -372.8807
 457  -446.7049
 458  -435.0791
 459  -374.127
 460  -407.3115
 461  -306.9713
 462  -299.4614
 463  -328.4291
 464  -391.5152
 465  -415.8257
 466  -475.15
 467  -448.3694
 468  -431.4748
 469  -501.8939
 470  -500.8443
 471  -447.5799
 472  -340.487
 473  -511.4561
 474  -553.7873
 475  -453.801
 476  -431.7654
 477  -457.5753
 478  -460.0077
 479  -472.4964
 480  -509.5737
 481  -437.2841
 482  -396.8464
 483  -387.0358
 484  -391.2228
 485  -425.9748
 486  -366.1045
 487  -268.8492
 488  -340.2398
 489  -379.0776
 490  -365.3915
 491  -362.4347
 492  -379.5752
 493  -371.4747
 494  -241.1699
 495  -240.8134
 496  -281.2964
 497  -223.5453
 498  -294.9377
 499  -294.3516
 500  -297.9488
 501  -343.578
 502  -373.3808
 503  -337.9246
 504  -396.5626
 505  -394.0182
 506  -351.7399
 507  -230.013
 508  -254.6273
 509  -145.892
 510  42.62362
 511  116.8248
