# Input file       =  1202323790.104277_cleaned.dat
# Candidate        =  PSR_0332+5434
# Telescope        =  AR
# Epoch_topo       =  58159.784399355056
# Epoch_bary       =  N/A
# T_sample         =  0.002
# Data Folded      =  7340032
# Data Avg         =  0.0238231195284898
# Data StdDev      =  1.0000657318766  
# Profile Bins     =  512
# Profile Avg      =  341.60994485195  
# Profile StdDev   =  119.740906653938 
# Reduced chi-sqr  =  1.127
# Prob(Noise)      <  0.0246   (~2.0 sigma)
# P_topo (ms)      =  714.579472021222  +/- 0.000192
# P'_topo (s/s)    =  -0                +/- 1.01e-10
# P''_topo (s/s^2) =  0                 +/- 4.47e-14
# P_bary (ms)      =  N/A
# P'_bary (s/s)    =  N/A
# P''_bary (s/s^2) =  N/A
# P_orb (s)        =  N/A
# asin(i)/c (s)    =  N/A
# eccentricity     =  N/A
# w (rad)          =  N/A
# T_peri           =  N/A
######################################################
   0  911.1594
   1  932.7018
   2  816.2919
   3  515.0431
   4  462.5671
   5  291.6335
   6  403.4309
   7  432.4958
   8  303.1655
   9  376.5739
  10  401.7192
  11  323.6916
  12  317.1652
  13  332.4829
  14  338.0036
  15  317.7722
  16  339.5239
  17  306.9651
  18  224.318
  19  255.4595
  20  369.5882
  21  321.9598
  22  302.5754
  23  355.8123
  24  374.0046
  25  240.9214
  26  215.4801
  27  200.1308
  28  269.9638
  29  236.7874
  30  116.7195
  31  218.5842
  32  278.8611
  33  314.4624
  34  269.9637
  35  223.7924
  36  266.1887
  37  273.1702
  38  356.5707
  39  343.7979
  40  224.9609
  41  352.3155
  42  431.0799
  43  411.3318
  44  352.8336
  45  305.2965
  46  168.1646
  47  319.4001
  48  424.5482
  49  382.9505
  50  423.2974
  51  412.4271
  52  378.541
  53  350.3661
  54  310.2795
  55  279.29
  56  387.7831
  57  328.9813
  58  182.7984
  59  189.3159
  60  321.8896
  61  348.8988
  62  299.1028
  63  359.3788
  64  329.9789
  65  279.8506
  66  394.9942
  67  408.7194
  68  339.7433
  69  280.7192
  70  263.2963
  71  343.1148
  72  388.8535
  73  302.2497
  74  311.2665
  75  362.114
  76  284.5875
  77  294.9907
  78  313.8305
  79  384.1557
  80  287.3067
  81  155.0611
  82  267.8994
  83  303.6429
  84  433.2169
  85  356.7638
  86  315.4063
  87  314.8769
  88  267.3989
  89  405.5349
  90  395.9451
  91  442.4125
  92  256.7007
  93  359.7832
  94  308.387
  95  227.3822
  96  338.1275
  97  244.4698
  98  222.3114
  99  206.6702
 100  286.439
 101  357.9846
 102  175.7773
 103  368.559
 104  365.488
 105  383.3626
 106  364.8516
 107  321.6622
 108  322.9586
 109  379.2131
 110  276.6868
 111  274.0382
 112  412.976
 113  411.8528
 114  505.7839
 115  490.1386
 116  361.3901
 117  374.2024
 118  418.4554
 119  493.9024
 120  300.3949
 121  254.4247
 122  342.9942
 123  349.7209
 124  466.0787
 125  278.3565
 126  314.6234
 127  343.7371
 128  366.0906
 129  347.2984
 130  302.97
 131  324.0637
 132  313.1278
 133  227.5158
 134  263.9073
 135  326.6249
 136  411.6388
 137  365.9509
 138  328.6311
 139  451.6406
 140  528.0576
 141  491.6158
 142  446.5465
 143  428.7207
 144  418.3412
 145  385.3177
 146  275.6398
 147  375.3843
 148  347.2942
 149  413.9597
 150  352.0224
 151  404.8141
 152  480.4561
 153  256.1168
 154  260.6043
 155  293.0023
 156  304.2648
 157  323.7318
 158  308.1968
 159  202.3018
 160  138.4847
 161  280.7861
 162  452.1392
 163  352.6905
 164  252.617
 165  258.7305
 166  201.0677
 167  243.0713
 168  320.5086
 169  251.9409
 170  298.5432
 171  227.5017
 172  291.9313
 173  241.5776
 174  320.1185
 175  247.4891
 176  286.6846
 177  268.8102
 178  307.3559
 179  358.6507
 180  195.0455
 181  292.4201
 182  356.2492
 183  340.1608
 184  396.7372
 185  354.8746
 186  274.5682
 187  212.0292
 188  224.7123
 189  296.2291
 190  294.7489
 191  373.2879
 192  447.8751
 193  452.2459
 194  384.7738
 195  283.7639
 196  362.5168
 197  343.2445
 198  273.1035
 199  303.8551
 200  381.3026
 201  337.6718
 202  235.0965
 203  217.328
 204  243.9478
 205  139.4152
 206  195.5891
 207  318.274
 208  329.8027
 209  319.8953
 210  311.6599
 211  258.1024
 212  285.0663
 213  332.7521
 214  388.6463
 215  332.7322
 216  231.5986
 217  255.8144
 218  341.0556
 219  353.6081
 220  434.8586
 221  354.2556
 222  156.6879
 223  267.7067
 224  362.7008
 225  297.2195
 226  317.7155
 227  506.6823
 228  431.5221
 229  413.6836
 230  396.848
 231  490.7704
 232  325.394
 233  247.0325
 234  316.2942
 235  368.3567
 236  401.1837
 237  315.6051
 238  162.8987
 239  259.4669
 240  292.198
 241  404.2622
 242  426.5045
 243  364.418
 244  368.6671
 245  414.6815
 246  269.5898
 247  321.7202
 248  335.2786
 249  518.3325
 250  383.1011
 251  446.4983
 252  375.8526
 253  298.4278
 254  266.6253
 255  300.9114
 256  405.5142
 257  404.803
 258  407.5867
 259  381.7292
 260  381.5127
 261  186.5685
 262  206.0464
 263  324.8932
 264  281.2949
 265  312.9759
 266  365.2443
 267  560.314
 268  479.4122
 269  401.5832
 270  316.2719
 271  216.1729
 272  197.4804
 273  303.2574
 274  296.5052
 275  304.4645
 276  431.6957
 277  367.6986
 278  287.8196
 279  370.0703
 280  332.2229
 281  293.2693
 282  265.5464
 283  310.7943
 284  388.6954
 285  353.4226
 286  266.6622
 287  322.4756
 288  293.4001
 289  246.7086
 290  274.5104
 291  329.3929
 292  336.1535
 293  293.2394
 294  365.5347
 295  318.0307
 296  301.9677
 297  251.7196
 298  361.0619
 299  388.3874
 300  365.1794
 301  405.6345
 302  431.4139
 303  339.0554
 304  306.723
 305  300.9886
 306  359.7323
 307  321.5126
 308  157.141
 309  256.0467
 310  200.5132
 311  191.3153
 312  321.3115
 313  378.8617
 314  352.1528
 315  265.5574
 316  308.4296
 317  308.7113
 318  324.6628
 319  246.6209
 320  277.9547
 321  345.6728
 322  422.9142
 323  363.4768
 324  375.8968
 325  424.135
 326  359.2841
 327  311.8636
 328  324.3874
 329  331.8451
 330  313.0146
 331  360.8356
 332  431.8338
 333  431.4286
 334  477.0567
 335  403.8294
 336  301.4261
 337  269.6298
 338  322.4165
 339  308.8322
 340  332.1484
 341  339.8094
 342  337.2838
 343  150.9808
 344  321.1935
 345  360.2776
 346  414.8937
 347  413.3905
 348  409.7526
 349  396.2384
 350  353.7402
 351  232.773
 352  205.5142
 353  235.374
 354  339.9927
 355  461.5252
 356  490.9556
 357  371.8706
 358  305.8235
 359  304.5354
 360  261.1146
 361  260.5132
 362  373.513
 363  334.0943
 364  399.7287
 365  367.9072
 366  327.3353
 367  309.4085
 368  333.8048
 369  366.4121
 370  309.817
 371  195.393
 372  375.0039
 373  496.9945
 374  499.4291
 375  379.6888
 376  414.898
 377  392.7673
 378  365.8154
 379  359.1005
 380  328.8226
 381  260.314
 382  266.7191
 383  444.1147
 384  402.7552
 385  418.45
 386  456.7174
 387  406.7839
 388  330.3618
 389  378.6491
 390  416.5459
 391  448.2605
 392  448.9773
 393  376.5255
 394  377.3156
 395  430.6879
 396  334.4723
 397  408.7776
 398  304.4672
 399  418.3239
 400  455.2945
 401  437.0347
 402  419.8036
 403  279.0109
 404  321.2211
 405  332.4797
 406  283.5713
 407  358.8839
 408  389.8769
 409  352.9534
 410  298.7521
 411  326.2123
 412  373.3397
 413  272.8917
 414  210.9402
 415  519.2421
 416  550.8643
 417  339.7756
 418  399.978
 419  369.5728
 420  348.3282
 421  363.3528
 422  451.1468
 423  374.7675
 424  316.4291
 425  327.2692
 426  321.0589
 427  333.1537
 428  316.2805
 429  347.5299
 430  237.4831
 431  267.8524
 432  237.6459
 433  299.112
 434  290.5897
 435  328.2055
 436  348.7529
 437  334.0494
 438  352.9787
 439  340.8173
 440  226.5947
 441  374.3559
 442  466.3011
 443  443.0489
 444  323.581
 445  370.4405
 446  345.7978
 447  375.0533
 448  482.0594
 449  393.2013
 450  364.1406
 451  392.0134
 452  349.28
 453  372.56
 454  411.6764
 455  476.625
 456  415.6502
 457  349.2695
 458  359.6397
 459  265.636
 460  403.7429
 461  442.6315
 462  461.4494
 463  436.8219
 464  319.444
 465  376.1995
 466  362.6673
 467  339.7069
 468  451.1675
 469  385.1749
 470  421.8185
 471  423.115
 472  350.18
 473  345.7595
 474  331.2256
 475  280.8336
 476  259.9435
 477  306.1371
 478  380.3327
 479  198.9164
 480  223.7763
 481  248.1569
 482  377.7071
 483  484.0247
 484  486.6877
 485  439.1472
 486  323.6306
 487  282.4949
 488  287.5507
 489  258.8782
 490  235.5113
 491  301.1369
 492  321.1299
 493  398.0803
 494  294.3016
 495  277.5294
 496  401.1442
 497  274.9888
 498  305.2858
 499  190.6719
 500  84.30412
 501  280.7355
 502  260.5894
 503  283.8677
 504  430.4911
 505  373.1825
 506  469.4019
 507  365.3424
 508  503.285
 509  521.7385
 510  779.9986
 511  837.7179
