# Input file       =  1202496185.116841_cleaned.dat
# Candidate        =  PSR_0332+5434
# Telescope        =  AR
# Epoch_topo       =  58161.779712000476
# Epoch_bary       =  N/A
# T_sample         =  0.002
# Data Folded      =  7340032
# Data Avg         =  0.0152707434832579
# Data StdDev      =  1.00005643129297 
# Profile Bins     =  512
# Profile Avg      =  218.875228687894 
# Profile StdDev   =  119.73979306682  
# Reduced chi-sqr  =  1.181
# Prob(Noise)      <  0.00287   (~2.8 sigma)
# P_topo (ms)      =  714.579927789774  +/- 0.000176
# P'_topo (s/s)    =  -0                +/- 9.3e-11
# P''_topo (s/s^2) =  0                 +/- 4.1e-14
# P_bary (ms)      =  N/A
# P'_bary (s/s)    =  N/A
# P''_bary (s/s^2) =  N/A
# P_orb (s)        =  N/A
# asin(i)/c (s)    =  N/A
# eccentricity     =  N/A
# w (rad)          =  N/A
# T_peri           =  N/A
######################################################
   0  757.2079
   1  772.2921
   2  761.7993
   3  561.8272
   4  394.1403
   5  259.2297
   6  134.9093
   7  232.3701
   8  360.0995
   9  338.5656
  10  287.9927
  11  244.8913
  12  256.4707
  13  242.9362
  14  166.0385
  15  247.9454
  16  352.4865
  17  358.0549
  18  346.1735
  19  298.9861
  20  203.4477
  21  179.7252
  22  170.278
  23  277.5674
  24  234.794
  25  245.8746
  26  212.4695
  27  184.6996
  28  202.1371
  29  348.4599
  30  303.7437
  31  273.6939
  32  221.9593
  33  310.983
  34  327.0939
  35  213.3072
  36  190.3498
  37  259.0244
  38  236.6625
  39  223.3306
  40  258.6524
  41  242.4827
  42  127.8503
  43  182.637
  44  140.1779
  45  189.0735
  46  41.82035
  47  16.40086
  48  111.1625
  49  186.3741
  50  204.7331
  51  88.47363
  52  207.7467
  53  259.7825
  54  301.5926
  55  325.2598
  56  236.2355
  57  165.7946
  58  149.5662
  59  254.6535
  60  153.2603
  61  267.9547
  62  166.3655
  63  207.3641
  64  186.8523
  65  206.9459
  66  227.451
  67  172.6466
  68  196.6856
  69  194.6047
  70  258.8256
  71  275.2374
  72  223.1858
  73  243.6664
  74  137.3539
  75  162.3668
  76  164.7572
  77  130.8164
  78  201.2759
  79  162.9863
  80  169.2648
  81  300.3782
  82  310.8933
  83  257.3237
  84  71.15984
  85  116.3384
  86  81.74348
  87  162.905
  88  199.2315
  89  232.9632
  90  289.3522
  91  214.2215
  92  151.9587
  93  123.1093
  94  155.027
  95  239.0232
  96  257.2818
  97  241.9992
  98  284.1058
  99  223.1529
 100  125.3492
 101  164.1033
 102  375.2292
 103  265.1584
 104  138.1609
 105  138.4915
 106  109.2068
 107  196.6402
 108  216.0313
 109  192.6196
 110  210.4314
 111  225.2774
 112  180.8823
 113  96.00453
 114  235.4215
 115  404.0287
 116  363.3827
 117  258.8042
 118  301.5911
 119  126.1912
 120  93.60012
 121  13.68516
 122  70.34105
 123  148.4432
 124  138.6182
 125  138.7811
 126  195.5724
 127  272.6899
 128  218.0493
 129  214.4153
 130  278.5844
 131  185.1626
 132  171.4171
 133  187.335
 134  193.869
 135  151.9756
 136  191.7093
 137  214.602
 138  145.4159
 139  215.4041
 140  173.1915
 141  201.5973
 142  92.05122
 143  62.70433
 144  159.8921
 145  219.5849
 146  180.2146
 147  152.7518
 148  291.4745
 149  264.072
 150  242.9819
 151  156.7352
 152  168.6377
 153  205.7398
 154  123.4085
 155  205.0103
 156  181.1271
 157  131.0245
 158  183.0036
 159  153.656
 160  248.2242
 161  281.5229
 162  147.1948
 163  134.0569
 164  204.6693
 165  221.179
 166  142.8862
 167  226.2836
 168  261.1346
 169  368.6612
 170  254.8892
 171  216.8496
 172  279.6025
 173  254.7575
 174  195.1851
 175  179.4859
 176  183.1679
 177  234.11
 178  111.4568
 179  93.78699
 180  117.9318
 181  152.1962
 182  331.5869
 183  265.6642
 184  294.5121
 185  266.6186
 186  203.5033
 187  262.3589
 188  132.5147
 189  160.0281
 190  308.807
 191  371.4601
 192  413.1561
 193  428.8031
 194  376.3961
 195  349.6562
 196  245.4499
 197  207.4747
 198  226.7746
 199  214.1167
 200  225.8505
 201  327.3861
 202  364.0115
 203  325.9112
 204  237.9223
 205  246.1851
 206  304.2714
 207  361.3039
 208  310.9881
 209  425.3908
 210  343.3434
 211  306.2921
 212  214.7051
 213  95.25045
 214  125.5192
 215  181.1279
 216  211.2474
 217  266.3268
 218  288.7696
 219  263.8535
 220  389.4134
 221  277.9953
 222  265.7493
 223  387.8144
 224  314.9323
 225  240.6088
 226  296.1488
 227  292.1864
 228  348.5527
 229  311.155
 230  293.9258
 231  304.6892
 232  108.22
 233  210.279
 234  219.3258
 235  270.5417
 236  376.8083
 237  275.2046
 238  120.7118
 239  176.836
 240  142.0432
 241  150.4179
 242  188.3101
 243  279.8519
 244  216.2158
 245  191.6447
 246  175.8561
 247  250.9733
 248  314.2592
 249  237.9879
 250  218.3128
 251  195.9583
 252  235.5256
 253  193.2415
 254  114.4016
 255  71.45695
 256  138.375
 257  80.12584
 258  129.7447
 259  226.2336
 260  300.5733
 261  380.0052
 262  237.7252
 263  57.0532
 264  68.46847
 265  200.0321
 266  66.03562
 267  74.33656
 268  123.7842
 269  145.4669
 270  262.7602
 271  255.9698
 272  113.6757
 273  92.15553
 274  86.44575
 275  112.7061
 276  273.7901
 277  230.2192
 278  97.16238
 279  326.8435
 280  283.6472
 281  214.9757
 282  264.1772
 283  322.5609
 284  84.6275
 285  -8.682117
 286  130.243
 287  165.6546
 288  227.234
 289  331.1471
 290  300.3314
 291  110.5291
 292  209.7577
 293  348.1574
 294  358.9103
 295  262.3533
 296  235.0166
 297  331.6535
 298  349.6121
 299  355.572
 300  286.8196
 301  243.7125
 302  170.4248
 303  188.9218
 304  185.1529
 305  240.6368
 306  69.48125
 307  120.9727
 308  105.4775
 309  122.8407
 310  170.5859
 311  216.4025
 312  237.2535
 313  224.505
 314  227.9515
 315  228.7789
 316  180.4421
 317  183.3223
 318  193.4471
 319  162.7471
 320  108.4481
 321  245.6495
 322  213.1033
 323  119.4355
 324  133.9393
 325  143.8419
 326  117.3862
 327  206.1054
 328  268.1353
 329  264.0968
 330  141.7695
 331  270.7495
 332  292.5839
 333  55.55997
 334  140.6642
 335  265.6429
 336  354.0412
 337  268.4979
 338  175.2565
 339  204.0635
 340  243.8862
 341  154.0401
 342  236.5679
 343  148.8679
 344  171.7032
 345  272.7983
 346  213.438
 347  248.3348
 348  119.399
 349  89.53043
 350  128.1032
 351  121.8535
 352  180.8021
 353  67.50709
 354  156.3832
 355  124.9228
 356  161.8391
 357  232.5596
 358  238.5838
 359  147.4292
 360  168.4337
 361  174.7114
 362  152.5399
 363  261.2076
 364  148.906
 365  103.772
 366  200.5688
 367  222.6926
 368  209.0805
 369  265.3811
 370  161.0291
 371  158.7734
 372  235.7204
 373  247.1928
 374  164.0757
 375  183.7798
 376  233.6637
 377  161.4607
 378  277.5989
 379  334.6491
 380  171.671
 381  268.9362
 382  262.5262
 383  238.0033
 384  207.6642
 385  179.1266
 386  207.0598
 387  297.2994
 388  212.8795
 389  216.4829
 390  130.6305
 391  124.0611
 392  303.3489
 393  360.6941
 394  336.2206
 395  265.7878
 396  244.645
 397  271.8515
 398  248.718
 399  236.1082
 400  249.899
 401  284.7083
 402  87.39863
 403  173.4026
 404  87.25526
 405  174.0189
 406  91.32774
 407  248.9136
 408  253.2633
 409  188.3088
 410  216.9131
 411  323.9128
 412  277.7015
 413  244.5767
 414  225.3536
 415  166.6425
 416  242.0485
 417  237.7661
 418  151.1409
 419  231.2007
 420  235.9799
 421  216.0341
 422  211.3787
 423  147.5351
 424  281.2964
 425  153.2697
 426  116.0776
 427  195.3626
 428  171.4862
 429  94.99482
 430  211.5495
 431  267.8583
 432  223.1377
 433  60.08931
 434  7.372284
 435  99.62673
 436  165.9726
 437  255.1964
 438  292.3451
 439  303.539
 440  289.6508
 441  290.1849
 442  184.1716
 443  153.4103
 444  252.6765
 445  312.3158
 446  292.1821
 447  282.0752
 448  235.0107
 449  14.41424
 450  88.63064
 451  285.8435
 452  291.5808
 453  284.8635
 454  202.5839
 455  139.3613
 456  198.2288
 457  181.051
 458  146.5837
 459  235.5066
 460  387.8868
 461  400.069
 462  312.7915
 463  340.4331
 464  186.0319
 465  92.67241
 466  80.34717
 467  181.2737
 468  207.4157
 469  162.0971
 470  142.4009
 471  158.6439
 472  135.2456
 473  29.43487
 474  92.19997
 475  117.1672
 476  89.846
 477  88.68742
 478  188.6348
 479  178.8679
 480  290.9571
 481  259.0177
 482  250.6012
 483  302.6116
 484  285.3777
 485  280.0961
 486  281.6717
 487  288.1407
 488  213.5562
 489  151.2445
 490  271.2343
 491  204.0471
 492  196.6456
 493  195.107
 494  131.0955
 495  190.6711
 496  208.2923
 497  144.0981
 498  183.0549
 499  162.7428
 500  231.2142
 501  350.2579
 502  245.5285
 503  205.5616
 504  383.0509
 505  322.1741
 506  240.6256
 507  225.8413
 508  148.8722
 509  266.5017
 510  547.4995
 511  725.501
