# Input file       =  1202222673.110506_cleaned.dat
# Candidate        =  PSR_0332+5434
# Telescope        =  AR
# Epoch_topo       =  58158.614063779009
# Epoch_bary       =  N/A
# T_sample         =  0.002
# Data Folded      =  7340032
# Data Avg         =  0.035503285130467
# Data StdDev      =  1.00000056700861 
# Profile Bins     =  512
# Profile Avg      =  508.302476551692 
# Profile StdDev   =  119.733104266429 
# Reduced chi-sqr  =  1.087
# Prob(Noise)      <  0.0855   (~1.4 sigma)
# P_topo (ms)      =  714.578835493469  +/- 0.000317
# P'_topo (s/s)    =  -0                +/- 1.67e-10
# P''_topo (s/s^2) =  0                 +/- 7.37e-14
# P_bary (ms)      =  N/A
# P'_bary (s/s)    =  N/A
# P''_bary (s/s^2) =  N/A
# P_orb (s)        =  N/A
# asin(i)/c (s)    =  N/A
# eccentricity     =  N/A
# w (rad)          =  N/A
# T_peri           =  N/A
######################################################
   0  1023.03
   1  1013.483
   2  934.681
   3  773.8374
   4  618.3207
   5  654.9379
   6  592.243
   7  596.1235
   8  593.4432
   9  559.3859
  10  527.9326
  11  496.5639
  12  506.6245
  13  578.2617
  14  563.2199
  15  512.0335
  16  526.246
  17  502.7076
  18  547.9522
  19  464.3385
  20  448.3829
  21  509.0454
  22  491.3653
  23  406.257
  24  461.0643
  25  459.3934
  26  465.1845
  27  465.8281
  28  431.5912
  29  510.9172
  30  534.1075
  31  518.2181
  32  479.748
  33  482.9276
  34  412.7809
  35  315.8745
  36  403.8655
  37  405.477
  38  420.4791
  39  332.9928
  40  409.4414
  41  430.7637
  42  447.3829
  43  433.2024
  44  364.6303
  45  378.4955
  46  435.2219
  47  410.1241
  48  360.189
  49  401.3928
  50  521.1277
  51  515.4464
  52  493.1941
  53  456.0282
  54  428.9596
  55  471.4143
  56  462.6174
  57  545.954
  58  548.274
  59  579.629
  60  545.8999
  61  581.0035
  62  567.4753
  63  546.6324
  64  506.607
  65  449.644
  66  417.5745
  67  557.3611
  68  429.505
  69  504.1085
  70  504.1557
  71  452.1636
  72  548.0007
  73  409.2285
  74  379.8795
  75  486.5204
  76  639.4385
  77  538.5838
  78  537.0314
  79  512.3983
  80  400.9929
  81  462.1805
  82  563.1678
  83  616.4623
  84  601.9128
  85  468.103
  86  489.8937
  87  494.8574
  88  540.7083
  89  453.1826
  90  539.4896
  91  701.8984
  92  631.8052
  93  571.9551
  94  571.922
  95  472.3076
  96  422.9359
  97  447.907
  98  321.642
  99  333.0883
 100  573.9203
 101  637.335
 102  594.3997
 103  494.3822
 104  593.7711
 105  517.41
 106  383.1508
 107  422.6584
 108  554.3864
 109  469.8934
 110  444.8717
 111  482.3353
 112  487.7196
 113  475.1019
 114  511.365
 115  546.8409
 116  602.39
 117  461.4708
 118  406.8372
 119  395.1554
 120  509.1883
 121  594.1985
 122  437.1779
 123  497.4923
 124  549.2739
 125  527.7943
 126  519.7393
 127  606.6076
 128  505.0211
 129  408.1079
 130  578.3289
 131  560.6814
 132  417.6278
 133  479.1865
 134  563.751
 135  624.1149
 136  513.5704
 137  428.8579
 138  408.0738
 139  455.687
 140  487.1674
 141  459.8921
 142  495.1242
 143  451.8831
 144  359.3566
 145  408.6932
 146  393.859
 147  417.4632
 148  530.9573
 149  602.1978
 150  491.6368
 151  503.3914
 152  525.3161
 153  594.8619
 154  604.7297
 155  530.1149
 156  475.366
 157  467.3307
 158  560.066
 159  585.2219
 160  619.6471
 161  528.8207
 162  577.8859
 163  569.7049
 164  556.9283
 165  563.2662
 166  648.1585
 167  669.0345
 168  615.0724
 169  551.5266
 170  485.7335
 171  426.1172
 172  426.2471
 173  458.2263
 174  469.1993
 175  519.1221
 176  483.1039
 177  473.9229
 178  502.4218
 179  474.7025
 180  558.4628
 181  729.4178
 182  650.9987
 183  546.8242
 184  545.5117
 185  501.0757
 186  394.6568
 187  542.5052
 188  540.681
 189  512.3434
 190  544.5738
 191  594.3141
 192  621.9939
 193  570.2081
 194  492.5851
 195  506.2036
 196  626.6204
 197  584.8853
 198  465.4588
 199  443.0882
 200  450.4625
 201  365.0938
 202  472.0328
 203  589.2792
 204  573.5665
 205  451.6937
 206  509.597
 207  510.9369
 208  543.957
 209  563.2209
 210  596.4941
 211  547.3041
 212  484.8348
 213  467.7544
 214  523.2967
 215  483.9233
 216  400.0476
 217  436.3788
 218  461.5027
 219  489.7683
 220  433.9998
 221  446.7154
 222  401.7448
 223  389.3644
 224  452.4986
 225  530.4929
 226  562.4805
 227  495.8228
 228  523.7543
 229  572.559
 230  509.5114
 231  478.8081
 232  467.2787
 233  507.9919
 234  580.5477
 235  479.4825
 236  433.0844
 237  529.7449
 238  593.7375
 239  451.0457
 240  498.222
 241  545.8037
 242  484.209
 243  380.5694
 244  418.852
 245  497.0081
 246  451.819
 247  423.8982
 248  504.2408
 249  575.5591
 250  588.6084
 251  477.7688
 252  462.1801
 253  432.9008
 254  476.3808
 255  444.4292
 256  439.8548
 257  520.7198
 258  481.9313
 259  561.9733
 260  581.6656
 261  496.2435
 262  538.683
 263  542.3525
 264  566.4749
 265  437.6339
 266  492.2321
 267  519.0074
 268  597.0017
 269  503.1437
 270  520.4686
 271  598.8416
 272  538.606
 273  476.7808
 274  518.2539
 275  589.136
 276  538.9405
 277  461.6602
 278  587.5662
 279  586.493
 280  553.6191
 281  523.1068
 282  575.9938
 283  548.2215
 284  493.1474
 285  473.8404
 286  591.0371
 287  618.7579
 288  529.886
 289  537.677
 290  566.3986
 291  536.011
 292  542.4857
 293  579.7776
 294  591.4487
 295  562.5855
 296  535.4173
 297  449.9543
 298  475.0666
 299  491.8316
 300  593.6132
 301  536.5521
 302  491.5379
 303  496.9754
 304  436.4715
 305  386.1283
 306  429.799
 307  434.9488
 308  515.1177
 309  473.6416
 310  392.4468
 311  449.7807
 312  576.5063
 313  479.4417
 314  425.8957
 315  514.7123
 316  565.405
 317  490.8076
 318  539.9846
 319  560.1748
 320  632.7635
 321  691.7466
 322  473.5249
 323  445.8295
 324  481.822
 325  507.8806
 326  527.2794
 327  601.3983
 328  682.3294
 329  553.7318
 330  538.118
 331  614.327
 332  490.4411
 333  526.9937
 334  554.6423
 335  575.6916
 336  557.4199
 337  423.8331
 338  516.8544
 339  589.5905
 340  541.623
 341  567.7853
 342  678.9569
 343  692.5788
 344  617.7728
 345  573.4684
 346  555.4217
 347  461.7266
 348  499.897
 349  516.3751
 350  472.0094
 351  560.0137
 352  639.6646
 353  655.246
 354  458.3539
 355  395.0067
 356  424.1643
 357  542.8206
 358  587.8402
 359  533.8513
 360  531.9246
 361  449.1182
 362  383.726
 363  533.1654
 364  553.0275
 365  533.8313
 366  550.3104
 367  539.3406
 368  481.4626
 369  479.0508
 370  444.3118
 371  556.2222
 372  585.9839
 373  623.9196
 374  533.3937
 375  541.1055
 376  485.0897
 377  484.4559
 378  432.0279
 379  511.3681
 380  380.7075
 381  336.5466
 382  466.6172
 383  502.5466
 384  446.3929
 385  464.6487
 386  460.4738
 387  400.3289
 388  531.1744
 389  499.4418
 390  506.9128
 391  465.606
 392  438.0175
 393  535.7389
 394  449.9221
 395  455.2369
 396  410.6155
 397  411.6812
 398  410.8476
 399  395.2179
 400  441.8227
 401  463.7346
 402  487.2456
 403  450.8211
 404  417.6829
 405  408.8507
 406  353.2441
 407  442.4191
 408  504.7732
 409  430.372
 410  421.8057
 411  387.3868
 412  346.2249
 413  341.5472
 414  491.3211
 415  525.0198
 416  385.2867
 417  330.7264
 418  321.6605
 419  290.8852
 420  405.7989
 421  464.3891
 422  463.0044
 423  431.9252
 424  445.6054
 425  377.9361
 426  365.0041
 427  342.0737
 428  373.4433
 429  391.4053
 430  422.2595
 431  506.0725
 432  528.6533
 433  617.3433
 434  619.6036
 435  617.6277
 436  573.8972
 437  529.6718
 438  579.7168
 439  470.1334
 440  391.5362
 441  494.6651
 442  581.2459
 443  489.6034
 444  469.0226
 445  504.4034
 446  388.9231
 447  433.509
 448  508.7193
 449  419.6163
 450  452.0376
 451  492.2833
 452  516.3694
 453  510.778
 454  520.4659
 455  507.1961
 456  375.1823
 457  492.8135
 458  531.8307
 459  481.4445
 460  483.4675
 461  376.2211
 462  442.4661
 463  415.6137
 464  529.8111
 465  462.4005
 466  477.6911
 467  516.7003
 468  385.9128
 469  334.5798
 470  430.35
 471  539.404
 472  561.7544
 473  593.0547
 474  594.5634
 475  510.1248
 476  456.1432
 477  542.0007
 478  447.9565
 479  485.6833
 480  610.9218
 481  610.2593
 482  632.1519
 483  475.8979
 484  523.8725
 485  483.9674
 486  350.6168
 487  371.2913
 488  620.8787
 489  551.0726
 490  551.1379
 491  619.946
 492  628.1125
 493  591.3292
 494  625.0897
 495  524.5892
 496  520.4517
 497  515.9059
 498  497.2444
 499  552.6827
 500  583.6312
 501  591.9629
 502  550.4807
 503  472.2437
 504  458.7295
 505  502.0271
 506  585.318
 507  716.1055
 508  777.4426
 509  927.0343
 510  926.7856
 511  907.5803
