# Input file       =  1202552800.128057_cleaned.dat
# Candidate        =  PSR_0332+5434
# Telescope        =  AR
# Epoch_topo       =  58162.434978333993
# Epoch_bary       =  N/A
# T_sample         =  0.002
# Data Folded      =  7208960
# Data Avg         =  0.00312485300703096
# Data StdDev      =  1.00018609666623 
# Profile Bins     =  512
# Profile Avg      =  44.1902702327511 
# Profile StdDev   =  118.681257870563 
# Reduced chi-sqr  =  1.317
# Prob(Noise)      <  1.81e-06   (~4.6 sigma)
# P_topo (ms)      =  714.579707166578  +/- 9.77e-05
# P'_topo (s/s)    =  -0                +/- 5.25e-11
# P''_topo (s/s^2) =  0                 +/- 2.36e-14
# P_bary (ms)      =  N/A
# P'_bary (s/s)    =  N/A
# P''_bary (s/s^2) =  N/A
# P_orb (s)        =  N/A
# asin(i)/c (s)    =  N/A
# eccentricity     =  N/A
# w (rad)          =  N/A
# T_peri           =  N/A
######################################################
   0  684.6025
   1  574.6526
   2  500.5842
   3  253.1263
   4  187.6421
   5  133.0037
   6  -58.11829
   7  79.20744
   8  182.4243
   9  147.6196
  10  131.0285
  11  132.5915
  12  13.55117
  13  -109.3206
  14  -11.07711
  15  49.10032
  16  35.31546
  17  64.0175
  18  -26.33624
  19  9.369035
  20  -53.45808
  21  44.87287
  22  30.91219
  23  33.51574
  24  -12.46379
  25  -10.24804
  26  -2.583987
  27  -9.956049
  28  40.29742
  29  9.002152
  30  26.21069
  31  -8.67184
  32  -61.02259
  33  -113.4226
  34  -126.6156
  35  -47.25395
  36  40.77987
  37  35.44302
  38  23.38256
  39  -27.69268
  40  22.15841
  41  103.8854
  42  103.9279
  43  16.31954
  44  64.37962
  45  116.4626
  46  53.15669
  47  -59.47094
  48  -18.49335
  49  60.58914
  50  118.7937
  51  63.10801
  52  -47.36367
  53  -87.19911
  54  -55.25139
  55  107.662
  56  81.00261
  57  97.12741
  58  126.2751
  59  166.0995
  60  -8.726091
  61  50.70791
  62  25.50523
  63  52.83617
  64  77.70673
  65  -11.15503
  66  127.2924
  67  106.0017
  68  -45.17131
  69  -39.1795
  70  -80.16759
  71  49.14276
  72  41.85709
  73  22.32323
  74  63.34171
  75  39.87048
  76  39.80215
  77  -6.572898
  78  -29.46039
  79  -7.170652
  80  46.18497
  81  24.35872
  82  151.5765
  83  72.02722
  84  27.92885
  85  48.37722
  86  19.48827
  87  -7.784529
  88  180.7482
  89  153.6053
  90  142.5308
  91  205.3168
  92  98.83257
  93  75.93317
  94  -25.60547
  95  23.45103
  96  163.3954
  97  -13.45711
  98  55.01419
  99  9.9828
 100  33.88189
 101  89.01022
 102  125.5003
 103  127.7662
 104  38.49868
 105  24.98405
 106  51.11118
 107  20.38654
 108  -64.88461
 109  -23.81307
 110  -101.347
 111  34.23857
 112  -25.61073
 113  -55.41857
 114  -37.12514
 115  57.94757
 116  20.99047
 117  -85.46532
 118  38.04138
 119  47.43836
 120  -21.38819
 121  -76.85107
 122  11.27229
 123  20.9414
 124  77.23434
 125  48.68337
 126  -8.522209
 127  23.27538
 128  31.74746
 129  18.11975
 130  15.35126
 131  122.8411
 132  93.02544
 133  -32.30557
 134  -5.533555
 135  28.10482
 136  -30.2905
 137  -42.35784
 138  25.50543
 139  -29.21213
 140  130.6721
 141  149.4096
 142  122.9695
 143  141.977
 144  -44.57663
 145  -44.8634
 146  -85.14875
 147  -46.73035
 148  17.94422
 149  77.17807
 150  139.0013
 151  16.53624
 152  49.79478
 153  16.10182
 154  96.7286
 155  162.1169
 156  176.2376
 157  219.9714
 158  184.4258
 159  187.0996
 160  112.5851
 161  99.11652
 162  63.96803
 163  144.5878
 164  139.7042
 165  51.02212
 166  -25.65955
 167  -130.2624
 168  -113.1268
 169  -21.48973
 170  -26.51487
 171  16.18328
 172  48.57198
 173  110.5609
 174  191.4586
 175  112.2687
 176  12.23013
 177  -87.80604
 178  -0.9749302
 179  96.50496
 180  178.9407
 181  28.74585
 182  51.17135
 183  73.27364
 184  -54.13504
 185  -91.19601
 186  -97.32622
 187  5.025197
 188  73.01842
 189  -5.438316
 190  129.2621
 191  120.7574
 192  107.084
 193  151.9463
 194  33.16357
 195  209.5163
 196  241.8619
 197  147.9436
 198  174.9147
 199  92.30702
 200  52.94983
 201  110.838
 202  -39.68373
 203  -46.39073
 204  132.8741
 205  121.1537
 206  -29.67958
 207  -142.3372
 208  -27.82525
 209  119.2814
 210  -32.30949
 211  -64.55723
 212  -36.51923
 213  117.0153
 214  133.8837
 215  205.0079
 216  1.525754
 217  -58.68763
 218  -110.4547
 219  5.849142
 220  117.3803
 221  24.55327
 222  77.4596
 223  67.13351
 224  58.21032
 225  162.1225
 226  147.5107
 227  -11.60788
 228  12.05655
 229  24.30817
 230  30.30457
 231  24.04088
 232  119.6102
 233  91.5441
 234  -39.7886
 235  -95.31281
 236  -95.94181
 237  -108.054
 238  -37.4599
 239  40.55055
 240  26.98162
 241  -34.67141
 242  64.44305
 243  80.09735
 244  64.65293
 245  13.12523
 246  -138.604
 247  -12.43096
 248  46.07017
 249  190.7952
 250  250.4384
 251  57.59987
 252  -61.87712
 253  135.4942
 254  123.9712
 255  -33.59623
 256  35.4031
 257  156.3619
 258  45.86499
 259  22.08498
 260  40.59798
 261  42.84083
 262  101.2126
 263  89.85091
 264  27.5212
 265  77.37486
 266  130.4235
 267  175.1798
 268  93.44035
 269  136.3562
 270  125.2485
 271  144.188
 272  215.1914
 273  202.4751
 274  190.6165
 275  121.132
 276  -144.6198
 277  -33.03138
 278  -45.04462
 279  71.68924
 280  67.84
 281  156.2199
 282  51.26491
 283  -0.200656
 284  -13.48803
 285  13.86487
 286  167.5176
 287  31.2862
 288  -139.308
 289  -56.03076
 290  31.02637
 291  31.44927
 292  -48.86003
 293  -119.1817
 294  -65.26704
 295  0.6492948
 296  48.20062
 297  121.2081
 298  28.35617
 299  5.218228
 300  -60.46429
 301  -37.40873
 302  19.56046
 303  12.01467
 304  13.11144
 305  -100.3062
 306  -122.1697
 307  -28.73238
 308  -58.92201
 309  -66.87144
 310  -51.40305
 311  -28.62019
 312  -20.13988
 313  -110.609
 314  14.98029
 315  -48.85414
 316  -47.64635
 317  -106.5093
 318  -86.78363
 319  -78.51987
 320  -3.628485
 321  49.61275
 322  103.8249
 323  67.03657
 324  98.63433
 325  38.13543
 326  -85.15634
 327  -200.2742
 328  -146.6682
 329  4.391901
 330  22.44098
 331  -91.08309
 332  -75.01634
 333  -111.685
 334  -15.27788
 335  -61.70961
 336  -22.37326
 337  20.72331
 338  -9.573798
 339  70.85323
 340  -84.27631
 341  54.66064
 342  -5.890723
 343  -38.15666
 344  -22.17551
 345  75.82952
 346  2.912705
 347  13.68179
 348  51.60668
 349  52.96614
 350  -76.17186
 351  -35.47899
 352  -43.13856
 353  -85.16414
 354  -12.28809
 355  -12.15295
 356  17.67956
 357  120.4642
 358  192.3504
 359  38.61514
 360  50.68842
 361  60.91328
 362  22.59681
 363  46.63569
 364  132.3339
 365  45.34073
 366  3.390512
 367  -37.22047
 368  14.50446
 369  75.99263
 370  84.72694
 371  91.37425
 372  53.78498
 373  -10.40062
 374  -104.7293
 375  -189.1222
 376  -49.40801
 377  57.27098
 378  64.58521
 379  105.927
 380  119.0969
 381  -17.39605
 382  -116.0726
 383  27.85798
 384  46.87566
 385  22.27894
 386  25.06246
 387  -27.83146
 388  -52.36103
 389  -109.6747
 390  -94.86395
 391  -144.1781
 392  -11.5708
 393  -6.841959
 394  17.01985
 395  191.3847
 396  110.3349
 397  202.5668
 398  170.3852
 399  91.51007
 400  76.25993
 401  86.31223
 402  142.8721
 403  152.8331
 404  261.5277
 405  197.2189
 406  121.2169
 407  151.1341
 408  114.4765
 409  26.25437
 410  74.95006
 411  24.91077
 412  53.157
 413  40.69859
 414  143.5819
 415  203.7231
 416  157.014
 417  80.80662
 418  146.0598
 419  85.30253
 420  46.86069
 421  35.86152
 422  74.04005
 423  75.05008
 424  -18.02021
 425  -37.2668
 426  23.81993
 427  -26.2056
 428  -71.89737
 429  -50.49628
 430  30.19445
 431  87.54285
 432  10.66333
 433  -20.7534
 434  -15.30083
 435  -39.93446
 436  58.0304
 437  119.9283
 438  155.6982
 439  8.550655
 440  35.88481
 441  3.798586
 442  24.14462
 443  78.30173
 444  74.87454
 445  49.86502
 446  98.74031
 447  50.11038
 448  -96.54755
 449  -47.51627
 450  2.711551
 451  68.49624
 452  17.95152
 453  80.05774
 454  59.5937
 455  195.2162
 456  57.88483
 457  -120.0255
 458  -27.92455
 459  10.02406
 460  58.21593
 461  -27.98201
 462  47.07922
 463  -0.3322394
 464  52.95712
 465  -32.07141
 466  -97.77524
 467  14.08615
 468  6.114089
 469  -50.62533
 470  -6.137398
 471  -11.78549
 472  -4.062991
 473  -1.682431
 474  20.87819
 475  -8.865967
 476  129.0977
 477  245.8069
 478  104.853
 479  89.97443
 480  118.5419
 481  98.99706
 482  73.95847
 483  77.80655
 484  -14.50833
 485  56.56036
 486  107.2709
 487  228.3368
 488  108.1312
 489  45.61191
 490  -26.84033
 491  64.81332
 492  200.4221
 493  159.0772
 494  118.9921
 495  154.9609
 496  104.4165
 497  7.458273
 498  -29.94193
 499  75.10327
 500  115.7942
 501  134.3777
 502  131.9719
 503  126.3526
 504  220.0414
 505  204.8332
 506  148.7662
 507  170.8304
 508  96.07317
 509  212.9496
 510  475.4915
 511  619.7354
