# Input file       =  1202151414.114845_cleaned.dat
# Candidate        =  PSR_0332+5434
# Telescope        =  AR
# Epoch_topo       =  58157.789306884777
# Epoch_bary       =  N/A
# T_sample         =  0.002
# Data Folded      =  7340032
# Data Avg         =  0.0142778652009548
# Data StdDev      =  1.00007223698405 
# Profile Bins     =  512
# Profile Avg      =  204.773129368251 
# Profile StdDev   =  119.741685530206 
# Reduced chi-sqr  =  1.144
# Prob(Noise)      <  0.0132   (~2.2 sigma)
# P_topo (ms)      =  714.578944186548  +/- 0.000249
# P'_topo (s/s)    =  -0                +/- 1.31e-10
# P''_topo (s/s^2) =  0                 +/- 5.79e-14
# P_bary (ms)      =  N/A
# P'_bary (s/s)    =  N/A
# P''_bary (s/s^2) =  N/A
# P_orb (s)        =  N/A
# asin(i)/c (s)    =  N/A
# eccentricity     =  N/A
# w (rad)          =  N/A
# T_peri           =  N/A
######################################################
   0  880.3635
   1  738.1671
   2  518.4388
   3  332.8781
   4  124.8493
   5  89.45622
   6  139.2841
   7  308.4807
   8  293.4518
   9  195.806
  10  278.3214
  11  277.2451
  12  235.9332
  13  325.3157
  14  228.5288
  15  296.2099
  16  348.4013
  17  448.3191
  18  291.2186
  19  301.6924
  20  198.6064
  21  242.4393
  22  178.5192
  23  215.0029
  24  240.8058
  25  272.5369
  26  181.3746
  27  138.3704
  28  226.0622
  29  240.9113
  30  179.4948
  31  207.3269
  32  256.3934
  33  196.9769
  34  237.2887
  35  284.4574
  36  232.8628
  37  87.89986
  38  80.42416
  39  153.3013
  40  197.7782
  41  207.5566
  42  142.6784
  43  141.3973
  44  167.6972
  45  226.7089
  46  246.3738
  47  256.8972
  48  134.2483
  49  194.3773
  50  159.7414
  51  219.9212
  52  215.2399
  53  216.3748
  54  99.58217
  55  66.00816
  56  110.8157
  57  92.14797
  58  98.75887
  59  210.4773
  60  143.411
  61  148.4176
  62  164.2581
  63  245.4649
  64  190.1728
  65  155.945
  66  154.9624
  67  191.4556
  68  181.1089
  69  205.9607
  70  179.2098
  71  184.8102
  72  168.4035
  73  201.9692
  74  124.0098
  75  182.6833
  76  219.1399
  77  162.4533
  78  122.6492
  79  221.6474
  80  194.3463
  81  149.1803
  82  169.4051
  83  175.4681
  84  172.3255
  85  221.1244
  86  215.4687
  87  175.088
  88  341.9836
  89  278.4128
  90  170.1408
  91  194.7075
  92  128.1389
  93  184.063
  94  204.3826
  95  243.4955
  96  272.6672
  97  207.0424
  98  173.933
  99  16.55752
 100  46.24105
 101  299.6793
 102  179.5246
 103  86.93639
 104  123.6746
 105  76.4755
 106  193.6959
 107  181.5404
 108  194.5883
 109  189.395
 110  191.1181
 111  200.1761
 112  18.86663
 113  -3.17189
 114  222.1591
 115  169.0692
 116  195.5523
 117  228.3895
 118  74.17933
 119  121.7968
 120  151.4024
 121  251.513
 122  173.8218
 123  162.6277
 124  184.0394
 125  198.6159
 126  283.3591
 127  235.7482
 128  273.5096
 129  242.0466
 130  175.6549
 131  186.8264
 132  94.54058
 133  136.8208
 134  220.044
 135  152.0951
 136  133.2546
 137  242.7835
 138  232.2859
 139  141.2933
 140  126.0412
 141  198.4565
 142  222.9345
 143  175.5337
 144  171.4684
 145  174.5592
 146  145.5836
 147  175.4199
 148  265.6078
 149  169.6842
 150  194.3072
 151  220.9663
 152  253.8576
 153  133.0555
 154  184.7099
 155  294.0853
 156  323.5876
 157  271.262
 158  236.9682
 159  148.6827
 160  19.82727
 161  182.7408
 162  142.2284
 163  75.81748
 164  72.63148
 165  169.7436
 166  183.3085
 167  216.9636
 168  206.8007
 169  239.5492
 170  215.9725
 171  115.2762
 172  129.7073
 173  160.3068
 174  188.4219
 175  183.9151
 176  230.0576
 177  252.973
 178  300.1951
 179  267.1765
 180  138.4115
 181  90.2654
 182  101.1071
 183  143.0274
 184  186.6673
 185  207.5578
 186  78.54852
 187  106.7704
 188  260.7933
 189  409.2553
 190  282.833
 191  271.0489
 192  160.4088
 193  175.9057
 194  261.6624
 195  358.1712
 196  306.4218
 197  210.0236
 198  263.0594
 199  330.0224
 200  243.6362
 201  206.3893
 202  242.0385
 203  202.5502
 204  191.4113
 205  205.8388
 206  193.9057
 207  173.9599
 208  141.6135
 209  273.6351
 210  205.2327
 211  137.526
 212  155.6864
 213  151.5316
 214  205.838
 215  243.09
 216  222.3017
 217  140.9275
 218  195.6889
 219  217.1056
 220  241.2372
 221  199.794
 222  168.482
 223  263.0703
 224  254.1302
 225  226.5098
 226  236.2402
 227  243.0596
 228  229.9509
 229  218.2914
 230  214.1733
 231  194.1694
 232  182.945
 233  184.3423
 234  210.7903
 235  120.1057
 236  285.1487
 237  296.5431
 238  237.8994
 239  191.0913
 240  189.5971
 241  167.709
 242  166.6116
 243  295.7433
 244  269.9015
 245  29.62027
 246  92.40687
 247  75.22851
 248  55.28156
 249  87.66909
 250  183.5013
 251  210.7574
 252  142.3252
 253  133.2822
 254  268.7358
 255  164.9343
 256  78.89372
 257  -5.882824
 258  124.7112
 259  68.89525
 260  150.8595
 261  139.8869
 262  223.7211
 263  218.8538
 264  205.3949
 265  203.6918
 266  88.61676
 267  132.0309
 268  197.1987
 269  277.3473
 270  223.774
 271  154.6275
 272  168.2231
 273  142.2352
 274  285.1496
 275  222.511
 276  128.3936
 277  66.27504
 278  68.83448
 279  144.5269
 280  217.49
 281  158.3274
 282  98.17661
 283  191.9482
 284  187.6736
 285  106.6274
 286  66.88702
 287  47.73374
 288  120.0203
 289  114.6374
 290  165.8613
 291  124.8735
 292  214.9854
 293  239.9881
 294  120.4894
 295  96.58965
 296  124.6667
 297  82.48906
 298  100.6141
 299  165.7399
 300  230.8084
 301  247.9051
 302  270.9243
 303  130.0975
 304  162.205
 305  237.4177
 306  219.1207
 307  155.4883
 308  211.2215
 309  97.91472
 310  113.6291
 311  211.8947
 312  211.9219
 313  261.6957
 314  193.844
 315  121.773
 316  139.0975
 317  62.06326
 318  127.1639
 319  112.9507
 320  175.3772
 321  194.636
 322  197.0078
 323  283.4703
 324  257.0638
 325  154.8407
 326  143.2931
 327  136.4934
 328  121.7125
 329  135.372
 330  185.2943
 331  214.8799
 332  304.3434
 333  236.031
 334  275.3562
 335  255.0815
 336  155.3613
 337  90.71064
 338  120.3597
 339  201.5106
 340  269.4266
 341  239.219
 342  58.12504
 343  95.59966
 344  149.8847
 345  170.8068
 346  284.0244
 347  296.3615
 348  274.2166
 349  293.621
 350  179.8741
 351  211.9772
 352  125.9762
 353  266.2917
 354  177.375
 355  127.4968
 356  178.3446
 357  119.2455
 358  145.9846
 359  138.9975
 360  141.1907
 361  130.3665
 362  214.687
 363  210.3842
 364  62.80849
 365  188.5015
 366  225.3669
 367  165.3199
 368  79.57601
 369  145.7132
 370  217.9228
 371  244.7704
 372  218.1585
 373  147.5241
 374  90.88588
 375  161.9667
 376  139.5276
 377  112.5676
 378  65.55145
 379  186.8991
 380  172.427
 381  135.9879
 382  200.0744
 383  145.3042
 384  81.97081
 385  164.0616
 386  154.8584
 387  168.0733
 388  249.814
 389  247.9633
 390  274.4096
 391  123.6672
 392  204.3348
 393  266.9155
 394  275.7397
 395  232.7569
 396  285.6108
 397  236.5346
 398  252.3539
 399  334.3768
 400  293.3772
 401  133.1503
 402  227.2497
 403  243.1767
 404  305.5164
 405  314.4543
 406  196.7939
 407  179.9052
 408  259.7829
 409  235.3972
 410  325.4539
 411  258.2448
 412  198.8677
 413  250.6893
 414  199.1472
 415  205.0875
 416  264.3709
 417  93.07941
 418  73.61218
 419  74.22871
 420  144.0324
 421  226.8195
 422  275.1857
 423  186.3845
 424  207.1421
 425  155.3984
 426  256.6398
 427  225.2565
 428  267.7528
 429  359.3045
 430  283.3071
 431  217.9202
 432  150.0367
 433  95.00428
 434  165.3718
 435  157.8013
 436  271.1176
 437  292.498
 438  260.2306
 439  253.407
 440  99.36779
 441  116.8336
 442  269.0193
 443  228.2106
 444  95.46405
 445  178.0364
 446  323.2395
 447  279.2044
 448  214.1079
 449  215.4653
 450  345.7596
 451  308.2667
 452  210.8206
 453  275.8805
 454  239.8965
 455  278.9236
 456  310.8027
 457  300.4582
 458  227.3175
 459  133.0403
 460  208.2223
 461  207.802
 462  227.3871
 463  132.5504
 464  168.9884
 465  143.8647
 466  109.7913
 467  210.3
 468  230.9288
 469  189.436
 470  326.8695
 471  309.4357
 472  333.0771
 473  301.4232
 474  169.4925
 475  182.8037
 476  217.4485
 477  226.4271
 478  166.9125
 479  264.2724
 480  355.6233
 481  240.1893
 482  266.9207
 483  177.0683
 484  205.6078
 485  89.05943
 486  139.7163
 487  179.0716
 488  230.8392
 489  271.8872
 490  228.9396
 491  261.2222
 492  473.3224
 493  311.3532
 494  364.0262
 495  263.6349
 496  258.7357
 497  293.5478
 498  398.7066
 499  376.2612
 500  290.5579
 501  267.8209
 502  458.0259
 503  353.1388
 504  385.4449
 505  443.0901
 506  411.3925
 507  511.2048
 508  464.4748
 509  456.2948
 510  612.9117
 511  802.3544
