# Input file       =  1202208038.118441_cleaned.dat
# Candidate        =  PSR_0332+5434
# Telescope        =  AR
# Epoch_topo       =  58158.444677296771
# Epoch_bary       =  N/A
# T_sample         =  0.002
# Data Folded      =  7208960
# Data Avg         =  0.0156457952362509
# Data StdDev      =  0.999959089404653
# Profile Bins     =  512
# Profile Avg      =  220.273219394197 
# Profile StdDev   =  118.654321376006 
# Reduced chi-sqr  =  1.935
# Prob(Noise)      <  8.14e-33   (~11.9 sigma)
# P_topo (ms)      =  714.578775836498  +/- 0.00011
# P'_topo (s/s)    =  -0                +/- 5.9e-11
# P''_topo (s/s^2) =  0                 +/- 2.65e-14
# P_bary (ms)      =  N/A
# P'_bary (s/s)    =  N/A
# P''_bary (s/s^2) =  N/A
# P_orb (s)        =  N/A
# asin(i)/c (s)    =  N/A
# eccentricity     =  N/A
# w (rad)          =  N/A
# T_peri           =  N/A
######################################################
   0  1016.07
   1  877.8397
   2  683.5815
   3  516.6805
   4  344.0569
   5  347.3448
   6  278.5009
   7  260.4895
   8  314.6321
   9  167.653
  10  203.3609
  11  382.0131
  12  377.0058
  13  267.8565
  14  245.9368
  15  164.1513
  16  58.01179
  17  144.8883
  18  165.1013
  19  92.40457
  20  254.5927
  21  203.7815
  22  279.6055
  23  315.6794
  24  337.527
  25  228.0168
  26  139.9199
  27  90.28381
  28  217.6495
  29  365.743
  30  428.9657
  31  223.5672
  32  130.262
  33  138.1471
  34  23.63739
  35  151.1807
  36  185.4399
  37  196.1908
  38  334.7755
  39  266.576
  40  104.7056
  41  118.6032
  42  197.5743
  43  186.0031
  44  143.7601
  45  150.7585
  46  139.1774
  47  14.5968
  48  -11.04784
  49  -56.0975
  50  94.33179
  51  271.7142
  52  245.1626
  53  119.0353
  54  226.5223
  55  382.9216
  56  314.882
  57  98.48048
  58  100.6393
  59  169.4297
  60  26.22433
  61  -43.46712
  62  203.0685
  63  286.8523
  64  274.5635
  65  229.404
  66  149.7108
  67  246.1475
  68  244.026
  69  340.598
  70  307.7185
  71  314.1992
  72  433.7883
  73  395.9418
  74  256.8751
  75  197.8012
  76  312.4971
  77  294.9424
  78  348.2659
  79  399.7657
  80  400.4523
  81  350.3801
  82  276.8503
  83  278.3452
  84  220.8118
  85  95.80104
  86  153.1753
  87  314.4872
  88  340.5184
  89  186.7541
  90  176.7675
  91  281.8791
  92  194.4216
  93  83.82059
  94  83.95564
  95  211.1565
  96  276.7107
  97  265.8553
  98  149.1552
  99  169.414
 100  158.2133
 101  155.2363
 102  246.6436
 103  304.255
 104  315.1654
 105  268.0294
 106  332.8898
 107  411.2181
 108  262.9465
 109  227.3625
 110  263.2086
 111  333.2043
 112  207.2881
 113  135.0742
 114  44.65815
 115  158.9127
 116  201.9012
 117  222.0846
 118  201.1594
 119  152.9074
 120  215.4871
 121  223.1204
 122  215.8061
 123  240.5413
 124  138.8869
 125  221.239
 126  247.226
 127  89.1591
 128  198.4433
 129  276.2078
 130  206.5099
 131  70.37146
 132  96.70807
 133  201.4662
 134  207.7709
 135  147.5041
 136  142.3215
 137  186.1622
 138  216.6211
 139  196.1623
 140  0.2451271
 141  56.90693
 142  15.58913
 143  37.5021
 144  147.6001
 145  162.4687
 146  145.1824
 147  152.0556
 148  108.0215
 149  14.1212
 150  122.6041
 151  103.2626
 152  149.6323
 153  121.2808
 154  37.24054
 155  222.4191
 156  228.3386
 157  236.2106
 158  140.0683
 159  142.3808
 160  242.0039
 161  371.3208
 162  214.3208
 163  132.0837
 164  72.98263
 165  148.6292
 166  185.6881
 167  151.0935
 168  179.0262
 169  251.391
 170  213.996
 171  223.1373
 172  356.6359
 173  233.7881
 174  216.3114
 175  260.5943
 176  184.3436
 177  145.5989
 178  180.9775
 179  109.5035
 180  204.299
 181  189.7686
 182  104.2645
 183  262.2119
 184  303.4972
 185  351.7732
 186  312.607
 187  423.4665
 188  337.3315
 189  278.6313
 190  356.463
 191  349.1643
 192  186.0721
 193  242.7132
 194  200.8156
 195  159.6031
 196  238.5196
 197  260.9601
 198  162.5809
 199  59.04892
 200  173.0641
 201  294.8207
 202  250.0027
 203  287.9535
 204  252.384
 205  292.7628
 206  268.0671
 207  259.8329
 208  233.9911
 209  257.2346
 210  289.5319
 211  246.6727
 212  282.8228
 213  312.5761
 214  194.1095
 215  181.5902
 216  188.7843
 217  251.5219
 218  374.9661
 219  391.4619
 220  381.5914
 221  282.5872
 222  164.2695
 223  137.9957
 224  307.8677
 225  275.8416
 226  174.3233
 227  311.5976
 228  424.8878
 229  172.5832
 230  1.859939
 231  85.86966
 232  160.227
 233  182.7751
 234  280.1509
 235  411.4664
 236  307.3029
 237  76.44163
 238  91.01142
 239  154.3082
 240  152.0659
 241  208.5807
 242  268.6039
 243  200.519
 244  238.0401
 245  209.4093
 246  258.9881
 247  78.35506
 248  -39.97733
 249  159.1589
 250  205.4531
 251  137.1505
 252  239.1991
 253  310.4578
 254  270.3988
 255  301.5713
 256  216.0162
 257  196.8038
 258  166.6682
 259  276.2705
 260  269.8683
 261  219.3616
 262  196.7426
 263  125.0579
 264  43.19926
 265  216.4387
 266  300.7699
 267  343.4554
 268  335.3282
 269  301.4272
 270  238.9206
 271  180.31
 272  229.2213
 273  290.0548
 274  321.4261
 275  302.4254
 276  195.7389
 277  155.3378
 278  261.2662
 279  204.7359
 280  162.4522
 281  223.3333
 282  179.4491
 283  11.48705
 284  258.0023
 285  349.1215
 286  360.4031
 287  346.0128
 288  256.1526
 289  293.0744
 290  216.9676
 291  199.3539
 292  150.2917
 293  333.7292
 294  357.9616
 295  243.1274
 296  189.5766
 297  217.2001
 298  150.4561
 299  71.58817
 300  162.7853
 301  180.5421
 302  307.3858
 303  274.8988
 304  134.4893
 305  91.67265
 306  81.88692
 307  234.2145
 308  293.291
 309  239.4614
 310  310.1328
 311  178.1579
 312  176.461
 313  39.73648
 314  51.10055
 315  178.8281
 316  281.0677
 317  361.2824
 318  290.8716
 319  226.4698
 320  364.1681
 321  235.0889
 322  249.6336
 323  365.2601
 324  192.4999
 325  76.0586
 326  213.5494
 327  183.9709
 328  289.1194
 329  275.921
 330  196.5312
 331  59.53197
 332  144.1256
 333  79.70152
 334  106.26
 335  309.6282
 336  409.2545
 337  196.3374
 338  220.5206
 339  231.3897
 340  196.6853
 341  223.5504
 342  297.9261
 343  371.3371
 344  451.7342
 345  363.8553
 346  313.5772
 347  241.0521
 348  111.0215
 349  126.0494
 350  198.5704
 351  201.1891
 352  224.3852
 353  224.5249
 354  205.9331
 355  357.3421
 356  48.01928
 357  154.3057
 358  191.2528
 359  262.464
 360  338.68
 361  289.1798
 362  200.3043
 363  111.7932
 364  86.76521
 365  239.2306
 366  146.2698
 367  131.1893
 368  269.4738
 369  225.9607
 370  126.7654
 371  250.8385
 372  321.2328
 373  378.49
 374  287.0981
 375  190.2202
 376  230.2946
 377  213.8049
 378  257.9045
 379  281.4833
 380  194.4139
 381  153.252
 382  208.6223
 383  202.195
 384  361.8734
 385  228.0684
 386  110.1717
 387  204.3037
 388  189.0452
 389  149.06
 390  130.9218
 391  30.10455
 392  81.67377
 393  125.9185
 394  269.7731
 395  312.38
 396  188.0543
 397  82.34184
 398  221.4434
 399  266.3076
 400  291.2795
 401  280.735
 402  167.973
 403  238.2117
 404  104.0498
 405  166.3577
 406  263.5005
 407  255.8323
 408  253.2688
 409  279.0813
 410  252.9215
 411  113.7949
 412  105.8195
 413  115.3609
 414  -26.58885
 415  14.43353
 416  200.5755
 417  219.4824
 418  209.4451
 419  165.424
 420  253.0467
 421  322.3335
 422  314.1254
 423  260.3525
 424  106.2428
 425  73.72016
 426  234.3949
 427  281.0717
 428  289.7342
 429  252.2778
 430  241.0088
 431  127.9633
 432  118.8333
 433  79.01305
 434  222.4977
 435  301.8316
 436  278.7677
 437  141.6309
 438  93.36659
 439  210.5345
 440  43.45532
 441  -93.55173
 442  168.9749
 443  228.4562
 444  202.25
 445  216.8616
 446  117.6583
 447  161.4576
 448  190.1961
 449  129.2949
 450  180.4584
 451  271.0682
 452  285.246
 453  155.3348
 454  -27.42513
 455  128.0153
 456  104.2928
 457  109.9027
 458  95.64346
 459  202.1351
 460  304.0475
 461  223.0009
 462  210.0894
 463  146.3259
 464  74.89598
 465  191.3429
 466  204.4019
 467  145.2384
 468  212.7246
 469  342.3221
 470  388.0006
 471  411.3904
 472  199.5976
 473  116.5737
 474  83.80257
 475  105.5806
 476  164.3612
 477  173.1308
 478  69.14309
 479  85.42339
 480  -20.59692
 481  187.6208
 482  334.3039
 483  347.7889
 484  261.9279
 485  305.6578
 486  358.3065
 487  165.4036
 488  136.4627
 489  193.5462
 490  179.0921
 491  143.4204
 492  98.86546
 493  252.684
 494  109.4437
 495  107.5559
 496  141.4709
 497  354.7713
 498  254.8888
 499  243.9516
 500  246.5508
 501  341.3373
 502  376.51
 503  293.333
 504  443.8705
 505  340.8183
 506  173.0963
 507  257.3313
 508  507.1378
 509  659.5175
 510  899.133
 511  1020.899
