# Input file       =  1202294239.113467_cleaned.dat
# Candidate        =  PSR_0332+5434
# Telescope        =  AR
# Epoch_topo       =  58159.442373998463
# Epoch_bary       =  N/A
# T_sample         =  0.002
# Data Folded      =  7143424
# Data Avg         =  0.014804011507289
# Data StdDev      =  1.0000321426838  
# Profile Bins     =  512
# Profile Avg      =  206.544543955362 
# Profile StdDev   =  118.122381130179 
# Reduced chi-sqr  =  1.898
# Prob(Noise)      <  7.53e-31   (~11.5 sigma)
# P_topo (ms)      =  714.579035824843  +/- 5.75e-05
# P'_topo (s/s)    =  -0                +/- 3.12e-11
# P''_topo (s/s^2) =  0                 +/- 1.41e-14
# P_bary (ms)      =  N/A
# P'_bary (s/s)    =  N/A
# P''_bary (s/s^2) =  N/A
# P_orb (s)        =  N/A
# asin(i)/c (s)    =  N/A
# eccentricity     =  N/A
# w (rad)          =  N/A
# T_peri           =  N/A
######################################################
   0  945.8875
   1  939.877
   2  683.3694
   3  528.541
   4  292.2377
   5  237.4867
   6  249.6512
   7  338.0166
   8  406.8106
   9  277.8419
  10  320.7603
  11  321.626
  12  157.541
  13  187.8316
  14  233.3482
  15  112.9508
  16  233.323
  17  147.2542
  18  265.8126
  19  228.6767
  20  168.8895
  21  156.7567
  22  196.5038
  23  122.1872
  24  119.38
  25  166.7183
  26  340.2501
  27  349.3738
  28  297.9108
  29  244.6792
  30  243.729
  31  295.7325
  32  294.9407
  33  286.7141
  34  285.8475
  35  339.9664
  36  75.52369
  37  248.5486
  38  224.2494
  39  114.4507
  40  73.17649
  41  131.5768
  42  108.1203
  43  309.5693
  44  317.5169
  45  99.07987
  46  98.08277
  47  105.3477
  48  196.5132
  49  167.0741
  50  285.2928
  51  441.911
  52  233.3148
  53  182.3298
  54  183.9206
  55  134.3649
  56  13.77033
  57  65.58672
  58  127.3118
  59  281.0226
  60  217.5954
  61  226.3323
  62  245.9285
  63  128.5802
  64  121.1261
  65  171.5864
  66  233.595
  67  295.3664
  68  195.4612
  69  150.8472
  70  74.08687
  71  90.44199
  72  142.6211
  73  146.546
  74  173.4463
  75  253.951
  76  248.6853
  77  228.8623
  78  239.7956
  79  230.067
  80  281.6452
  81  231.4742
  82  329.3269
  83  340.6364
  84  375.4583
  85  416.0653
  86  262.8676
  87  241.2716
  88  224.2681
  89  166.8553
  90  156.1598
  91  168.4156
  92  233.0644
  93  284.5634
  94  188.3017
  95  121.9938
  96  147.099
  97  239.9893
  98  284.7119
  99  161.1004
 100  154.7965
 101  299.9283
 102  329.9561
 103  252.1625
 104  191.4801
 105  200.4629
 106  239.3107
 107  226.9328
 108  231.0638
 109  280.853
 110  204.0126
 111  192.8988
 112  92.6526
 113  132.7956
 114  181.2725
 115  134.7565
 116  373.1521
 117  353.3369
 118  235.0254
 119  48.59073
 120  -3.633016
 121  23.33182
 122  224.847
 123  166.6942
 124  263.9217
 125  177.9291
 126  314.9654
 127  286.3169
 128  168.5321
 129  231.5357
 130  255.795
 131  149.7838
 132  180.2233
 133  198.7456
 134  486.3904
 135  404.4897
 136  324.2404
 137  463.9093
 138  295.6805
 139  225.8449
 140  357.352
 141  410.9868
 142  395.2038
 143  327.3412
 144  272.117
 145  179.0737
 146  169.2194
 147  26.6241
 148  77.68273
 149  246.7424
 150  231.0457
 151  314.4025
 152  196.0779
 153  91.07802
 154  183.7846
 155  114.9944
 156  190.9867
 157  196.6075
 158  270.2203
 159  339.2166
 160  312.9789
 161  199.7805
 162  146.9348
 163  105.7286
 164  60.16959
 165  115.8709
 166  280.0605
 167  442.57
 168  385.2299
 169  289.5419
 170  296.6395
 171  195.638
 172  170.2672
 173  245.1527
 174  389.884
 175  443.7757
 176  283.1197
 177  224.8606
 178  191.8999
 179  188.5776
 180  241.2222
 181  198.4724
 182  171.1749
 183  183.8097
 184  85.17826
 185  60.80622
 186  106.7343
 187  147.4352
 188  159.5653
 189  113.9078
 190  245.9975
 191  265.3585
 192  304.1342
 193  247.9794
 194  194.1635
 195  51.15079
 196  164.5759
 197  316.7025
 198  274.9763
 199  262.928
 200  222.6664
 201  258.1677
 202  101.1939
 203  135.1083
 204  152.4672
 205  144.5257
 206  199.4557
 207  231.0716
 208  215.1529
 209  289.9966
 210  259.3255
 211  179.2917
 212  219.8376
 213  70.33465
 214  165.2885
 215  380.6923
 216  430.6174
 217  439.67
 218  169.3859
 219  219.7878
 220  372.8862
 221  267.3111
 222  199.743
 223  148.7265
 224  329.9353
 225  297.3529
 226  227.0327
 227  149.885
 228  102.2501
 229  18.09712
 230  9.903498
 231  151.9484
 232  320.4318
 233  233.4997
 234  98.11022
 235  157.6417
 236  5.234255
 237  77.18081
 238  76.12572
 239  115.0682
 240  172.3927
 241  298.1448
 242  210.948
 243  172.2277
 244  162.0864
 245  233.535
 246  146.1584
 247  130.8657
 248  253.9261
 249  248.4013
 250  153.2713
 251  209.4157
 252  172.8555
 253  130.4797
 254  83.18443
 255  -25.76275
 256  84.93838
 257  195.6337
 258  308.4297
 259  180.8209
 260  123.6046
 261  107.024
 262  229.8115
 263  163.3936
 264  44.71093
 265  158.7084
 266  233.6722
 267  191.9798
 268  27.29606
 269  140.5433
 270  126.6776
 271  178.8326
 272  158.5267
 273  278.7446
 274  346.9566
 275  207.6705
 276  264.1976
 277  168.1437
 278  312.313
 279  189.9393
 280  95.23444
 281  91.96788
 282  0.4980693
 283  -30.0365
 284  171.3971
 285  338.81
 286  208.2502
 287  172.6159
 288  153.3972
 289  161.2383
 290  129.6174
 291  217.8601
 292  287.5445
 293  244.9331
 294  10.55523
 295  105.0376
 296  81.88877
 297  131.4891
 298  155.4655
 299  147.0428
 300  154.1356
 301  166.2002
 302  166.5724
 303  54.86221
 304  162.5927
 305  173.1193
 306  261.6184
 307  330.9685
 308  342.4928
 309  262.8173
 310  207.9264
 311  -15.4162
 312  -92.99468
 313  -2.111966
 314  104.0768
 315  285.1758
 316  339.186
 317  211.1411
 318  109.2493
 319  174.5247
 320  135.9415
 321  158.2811
 322  174.3767
 323  178.8961
 324  197.92
 325  196.345
 326  7.395992
 327  84.34344
 328  255.1978
 329  199.1568
 330  206.4495
 331  233.9449
 332  165.5525
 333  175.0438
 334  152.5206
 335  74.63046
 336  20.37066
 337  60.0827
 338  141.3055
 339  231.7903
 340  346.3445
 341  238.4301
 342  97.28001
 343  59.28576
 344  142.883
 345  93.55693
 346  26.51885
 347  52.45098
 348  161.55
 349  270.4538
 350  222.3224
 351  165.4496
 352  113.8284
 353  98.9128
 354  156.4345
 355  159.7263
 356  70.10477
 357  247.6892
 358  164.917
 359  85.17899
 360  170.4325
 361  152.502
 362  145.0766
 363  145.1002
 364  203.4269
 365  328.2979
 366  360.7379
 367  262.333
 368  203.1222
 369  149.1577
 370  137.6432
 371  149.0738
 372  56.76013
 373  146.549
 374  205.8186
 375  260.7557
 376  210.8509
 377  41.4931
 378  25.96639
 379  189.3809
 380  151.0726
 381  86.17545
 382  190.3739
 383  177.169
 384  138.3673
 385  172.2952
 386  64.32219
 387  48.2909
 388  80.58764
 389  162.241
 390  137.6132
 391  176.3013
 392  76.20833
 393  149.5166
 394  153.5377
 395  130.0812
 396  258.7556
 397  320.622
 398  214.7294
 399  181.5515
 400  250.9244
 401  329.5834
 402  161.5788
 403  119.1629
 404  137.4474
 405  300.2514
 406  358.0712
 407  298.6964
 408  215.0466
 409  171.8621
 410  66.3687
 411  193.8788
 412  161.9932
 413  3.642778
 414  -36.55967
 415  10.36038
 416  187.4207
 417  75.2857
 418  212.7897
 419  163.796
 420  184.5582
 421  220.9738
 422  216.6576
 423  249.4746
 424  208.5458
 425  280.3413
 426  217.8019
 427  170.438
 428  101.5685
 429  103.5386
 430  253.1247
 431  268.8683
 432  223.3251
 433  146.2048
 434  210.3489
 435  313.0176
 436  315.6982
 437  313.2917
 438  231.0611
 439  278.9922
 440  469.7017
 441  391.38
 442  299.8392
 443  196.1231
 444  142.0632
 445  161.1485
 446  230.1491
 447  247.5694
 448  168.3781
 449  209.4246
 450  142.5885
 451  87.44054
 452  92.58473
 453  100.6718
 454  204.1035
 455  232.1785
 456  284.6774
 457  270.9627
 458  152.8857
 459  156.1945
 460  118.4963
 461  167.9677
 462  191.2261
 463  255.7025
 464  424.0516
 465  267.1493
 466  224.4866
 467  101.6353
 468  96.59601
 469  222.2204
 470  197.9645
 471  100.984
 472  259.9217
 473  274.4123
 474  258.8177
 475  109.0679
 476  194.7914
 477  170.1604
 478  231.0408
 479  195.3931
 480  233.5041
 481  265.5283
 482  195.7494
 483  143.4623
 484  68.53862
 485  19.63428
 486  235.8127
 487  289.1957
 488  275.6236
 489  295.2143
 490  215.0275
 491  306.4108
 492  315.9753
 493  257.8012
 494  216.3875
 495  172.2009
 496  223.617
 497  403.6874
 498  216.0361
 499  279.7232
 500  205.4436
 501  147.7088
 502  95.52946
 503  149.79
 504  74.45673
 505  199.4611
 506  279.8361
 507  531.5463
 508  501.4232
 509  605.3449
 510  870.9602
 511  886.4312
