# Input file       =  1202323790.104277_cleaned.dat
# Candidate        =  PSR_0332+5434
# Telescope        =  AR
# Epoch_topo       =  58159.784399355056
# Epoch_bary       =  N/A
# T_sample         =  0.002
# Data Folded      =  7340032
# Data Avg         =  0.0238231195284898
# Data StdDev      =  1.0000657318766  
# Profile Bins     =  512
# Profile Avg      =  341.609944911028 
# Profile StdDev   =  119.740906653938 
# Reduced chi-sqr  =  1.134
# Prob(Noise)      <  0.0194   (~2.1 sigma)
# P_topo (ms)      =  714.57947205474   +/- 0.00019
# P'_topo (s/s)    =  -0                +/- 1e-10
# P''_topo (s/s^2) =  0                 +/- 4.42e-14
# P_bary (ms)      =  N/A
# P'_bary (s/s)    =  N/A
# P''_bary (s/s^2) =  N/A
# P_orb (s)        =  N/A
# asin(i)/c (s)    =  N/A
# eccentricity     =  N/A
# w (rad)          =  N/A
# T_peri           =  N/A
######################################################
   0  919.8042
   1  925.7308
   2  612.2982
   3  498.1509
   4  344.5036
   5  319.7617
   6  469.9138
   7  333.4417
   8  343.7541
   9  394.2767
  10  367.3432
  11  305.1338
  12  319.4317
  13  339.2836
  14  325.0541
  15  335.4824
  16  330.2831
  17  262.7854
  18  209.7202
  19  342.5309
  20  349.8952
  21  291.7988
  22  348.168
  23  381.0851
  24  294.9031
  25  224.8791
  26  193.3784
  27  241.8172
  28  278.9432
  29  154.7011
  30  146.1882
  31  265.9147
  32  282.4192
  33  321.678
  34  225.9312
  35  251.3634
  36  259.2812
  37  319.7782
  38  372.4593
  39  265.0065
  40  263.4881
  41  426.2417
  42  426.2355
  43  376.6299
  44  341.3722
  45  203.587
  46  237.5449
  47  406.2616
  48  398.5728
  49  394.0229
  50  427.1491
  51  394.1837
  52  352.7809
  53  343.5986
  54  274.7265
  55  338.0829
  56  399.6859
  57  207.8751
  58  190.4375
  59  233.3063
  60  383.9601
  61  306.2141
  62  325.7975
  63  372.7592
  64  276.9147
  65  345.2622
  66  412.147
  67  384.6994
  68  288.2971
  69  282.9882
  70  277.2223
  71  401.6129
  72  323.458
  73  303.8087
  74  346.5456
  75  327.8899
  76  268.2851
  77  318.2613
  78  343.1502
  79  380.1859
  80  157.9124
  81  230.3895
  82  272.1774
  83  395.5762
  84  402.3619
  85  313.7676
  86  325.6426
  87  261.8524
  88  353.1933
  89  401.5499
  90  442.8609
  91  340.0355
  92  281.0662
  93  387.2097
  94  209.5681
  95  315.5912
  96  294.2943
  97  226.1831
  98  206.5098
  99  218.0071
 100  385.1581
 101  217.6053
 102  283.4928
 103  395.5827
 104  350.1289
 105  396.5488
 106  321.0983
 107  339.2115
 108  342.3894
 109  348.8902
 110  234.1615
 111  362.401
 112  409.6314
 113  461.7761
 114  523.9875
 115  409.9466
 116  347.6873
 117  402.5038
 118  460.586
 119  418.1058
 120  214.826
 121  334.9112
 122  329.0907
 123  458.6324
 124  361.8948
 125  274.7215
 126  343.5149
 127  344.6983
 128  363.6635
 129  324.0427
 130  290.7841
 131  347.5702
 132  244.9848
 133  253.987
 134  277.9053
 135  394.7405
 136  386.0201
 137  327.9297
 138  399.4194
 139  496.4174
 140  542.8458
 141  440.5634
 142  452.8246
 143  398.7007
 144  442.288
 145  284.8523
 146  348.2908
 147  349.1224
 148  382.2341
 149  399.1364
 150  348.3733
 151  482.5837
 152  364.1262
 153  211.819
 154  296.3778
 155  296.4216
 156  313.1413
 157  340.3827
 158  231.9617
 159  168.903
 160  182.4494
 161  403.2802
 162  424.0172
 163  252.0273
 164  285.4137
 165  207.3616
 166  215.2863
 167  305.807
 168  260.9203
 169  301.9983
 170  246.1326
 171  282.744
 172  257.726
 173  272.2707
 174  288.7046
 175  249.5465
 176  306.6264
 177  266.3393
 178  371.4149
 179  252.6451
 180  206.5218
 181  362.3799
 182  333.4541
 183  394.181
 184  374.6134
 185  316.2882
 186  228.859
 187  203.0253
 188  264.4124
 189  298.3287
 190  327.6398
 191  431.3539
 192  456.2738
 193  420.4215
 194  320.8183
 195  323.5338
 196  373.5544
 197  300.3441
 198  264.9442
 199  349.9228
 200  380.1964
 201  262.1525
 202  212.0531
 203  252.4206
 204  189.3096
 205  149.5034
 206  255.5802
 207  346.8363
 208  318.4391
 209  343.5965
 210  263.8918
 211  273.2334
 212  292.1584
 213  375.8813
 214  366.9117
 215  277.1902
 216  212.9435
 217  332.2648
 218  333.8076
 219  409.9669
 220  415.4937
 221  225.9274
 222  173.9666
 223  355.7141
 224  320.7914
 225  291.9647
 226  445.6679
 227  479.8286
 228  414.2438
 229  388.2818
 230  465.9205
 231  416.0699
 232  259.4125
 233  267.6767
 234  371.299
 235  368.3035
 236  394.1577
 237  181.2976
 238  221.2089
 239  279.5142
 240  345.0192
 241  452.8589
 242  369.0078
 243  373.1949
 244  396.9314
 245  342.7733
 246  277.5844
 247  318.1024
 248  446.0198
 249  467.5914
 250  395.5708
 251  442.1902
 252  314.4265
 253  270.6167
 254  268.4276
 255  373.8689
 256  426.4892
 257  397.0547
 258  402.575
 259  375.6461
 260  297.8499
 261  140.084
 262  299.5858
 263  295.1171
 264  294.6886
 265  313.2097
 266  482.959
 267  541.5858
 268  435.9262
 269  361.6587
 270  269.3662
 271  169.3945
 272  268.0679
 273  315.3866
 274  278.7888
 275  366.0599
 276  434.5295
 277  292.2538
 278  354.6051
 279  341.3209
 280  321.4178
 281  271.401
 282  279.2928
 283  363.793
 284  384.854
 285  292.2129
 286  296.7762
 287  315.8347
 288  258.507
 289  250.9343
 290  298.0569
 291  358.9144
 292  298.2406
 293  336.8862
 294  338.0924
 295  317.1143
 296  249.0081
 297  311.7404
 298  390.5432
 299  382.7472
 300  375.9679
 301  426.7109
 302  399.3824
 303  292.3539
 304  325.6175
 305  307.5426
 306  395.4662
 307  178.8313
 308  218.5447
 309  225.4284
 310  186.8145
 311  263.3916
 312  362.999
 313  385.9617
 314  288.8164
 315  282.5012
 316  305.6228
 317  318.5858
 318  290.1371
 319  245.513
 320  327.2265
 321  375.6488
 322  425.4025
 323  328.1338
 324  450.2285
 325  369.0517
 326  330.6545
 327  308.1025
 328  324.4884
 329  338.7357
 330  323.9432
 331  413.3036
 332  429.0984
 333  448.1031
 334  453.3017
 335  357.1517
 336  257.1521
 337  321.6543
 338  287.1468
 339  339.7095
 340  318.8707
 341  376.7538
 342  204.9093
 343  216.0535
 344  377.9183
 345  371.8882
 346  441.8218
 347  388.6234
 348  405.1035
 349  385.2123
 350  279.8121
 351  213.0631
 352  217.0109
 353  276.4135
 354  428.4965
 355  479.886
 356  450.4612
 357  301.6871
 358  319.0587
 359  284.9329
 360  244.7272
 361  317.7444
 362  370.8506
 363  349.8895
 364  410.3829
 365  318.2144
 366  338.037
 367  301.8002
 368  365.0685
 369  349.0826
 370  229.3709
 371  264.0961
 372  469.5154
 373  517.7386
 374  432.2586
 375  368.7484
 376  432.1372
 377  356.7243
 378  390.7956
 379  331.7819
 380  309.4194
 381  218.7149
 382  387.4798
 383  428.9869
 384  400.2686
 385  445.568
 386  441.2148
 387  355.8233
 388  339.0855
 389  411.9394
 390  428.5636
 391  472.4267
 392  395.647
 393  362.0514
 394  420.0173
 395  369.1122
 396  381.8893
 397  367.9317
 398  325.8101
 399  480.3049
 400  408.7473
 401  458.734
 402  325.9437
 403  284.3879
 404  352.687
 405  296.7053
 406  329.1964
 407  370.4285
 408  388.7661
 409  297.4491
 410  321.3619
 411  356.5568
 412  344.8848
 413  203.5029
 414  355.8632
 415  600.8209
 416  413.2961
 417  341.4038
 418  421.1065
 419  329.4059
 420  373.7542
 421  388.3381
 422  451.4402
 423  314.3375
 424  336.1693
 425  310.278
 426  345.5079
 427  304.3521
 428  357.0341
 429  273.4743
 430  248.185
 431  253.1689
 432  270.252
 433  305.9641
 434  299.5569
 435  359.7806
 436  318.0412
 437  342.7603
 438  350.6372
 439  272.0396
 440  295.4764
 441  450.1447
 442  466.8527
 443  367.1692
 444  331.8802
 445  372.2056
 446  330.6728
 447  469.6157
 448  434.6239
 449  371.3649
 450  367.4119
 451  385.4344
 452  341.4073
 453  398.2982
 454  445.9172
 455  475.1588
 456  337.4558
 457  397.8626
 458  275.7099
 459  342.2441
 460  435.2158
 461  437.9695
 462  462.1841
 463  369.1511
 464  334.6768
 465  394.9531
 466  320.965
 467  421.8944
 468  420.1264
 469  383.7561
 470  447.571
 471  362.2482
 472  353.0905
 473  334.8701
 474  313.3281
 475  262.9232
 476  262.4442
 477  382.0146
 478  275.9195
 479  209.7013
 480  231.7692
 481  315.2257
 482  430.8799
 483  507.3223
 484  464.2399
 485  390.5428
 486  280.3065
 487  283.8475
 488  264.7781
 489  246.2186
 490  265.9511
 491  322.3236
 492  365.2635
 493  366.3466
 494  241.6396
 495  371.222
 496  331.8418
 497  280.9962
 498  274.5007
 499  66.66191
 500  201.7368
 501  297.2782
 502  243.4845
 503  398.0639
 504  384.3663
 505  447.5694
 506  402.4643
 507  413.0548
 508  521.1802
 509  655.9153
 510  841.3452
 511  875.8283
