# Input file       =  1202582396.27699_cleaned.dat
# Candidate        =  PSR_0332+5434
# Telescope        =  AR
# Epoch_topo       =  58162.777526354053
# Epoch_bary       =  N/A
# T_sample         =  0.002
# Data Folded      =  7340032
# Data Avg         =  0.0389359052347041
# Data StdDev      =  1.00003863896858 
# Profile Bins     =  512
# Profile Avg      =  558.067467851555 
# Profile StdDev   =  119.737662737797 
# Reduced chi-sqr  =  1.447
# Prob(Noise)      <  1.36e-10   (~6.3 sigma)
# P_topo (ms)      =  714.580128130024  +/- 0.000369
# P'_topo (s/s)    =  -0                +/- 1.95e-10
# P''_topo (s/s^2) =  0                 +/- 8.59e-14
# P_bary (ms)      =  N/A
# P'_bary (s/s)    =  N/A
# P''_bary (s/s^2) =  N/A
# P_orb (s)        =  N/A
# asin(i)/c (s)    =  N/A
# eccentricity     =  N/A
# w (rad)          =  N/A
# T_peri           =  N/A
######################################################
   0  1171.47
   1  1125.462
   2  1027.343
   3  814.5845
   4  756.4229
   5  585.1844
   6  635.6332
   7  715.6273
   8  581.8419
   9  561.3077
  10  603.1778
  11  638.3392
  12  687.3226
  13  639.1619
  14  584.2488
  15  641.3201
  16  530.0261
  17  583.8718
  18  540.9498
  19  549.4121
  20  550.0109
  21  629.4196
  22  711.8467
  23  627.4822
  24  586.6299
  25  591.5838
  26  635.5511
  27  610.2586
  28  503.1606
  29  515.5778
  30  533.0455
  31  585.5276
  32  657.274
  33  617.3593
  34  560.3921
  35  554.6652
  36  536.4908
  37  559.2353
  38  419.7112
  39  508.1696
  40  448.8635
  41  375.3468
  42  485.993
  43  425.9171
  44  484.6994
  45  461.9208
  46  476.3752
  47  515.3765
  48  387.9076
  49  425.8993
  50  584.7906
  51  412.849
  52  368.9917
  53  472.6873
  54  607.8843
  55  490.2342
  56  504.461
  57  525.061
  58  408.8372
  59  363.9203
  60  394.0385
  61  379.2727
  62  498.6981
  63  475.8869
  64  393.0064
  65  478.0249
  66  525.6011
  67  470.0689
  68  462.9601
  69  447.3278
  70  498.4189
  71  387.5066
  72  349.3643
  73  471.6585
  74  467.2378
  75  526.9412
  76  545.3055
  77  545.2251
  78  497.5392
  79  510.5201
  80  468.4521
  81  362.1378
  82  388.6786
  83  505.7471
  84  488.9288
  85  494.8692
  86  550.0148
  87  593.1369
  88  503.9122
  89  558.0371
  90  554.993
  91  474.4343
  92  444.1132
  93  538.3831
  94  502.4015
  95  526.6061
  96  621.0494
  97  581.0285
  98  568.4415
  99  675.1788
 100  648.99
 101  641.3018
 102  501.4174
 103  506.3649
 104  488.0955
 105  519.3075
 106  505.2996
 107  475.7684
 108  510.7371
 109  504.9853
 110  634.0455
 111  732.7202
 112  546.3447
 113  604.3567
 114  669.4926
 115  680.5457
 116  656.4547
 117  637.2241
 118  573.8101
 119  546.5648
 120  549.1089
 121  484.8262
 122  605.0217
 123  587.7598
 124  581.1153
 125  509.6502
 126  421.1656
 127  605.6638
 128  639.0156
 129  654.4229
 130  578.826
 131  613.1147
 132  639.2484
 133  684.7233
 134  525.4329
 135  671.0811
 136  759.6497
 137  596.454
 138  535.0805
 139  616.632
 140  597.1627
 141  554.0355
 142  465.8019
 143  629.2189
 144  615.12
 145  522.3218
 146  559.6516
 147  572.1693
 148  538.9357
 149  476.2744
 150  511.9267
 151  602.0043
 152  650.3909
 153  625.6354
 154  656.0976
 155  528.5123
 156  485.2971
 157  503.9547
 158  549.064
 159  564.0569
 160  538.5816
 161  603.3101
 162  636.0681
 163  547.2205
 164  520.3909
 165  574.0527
 166  548.9434
 167  515.3071
 168  479.4366
 169  431.3414
 170  449.6373
 171  591.111
 172  579.4938
 173  548.6323
 174  597.8699
 175  649.9497
 176  549.0109
 177  588.2502
 178  629.0356
 179  686.9484
 180  650.2581
 181  453.9936
 182  511.6397
 183  592.3962
 184  616.1519
 185  581.4611
 186  535.851
 187  534.9728
 188  497.1911
 189  555.079
 190  657.3081
 191  575.5844
 192  545.5302
 193  563.057
 194  645.5718
 195  626.3252
 196  592.6556
 197  548.6399
 198  533.5435
 199  460.0024
 200  507.3495
 201  569.437
 202  617.039
 203  570.9993
 204  605.9841
 205  558.4167
 206  516.2076
 207  599.6526
 208  655.4815
 209  634.6277
 210  662.6902
 211  627.7654
 212  585.7816
 213  540.4617
 214  675.6851
 215  635.1099
 216  598.0293
 217  594.001
 218  606.6433
 219  476.193
 220  466.9742
 221  403.1687
 222  490.8858
 223  495.5254
 224  554.1557
 225  646.3015
 226  658.5967
 227  608.4395
 228  583.738
 229  593.6415
 230  654.887
 231  566.9581
 232  424.665
 233  467.5332
 234  573.9057
 235  575.2591
 236  530.9881
 237  605.2363
 238  594.1408
 239  574.4632
 240  669.1793
 241  551.2022
 242  520.737
 243  569.6605
 244  578.0957
 245  568.7509
 246  483.0638
 247  504.432
 248  395.4409
 249  483.7366
 250  605.663
 251  556.9238
 252  544.2233
 253  527.5265
 254  548.0117
 255  679.4601
 256  665.3536
 257  589.996
 258  552.4615
 259  670.3228
 260  549.8198
 261  605.7785
 262  572.4972
 263  487.8213
 264  533.6079
 265  615.2965
 266  541.2377
 267  462.8479
 268  553.6254
 269  705.2275
 270  477.2233
 271  509.9568
 272  601.0356
 273  668.0038
 274  674.9984
 275  695.3751
 276  637.0117
 277  587.4532
 278  588.5517
 279  560.7878
 280  589.5634
 281  602.5649
 282  551.5493
 283  608.8779
 284  529.2637
 285  557.6961
 286  494.4695
 287  378.4799
 288  397.6776
 289  439.2689
 290  477.7213
 291  553.6347
 292  531.0522
 293  460.3763
 294  588.5771
 295  557.4727
 296  570.9449
 297  513.3419
 298  579.532
 299  569.5211
 300  567.8251
 301  526.5525
 302  453.1105
 303  491.1819
 304  542.1047
 305  519.7784
 306  427.1328
 307  377.6046
 308  412.7928
 309  462.8401
 310  475.9715
 311  531.39
 312  514.3381
 313  482.5577
 314  563.0119
 315  583.5533
 316  554.8287
 317  630.6672
 318  422.5424
 319  501.4133
 320  556.3309
 321  489.4454
 322  435.4246
 323  482.8765
 324  490.3742
 325  498.8689
 326  438.756
 327  506.8667
 328  631.8881
 329  558.5869
 330  525.4791
 331  520.8604
 332  683.0588
 333  651.3937
 334  505.9371
 335  485.5703
 336  483.1543
 337  547.908
 338  633.0878
 339  618.4411
 340  485.9289
 341  614.3414
 342  683.4447
 343  576.0571
 344  588.8726
 345  510.3379
 346  588.062
 347  428.3974
 348  413.273
 349  510.3677
 350  564.7186
 351  578.5154
 352  660.1547
 353  601.4839
 354  624.5636
 355  567.7527
 356  492.9578
 357  553.7844
 358  600.7086
 359  660.3184
 360  502.8456
 361  463.0297
 362  525.1107
 363  411.7243
 364  481.869
 365  578.2322
 366  595.9393
 367  552.701
 368  509.1709
 369  533.946
 370  537.1425
 371  522.3204
 372  608.8561
 373  553.7263
 374  635.3582
 375  691.9224
 376  668.0478
 377  658.9295
 378  609.345
 379  700.3709
 380  760.8036
 381  598.3638
 382  557.4741
 383  657.0447
 384  733.1458
 385  705.236
 386  675.0178
 387  591.3661
 388  620.9731
 389  583.3979
 390  723.5445
 391  752.3987
 392  591.9133
 393  642.4545
 394  765.427
 395  736.559
 396  685.3919
 397  566.655
 398  607.0983
 399  674.3707
 400  659.4486
 401  589.8931
 402  646.8923
 403  716.3357
 404  664.7123
 405  500.6281
 406  501.8553
 407  639.4747
 408  814.3226
 409  795.9067
 410  599.0868
 411  502.1796
 412  568.1896
 413  557.2933
 414  677.1855
 415  699.7379
 416  672.8794
 417  608.6
 418  613.4882
 419  655.795
 420  623.1548
 421  668.1144
 422  568.3503
 423  443.5885
 424  579.1129
 425  562.4208
 426  591.723
 427  658.7781
 428  683.9257
 429  564.9686
 430  529.5108
 431  474.0109
 432  544.8477
 433  543.3499
 434  489.6493
 435  450.5902
 436  450.5307
 437  552.7966
 438  544.9062
 439  567.9108
 440  611.7605
 441  483.6657
 442  476.119
 443  493.5019
 444  441.1399
 445  619.593
 446  528.5015
 447  466.5548
 448  653.6924
 449  505.9881
 450  432.2031
 451  396.145
 452  326.8398
 453  374.9579
 454  371.2884
 455  468.6342
 456  443.1463
 457  304.5152
 458  404.209
 459  356.6772
 460  402.7955
 461  391.7865
 462  447.4601
 463  500.7662
 464  398.9831
 465  436.0431
 466  487.6505
 467  408.8593
 468  441.1431
 469  494.5462
 470  449.0338
 471  481.6357
 472  430.7407
 473  489.1133
 474  439.8407
 475  400.2016
 476  517.2017
 477  439.8828
 478  451.4051
 479  519.1765
 480  542.2968
 481  464.3454
 482  508.5681
 483  481.6241
 484  568.5491
 485  745.1414
 486  554.9061
 487  451.1027
 488  505.3123
 489  526.752
 490  429.6573
 491  472.3978
 492  590.9832
 493  475.9653
 494  425.5026
 495  460.9738
 496  481.4021
 497  551.7804
 498  512.9503
 499  599.5212
 500  526.0449
 501  513.641
 502  605.3264
 503  584.6815
 504  610.6923
 505  590.7399
 506  627.6415
 507  765.5146
 508  748.8782
 509  895.9583
 510  1065.158
 511  1262.702
