# Input file       =  1202496185.116841_cleaned.dat
# Candidate        =  PSR_0332+5434
# Telescope        =  AR
# Epoch_topo       =  58161.779712000476
# Epoch_bary       =  N/A
# T_sample         =  0.002
# Data Folded      =  7340032
# Data Avg         =  0.0152707434832579
# Data StdDev      =  1.00005643129297 
# Profile Bins     =  512
# Profile Avg      =  218.87522870188  
# Profile StdDev   =  119.73979306682  
# Reduced chi-sqr  =  1.188
# Prob(Noise)      <  0.00218   (~2.9 sigma)
# P_topo (ms)      =  714.579927771965  +/- 0.000173
# P'_topo (s/s)    =  -0                +/- 9.14e-11
# P''_topo (s/s^2) =  0                 +/- 4.03e-14
# P_bary (ms)      =  N/A
# P'_bary (s/s)    =  N/A
# P''_bary (s/s^2) =  N/A
# P_orb (s)        =  N/A
# asin(i)/c (s)    =  N/A
# eccentricity     =  N/A
# w (rad)          =  N/A
# T_peri           =  N/A
######################################################
   0  790.7717
   1  762.0344
   2  678.4903
   3  437.7601
   4  343.2418
   5  156.8657
   6  176.0627
   7  307.0601
   8  374.995
   9  301.2474
  10  272.1845
  11  241.9398
  12  255.5652
  13  184.2262
  14  195.8061
  15  325.4935
  16  355.859
  17  358.6657
  18  314.7428
  19  239.6646
  20  194.6785
  21  164.5854
  22  239.7589
  23  253.6812
  24  224.1525
  25  252.4672
  26  185.4636
  27  188.0034
  28  284.4005
  29  358.3309
  30  265.4278
  31  250.0223
  32  233.3661
  33  366.4187
  34  243.4786
  35  195.4322
  36  216.7766
  37  252.8077
  38  241.2584
  39  232.292
  40  291.0467
  41  144.5385
  42  161.8577
  43  156.0497
  44  178.921
  45  121.4873
  46  -4.340235
  47  72.23882
  48  153.1885
  49  214.7083
  50  143.2326
  51  118.9014
  52  276.5568
  53  252.457
  54  344.4799
  55  258.0772
  56  210.7221
  57  128.3453
  58  232.7528
  59  186.7318
  60  221.2135
  61  232.0563
  62  157.9109
  63  203.1452
  64  180.528
  65  233.195
  66  198.9767
  67  181.5946
  68  193.9021
  69  230.5307
  70  278.6411
  71  247.8592
  72  230.2234
  73  200.4545
  74  117.9791
  75  204.2695
  76  108.4844
  77  178.7296
  78  184.95
  79  143.3654
  80  250.1443
  81  315.8532
  82  302.1727
  83  150.9099
  84  82.69512
  85  103.2088
  86  98.48814
  87  216.0853
  88  191.7604
  89  310.1273
  90  215.2386
  91  194.9204
  92  108.3444
  93  149.0799
  94  186.9264
  95  264.1666
  96  243.7193
  97  276.2505
  98  278.9558
  99  149.8717
 100  115.4248
 101  285.3883
 102  374.414
 103  151.5262
 104  168.1193
 105  82.79337
 106  158.3731
 107  211.313
 108  205.8352
 109  202.9847
 110  216.2468
 111  216.1318
 112  127.4695
 113  136.1408
 114  357.831
 115  400.7244
 116  283.5366
 117  314.9826
 118  197.9155
 119  118.997
 120  21.87829
 121  29.52011
 122  113.7724
 123  162.1802
 124  114.09
 125  183.6566
 126  217.7515
 127  285.8061
 128  177.5374
 129  286.637
 130  221.7818
 131  169.9932
 132  166.6096
 133  209.422
 134  159.0437
 135  161.7526
 136  223.9674
 137  177.8255
 138  187.5038
 139  196.5873
 140  177.6345
 141  161.3418
 142  37.72889
 143  133.0891
 144  185.7859
 145  213.1673
 146  140.2624
 147  242.6686
 148  304.8965
 149  219.65
 150  214.7735
 151  114.4275
 152  243.078
 153  130.4903
 154  167.2894
 155  213.8924
 156  135.61
 157  173.1675
 158  165.6541
 159  183.6067
 160  310.1221
 161  190.0621
 162  141.3388
 163  156.5533
 164  229.1588
 165  164.1733
 166  184.566
 167  251.6083
 168  326.477
 169  332.5774
 170  187.5695
 171  276.7314
 172  262.0305
 173  220.5905
 174  187.8285
 175  161.3844
 176  241.5882
 177  149.6722
 178  95.19753
 179  118.2419
 180  124.9162
 181  268.007
 182  308.0533
 183  263.8376
 184  289.5445
 185  209.2959
 186  242.5026
 187  209.657
 188  110.2104
 189  255.09
 190  356.4717
 191  390.4559
 192  445.1827
 193  382.351
 194  378.6422
 195  279.4815
 196  219.0828
 197  190.4248
 198  248.5916
 199  189.0418
 200  293.8889
 201  357.5578
 202  355.7767
 203  276.3561
 204  231.102
 205  258.4115
 206  372.3108
 207  301.6992
 208  392.0298
 209  404.0184
 210  309.3539
 211  276.8065
 212  124.7274
 213  94.17927
 214  168.2343
 215  187.6715
 216  254.7634
 217  278.1703
 218  266.788
 219  324.9543
 220  370.0065
 221  218.5672
 222  360.3653
 223  363.41
 224  246.2811
 225  281.3028
 226  276.5659
 227  344.6121
 228  323.1273
 229  301.0602
 230  313.6216
 231  192.2129
 232  130.7674
 233  241.4279
 234  233.6058
 235  339.0528
 236  360.6001
 237  139.3307
 238  163.4365
 239  152.7875
 240  156.9553
 241  163.5756
 242  239.2883
 243  253.0342
 244  191.1548
 245  195.0895
 246  195.3992
 247  320.5555
 248  248.1841
 249  254.9705
 250  178.9342
 251  228.8254
 252  213.0761
 253  148.9534
 254  82.29367
 255  111.8994
 256  114.5866
 257  89.48839
 258  184.8015
 259  257.341
 260  361.927
 261  325.8648
 262  118.0167
 263  41.16417
 264  142.1725
 265  158.3369
 266  44.21469
 267  117.0255
 268  118.7566
 269  201.6949
 270  286.7867
 271  177.1474
 272  84.70776
 273  97.67161
 274  93.74437
 275  190.7069
 276  296.046
 277  111.5884
 278  227.4222
 279  350.4198
 280  219.1869
 281  219.6436
 282  336.9863
 283  192.0069
 284  3.198156
 285  48.03095
 286  167.4683
 287  176.0622
 288  302.7976
 289  345.9947
 290  183.3495
 291  131.1577
 292  296.029
 293  371.1834
 294  313.2357
 295  232.3448
 296  293.3216
 297  335.3798
 298  377.0366
 299  306.0945
 300  271.8161
 301  174.418
 302  202.7972
 303  146.4537
 304  261.8688
 305  124.1304
 306  82.58256
 307  139.8488
 308  104.4255
 309  157.74
 310  196.7436
 311  230.1228
 312  241.3095
 313  207.3615
 314  242.5002
 315  203.4229
 316  167.2703
 317  198.2062
 318  173.0695
 319  115.5735
 320  178.5291
 321  262.1174
 322  156.5097
 323  114.4137
 324  148.859
 325  110.2301
 326  148.0642
 327  270.5489
 328  283.8325
 329  201.9027
 330  170.7947
 331  336.5951
 332  139.8235
 333  68.1123
 334  220.9035
 335  318.7638
 336  327.3829
 337  193.8792
 338  195.3925
 339  241.2337
 340  184.5885
 341  197.8706
 342  200.5632
 343  136.7814
 344  233.5601
 345  254.508
 346  226.0121
 347  186.2378
 348  78.15781
 349  130.5642
 350  111.1179
 351  174.2184
 352  98.92024
 353  103.1634
 354  161.5779
 355  131.9949
 356  207.6236
 357  254.0874
 358  180.655
 359  150.3837
 360  186.2169
 361  154.6588
 362  206.1042
 363  232.4144
 364  80.66233
 365  177.8401
 366  224.6075
 367  198.1876
 368  240.1381
 369  200.7963
 370  154.6696
 371  202.3859
 372  258.0715
 373  196.9341
 374  147.8469
 375  246.137
 376  182.8849
 377  206.6164
 378  346.1581
 379  237.9782
 380  190.9789
 381  308.8877
 382  231.0773
 383  233.6229
 384  180.2507
 385  180.4798
 386  279.2977
 387  244.5206
 388  219.3724
 389  169.1826
 390  101.2741
 391  222.9992
 392  364.8975
 393  346.3664
 394  307.2727
 395  215.7358
 396  285.6075
 397  241.4482
 398  253.9809
 399  226.0648
 400  302.3821
 401  169.6546
 402  123.7735
 403  133.2783
 404  126.8856
 405  122.259
 406  170.1232
 407  262.7073
 408  236.0416
 409  159.4063
 410  312.6194
 411  292.7134
 412  254.5462
 413  241.1703
 414  202.592
 415  196.7299
 416  259.7834
 417  161.8629
 418  184.6973
 419  261.8584
 420  206.4984
 421  228.79
 422  161.576
 423  217.757
 424  251.361
 425  85.17907
 426  165.4081
 427  207.5571
 428  100.0945
 429  167.629
 430  254.8833
 431  257.2701
 432  141.6937
 433  -12.50513
 434  67.46066
 435  133.4514
 436  218.786
 437  292.2404
 438  279.8202
 439  296.7792
 440  286.2957
 441  249.611
 442  139.8466
 443  222.7133
 444  277.6292
 445  323.5524
 446  259.7137
 447  301.1529
 448  96.96537
 449  19.86979
 450  216.0831
 451  307.2073
 452  272.1479
 453  255.4432
 454  149.6613
 455  167.3963
 456  197.9736
 457  151.8356
 458  182.4156
 459  322.2242
 460  432.6923
 461  336.4903
 462  338.83
 463  254.966
 464  120.6345
 465  83.00192
 466  135.8789
 467  219.8569
 468  159.1776
 469  165.2327
 470  126.4314
 471  173.8154
 472  51.21106
 473  61.56866
 474  121.2492
 475  110.5818
 476  64.30369
 477  177.277
 478  168.1851
 479  237.5643
 480  296.7961
 481  233.4283
 482  277.0546
 483  310.6702
 484  253.3115
 485  307.067
 486  247.1679
 487  298.688
 488  128.3834
 489  245.3228
 490  242.481
 491  186.292
 492  206.192
 493  150.0105
 494  152.912
 495  211.5083
 496  169.5616
 497  154.8332
 498  194.6768
 499  174.8102
 500  329.53
 501  300.3298
 502  183.8762
 503  297.646
 504  391.2975
 505  256.8931
 506  245.9817
 507  171.6754
 508  177.4164
 509  413.3153
 510  676.9306
 511  746.1714
