# Input file       =  1203242249.109574_cleaned.dat
# Candidate        =  PSR_0332+5434
# Telescope        =  AR
# Epoch_topo       =  58170.414711916368
# Epoch_bary       =  N/A
# T_sample         =  0.002
# Data Folded      =  7208960
# Data Avg         =  0.118403424221537
# Data StdDev      =  1.00052680076139 
# Profile Bins     =  512
# Profile Avg      =  1667.06031972439 
# Profile StdDev   =  118.721685537685 
# Reduced chi-sqr  =  1.555
# Prob(Noise)      <  1.08e-14   (~7.6 sigma)
# P_topo (ms)      =  714.580668362268  +/- 0.000127
# P'_topo (s/s)    =  -0                +/- 6.82e-11
# P''_topo (s/s^2) =  0                 +/- 3.07e-14
# P_bary (ms)      =  N/A
# P'_bary (s/s)    =  N/A
# P''_bary (s/s^2) =  N/A
# P_orb (s)        =  N/A
# asin(i)/c (s)    =  N/A
# eccentricity     =  N/A
# w (rad)          =  N/A
# T_peri           =  N/A
######################################################
   0  1884.812
   1  1850.759
   2  1797.785
   3  1809.416
   4  1661.491
   5  1538.797
   6  1556.932
   7  1659.856
   8  1682.392
   9  1588.115
  10  1589.529
  11  1689.448
  12  1553.991
  13  1478.793
  14  1537.95
  15  1652.533
  16  1678.536
  17  1567.465
  18  1542.317
  19  1534.335
  20  1705.329
  21  1664.86
  22  1739.892
  23  1710.748
  24  1661.197
  25  1589.52
  26  1636.001
  27  1689.065
  28  1675.003
  29  1780.406
  30  1722.36
  31  1669.832
  32  1621.165
  33  1623.618
  34  1531.491
  35  1602.989
  36  1619.795
  37  1672.294
  38  1784.47
  39  1814.124
  40  1852.418
  41  1883.266
  42  1837.302
  43  1728.637
  44  1664.693
  45  1679.154
  46  1674.584
  47  1737.21
  48  1701.206
  49  1608.718
  50  1603.062
  51  1619.655
  52  1671.93
  53  1683.876
  54  1693.297
  55  1644.801
  56  1782.445
  57  1819.432
  58  1809.971
  59  1806.209
  60  1787.076
  61  1688.095
  62  1723.613
  63  1734.633
  64  1859.771
  65  1784.258
  66  1727.677
  67  1737.317
  68  1738.423
  69  1728.326
  70  1659.747
  71  1721.749
  72  1791.112
  73  1882.863
  74  1813.816
  75  1850.461
  76  1713.774
  77  1703.592
  78  1707.462
  79  1665.458
  80  1683.418
  81  1680.323
  82  1716.143
  83  1663.734
  84  1634.891
  85  1697.84
  86  1686.793
  87  1692.15
  88  1695.649
  89  1756.196
  90  1815.234
  91  1661.729
  92  1645.865
  93  1728.525
  94  1795.705
  95  1693.49
  96  1776.039
  97  1755.813
  98  1710.928
  99  1738.931
 100  1568.55
 101  1616.106
 102  1650.224
 103  1712.905
 104  1727.051
 105  1654.792
 106  1627.866
 107  1612.903
 108  1599.065
 109  1628.531
 110  1727.233
 111  1743.278
 112  1662.342
 113  1648.117
 114  1614.5
 115  1567.02
 116  1575.706
 117  1634.826
 118  1686.519
 119  1663.891
 120  1672.972
 121  1747.261
 122  1693.422
 123  1661.578
 124  1638.924
 125  1633.946
 126  1662.553
 127  1622.096
 128  1666.315
 129  1711.057
 130  1816.751
 131  1720.823
 132  1682.131
 133  1657.209
 134  1576.403
 135  1616.545
 136  1668.257
 137  1649.461
 138  1609.675
 139  1790.649
 140  1842.974
 141  1697.189
 142  1672.697
 143  1617.364
 144  1563.263
 145  1558.619
 146  1670.321
 147  1710.181
 148  1720.655
 149  1609.893
 150  1688.036
 151  1761.854
 152  1685.938
 153  1636.754
 154  1733.088
 155  1764.131
 156  1780.208
 157  1747.925
 158  1726.22
 159  1788.218
 160  1781.044
 161  1762.151
 162  1786.924
 163  1857.752
 164  1837.345
 165  1754.185
 166  1811.234
 167  1780.064
 168  1809.316
 169  1788.688
 170  1853.787
 171  1948.88
 172  2038.66
 173  1970.676
 174  1872.78
 175  1909.979
 176  1915.63
 177  1934.2
 178  1879.779
 179  2019.83
 180  1965.957
 181  1920.203
 182  1919.803
 183  1796.467
 184  1785.878
 185  1833.771
 186  1887.223
 187  1875.286
 188  1887.952
 189  1939.623
 190  1884.627
 191  1781.768
 192  1819.203
 193  1823.656
 194  1887.3
 195  1959.245
 196  1823.014
 197  1779.974
 198  1784.627
 199  1808.86
 200  1756.082
 201  1744.289
 202  1827.659
 203  1871.893
 204  1875.905
 205  1799.527
 206  1869.471
 207  1804.622
 208  1855.677
 209  1820.473
 210  1893.006
 211  1803.242
 212  1797.104
 213  1845.507
 214  1848.369
 215  1745.522
 216  1742.025
 217  1707.559
 218  1715.189
 219  1745.288
 220  1760.685
 221  1837.559
 222  1788.927
 223  1753.08
 224  1621.693
 225  1673.972
 226  1682.128
 227  1634.44
 228  1614.211
 229  1733.4
 230  1675.924
 231  1670.27
 232  1530.915
 233  1640.523
 234  1651.27
 235  1591.998
 236  1705.744
 237  1769.41
 238  1636.567
 239  1648.033
 240  1759.417
 241  1668.932
 242  1564.2
 243  1632.216
 244  1628.84
 245  1670.076
 246  1589.161
 247  1496.886
 248  1547.744
 249  1519.515
 250  1606.762
 251  1630.809
 252  1649.808
 253  1689.465
 254  1717.195
 255  1634.362
 256  1563.947
 257  1629.778
 258  1639.231
 259  1618.387
 260  1623.331
 261  1720.2
 262  1750.486
 263  1655.919
 264  1639.651
 265  1595.485
 266  1653.577
 267  1598.213
 268  1548.231
 269  1629.37
 270  1613.793
 271  1648.838
 272  1579.928
 273  1473.56
 274  1594.108
 275  1633.848
 276  1591.558
 277  1539.563
 278  1581.792
 279  1554.003
 280  1603.314
 281  1611.117
 282  1585.089
 283  1561.69
 284  1538.975
 285  1657.203
 286  1586.693
 287  1700.809
 288  1703.729
 289  1589.637
 290  1644.033
 291  1549.365
 292  1554.23
 293  1588.479
 294  1594.939
 295  1614.346
 296  1526.773
 297  1581.917
 298  1558.975
 299  1543.497
 300  1558.7
 301  1668.057
 302  1664.082
 303  1674.211
 304  1725.237
 305  1691.72
 306  1553.843
 307  1665.528
 308  1616.305
 309  1587.277
 310  1618.666
 311  1677.299
 312  1641.621
 313  1497.242
 314  1507.843
 315  1529.289
 316  1568.003
 317  1527.063
 318  1549.689
 319  1708.112
 320  1701.687
 321  1685.99
 322  1572.586
 323  1631.91
 324  1600.041
 325  1585.033
 326  1603.827
 327  1664.832
 328  1661.112
 329  1687.735
 330  1702.757
 331  1660.555
 332  1571.991
 333  1632.219
 334  1708.696
 335  1754.888
 336  1672.781
 337  1713.57
 338  1751.135
 339  1576.836
 340  1592.743
 341  1709.245
 342  1722.775
 343  1692.332
 344  1764.95
 345  1704.813
 346  1636.827
 347  1656.31
 348  1615.024
 349  1691.949
 350  1637.141
 351  1699.739
 352  1791.978
 353  1751.606
 354  1740.787
 355  1682.97
 356  1609.47
 357  1614.59
 358  1726.162
 359  1731.199
 360  1711.05
 361  1707.195
 362  1655.487
 363  1576.443
 364  1580.078
 365  1662.912
 366  1653.987
 367  1720.437
 368  1747.047
 369  1692.195
 370  1636.77
 371  1661.413
 372  1674.859
 373  1645.088
 374  1694.003
 375  1638.123
 376  1658.484
 377  1660.875
 378  1624.749
 379  1582.367
 380  1600.085
 381  1626.097
 382  1620.978
 383  1644.092
 384  1684.691
 385  1722.68
 386  1791.492
 387  1799.8
 388  1757.728
 389  1628.248
 390  1531.881
 391  1543.04
 392  1565.266
 393  1623.18
 394  1642.882
 395  1644.193
 396  1620.26
 397  1650.931
 398  1554.34
 399  1528.084
 400  1613.002
 401  1630.515
 402  1568.256
 403  1578.417
 404  1663.269
 405  1633.603
 406  1579.726
 407  1587.836
 408  1667.612
 409  1655.177
 410  1702.062
 411  1662.384
 412  1602.856
 413  1598.205
 414  1597.428
 415  1616.133
 416  1586.701
 417  1555.474
 418  1622.914
 419  1740.378
 420  1685.372
 421  1768.579
 422  1699.668
 423  1698.922
 424  1681.39
 425  1667.549
 426  1624.154
 427  1571.868
 428  1570.62
 429  1571.709
 430  1551.583
 431  1554.914
 432  1597.104
 433  1553.368
 434  1586.395
 435  1698.361
 436  1726.488
 437  1562.535
 438  1529.966
 439  1618.26
 440  1568.072
 441  1622.878
 442  1606.865
 443  1511.271
 444  1516.696
 445  1467.833
 446  1478.558
 447  1546.386
 448  1556.062
 449  1505.275
 450  1574.673
 451  1697.902
 452  1629.465
 453  1543.795
 454  1593.516
 455  1522.428
 456  1524.119
 457  1636.089
 458  1626.217
 459  1555.65
 460  1578.997
 461  1594.601
 462  1582.389
 463  1589.021
 464  1542.16
 465  1466.963
 466  1449.44
 467  1513.281
 468  1577.733
 469  1556.915
 470  1467.477
 471  1472.125
 472  1482.373
 473  1493.691
 474  1480.389
 475  1484.997
 476  1465.287
 477  1607.803
 478  1544.2
 479  1476.836
 480  1410.736
 481  1401.901
 482  1457.904
 483  1504.816
 484  1554.458
 485  1566.07
 486  1573.64
 487  1480.462
 488  1431.607
 489  1439.105
 490  1444.912
 491  1546.551
 492  1574.787
 493  1576.118
 494  1534.093
 495  1583.755
 496  1611.236
 497  1458.28
 498  1472.997
 499  1634.696
 500  1707.455
 501  1654.552
 502  1672.49
 503  1731.04
 504  1669.6
 505  1628.776
 506  1585.133
 507  1580.136
 508  1572.753
 509  1652.899
 510  1841.843
 511  1924.447
