# Input file       =  1203358026.105044_cleaned.dat
# Candidate        =  PSR_0332+5434
# Telescope        =  AR
# Epoch_topo       =  58171.754723438011
# Epoch_bary       =  N/A
# T_sample         =  0.002
# Data Folded      =  7340032
# Data Avg         =  0.0229892348372441
# Data StdDev      =  1.000013188999   
# Profile Bins     =  512
# Profile Avg      =  329.65655135534  
# Profile StdDev   =  119.734615535663 
# Reduced chi-sqr  =  1.108
# Prob(Noise)      <  0.0459   (~1.7 sigma)
# P_topo (ms)      =  714.581071620499  +/- 0.000291
# P'_topo (s/s)    =  -0                +/- 1.54e-10
# P''_topo (s/s^2) =  0                 +/- 6.78e-14
# P_bary (ms)      =  N/A
# P'_bary (s/s)    =  N/A
# P''_bary (s/s^2) =  N/A
# P_orb (s)        =  N/A
# asin(i)/c (s)    =  N/A
# eccentricity     =  N/A
# w (rad)          =  N/A
# T_peri           =  N/A
######################################################
   0  712.9647
   1  780.8896
   2  666.5555
   3  551.06
   4  310.5525
   5  343.1487
   6  361.1283
   7  381.6101
   8  324.8352
   9  227.9385
  10  234.6271
  11  331.8049
  12  429.0197
  13  387.3959
  14  208.7928
  15  375.9854
  16  419.308
  17  517.9305
  18  498.7677
  19  334.7959
  20  206.2575
  21  276.0963
  22  350.8125
  23  223.3573
  24  216.8685
  25  348.1226
  26  320.1932
  27  304.7711
  28  405.2189
  29  433.3843
  30  401.7921
  31  253.8712
  32  366.9544
  33  447.4417
  34  408.0626
  35  328.3236
  36  431.2657
  37  356.9673
  38  418.9778
  39  503.2736
  40  410.6595
  41  368.2982
  42  392.9937
  43  439.9634
  44  531.0907
  45  525.5157
  46  355.4098
  47  375.2956
  48  318.411
  49  289.4113
  50  407.2285
  51  460.4785
  52  487.6396
  53  387.0172
  54  423.036
  55  414.8144
  56  312.6045
  57  256.1779
  58  363.8541
  59  448.8129
  60  387.5287
  61  384.0147
  62  317.2122
  63  468.2643
  64  498.7812
  65  361.2162
  66  438.175
  67  447.7962
  68  401.5829
  69  451.3102
  70  394.2129
  71  381.0634
  72  302.4176
  73  467.1407
  74  462.5886
  75  383.0991
  76  399.6122
  77  362.0984
  78  378.8488
  79  362.6122
  80  399.2333
  81  304.5707
  82  340.6158
  83  432.0902
  84  343.204
  85  393.9306
  86  349.8779
  87  296.4448
  88  422.644
  89  418.0528
  90  500.2942
  91  540.0444
  92  507.4764
  93  438.3082
  94  392.2614
  95  402.7101
  96  342.1513
  97  427.8744
  98  341.2263
  99  272.7634
 100  390.4727
 101  394.2872
 102  475.9192
 103  347.4485
 104  467.3604
 105  475.5286
 106  350.2477
 107  418.6022
 108  281.0178
 109  385.5806
 110  272.0226
 111  278.6364
 112  322.3045
 113  336.6198
 114  321.4051
 115  338.0444
 116  368.4919
 117  362.3133
 118  322.18
 119  308.5519
 120  316.126
 121  392.5969
 122  286.5842
 123  315.0308
 124  327.6429
 125  386.1475
 126  416.4104
 127  444.2535
 128  412.5743
 129  390.7883
 130  377.4956
 131  358.4872
 132  361.8828
 133  389.9342
 134  475.6762
 135  437.1676
 136  423.513
 137  379.0305
 138  442.6404
 139  372.5334
 140  283.691
 141  351.3686
 142  387.1983
 143  356.196
 144  403.4178
 145  377.4821
 146  414.9193
 147  279.1174
 148  271.8869
 149  368.3949
 150  309.3686
 151  248.4638
 152  256.4357
 153  284.7346
 154  380.7136
 155  403.2236
 156  350.6405
 157  375.6705
 158  370.199
 159  368.115
 160  400.0665
 161  466.5638
 162  418.2982
 163  344.1315
 164  433.0839
 165  391.2784
 166  410.7301
 167  325.3878
 168  228.2437
 169  232.7058
 170  368.4765
 171  368.5013
 172  286.6604
 173  378.6405
 174  472.4097
 175  359.7985
 176  387.8333
 177  378.5549
 178  358.8737
 179  447.014
 180  330.0766
 181  302.9905
 182  367.2676
 183  349.82
 184  313.0542
 185  371.546
 186  230.2714
 187  334.1875
 188  450.8229
 189  339.3699
 190  274.1073
 191  225.7839
 192  354.8595
 193  341.3871
 194  226.0376
 195  257.2666
 196  359.7061
 197  371.836
 198  440.6292
 199  468.3529
 200  403.4203
 201  343.7193
 202  482.5534
 203  452.6836
 204  258.9388
 205  311.789
 206  537.7018
 207  454.288
 208  236.1131
 209  330.7254
 210  342.973
 211  330.5366
 212  289.5767
 213  256.0733
 214  329.7588
 215  373.1683
 216  277.9865
 217  318.0967
 218  340.8839
 219  359.0842
 220  304.0962
 221  285.7206
 222  301.5674
 223  434.3302
 224  320.4955
 225  275.8946
 226  206.4661
 227  323.903
 228  309.1718
 229  279.5219
 230  225.9856
 231  294.3658
 232  324.9103
 233  346.093
 234  269.2215
 235  156.5046
 236  170.3486
 237  228.7773
 238  327.5908
 239  458.345
 240  443.5957
 241  283.1749
 242  254.6561
 243  258.507
 244  217.2256
 245  309.0673
 246  416.0786
 247  363.991
 248  354.0824
 249  321.4988
 250  358.7898
 251  202.0448
 252  167.8583
 253  350.9184
 254  323.2786
 255  322.7072
 256  337.0464
 257  419.9486
 258  434.971
 259  330.2544
 260  297.5152
 261  322.124
 262  242.2706
 263  301.7171
 264  394.5492
 265  297.2215
 266  203.8563
 267  238.4123
 268  202.8456
 269  212.6685
 270  296.6128
 271  300.0342
 272  169.4885
 273  156.4143
 274  229.3128
 275  323.9559
 276  257.9633
 277  153.3045
 278  166.1588
 279  50.14117
 280  174.9989
 281  302.8827
 282  367.9608
 283  236.5541
 284  294.879
 285  262.8941
 286  118.8875
 287  205.4273
 288  338.4819
 289  211.8936
 290  260.7079
 291  323.0881
 292  228.679
 293  226.0961
 294  291.8231
 295  337.7538
 296  390.5279
 297  343.5068
 298  275.8048
 299  246.805
 300  364.3976
 301  320.1293
 302  222.8668
 303  176.2292
 304  216.0289
 305  274.4503
 306  262.1618
 307  342.0983
 308  365.6359
 309  414.3341
 310  291.0985
 311  280.467
 312  274.0901
 313  247.0447
 314  218.3127
 315  185.9374
 316  246.4182
 317  148.3007
 318  145.6022
 319  337.1201
 320  268.7029
 321  296.944
 322  211.3044
 323  255.5781
 324  364.5471
 325  329.8445
 326  203.0652
 327  296.1897
 328  275.7686
 329  207.4223
 330  109.6569
 331  239.2224
 332  383.3717
 333  342.4305
 334  307.0677
 335  283.3113
 336  235.7009
 337  239.7035
 338  184.0992
 339  173.4183
 340  290.9001
 341  203.6853
 342  203.4545
 343  249.7639
 344  290.8958
 345  375.4263
 346  324.8145
 347  325.6649
 348  276.391
 349  229.2968
 350  287.9888
 351  302.8979
 352  209.8147
 353  322.4509
 354  341.2541
 355  214.5968
 356  233.4787
 357  325.9698
 358  346.4325
 359  357.0994
 360  290.4118
 361  298.7802
 362  236.8126
 363  292.5879
 364  319.3525
 365  368.5669
 366  463.776
 367  354.6176
 368  362.0887
 369  276.3803
 370  307.0113
 371  296.4839
 372  252.8898
 373  228.0232
 374  221.4054
 375  177.4687
 376  228.2047
 377  345.4619
 378  325.472
 379  230.4237
 380  155.4706
 381  305.9976
 382  267.1294
 383  419.2075
 384  323.1355
 385  279.1538
 386  242.3267
 387  223.6123
 388  291.7384
 389  337.2216
 390  379.1166
 391  287.7094
 392  189.7469
 393  244.2339
 394  447.4875
 395  363.8891
 396  351.3242
 397  408.7033
 398  417.929
 399  327.9906
 400  154.5614
 401  190.8035
 402  208.3078
 403  293.4234
 404  341.9754
 405  311.1649
 406  308.8623
 407  311.8804
 408  279.0193
 409  177.3326
 410  312.956
 411  443.9119
 412  322.1046
 413  162.4778
 414  193.8948
 415  235.6061
 416  133.5508
 417  180.0254
 418  306.0605
 419  211.3029
 420  308.5409
 421  429.021
 422  367.0633
 423  287.9085
 424  301.2306
 425  184.7571
 426  188.8013
 427  297.6513
 428  409.2072
 429  498.2093
 430  488.9314
 431  365.3385
 432  395.3307
 433  316.8625
 434  324.062
 435  372.9669
 436  190.7109
 437  283.7077
 438  235.2242
 439  304.53
 440  342.0697
 441  363.1458
 442  388.0836
 443  314.5548
 444  362.6679
 445  228.3642
 446  217.5454
 447  230.5064
 448  140.1511
 449  256.5262
 450  309.7992
 451  294.1037
 452  263.369
 453  349.1268
 454  327.1214
 455  179.3363
 456  242.7166
 457  345.9312
 458  287.1671
 459  309.2316
 460  224.2959
 461  264.8031
 462  296.584
 463  192.4043
 464  229.9272
 465  282.0034
 466  237.9342
 467  235.3697
 468  286.436
 469  365.5254
 470  345.9921
 471  521.5092
 472  372.4553
 473  397.3499
 474  371.9035
 475  334.4913
 476  305.6983
 477  267.2772
 478  350.814
 479  401.8479
 480  418.9226
 481  332.7779
 482  306.7523
 483  296.8152
 484  418.7859
 485  371.464
 486  303.4434
 487  293.2091
 488  306.197
 489  266.086
 490  266.2588
 491  352.1844
 492  390.6914
 493  301.4005
 494  425.0319
 495  271.1552
 496  312.8639
 497  325.2957
 498  288.8912
 499  262.5946
 500  317.9781
 501  376.8665
 502  307.9928
 503  333.4871
 504  355.0211
 505  423.2427
 506  504.3662
 507  525.952
 508  485.7237
 509  504.9371
 510  583.8184
 511  680.9451
