# Input file       =  1203444197.101021_cleaned.dat
# Candidate        =  PSR_0332+5434
# Telescope        =  AR
# Epoch_topo       =  58172.752072928488
# Epoch_bary       =  N/A
# T_sample         =  0.002
# Data Folded      =  7340032
# Data Avg         =  0.0322900818971616
# Data StdDev      =  1.00006043921019 
# Profile Bins     =  512
# Profile Avg      =  462.976715115787 
# Profile StdDev   =  119.740272946918 
# Reduced chi-sqr  =  1.007
# Prob(Noise)      <  0.446   (~0.1 sigma)
# P_topo (ms)      =  714.581081890729  +/- 0.000775
# P'_topo (s/s)    =  -0                +/- 4.09e-10
# P''_topo (s/s^2) =  0                 +/- 1.8e-13
# P_bary (ms)      =  N/A
# P'_bary (s/s)    =  N/A
# P''_bary (s/s^2) =  N/A
# P_orb (s)        =  N/A
# asin(i)/c (s)    =  N/A
# eccentricity     =  N/A
# w (rad)          =  N/A
# T_peri           =  N/A
######################################################
   0  979.4878
   1  904.7248
   2  701.9586
   3  615.0016
   4  527.0948
   5  470.2506
   6  470.6723
   7  615.6111
   8  643.8503
   9  500.2303
  10  429.7534
  11  522.3073
  12  621.0817
  13  565.6551
  14  575.7097
  15  537.4135
  16  554.3217
  17  498.197
  18  457.7946
  19  641.4453
  20  532.2016
  21  515.6669
  22  508.392
  23  524.2594
  24  563.0036
  25  572.6638
  26  432.5249
  27  381.1813
  28  483.6524
  29  378.3044
  30  327.0261
  31  414.6793
  32  497.9641
  33  457.4262
  34  363.6094
  35  449.9567
  36  403.369
  37  446.2708
  38  572.8569
  39  588.0428
  40  410.1005
  41  395.5895
  42  564.3658
  43  580.48
  44  527.2266
  45  489.1341
  46  560.1434
  47  608.2661
  48  449.0306
  49  400.6277
  50  369.3973
  51  416.2796
  52  482.8001
  53  572.9662
  54  497.8536
  55  524.698
  56  371.8563
  57  368.2131
  58  379.9236
  59  550.2489
  60  616.9317
  61  433.2377
  62  314.9196
  63  351.5687
  64  486.1651
  65  520.6304
  66  508.7551
  67  382.6584
  68  452.5614
  69  458.3777
  70  390.614
  71  409.3615
  72  479.8135
  73  437.0467
  74  445.5419
  75  462.1305
  76  461.1074
  77  498.105
  78  462.9996
  79  462.0834
  80  530.9279
  81  504.83
  82  508.2707
  83  587.2247
  84  647.0438
  85  486.1787
  86  486.7218
  87  478.4294
  88  382.4702
  89  516.0434
  90  573.9575
  91  389.2154
  92  382.2032
  93  449.8303
  94  554.9943
  95  565.9995
  96  487.6398
  97  413.763
  98  415.4759
  99  460.6147
 100  556.6786
 101  576.2833
 102  582.5746
 103  470.7054
 104  468.2174
 105  455.0774
 106  522.6074
 107  535.4696
 108  416.8595
 109  443.0488
 110  499.3301
 111  429.8663
 112  401.335
 113  454.874
 114  537.7213
 115  560.6507
 116  525.1548
 117  515.014
 118  472.5136
 119  432.947
 120  501.2748
 121  426.59
 122  347.8301
 123  434.619
 124  494.5096
 125  548.568
 126  490.1455
 127  495.3055
 128  401.5424
 129  358.5763
 130  395.7477
 131  499.0416
 132  387.0973
 133  402.5199
 134  448.3959
 135  446.6496
 136  458.4803
 137  393.4426
 138  281.2048
 139  326.5454
 140  507.9655
 141  427.8276
 142  401.1345
 143  446.293
 144  497.2341
 145  448.4386
 146  430.9219
 147  519.9749
 148  489.914
 149  439.5742
 150  390.7349
 151  468.886
 152  433.2294
 153  375.9293
 154  387.178
 155  458.4697
 156  530.0464
 157  511.9753
 158  456.8277
 159  367.4775
 160  405.7726
 161  398.5253
 162  277.1371
 163  304.9456
 164  283.6413
 165  398.7598
 166  279.1237
 167  322.4764
 168  294.0725
 169  236.9824
 170  294.0692
 171  433.2878
 172  357.4725
 173  395.6056
 174  380.811
 175  332.5685
 176  466.3154
 177  444.3795
 178  452.7796
 179  366.7379
 180  427.7414
 181  374.89
 182  395.6606
 183  371.9529
 184  274.2876
 185  334.5225
 186  382.8011
 187  435.2421
 188  407.4062
 189  302.1454
 190  374.9497
 191  208.3749
 192  361.691
 193  432.1929
 194  458.9396
 195  502.9214
 196  470.3876
 197  596.7652
 198  513.2576
 199  423.8092
 200  495.6874
 201  481.4964
 202  431.6985
 203  398.4585
 204  461.87
 205  400.8723
 206  362.9007
 207  490.7898
 208  468.179
 209  448.8199
 210  468.9956
 211  493.9427
 212  503.5354
 213  493.1834
 214  499.0377
 215  457.3805
 216  536.1104
 217  482.1079
 218  506.1223
 219  570.5154
 220  596.3328
 221  570.9859
 222  534.5814
 223  476.0966
 224  525.218
 225  537.6445
 226  652.5358
 227  568.3862
 228  472.6487
 229  425.0312
 230  593.0975
 231  593.2631
 232  439.7286
 233  406.5592
 234  477.0136
 235  534.78
 236  462.293
 237  463.349
 238  436.3997
 239  414.7411
 240  367.9334
 241  498.3666
 242  506.1905
 243  473.3078
 244  409.7324
 245  430.0106
 246  477.4859
 247  530.1563
 248  534.0089
 249  410.3068
 250  291.8093
 251  347.9559
 252  560.747
 253  485.3049
 254  383.0041
 255  354.0447
 256  350.9318
 257  399.6266
 258  487.376
 259  612.0645
 260  461.9282
 261  310.4543
 262  303.2886
 263  433.5767
 264  528.6174
 265  621.5624
 266  660.4731
 267  608.2595
 268  534.4444
 269  557.3125
 270  544.2894
 271  477.0312
 272  587.3711
 273  653.5925
 274  431.9886
 275  347.3651
 276  505.1376
 277  504.2003
 278  528.2709
 279  465.6921
 280  469.9238
 281  423.8272
 282  457.4118
 283  477.4978
 284  508.8228
 285  483.8964
 286  439.8914
 287  432.0156
 288  333.0861
 289  373.919
 290  424.7282
 291  375.9803
 292  340.29
 293  330.0479
 294  422.0975
 295  458.0673
 296  427.2996
 297  363.1284
 298  396.3255
 299  533.5847
 300  510.4409
 301  499.0876
 302  489.9891
 303  588.3276
 304  427.8865
 305  420.2553
 306  454.6804
 307  533.2368
 308  441.1021
 309  481.8825
 310  449.1806
 311  557.9604
 312  473.1571
 313  414.1746
 314  408.7901
 315  417.2112
 316  545.4285
 317  495.0944
 318  386.601
 319  375.7047
 320  510.8429
 321  532.9495
 322  369.4496
 323  407.8617
 324  420.89
 325  438.6835
 326  584.9376
 327  538.0701
 328  457.4279
 329  384.5202
 330  409.0379
 331  378.8157
 332  477.2409
 333  552.1523
 334  535.7335
 335  497.3905
 336  543.4115
 337  478.6933
 338  496.7584
 339  579.6953
 340  463.3532
 341  387.0009
 342  415.1372
 343  485.6115
 344  489.8218
 345  481.2864
 346  465.9404
 347  465.5091
 348  384.4613
 349  527.8004
 350  480.9166
 351  451.0826
 352  457.21
 353  392.9169
 354  453.5356
 355  415.1453
 356  439.2625
 357  519.3821
 358  440.525
 359  452.4531
 360  542.1469
 361  528.6337
 362  541.1008
 363  398.6725
 364  425.6062
 365  453.9644
 366  533.4211
 367  422.6144
 368  460.2624
 369  484.4723
 370  509.7869
 371  468.7966
 372  453.0301
 373  407.4216
 374  362.1063
 375  366.8683
 376  357.1076
 377  383.3856
 378  471.0519
 379  535.4518
 380  382.4052
 381  428.928
 382  421.7008
 383  373.3524
 384  319.4278
 385  366.5463
 386  545.6765
 387  485.0395
 388  521.4739
 389  487.9358
 390  431.4149
 391  478.9224
 392  566.4899
 393  478.9784
 394  383.3658
 395  368.812
 396  437.9722
 397  446.1125
 398  322.4036
 399  361.1141
 400  388.1493
 401  420.3874
 402  350.9366
 403  397.2107
 404  440.3001
 405  514.3909
 406  610.6649
 407  522.2708
 408  461.6172
 409  483.3321
 410  488.4365
 411  332.0827
 412  339.9994
 413  433.9645
 414  450.5833
 415  384.6985
 416  445.5946
 417  458.9782
 418  380.8244
 419  392.5181
 420  412.7484
 421  451.8746
 422  489.9883
 423  465.7944
 424  481.8887
 425  560.1014
 426  653.9661
 427  478.1249
 428  345.7921
 429  439.2205
 430  353.9346
 431  453.011
 432  507.5736
 433  601.5082
 434  557.2706
 435  439.7996
 436  516.7169
 437  526.9956
 438  433.2612
 439  522.0316
 440  420.6847
 441  411.2487
 442  347.5018
 443  422.21
 444  311.9249
 445  373.2848
 446  443.0341
 447  459.14
 448  397.6567
 449  408.8384
 450  460.0301
 451  455.5591
 452  434.445
 453  376.7673
 454  449.3826
 455  429.9866
 456  447.1138
 457  437.4759
 458  337.3505
 459  507.4724
 460  474.3739
 461  381.025
 462  419.3177
 463  438.3626
 464  411.9915
 465  420.4702
 466  413.2252
 467  458.6197
 468  416.0891
 469  358.118
 470  364.4783
 471  462.9004
 472  445.5985
 473  411.0144
 474  419.2645
 475  486.407
 476  431.1252
 477  274.1721
 478  337.6635
 479  532.9037
 480  526.1839
 481  458.1202
 482  482.4754
 483  369.2747
 484  347.1932
 485  472.0815
 486  548.9706
 487  446.8748
 488  460.6346
 489  508.774
 490  429.61
 491  393.5946
 492  436.5978
 493  475.0087
 494  527.8649
 495  538.7628
 496  539.1646
 497  497.1158
 498  377.0658
 499  431.1234
 500  582.9271
 501  545.6123
 502  545.4924
 503  575.7518
 504  599.1973
 505  627.5376
 506  635.7665
 507  673.0905
 508  575.7916
 509  704.5208
 510  795.8721
 511  831.0198
