# Input file       =  1203785124.167161_cleaned.dat
# Candidate        =  PSR_0332+5434
# Telescope        =  AR
# Epoch_topo       =  58176.697988045846
# Epoch_bary       =  N/A
# T_sample         =  0.002
# Data Folded      =  7340032
# Data Avg         =  0.038124171107166
# Data StdDev      =  1.00010653247081 
# Profile Bins     =  512
# Profile Avg      =  546.550129662269 
# Profile StdDev   =  119.745791832969 
# Reduced chi-sqr  =  0.652
# Prob(Noise)      <  1   (~0.0 sigma)
# P_topo (ms)      =  714.58085140688   +/- 0.000789
# P'_topo (s/s)    =  -0                +/- 4.16e-10
# P''_topo (s/s^2) =  0                 +/- 1.84e-13
# P_bary (ms)      =  N/A
# P'_bary (s/s)    =  N/A
# P''_bary (s/s^2) =  N/A
# P_orb (s)        =  N/A
# asin(i)/c (s)    =  N/A
# eccentricity     =  N/A
# w (rad)          =  N/A
# T_peri           =  N/A
######################################################
   0  862.1868
   1  826.3456
   2  720.0519
   3  528.9096
   4  497.3889
   5  592.6423
   6  574.9996
   7  499.6142
   8  522.6857
   9  534.6844
  10  589.5826
  11  549.7922
  12  570.3369
  13  639.8431
  14  603.4327
  15  543.8502
  16  438.1216
  17  541.597
  18  531.8135
  19  620.6488
  20  517.1229
  21  541.8372
  22  641.1317
  23  614.8487
  24  549.0338
  25  499.6476
  26  509.0702
  27  497.8163
  28  500.8025
  29  553.6106
  30  551.1871
  31  547.9946
  32  597.7798
  33  660.5676
  34  516.0527
  35  490.6185
  36  628.395
  37  583.4346
  38  546.2609
  39  514.0085
  40  434.1926
  41  452.0646
  42  448.9027
  43  424.6973
  44  399.3901
  45  457.9344
  46  546.9639
  47  532.1606
  48  487.4089
  49  597.0471
  50  521.5884
  51  512.5952
  52  495.3937
  53  560.5004
  54  471.1294
  55  498.1678
  56  508.1201
  57  501.7135
  58  533.168
  59  547.5386
  60  482.0541
  61  437.1903
  62  488.3791
  63  388.8978
  64  382.0877
  65  391.4415
  66  399.2509
  67  503.6118
  68  534.2887
  69  560.16
  70  617.254
  71  616.5624
  72  548.3355
  73  488.0282
  74  580.6276
  75  651.38
  76  578.8996
  77  604.9432
  78  645.8523
  79  586.2678
  80  571.8011
  81  563.0272
  82  600.0098
  83  565.8908
  84  516.6666
  85  579.6061
  86  633.6834
  87  637.8431
  88  584.3276
  89  649.8775
  90  589.9704
  91  600.9227
  92  573.844
  93  535.2455
  94  604.4364
  95  652.8848
  96  681.6799
  97  673.761
  98  693.3636
  99  702.8457
 100  665.9344
 101  670.2219
 102  686.5955
 103  623.9386
 104  713.0903
 105  660.6848
 106  593.3962
 107  599.4612
 108  584.8372
 109  540.7863
 110  494.9864
 111  500.4601
 112  559.6342
 113  555.3329
 114  553.6843
 115  380.6705
 116  519.0156
 117  626.4366
 118  572.6085
 119  585.592
 120  565.5124
 121  586.2137
 122  599.927
 123  613.0975
 124  489.2406
 125  491.9973
 126  478.2843
 127  489.837
 128  501.3975
 129  444.6334
 130  437.2037
 131  495.1077
 132  538.8477
 133  465.4612
 134  471.1899
 135  537.7477
 136  559.4655
 137  497.2403
 138  419.7442
 139  561.2613
 140  561.5852
 141  620.6838
 142  628.3036
 143  558.3151
 144  661.9386
 145  795.266
 146  671.5995
 147  622.9307
 148  606.619
 149  562.2087
 150  542.0268
 151  661.3856
 152  671.2256
 153  535.9788
 154  571.1228
 155  611.6869
 156  589.9544
 157  498.8266
 158  512.3239
 159  535.5974
 160  517.2287
 161  557.774
 162  539.9985
 163  525.5414
 164  516.0761
 165  543.5311
 166  532.0964
 167  499.3076
 168  547.3986
 169  597.8203
 170  610.9832
 171  585.9045
 172  549.5268
 173  453.5455
 174  354.4519
 175  455.9459
 176  469.9409
 177  415.2747
 178  505.7091
 179  523.4117
 180  459.237
 181  504.9709
 182  512.8696
 183  440.5423
 184  476.9706
 185  604.503
 186  586.5178
 187  555.6649
 188  405.6375
 189  454.4533
 190  553.999
 191  581.392
 192  630.0197
 193  559.7775
 194  478.6143
 195  461.9039
 196  543.0959
 197  591.9122
 198  526.4608
 199  542.3799
 200  528.8513
 201  582.7426
 202  560.7286
 203  611.8217
 204  560.3065
 205  563.0859
 206  568.8539
 207  556.7853
 208  541.4442
 209  522.0578
 210  567.036
 211  561.0181
 212  568.3744
 213  517.1523
 214  512.354
 215  509.4192
 216  463.4844
 217  436.6335
 218  552.8892
 219  513.5048
 220  483.9727
 221  515.9695
 222  549.6463
 223  568.7956
 224  535.2094
 225  574.7266
 226  565.6452
 227  530.1031
 228  558.6562
 229  602.976
 230  564.677
 231  566.3582
 232  592.5257
 233  609.9167
 234  541.0329
 235  545.2965
 236  544.0204
 237  489.8477
 238  623.6883
 239  495.9603
 240  470.9637
 241  551.9917
 242  550.915
 243  487.3311
 244  458.3391
 245  513.3099
 246  433.1623
 247  551.3184
 248  572.7483
 249  593.1182
 250  567.2343
 251  487.6942
 252  668.979
 253  702.2977
 254  531.287
 255  386.2104
 256  386.7821
 257  487.9263
 258  497.8962
 259  505.5913
 260  494.9933
 261  422.8191
 262  431.3672
 263  529.7306
 264  520.8302
 265  460.926
 266  519.8345
 267  573.4025
 268  579.3711
 269  539.7725
 270  480.4265
 271  582.9255
 272  544.5983
 273  570.4944
 274  465.9683
 275  393.9252
 276  514.1334
 277  527.5327
 278  484.9017
 279  506.7436
 280  552.4139
 281  550.851
 282  512.5724
 283  557.7146
 284  571.839
 285  483.2426
 286  479.5423
 287  604.3081
 288  579.4761
 289  547.8918
 290  524.837
 291  621.4254
 292  681.7689
 293  614.787
 294  575.0618
 295  593.7244
 296  546.4003
 297  517.8165
 298  513.0999
 299  547.051
 300  620.5639
 301  653.0595
 302  587.0366
 303  545.3648
 304  530.7046
 305  590.4266
 306  640.3853
 307  658.1656
 308  695.4003
 309  580.3774
 310  493.8698
 311  548.4757
 312  474.7963
 313  454.4942
 314  570.0242
 315  552.7946
 316  509.3695
 317  467.5597
 318  454.8026
 319  511.6524
 320  525.6439
 321  565.6829
 322  602.0013
 323  573.1598
 324  540.5311
 325  599.4241
 326  650.3828
 327  591.5465
 328  665.3785
 329  693.7546
 330  678.3394
 331  598.6818
 332  555.0153
 333  517.8638
 334  563.252
 335  545.8904
 336  573.7376
 337  570.5523
 338  503.9233
 339  517.4743
 340  569.3202
 341  592.035
 342  622.495
 343  557.0336
 344  544.2581
 345  605.3778
 346  566.627
 347  562.0487
 348  593.0053
 349  569.5948
 350  496.4665
 351  521.1539
 352  520.6541
 353  602.5648
 354  547.0186
 355  577.8185
 356  542.8007
 357  536.0314
 358  497.5302
 359  602.2319
 360  634.7223
 361  663.5413
 362  611.3055
 363  641.1711
 364  515.8675
 365  473.4544
 366  562.8657
 367  580.2288
 368  603.7337
 369  562.1362
 370  623.3008
 371  606.5287
 372  588.3925
 373  564.45
 374  509.9601
 375  592.894
 376  613.4197
 377  620.7379
 378  615.0756
 379  600.0114
 380  492.16
 381  571.9189
 382  586.9235
 383  633.0377
 384  665.321
 385  578.2285
 386  562.8966
 387  537.5684
 388  572.5872
 389  619.1719
 390  574.9431
 391  560.9109
 392  498.0203
 393  495.9608
 394  578.3587
 395  552.1588
 396  487.7857
 397  588.3685
 398  573.3768
 399  515.9127
 400  525.7736
 401  527.8752
 402  456.1396
 403  396.043
 404  585.7504
 405  601.5374
 406  526.8773
 407  598.1264
 408  544.2561
 409  490.9397
 410  455.3453
 411  578.5922
 412  604.4818
 413  515.809
 414  518.9016
 415  537.8039
 416  572.0394
 417  607.0446
 418  573.4786
 419  537.6505
 420  442.1257
 421  457.2819
 422  616.4429
 423  578.78
 424  506.1842
 425  590.2067
 426  654.1617
 427  560.6384
 428  477.4255
 429  483.2802
 430  451.8965
 431  463.6883
 432  552.6229
 433  617.2293
 434  612.1025
 435  603.7715
 436  589.298
 437  521.8531
 438  525.7867
 439  496.7822
 440  491.5775
 441  474.7156
 442  589.9582
 443  687.8676
 444  574.304
 445  559.4484
 446  505.1267
 447  496.0119
 448  635.7805
 449  613.3671
 450  472.4758
 451  455.0396
 452  500.0643
 453  474.263
 454  509.7608
 455  530.7703
 456  542.7138
 457  525.5953
 458  474.0514
 459  535.3198
 460  564.8612
 461  544.8708
 462  602.3762
 463  567.5041
 464  487.1496
 465  377.8281
 466  493.7103
 467  585.124
 468  517.4347
 469  471.6159
 470  518.7234
 471  496.8128
 472  516.9802
 473  468.2914
 474  496.8973
 475  638.5294
 476  671.4364
 477  616.9031
 478  574.6661
 479  585.1376
 480  510.6617
 481  514.9856
 482  504.6144
 483  514.6849
 484  574.7752
 485  593.8494
 486  479.5634
 487  390.589
 488  528.9567
 489  551.521
 490  476.5097
 491  361.5256
 492  440.4662
 493  464.1238
 494  563.8965
 495  507.751
 496  420.2982
 497  439.1102
 498  563.4533
 499  566.861
 500  562.1799
 501  453.5167
 502  460.3871
 503  521.4059
 504  453.5469
 505  371.2143
 506  348.6745
 507  433.9468
 508  530.6791
 509  472.8178
 510  647.1752
 511  798.2493
