# Input file       =  1203586598.108145_cleaned.dat
# Candidate        =  PSR_0332+5434
# Telescope        =  AR
# Epoch_topo       =  58174.400232733162
# Epoch_bary       =  N/A
# T_sample         =  0.002
# Data Folded      =  7405568
# Data Avg         =  0.0138241026749678
# Data StdDev      =  1.0001357700125  
# Profile Bins     =  512
# Profile Avg      =  199.947825336206 
# Profile StdDev   =  120.282699593681 
# Reduced chi-sqr  =  1.204
# Prob(Noise)      <  0.00101   (~3.1 sigma)
# P_topo (ms)      =  714.580702456007  +/- 0.000138
# P'_topo (s/s)    =  -0                +/- 7.24e-11
# P''_topo (s/s^2) =  0                 +/- 3.17e-14
# P_bary (ms)      =  N/A
# P'_bary (s/s)    =  N/A
# P''_bary (s/s^2) =  N/A
# P_orb (s)        =  N/A
# asin(i)/c (s)    =  N/A
# eccentricity     =  N/A
# w (rad)          =  N/A
# T_peri           =  N/A
######################################################
   0  656.9712
   1  597.4707
   2  417.8885
   3  337.6165
   4  131.8008
   5  251.6791
   6  332.6549
   7  159.1442
   8  224.6315
   9  207.4852
  10  131.3123
  11  107.2755
  12  285.5693
  13  354.6708
  14  225.3072
  15  212.8685
  16  266.1303
  17  326.9173
  18  284.2498
  19  192.7672
  20  216.1775
  21  175.4937
  22  172.0495
  23  187.4461
  24  141.8712
  25  202.1633
  26  222.091
  27  264.6872
  28  277.7938
  29  158.6584
  30  229.316
  31  223.2684
  32  155.2907
  33  74.26935
  34  167.1706
  35  257.8656
  36  241.3578
  37  194.2635
  38  242.4532
  39  228.3862
  40  330.4406
  41  300.2912
  42  160.9609
  43  202.1844
  44  263.7337
  45  310.2235
  46  223.433
  47  255.5773
  48  327.343
  49  237.909
  50  194.54
  51  250.2233
  52  171.2586
  53  115.1135
  54  166.1002
  55  67.7732
  56  176.3875
  57  151.1635
  58  166.7941
  59  272.0721
  60  201.8803
  61  163.1481
  62  293.8872
  63  353.3138
  64  341.2556
  65  316.2021
  66  193.1583
  67  233.5002
  68  174.9489
  69  200.8757
  70  186.1718
  71  4.228361
  72  48.76725
  73  206.5625
  74  168.0453
  75  232.6536
  76  195.9137
  77  244.157
  78  188.0757
  79  202.5375
  80  259.3497
  81  335.2923
  82  241.5905
  83  164.7112
  84  250.484
  85  244.9523
  86  230.5293
  87  122.9785
  88  107.079
  89  164.882
  90  154.1051
  91  164.3324
  92  181.9441
  93  283.928
  94  238.8415
  95  281.8597
  96  274.6626
  97  210.3639
  98  261.4315
  99  300.8937
 100  182.7101
 101  153.2679
 102  218.1222
 103  210.7702
 104  166.7698
 105  290.3406
 106  296.9187
 107  164.0371
 108  78.03415
 109  163.1013
 110  194.2536
 111  228.8599
 112  298.1585
 113  257.3469
 114  135.7567
 115  195.8544
 116  151.7237
 117  169.5307
 118  282.3144
 119  206.1301
 120  117.1272
 121  113.4738
 122  165.587
 123  166.0861
 124  145.132
 125  17.73645
 126  117.5677
 127  189.2309
 128  241.3247
 129  204.9758
 130  258.6927
 131  275.3504
 132  114.6579
 133  91.7828
 134  101.8796
 135  89.70099
 136  73.80477
 137  244.6021
 138  275.4359
 139  169.3881
 140  181.9086
 141  200.4885
 142  185.8885
 143  292.701
 144  242.0568
 145  136.5357
 146  130.0662
 147  176.7143
 148  118.0553
 149  43.61396
 150  157.9503
 151  166.7408
 152  156.9758
 153  139.6581
 154  84.76768
 155  138.1335
 156  197.522
 157  -13.4705
 158  -1.161808
 159  94.93402
 160  37.60188
 161  65.81717
 162  126.6841
 163  153.9128
 164  101.057
 165  89.33752
 166  92.25371
 167  70.24889
 168  70.41304
 169  82.51975
 170  55.31475
 171  14.26402
 172  38.24915
 173  -51.42513
 174  12.67274
 175  173.6454
 176  95.02064
 177  -28.87685
 178  -3.527918
 179  107.8475
 180  103.9411
 181  85.32583
 182  -35.39497
 183  9.269312
 184  62.83304
 185  111.0868
 186  92.45888
 187  32.98322
 188  106.0274
 189  102.7455
 190  -53.34747
 191  -0.2851046
 192  43.9755
 193  40.92868
 194  -12.35853
 195  83.84661
 196  180.9044
 197  206.8843
 198  121.206
 199  84.63112
 200  87.3281
 201  146.0238
 202  97.24635
 203  34.61674
 204  35.91491
 205  54.10299
 206  189.5847
 207  282.4233
 208  269.3447
 209  130.2321
 210  106.7528
 211  174.3426
 212  214.9095
 213  264.1335
 214  226.6995
 215  115.8823
 216  -15.28297
 217  50.12048
 218  49.90889
 219  139.56
 220  187.7618
 221  84.56858
 222  44.33279
 223  58.32709
 224  122.2748
 225  167.4996
 226  52.87777
 227  85.38478
 228  191.061
 229  164.8595
 230  295.6115
 231  190.6116
 232  171.7157
 233  107.1289
 234  168.264
 235  167.7713
 236  -18.56535
 237  191.895
 238  279.581
 239  231.4426
 240  215.7366
 241  254.9267
 242  245.0018
 243  199.1573
 244  120.6729
 245  276.7633
 246  311.7564
 247  195.1768
 248  270.215
 249  233.6935
 250  192.8808
 251  97.36067
 252  79.36106
 253  353.2784
 254  378.8119
 255  248.3353
 256  196.1001
 257  305.825
 258  235.4751
 259  248.3
 260  297.7971
 261  315.1284
 262  262.7445
 263  143.465
 264  122.4856
 265  139.3166
 266  188.8549
 267  230.8872
 268  248.7409
 269  202.3655
 270  206.6857
 271  131.3162
 272  197.8748
 273  94.12658
 274  230.5774
 275  405.0176
 276  346.9394
 277  334.3789
 278  236.2924
 279  222.3669
 280  217.5961
 281  168.0307
 282  153.9835
 283  158.3936
 284  93.72318
 285  169.0659
 286  207.8114
 287  175.2775
 288  158.8779
 289  180.0347
 290  115.2611
 291  178.2056
 292  282.9466
 293  266.4282
 294  248.1436
 295  253.3739
 296  256.0708
 297  181.6419
 298  33.20377
 299  148.1841
 300  278.6107
 301  361.6096
 302  228.4935
 303  185.9583
 304  176.7095
 305  180.764
 306  204.0082
 307  252.9552
 308  233.7909
 309  214.7575
 310  265.3376
 311  166.9509
 312  229.0908
 313  298.755
 314  256.1369
 315  226.4521
 316  276.2838
 317  182.6975
 318  107.1149
 319  149.472
 320  199.7775
 321  209.2493
 322  216.337
 323  248.2539
 324  248.2179
 325  241.3418
 326  178.6337
 327  194.8324
 328  306.974
 329  332.4135
 330  279.2395
 331  225.1228
 332  207.728
 333  316.5873
 334  309.0996
 335  183.0203
 336  236.8468
 337  363.5308
 338  287.4577
 339  144.3095
 340  191.3829
 341  216.794
 342  180.5446
 343  308.2196
 344  479.7455
 345  385.6574
 346  344.4661
 347  356.7823
 348  228.7228
 349  198.5086
 350  207.6139
 351  318.8905
 352  288.0598
 353  337.7116
 354  269.2056
 355  254.5699
 356  191.9971
 357  202.4701
 358  287.8477
 359  270.7723
 360  369.4078
 361  327.1943
 362  338.4656
 363  364.0896
 364  258.0348
 365  254.7309
 366  294.1668
 367  322.1364
 368  247.4431
 369  227.9894
 370  270.7404
 371  218.5188
 372  183.7619
 373  259.0896
 374  204.9731
 375  335.2617
 376  328.8836
 377  238.681
 378  162.2489
 379  276.4588
 380  310.9791
 381  329.4259
 382  277.0518
 383  156.8
 384  138.1399
 385  91.48373
 386  165.722
 387  183.106
 388  171.1715
 389  199.6521
 390  338.3891
 391  362.3385
 392  339.5771
 393  265.6029
 394  256.6235
 395  401.3433
 396  244.7821
 397  291.5805
 398  344.851
 399  265.1355
 400  180.7892
 401  193.739
 402  225.0341
 403  297.8246
 404  219.8172
 405  172.485
 406  227.2719
 407  227.8993
 408  220.9581
 409  175.9789
 410  173.2036
 411  274.2543
 412  257.2409
 413  165.8783
 414  187.6089
 415  152.4734
 416  128.9492
 417  214.9449
 418  253.0412
 419  117.7038
 420  84.19692
 421  165.3514
 422  136.4512
 423  143.0031
 424  257.1931
 425  303.2302
 426  383.0525
 427  322.4161
 428  227.698
 429  201.8266
 430  121.1166
 431  148.9831
 432  208.5417
 433  158.0607
 434  155.975
 435  165.5415
 436  288.3228
 437  235.3779
 438  232.2571
 439  225.6305
 440  230.4558
 441  136.0539
 442  232.0335
 443  137.6144
 444  221.375
 445  186.8316
 446  176.6524
 447  246.4926
 448  103.8196
 449  103.7697
 450  189.024
 451  243.8177
 452  247.5166
 453  175.9703
 454  158.7045
 455  180.5656
 456  140.6001
 457  179.8233
 458  138.6767
 459  147.4941
 460  244.1036
 461  252.7777
 462  256.1398
 463  226.6055
 464  302.7391
 465  197.9601
 466  163.4122
 467  227.3412
 468  182.443
 469  178.8823
 470  185.3053
 471  121.1359
 472  189.0996
 473  261.3691
 474  234.7784
 475  165.7377
 476  33.36195
 477  95.39661
 478  136.877
 479  156.9495
 480  132.8153
 481  86.77841
 482  126.8958
 483  120.3321
 484  45.21917
 485  199.8797
 486  263.3254
 487  178.2444
 488  94.31269
 489  182.1511
 490  245.4943
 491  114.6375
 492  63.557
 493  209.8077
 494  244.0348
 495  239.753
 496  140.1454
 497  211.3043
 498  105.2693
 499  43.1097
 500  73.4546
 501  181.9141
 502  259.6941
 503  291.3316
 504  300.0019
 505  356.6769
 506  391.9386
 507  339.5941
 508  344.2541
 509  441.311
 510  618.6635
 511  682.9375
