# Input file       =  1203586598.108145_cleaned.dat
# Candidate        =  PSR_0332+5434
# Telescope        =  AR
# Epoch_topo       =  58174.400232733162
# Epoch_bary       =  N/A
# T_sample         =  0.002
# Data Folded      =  7405568
# Data Avg         =  0.0138241026749678
# Data StdDev      =  1.0001357700125  
# Profile Bins     =  512
# Profile Avg      =  199.947825335642 
# Profile StdDev   =  120.282699593681 
# Reduced chi-sqr  =  1.212
# Prob(Noise)      <  0.000693   (~3.2 sigma)
# P_topo (ms)      =  714.580702671115  +/- 0.000139
# P'_topo (s/s)    =  -0                +/- 7.29e-11
# P''_topo (s/s^2) =  0                 +/- 3.19e-14
# P_bary (ms)      =  N/A
# P'_bary (s/s)    =  N/A
# P''_bary (s/s^2) =  N/A
# P_orb (s)        =  N/A
# asin(i)/c (s)    =  N/A
# eccentricity     =  N/A
# w (rad)          =  N/A
# T_peri           =  N/A
######################################################
   0  662.1368
   1  667.1232
   2  488.0749
   3  408.4568
   4  220.0048
   5  153.153
   6  325.9704
   7  264.4222
   8  156.6963
   9  232.5941
  10  178.1766
  11  105.2961
  12  169.0801
  13  345.58
  14  306.4294
  15  191.6032
  16  239.1895
  17  288.4312
  18  341.2383
  19  233.6639
  20  213.2936
  21  195.3801
  22  167.1729
  23  169.6716
  24  179.2174
  25  146.0329
  26  235.7851
  27  219.6651
  28  302.7962
  29  211.92
  30  174.228
  31  235.3421
  32  197.4401
  33  120.1488
  34  98.3933
  35  208.6977
  36  277.5368
  37  179.9196
  38  241.8329
  39  211.23
  40  275.089
  41  337.4019
  42  228.606
  43  178.5139
  44  238.1255
  45  295.3842
  46  275.7584
  47  199.5094
  48  308.9279
  49  308.9099
  50  204.4236
  51  225.2248
  52  237.1817
  53  105.1078
  54  150.1581
  55  122.6096
  56  86.87045
  57  213.8501
  58  95.80834
  59  248.8977
  60  249.8432
  61  181.0207
  62  188.6167
  63  350.6995
  64  332.5284
  65  356.3164
  66  262.5085
  67  183.4493
  68  232.3068
  69  171.6904
  70  212.2497
  71  118.6226
  72  -31.83862
  73  144.8524
  74  201.3931
  75  172.697
  76  240.373
  77  193.8274
  78  249.7463
  79  170.3002
  80  231.4687
  81  307.8409
  82  311.7888
  83  184.515
  84  192.0457
  85  265.3085
  86  235.7
  87  199.5584
  88  82.41143
  89  154.3169
  90  146.9279
  91  162.428
  92  151.1309
  93  247.2726
  94  259.3466
  95  253.3154
  96  299.693
  97  243.248
  98  208.0966
  99  293.9184
 100  255.4659
 101  151.6655
 102  180.0139
 103  244.0251
 104  161.7382
 105  222.4796
 106  317.0486
 107  246.8611
 108  111.667
 109  101.0617
 110  198.5903
 111  191.8296
 112  242.3608
 113  319.5056
 114  158.2125
 115  186.1211
 116  171.6554
 117  154.7464
 118  229.9662
 119  265.8788
 120  149.5824
 121  114.4154
 122  121.013
 123  195.6857
 124  151.9647
 125  108.5119
 126  11.43788
 127  179.3999
 128  196.1492
 129  242.5715
 130  210.3914
 131  299.6562
 132  209.1677
 133  82.06158
 134  96.86876
 135  100.4292
 136  69.69119
 137  138.1391
 138  289.7087
 139  222.2413
 140  165.3327
 141  184.078
 142  205.5605
 143  208.1583
 144  319.2036
 145  171.4414
 146  128.9301
 147  147.1602
 148  170.4963
 149  70.22353
 150  82.7292
 151  195.7781
 152  138.0336
 153  152.355
 154  116.7316
 155  97.65104
 156  195.7495
 157  120.4945
 158  -63.90194
 159  71.23302
 160  55.67865
 161  52.10797
 162  80.0535
 163  152.5724
 164  130.7231
 165  85.97923
 166  85.17183
 167  99.41212
 168  53.63194
 169  104.4841
 170  54.02924
 171  45.73203
 172  17.45653
 173  14.82593
 174  -57.12966
 175  103.2078
 176  165.8311
 177  24.52698
 178  -50.33644
 179  56.60125
 180  114.9068
 181  114.3914
 182  27.43937
 183  -29.9878
 184  38.26341
 185  82.54403
 186  115.4032
 187  51.84092
 188  46.86382
 189  139.0063
 190  21.04615
 191  -45.58167
 192  24.98116
 193  59.046
 194  -0.5804698
 195  30.02666
 196  112.6161
 197  226.0923
 198  154.3049
 199  120.7809
 200  63.31507
 201  128.895
 202  124.8059
 203  62.75701
 204  39.22805
 205  23.69974
 206  118.6109
 207  229.6883
 208  304.9238
 209  195.7671
 210  93.67677
 211  138.1428
 212  192.3256
 213  249.1586
 214  261.5329
 215  187.8408
 216  47.01685
 217  -5.336163
 218  75.99606
 219  56.13934
 220  199.5714
 221  129.8513
 222  68.50112
 223  26.5358
 224  90.56049
 225  144.6759
 226  141.4182
 227  29.81361
 228  153.9535
 229  183.5497
 230  208.5503
 231  284.1519
 232  159.0516
 233  159.7636
 234  109.1432
 235  200.0561
 236  69.79052
 237  26.11089
 238  276.4823
 239  255.0003
 240  210.9522
 241  243.0249
 242  245.3543
 243  240.048
 244  148.9167
 245  169.0168
 246  347.568
 247  237.5038
 248  212.1189
 249  278.9413
 250  190.0548
 251  177.556
 252  49.92196
 253  189.4469
 254  422.9967
 255  298.3253
 256  219.3511
 257  239.8548
 258  292.8394
 259  226.1951
 260  272.6528
 261  312.8495
 262  306.4345
 263  202.5648
 264  117.9677
 265  123.4821
 266  161.3627
 267  204.2899
 268  260.3271
 269  210.7535
 270  223.9228
 271  155.7639
 272  177.0178
 273  148.5384
 274  106.6934
 275  343.5797
 276  381.2374
 277  345.9565
 278  299.2597
 279  227.3486
 280  220.0061
 281  203.798
 282  139.773
 283  178.3585
 284  125.2507
 285  118.713
 286  194.4321
 287  203.3211
 288  144.7165
 289  169.2048
 290  157.4355
 291  116.74
 292  242.0551
 293  283.7308
 294  259.4492
 295  263.9211
 296  239.4999
 297  255.7615
 298  74.82556
 299  83.01114
 300  196.4675
 301  344.2649
 302  300.7987
 303  196.295
 304  185.351
 305  178.0529
 306  198.3758
 307  223.6218
 308  263.2372
 309  201.2909
 310  249.263
 311  214.1108
 312  168.0017
 313  277.1628
 314  286.2927
 315  225.7163
 316  264.2991
 317  246.6435
 318  142.8704
 319  111.8515
 320  177.2491
 321  212.1859
 322  198.7334
 323  235.4477
 324  249.9068
 325  261.8776
 326  220.3629
 327  163.0481
 328  235.9154
 329  331.6896
 330  309.7265
 331  259.7358
 332  197.0492
 333  243.7466
 334  343.3155
 335  243.1636
 336  190.8851
 337  315.8894
 338  350.6564
 339  214.8316
 340  136.7095
 341  217.2455
 342  191.2382
 343  218.9748
 344  402.346
 345  464.8701
 346  332.875
 347  376.1479
 348  299.781
 349  218.6768
 350  173.6369
 351  266.1457
 352  304.2416
 353  308.3613
 354  321.3448
 355  240.9576
 356  253.3239
 357  163.8837
 358  270.5864
 359  270.1708
 360  325.7506
 361  355.1523
 362  310.0541
 363  358.6561
 364  333.6786
 365  237.9135
 366  279.5308
 367  297.1004
 368  307.4415
 369  220.7931
 370  254.4332
 371  251.3655
 372  182.1212
 373  244.8736
 374  208.3816
 375  256.0644
 376  359.3151
 377  297.1896
 378  197.5734
 379  177.1767
 380  330.6257
 381  300.4652
 382  343.1447
 383  203.2563
 384  159.3698
 385  91.57735
 386  138.1557
 387  158.491
 388  184.8763
 389  158.5524
 390  269.5742
 391  367.3406
 392  362.4236
 393  320.3047
 394  216.5906
 395  348.193
 396  332.2255
 397  245.3176
 398  325.3624
 399  338.3537
 400  203.1646
 401  187.7063
 402  191.476
 403  268.7512
 404  266.1428
 405  191.6727
 406  184.3921
 407  258.2917
 408  218.5095
 409  207.2183
 410  155.1371
 411  222.3419
 412  288.1208
 413  204.3586
 414  169.1656
 415  189.6124
 416  120.9908
 417  158.9465
 418  245.0032
 419  214.6424
 420  71.79227
 421  123.9879
 422  165.8034
 423  132.2867
 424  194.2289
 425  270.317
 426  339.9241
 427  376.1868
 428  265.9391
 429  229.779
 430  156.6305
 431  125.9901
 432  179.1371
 433  197.9387
 434  140.5678
 435  162.4461
 436  213.2945
 437  290.099
 438  221.2015
 439  231.0692
 440  235.9809
 441  168.2057
 442  185.0244
 443  203.392
 444  153.0841
 445  229.5267
 446  161.4889
 447  220.9874
 448  198.5611
 449  60.0337
 450  154.5354
 451  207.8987
 452  271.9024
 453  201.7085
 454  179.3766
 455  158.0696
 456  167.9845
 457  151.2315
 458  176.6789
 459  121.7797
 460  199.4267
 461  242.2268
 462  268.7068
 463  225.5337
 464  256.9846
 465  290.2027
 466  147.9901
 467  207.2863
 468  213.1483
 469  172.7333
 470  191.3155
 471  155.4026
 472  124.5082
 473  238.8464
 474  240.558
 475  238.5964
 476  80.81617
 477  55.69
 478  103.9412
 479  154.1073
 480  153.7648
 481  110.7625
 482  99.91714
 483  131.7959
 484  89.49097
 485  79.82924
 486  268.6186
 487  224.0917
 488  139.5902
 489  103.7868
 490  233.2398
 491  200.5543
 492  64.04261
 493  125.5597
 494  250.6746
 495  242.07
 496  190.6898
 497  152.9126
 498  204.8631
 499  46.51347
 500  61.21651
 501  102.1549
 502  227.1502
 503  268.6823
 504  282.7625
 505  334.381
 506  385.6776
 507  389.0689
 508  318.4953
 509  375.6086
 510  508.1332
 511  680.7755
