# Input file       =  1203075975.116474_cleaned.dat
# Candidate        =  PSR_0332+5434
# Telescope        =  AR
# Epoch_topo       =  58168.490244403634
# Epoch_bary       =  N/A
# T_sample         =  0.002
# Data Folded      =  7340032
# Data Avg         =  0.15482515380414 
# Data StdDev      =  1.00031619353537 
# Profile Bins     =  512
# Profile Avg      =  2219.42192928892 
# Profile StdDev   =  119.770895188839 
# Reduced chi-sqr  =  1.133
# Prob(Noise)      <  0.0194   (~2.1 sigma)
# P_topo (ms)      =  714.580507876496  +/- 0.00036
# P'_topo (s/s)    =  -0                +/- 1.9e-10
# P''_topo (s/s^2) =  0                 +/- 8.39e-14
# P_bary (ms)      =  N/A
# P'_bary (s/s)    =  N/A
# P''_bary (s/s^2) =  N/A
# P_orb (s)        =  N/A
# asin(i)/c (s)    =  N/A
# eccentricity     =  N/A
# w (rad)          =  N/A
# T_peri           =  N/A
######################################################
   0  2750.576
   1  2638.804
   2  2449.377
   3  2285.421
   4  2176.965
   5  2286.036
   6  2230.273
   7  2265.004
   8  2246.669
   9  2164.92
  10  2151.378
  11  2266.138
  12  2189.146
  13  2165.849
  14  2347.774
  15  2284.489
  16  2215.02
  17  2237.546
  18  2289.186
  19  2288.919
  20  2314.428
  21  2392.464
  22  2261.774
  23  2224.116
  24  2307.102
  25  2223.237
  26  2265.443
  27  2220.562
  28  2256.459
  29  2286.78
  30  2354.956
  31  2280.133
  32  2217.656
  33  2264.863
  34  2225.346
  35  2247.977
  36  2287.509
  37  2287.856
  38  2306.543
  39  2320.011
  40  2391.135
  41  2299.874
  42  2231.968
  43  2217.984
  44  2284.582
  45  2297.092
  46  2269.286
  47  2357.941
  48  2343.861
  49  2358.206
  50  2411.075
  51  2416.867
  52  2413.479
  53  2312.177
  54  2344.823
  55  2298.064
  56  2327.479
  57  2272.168
  58  2276.493
  59  2352.471
  60  2321.473
  61  2366.023
  62  2419.798
  63  2376.382
  64  2394.561
  65  2426.034
  66  2300.185
  67  2295.336
  68  2412.543
  69  2404.881
  70  2332.524
  71  2189.484
  72  2256.953
  73  2347.053
  74  2316.993
  75  2236.118
  76  2145.076
  77  2285.789
  78  2345.911
  79  2343.057
  80  2320.784
  81  2292.054
  82  2248.58
  83  2269.243
  84  2191.124
  85  2212.61
  86  2349.053
  87  2270.954
  88  2265.094
  89  2251.828
  90  2301.108
  91  2329.286
  92  2254.01
  93  2301.709
  94  2336.738
  95  2201.463
  96  2302.761
  97  2222.542
  98  2191.982
  99  2246.078
 100  2215.407
 101  2218.316
 102  2195.741
 103  2184.55
 104  2204.002
 105  2244.781
 106  2287.661
 107  2268.663
 108  2246.564
 109  2270.04
 110  2250.621
 111  2159.817
 112  2200.513
 113  2248.461
 114  2273.914
 115  2240.678
 116  2275.789
 117  2235.041
 118  2248.086
 119  2228.31
 120  2316.59
 121  2207.517
 122  2257.067
 123  2234.271
 124  2176.333
 125  2228.477
 126  2159.5
 127  2243.601
 128  2213.257
 129  2207
 130  2186.193
 131  2243.866
 132  2206.371
 133  2200.529
 134  2249.759
 135  2311.913
 136  2270.958
 137  2233.79
 138  2139.562
 139  2159.821
 140  2237.096
 141  2179.783
 142  2191.047
 143  2080
 144  2084.168
 145  2104.081
 146  2116.715
 147  2240.602
 148  2190.646
 149  2091.437
 150  2096.172
 151  2182.786
 152  2250.723
 153  2188.9
 154  2148.361
 155  2153.304
 156  2213.329
 157  2209.693
 158  2125.437
 159  2194.472
 160  2218.458
 161  2154.242
 162  2297.597
 163  2317.852
 164  2135.937
 165  2118.803
 166  2163.174
 167  2254.417
 168  2232.27
 169  2293.723
 170  2365.877
 171  2279.942
 172  2245.519
 173  2179.466
 174  2226.55
 175  2214.536
 176  2251.412
 177  2331.799
 178  2306.607
 179  2283.509
 180  2259.745
 181  2193.582
 182  2135.192
 183  2157.544
 184  2213.365
 185  2195.51
 186  2146.355
 187  2122.638
 188  2087.511
 189  2089.993
 190  2154.75
 191  2120.764
 192  2067.545
 193  2141.126
 194  2218.178
 195  2273.306
 196  2291.859
 197  2285.084
 198  2201.812
 199  2121.881
 200  2095.866
 201  2085.497
 202  2150.752
 203  2152.814
 204  2227.635
 205  2214.405
 206  2228.345
 207  2229.903
 208  2250.534
 209  2283.215
 210  2256.755
 211  2152.327
 212  2153.4
 213  2218.093
 214  2170.713
 215  2129.326
 216  2163.625
 217  2207.655
 218  2163.342
 219  2082.563
 220  2128.798
 221  2141.33
 222  2151.613
 223  2219.004
 224  2251.23
 225  2201.113
 226  2185.113
 227  2188.977
 228  2163.56
 229  2202.026
 230  2147.975
 231  2177.108
 232  2175.288
 233  2147.05
 234  2151.613
 235  2137.849
 236  2288.167
 237  2306.146
 238  2264.633
 239  2243.193
 240  2125.273
 241  2102.47
 242  2052.313
 243  2090.236
 244  2143.085
 245  2126.564
 246  2077.594
 247  2117.675
 248  2182.06
 249  2147.146
 250  2096.244
 251  2059.986
 252  2094.552
 253  2143.804
 254  2166.284
 255  2144.884
 256  2184.775
 257  2197.467
 258  2277.673
 259  2302.471
 260  2277.395
 261  2352.004
 262  2288.438
 263  2344.73
 264  2308.591
 265  2302.274
 266  2222.763
 267  2217.581
 268  2165.468
 269  2121.888
 270  2180.878
 271  2196.207
 272  2229.382
 273  2209.69
 274  2254.77
 275  2185.939
 276  2259.929
 277  2299.628
 278  2234.955
 279  2159.986
 280  2245.864
 281  2250.728
 282  2245.739
 283  2252.073
 284  2234.159
 285  2180.769
 286  2089.6
 287  2145.799
 288  2248.217
 289  2145.995
 290  2165.194
 291  2193.778
 292  2193.992
 293  2175.491
 294  2210.969
 295  2240.656
 296  2210.637
 297  2213.853
 298  2159.976
 299  2154.09
 300  2268.352
 301  2213.259
 302  2067.948
 303  2105.428
 304  2131.969
 305  2274.76
 306  2317.386
 307  2182.711
 308  2211.443
 309  2215.789
 310  2171.106
 311  2111.404
 312  2213.85
 313  2221.14
 314  2169.988
 315  2144.835
 316  2138.741
 317  2174.757
 318  2282.02
 319  2204.66
 320  2195.212
 321  2259.713
 322  2200.858
 323  2232.53
 324  2300.865
 325  2245.657
 326  2263.186
 327  2312.206
 328  2303.407
 329  2273.368
 330  2275.105
 331  2228.005
 332  2223.474
 333  2248.701
 334  2149.681
 335  2222.287
 336  2297.67
 337  2318.967
 338  2183.792
 339  2132.275
 340  2169.089
 341  2205.553
 342  2287.987
 343  2259.329
 344  2282.448
 345  2280.382
 346  2299.49
 347  2148.404
 348  2121.698
 349  2182.876
 350  2157.33
 351  2094.105
 352  2191.523
 353  2090.705
 354  2139.356
 355  2219.62
 356  2293.411
 357  2341.313
 358  2259.386
 359  2151.781
 360  2133.513
 361  2240.324
 362  2244.028
 363  2223.892
 364  2182.144
 365  2154.433
 366  2190.23
 367  2095.898
 368  2206.415
 369  2243.739
 370  2118.78
 371  2095.594
 372  2124.388
 373  2149.816
 374  2054.673
 375  2089.908
 376  2117.899
 377  2096.825
 378  2108.94
 379  2055.206
 380  2010.317
 381  2012.666
 382  2030.269
 383  2109.779
 384  2056.81
 385  1980.442
 386  2012.898
 387  2082.572
 388  2127.994
 389  2038.692
 390  1999.13
 391  2108.288
 392  2067.55
 393  2117.088
 394  2139.628
 395  2183.879
 396  2187.715
 397  2195.794
 398  2130.154
 399  2060.652
 400  2024
 401  2085.238
 402  2115.573
 403  2125.413
 404  2078.443
 405  2049.532
 406  2165.906
 407  2142.359
 408  2068.774
 409  2053.492
 410  2134.977
 411  2189.188
 412  2146.401
 413  2042.32
 414  2182.972
 415  2283.112
 416  2239.291
 417  2113.576
 418  2024.485
 419  2053.664
 420  2087.42
 421  2192.972
 422  2197.927
 423  2175.019
 424  2144.67
 425  2232.451
 426  2301.639
 427  2296.207
 428  2250.927
 429  2176.183
 430  2096.339
 431  2166.029
 432  2196.036
 433  2234.144
 434  2241.457
 435  2234.476
 436  2261.709
 437  2245.675
 438  2201.226
 439  2104.412
 440  2132.211
 441  2205.483
 442  2382.736
 443  2246.698
 444  2202.546
 445  2180.083
 446  2219.166
 447  2274.56
 448  2353.865
 449  2334.02
 450  2303.738
 451  2271.406
 452  2282.415
 453  2204.909
 454  2293.601
 455  2340.762
 456  2272.484
 457  2156.558
 458  2166.633
 459  2243.173
 460  2282.232
 461  2192.407
 462  2228.72
 463  2268.622
 464  2261.759
 465  2315.007
 466  2311.524
 467  2277.635
 468  2277.651
 469  2270.881
 470  2232.374
 471  2225.478
 472  2364.898
 473  2355.514
 474  2262.182
 475  2223.623
 476  2236.675
 477  2195.243
 478  2121.677
 479  2246.228
 480  2174.505
 481  2197.645
 482  2189.271
 483  2116.791
 484  2117.974
 485  2198.912
 486  2221.998
 487  2314.63
 488  2233.788
 489  2260.963
 490  2195.77
 491  2207.03
 492  2208.763
 493  2264.719
 494  2262.045
 495  2248.062
 496  2280.613
 497  2272.178
 498  2162.792
 499  2163.761
 500  2128
 501  2242.052
 502  2224.023
 503  2197.899
 504  2270.075
 505  2346.298
 506  2337.175
 507  2367.273
 508  2433.56
 509  2491.813
 510  2621.934
 511  2685.839
