# Input file       =  1203256882.095392_cleaned.dat
# Candidate        =  PSR_0332+5434
# Telescope        =  AR
# Epoch_topo       =  58170.584075178151
# Epoch_bary       =  N/A
# T_sample         =  0.002
# Data Folded      =  7340032
# Data Avg         =  0.148420547758117
# Data StdDev      =  1.00039139433797 
# Profile Bins     =  512
# Profile Avg      =  2127.91717648125 
# Profile StdDev   =  119.779899209272 
# Reduced chi-sqr  =  1.031
# Prob(Noise)      <  0.307   (~0.5 sigma)
# P_topo (ms)      =  714.580696463265  +/- 0.000738
# P'_topo (s/s)    =  -0                +/- 3.9e-10
# P''_topo (s/s^2) =  0                 +/- 1.72e-13
# P_bary (ms)      =  N/A
# P'_bary (s/s)    =  N/A
# P''_bary (s/s^2) =  N/A
# P_orb (s)        =  N/A
# asin(i)/c (s)    =  N/A
# eccentricity     =  N/A
# w (rad)          =  N/A
# T_peri           =  N/A
######################################################
   0  2158.702
   1  2187.901
   2  2178.859
   3  2082.946
   4  2012.565
   5  2025.745
   6  2019.167
   7  2074.142
   8  2060.746
   9  2001.913
  10  2152.608
  11  2128.797
  12  2140.551
  13  2052.99
  14  2128.062
  15  2214.592
  16  2172.628
  17  2176.469
  18  2211.983
  19  2124.936
  20  2135.683
  21  2181.322
  22  2175.034
  23  2104.899
  24  2173.808
  25  2243.744
  26  2193.501
  27  2154.42
  28  2168.693
  29  2142.398
  30  2210.935
  31  2187.795
  32  2136.972
  33  2156.721
  34  2163.722
  35  2132.939
  36  2088.636
  37  2106.547
  38  2134.85
  39  2149.799
  40  2185.338
  41  2110.275
  42  2104.257
  43  2094.05
  44  2104.401
  45  2143.855
  46  2093.583
  47  2064.41
  48  2031.403
  49  2042.731
  50  2090.952
  51  2131.902
  52  2158.447
  53  2057.941
  54  2047.925
  55  2116.78
  56  2143.422
  57  2118.423
  58  2109.698
  59  2076.562
  60  2068.306
  61  2043.53
  62  2096.469
  63  2078.014
  64  2083.883
  65  2029.921
  66  2123.357
  67  2215.445
  68  2066.697
  69  2024.192
  70  2085.049
  71  2110.342
  72  2130.756
  73  2147.826
  74  2155.136
  75  2160.138
  76  2095.539
  77  2137.136
  78  2203.643
  79  2226.634
  80  2188.861
  81  2158.438
  82  2185.624
  83  2227.495
  84  2195.903
  85  2182.885
  86  2192.817
  87  2220.423
  88  2171.899
  89  2238.116
  90  2202.202
  91  2179.077
  92  2196.526
  93  2235.579
  94  2232.135
  95  2149.358
  96  2176.199
  97  2202.164
  98  2188.723
  99  2182.237
 100  2149.736
 101  2113.253
 102  2153.146
 103  2200.977
 104  2217.728
 105  2213.42
 106  2136.682
 107  2185.646
 108  2119.429
 109  2097.794
 110  2144.596
 111  2187.569
 112  2216.05
 113  2240.374
 114  2178.029
 115  2198.723
 116  2320.788
 117  2255.35
 118  2179.034
 119  2132.191
 120  2214.134
 121  2155.41
 122  2145.304
 123  2175.82
 124  2079.398
 125  2088.502
 126  2143.019
 127  2149.164
 128  2115.907
 129  2044.505
 130  2038.9
 131  2119.905
 132  2118.858
 133  2028.792
 134  2092.223
 135  2104.17
 136  2058.816
 137  2013.043
 138  2057.835
 139  2019.856
 140  2079.707
 141  2063.299
 142  2030.04
 143  2058.354
 144  2106.615
 145  2135.615
 146  2136.127
 147  2174.731
 148  2103.287
 149  2070.95
 150  2054.666
 151  2055.002
 152  2079.37
 153  2127.827
 154  2176.764
 155  2115.844
 156  1984.879
 157  2040.214
 158  2031.412
 159  1929.771
 160  1976.875
 161  2022.022
 162  2027.829
 163  2028.575
 164  2005.597
 165  1980.282
 166  1926.392
 167  1963.077
 168  2025.08
 169  1933.197
 170  1942.054
 171  1997.853
 172  1962.61
 173  1955.216
 174  1939.762
 175  1999.33
 176  1990.471
 177  1977.052
 178  1940.273
 179  1995.874
 180  2015.641
 181  1966.946
 182  2026.936
 183  2109.863
 184  2073.928
 185  2079.414
 186  2049.573
 187  1999.914
 188  2022.228
 189  2050.019
 190  2048.695
 191  2056.898
 192  2039.996
 193  2031.311
 194  2118.679
 195  2029.807
 196  2047.84
 197  2064.014
 198  2092.176
 199  2063.351
 200  2073.744
 201  2015.373
 202  2029.697
 203  1978.342
 204  2053.585
 205  2044.871
 206  2053.893
 207  2047.956
 208  2033.861
 209  2032.896
 210  2023.48
 211  2099.717
 212  2115.167
 213  2039.285
 214  1990.955
 215  2020.182
 216  2086.905
 217  2139.36
 218  2144.772
 219  2085.764
 220  2083.99
 221  2137.102
 222  2170.679
 223  2226.385
 224  2204.745
 225  2187.149
 226  2213.735
 227  2162.884
 228  2170.616
 229  2258.911
 230  2224.313
 231  2190.15
 232  2193.796
 233  2219.751
 234  2207.574
 235  2152.706
 236  2261.705
 237  2174.2
 238  2090.917
 239  2127.468
 240  2109.673
 241  2127.939
 242  2119.038
 243  2160.099
 244  2233.968
 245  2158.693
 246  2153.34
 247  2117.298
 248  2138.871
 249  2145.322
 250  2172.046
 251  2212.591
 252  2258.397
 253  2223.722
 254  2264.279
 255  2243.918
 256  2188.742
 257  2198.444
 258  2142.413
 259  2097.14
 260  2114.552
 261  2116.359
 262  2167.932
 263  2206.505
 264  2184.194
 265  2138.679
 266  2124.459
 267  2173.025
 268  2107.957
 269  2040.678
 270  2051.541
 271  2111.657
 272  2108.036
 273  2113.672
 274  2159.852
 275  2083.322
 276  2040.835
 277  2058.905
 278  2195.724
 279  2163.082
 280  2102.252
 281  2046.565
 282  2025.58
 283  2011.432
 284  1974.331
 285  2053.374
 286  2091.602
 287  2133.408
 288  2153.909
 289  2070.442
 290  2057.82
 291  2021.927
 292  1998.811
 293  2087.885
 294  2108.81
 295  2026.41
 296  2009.188
 297  2067.008
 298  2050.333
 299  1991.568
 300  2005.003
 301  2087.81
 302  2157.604
 303  2142.228
 304  2152.144
 305  2131.391
 306  2189.4
 307  2108.479
 308  2049.55
 309  2076.163
 310  2109.844
 311  2084.487
 312  2013.629
 313  1998.255
 314  1991.023
 315  1995.03
 316  2037.782
 317  2069.068
 318  1988.686
 319  1997.484
 320  1949.253
 321  1865.72
 322  1865.429
 323  1953.702
 324  1914.341
 325  1957.012
 326  2033.734
 327  2078.192
 328  2085.873
 329  2065.515
 330  2046.395
 331  2068.044
 332  2054.188
 333  2035.69
 334  2062.875
 335  2118.604
 336  2079.202
 337  2049.424
 338  2081.728
 339  2135.213
 340  2136.932
 341  2060.304
 342  2090.912
 343  2105.222
 344  2060.86
 345  2002.642
 346  2009.965
 347  2011.624
 348  1995.636
 349  2085.97
 350  2115.548
 351  2172.802
 352  2130.634
 353  2166.6
 354  2188.952
 355  2159.9
 356  2134.173
 357  2186.063
 358  2137.703
 359  2064.05
 360  2012.224
 361  2134.04
 362  2198.571
 363  2141.009
 364  2097.981
 365  2020.682
 366  2066.26
 367  2097.093
 368  2143.278
 369  2174.161
 370  2223.03
 371  2149.732
 372  2151.127
 373  2149.132
 374  2125.617
 375  2217.432
 376  2205.395
 377  2163.682
 378  2159.635
 379  2190.792
 380  2211.581
 381  2220.847
 382  2210.959
 383  2194.662
 384  2251.531
 385  2313.027
 386  2299.263
 387  2197.949
 388  2145.634
 389  2210.412
 390  2221.005
 391  2212.14
 392  2255.154
 393  2223.418
 394  2212.683
 395  2199.526
 396  2240.771
 397  2200.208
 398  2227.951
 399  2251.803
 400  2290.849
 401  2240.768
 402  2255.433
 403  2261.131
 404  2286.903
 405  2238.59
 406  2271.378
 407  2300.451
 408  2326.406
 409  2237.907
 410  2208.282
 411  2185.531
 412  2159.654
 413  2194.992
 414  2196.828
 415  2273.421
 416  2327.019
 417  2267.516
 418  2222.704
 419  2255.781
 420  2316.58
 421  2343.206
 422  2211.856
 423  2242.071
 424  2182.42
 425  2192.086
 426  2305.447
 427  2290.833
 428  2247.585
 429  2183.602
 430  2252.911
 431  2268.274
 432  2179.696
 433  2245.384
 434  2240.983
 435  2204.435
 436  2196.555
 437  2236.407
 438  2212.069
 439  2216.726
 440  2250.014
 441  2276.25
 442  2247.012
 443  2271.112
 444  2274.661
 445  2206.765
 446  2172.219
 447  2194.101
 448  2214.919
 449  2287.559
 450  2329.304
 451  2274.405
 452  2269.521
 453  2223.078
 454  2317.022
 455  2246.609
 456  2228.118
 457  2205.481
 458  2210.831
 459  2350.041
 460  2332.769
 461  2287.924
 462  2302.659
 463  2283.848
 464  2268.085
 465  2237.125
 466  2228.708
 467  2248.881
 468  2175.828
 469  2195.05
 470  2179.573
 471  2088.264
 472  2141.391
 473  2207.102
 474  2096.449
 475  2149.741
 476  2130.326
 477  2119.276
 478  2037.271
 479  2108.805
 480  2180.97
 481  2147.705
 482  2120.901
 483  2042.903
 484  2036.452
 485  2045.226
 486  2077.83
 487  2099.271
 488  2039.591
 489  2097.963
 490  2058.352
 491  1982.982
 492  2012.196
 493  2118.938
 494  2128.372
 495  2097.589
 496  2053.501
 497  2094.235
 498  2073.025
 499  2077.335
 500  2111.117
 501  2030.214
 502  2018.318
 503  2025.759
 504  2101.523
 505  2065.105
 506  1994.418
 507  2024.509
 508  2073.632
 509  2150.986
 510  2144.501
 511  2129.24
