# Input file       =  1203256882.095392_cleaned.dat
# Candidate        =  PSR_0332+5434
# Telescope        =  AR
# Epoch_topo       =  58170.584075178151
# Epoch_bary       =  N/A
# T_sample         =  0.002
# Data Folded      =  7340032
# Data Avg         =  0.148420547758117
# Data StdDev      =  1.00039139433797 
# Profile Bins     =  512
# Profile Avg      =  2127.91717630001 
# Profile StdDev   =  119.779899209272 
# Reduced chi-sqr  =  1.028
# Prob(Noise)      <  0.324   (~0.5 sigma)
# P_topo (ms)      =  714.580696421002  +/- 0.000739
# P'_topo (s/s)    =  -0                +/- 3.9e-10
# P''_topo (s/s^2) =  0                 +/- 1.72e-13
# P_bary (ms)      =  N/A
# P'_bary (s/s)    =  N/A
# P''_bary (s/s^2) =  N/A
# P_orb (s)        =  N/A
# asin(i)/c (s)    =  N/A
# eccentricity     =  N/A
# w (rad)          =  N/A
# T_peri           =  N/A
######################################################
   0  2178.774
   1  2183.119
   2  2147.979
   3  2013.574
   4  2035.087
   5  2019.482
   6  2030.709
   7  2090.152
   8  2000.551
   9  2091.308
  10  2158.113
  11  2138.108
  12  2092.477
  13  2064.29
  14  2198.347
  15  2198.743
  16  2161.311
  17  2211.487
  18  2155.536
  19  2121.412
  20  2155.991
  21  2196.554
  22  2127.176
  23  2141.127
  24  2213.515
  25  2231.645
  26  2153.867
  27  2172.566
  28  2145.63
  29  2180.925
  30  2203.306
  31  2155.284
  32  2142.197
  33  2169.153
  34  2156.243
  35  2110.253
  36  2079.481
  37  2130.201
  38  2130.798
  39  2188.67
  40  2141.809
  41  2111.609
  42  2086.235
  43  2101.437
  44  2122.218
  45  2128.297
  46  2069.736
  47  2045.633
  48  2037.036
  49  2065.106
  50  2119.146
  51  2158.696
  52  2106.887
  53  2024.473
  54  2099.394
  55  2128.665
  56  2137.978
  57  2102.006
  58  2105.448
  59  2065.208
  60  2051.448
  61  2078.569
  62  2074.016
  63  2091.571
  64  2049.046
  65  2070.356
  66  2200.218
  67  2137.669
  68  2017.552
  69  2052.527
  70  2111.391
  71  2118.338
  72  2157.044
  73  2129.974
  74  2179.942
  75  2108.072
  76  2124.566
  77  2166.797
  78  2234.668
  79  2194.925
  80  2176.368
  81  2157.074
  82  2216.933
  83  2216.341
  84  2187.569
  85  2183.961
  86  2217.362
  87  2193.73
  88  2204.982
  89  2225.211
  90  2188.396
  91  2175.55
  92  2225.285
  93  2237.28
  94  2184.419
  95  2146.036
  96  2206.028
  97  2194.087
  98  2185.74
  99  2157.631
 100  2132.191
 101  2123.481
 102  2192.188
 103  2212.771
 104  2221.661
 105  2164.734
 106  2156.64
 107  2158.967
 108  2096.078
 109  2119.815
 110  2174.005
 111  2192.124
 112  2255.211
 113  2194.087
 114  2182.442
 115  2270.865
 116  2304.809
 117  2202.753
 118  2135.398
 119  2184.788
 120  2200.514
 121  2134.754
 122  2169.515
 123  2120.271
 124  2064.12
 125  2127.184
 126  2157.556
 127  2134.21
 128  2068.701
 129  2022.642
 130  2092.568
 131  2133.187
 132  2060.714
 133  2056.469
 134  2118.942
 135  2084.546
 136  2014.56
 137  2035.521
 138  2043.432
 139  2046.969
 140  2091.503
 141  2026.94
 142  2052.382
 143  2073.489
 144  2137.172
 145  2124.879
 146  2174.022
 147  2122.741
 148  2085.323
 149  2052.111
 150  2067.637
 151  2064.401
 152  2100.738
 153  2162.225
 154  2156.387
 155  2032.045
 156  2004.373
 157  2056.162
 158  1965.352
 159  1939.241
 160  2015.341
 161  2029.142
 162  2032.619
 163  2000.576
 164  2005.812
 165  1943.234
 166  1935.23
 167  2014.5
 168  1978.571
 169  1927.488
 170  1980.075
 171  1983.794
 172  1944.574
 173  1943.087
 174  1966.245
 175  1999.993
 176  1996.239
 177  1940.54
 178  1977.924
 179  2003.071
 180  2008.637
 181  1967.917
 182  2102.166
 183  2080.314
 184  2076.458
 185  2066.954
 186  2009.046
 187  2010.625
 188  2039.646
 189  2058.934
 190  2055.523
 191  2048.491
 192  2021.398
 193  2079.197
 194  2091.75
 195  2018.749
 196  2070.444
 197  2077.1
 198  2064.742
 199  2083.496
 200  2031.5
 201  2030.816
 202  1992.376
 203  2017.244
 204  2050.625
 205  2050.835
 206  2051.868
 207  2042.08
 208  2039.824
 209  2012.459
 210  2063.874
 211  2114.805
 212  2092.655
 213  1999.865
 214  2009.174
 215  2051.308
 216  2103.849
 217  2161.546
 218  2103.282
 219  2085.075
 220  2121.378
 221  2149.215
 222  2205.309
 223  2214.715
 224  2193.623
 225  2207.713
 226  2193.693
 227  2138.656
 228  2223.05
 229  2259.129
 230  2193.619
 231  2184.433
 232  2219.166
 233  2217.602
 234  2174.235
 235  2196.064
 236  2262.585
 237  2078.017
 238  2141.787
 239  2099.098
 240  2124.622
 241  2119.583
 242  2125.226
 243  2233.911
 244  2188.978
 245  2156.02
 246  2121.542
 247  2124.862
 248  2145.016
 249  2150.424
 250  2205.801
 251  2242.082
 252  2245.836
 253  2231.886
 254  2274.615
 255  2201.595
 256  2190.062
 257  2180.107
 258  2098.953
 259  2113.866
 260  2110.181
 261  2146.15
 262  2199.33
 263  2197.487
 264  2164.678
 265  2109.405
 266  2152.239
 267  2146.595
 268  2069.048
 269  2034.183
 270  2099.315
 271  2106.047
 272  2100.648
 273  2151.092
 274  2126.678
 275  2043.847
 276  2046.215
 277  2129.224
 278  2210.305
 279  2110.596
 280  2064.377
 281  2045.302
 282  2011.665
 283  1999.931
 284  1996.419
 285  2096.577
 286  2100.703
 287  2164.229
 288  2105.044
 289  2049.802
 290  2042.007
 291  1996.242
 292  2041.256
 293  2133.125
 294  2053.505
 295  2017.481
 296  2034.229
 297  2077.278
 298  2007.69
 299  1984.312
 300  2050.972
 301  2127.684
 302  2156.404
 303  2140.614
 304  2141.731
 305  2162.899
 306  2173.026
 307  2054.283
 308  2063.43
 309  2093.209
 310  2107.429
 311  2042.821
 312  1995.517
 313  1999.156
 314  1980.434
 315  2018.292
 316  2065.951
 317  2024.411
 318  1993.872
 319  1982.258
 320  1907.836
 321  1827.944
 322  1931.513
 323  1940.541
 324  1919.26
 325  2004.785
 326  2056.814
 327  2099.877
 328  2065.595
 329  2065.392
 330  2044.93
 331  2082.618
 332  2028.886
 333  2040.758
 334  2096.257
 335  2108.458
 336  2055.934
 337  2062.478
 338  2118.042
 339  2137.298
 340  2103.363
 341  2049.351
 342  2133.874
 343  2065.498
 344  2033.365
 345  1994.736
 346  2010.364
 347  1992.473
 348  2042.323
 349  2118.04
 350  2152.183
 351  2161.222
 352  2126.473
 353  2181.785
 354  2187.559
 355  2127.11
 356  2177.038
 357  2159.731
 358  2105.504
 359  2010.177
 360  2074.531
 361  2193.341
 362  2164.239
 363  2121.468
 364  2051.554
 365  2039.51
 366  2081.441
 367  2122.221
 368  2146.516
 369  2227.231
 370  2177.316
 371  2140.515
 372  2159.111
 373  2125.335
 374  2176.862
 375  2225.074
 376  2180.471
 377  2151.652
 378  2178.509
 379  2214.174
 380  2209.934
 381  2218.275
 382  2201.211
 383  2205.024
 384  2299.977
 385  2310.522
 386  2256.623
 387  2145.693
 388  2184.353
 389  2228.449
 390  2203.054
 391  2242.75
 392  2238.707
 393  2224.322
 394  2202.578
 395  2208.596
 396  2232.413
 397  2202.104
 398  2245.057
 399  2280.823
 400  2265.569
 401  2243.733
 402  2258.292
 403  2274.33
 404  2269.517
 405  2244.932
 406  2290.675
 407  2318.892
 408  2274.859
 409  2217.881
 410  2204.327
 411  2158.312
 412  2186.471
 413  2186.853
 414  2239.853
 415  2307.812
 416  2306.877
 417  2225.188
 418  2247.606
 419  2270.232
 420  2367.755
 421  2247.917
 422  2240.161
 423  2209.071
 424  2180.315
 425  2252.082
 426  2304.345
 427  2267.568
 428  2205.486
 429  2210.87
 430  2291.941
 431  2195.772
 432  2215.733
 433  2256.564
 434  2217.578
 435  2197.381
 436  2223.374
 437  2225.813
 438  2205.383
 439  2229.395
 440  2267.787
 441  2265.69
 442  2251.893
 443  2285.926
 444  2234.975
 445  2179.527
 446  2179.312
 447  2209.014
 448  2251.085
 449  2321.116
 450  2302.568
 451  2268.161
 452  2234.109
 453  2278.622
 454  2288.658
 455  2228.828
 456  2219.195
 457  2193.201
 458  2282.034
 459  2375.926
 460  2284.779
 461  2317.943
 462  2281.42
 463  2282.833
 464  2250.636
 465  2215.438
 466  2259.75
 467  2197.463
 468  2177.159
 469  2198.651
 470  2129.869
 471  2087.776
 472  2217.613
 473  2128.875
 474  2130.463
 475  2123.632
 476  2133.13
 477  2071.409
 478  2066.84
 479  2173.455
 480  2150.856
 481  2138.507
 482  2071.839
 483  2035.236
 484  2045.032
 485  2064.034
 486  2096.512
 487  2060.918
 488  2059.843
 489  2106.741
 490  1999.111
 491  1985.163
 492  2080.434
 493  2124.119
 494  2121.286
 495  2059.103
 496  2077.917
 497  2097.411
 498  2058.59
 499  2113.168
 500  2064.649
 501  2013.256
 502  2014.296
 503  2071.028
 504  2096.366
 505  2019.668
 506  2000.566
 507  2050.213
 508  2117.034
 509  2164.375
 510  2125.574
 511  2145.404
