# Input file       =  1203105821.111271_cleaned.dat
# Candidate        =  PSR_0332+5434
# Telescope        =  AR
# Epoch_topo       =  58168.835684158228
# Epoch_bary       =  N/A
# T_sample         =  0.002
# Data Folded      =  7340032
# Data Avg         =  0.0190801082818948
# Data StdDev      =  0.999977811935143
# Profile Bins     =  512
# Profile Avg      =  273.209561521391 
# Profile StdDev   =  119.730379732389 
# Reduced chi-sqr  =  1.127
# Prob(Noise)      <  0.024   (~2.0 sigma)
# P_topo (ms)      =  714.581089574311  +/- 0.000242
# P'_topo (s/s)    =  -0                +/- 1.27e-10
# P''_topo (s/s^2) =  0                 +/- 5.63e-14
# P_bary (ms)      =  N/A
# P'_bary (s/s)    =  N/A
# P''_bary (s/s^2) =  N/A
# P_orb (s)        =  N/A
# asin(i)/c (s)    =  N/A
# eccentricity     =  N/A
# w (rad)          =  N/A
# T_peri           =  N/A
######################################################
   0  783.5039
   1  669.2829
   2  623.1812
   3  369.654
   4  305.6532
   5  154.9858
   6  258.201
   7  381.812
   8  293.8631
   9  267.8922
  10  283.438
  11  273.2807
  12  196.0012
  13  103.8309
  14  244.4187
  15  329.9551
  16  246.5184
  17  298.7583
  18  305.2847
  19  343.3727
  20  440.1559
  21  314.8297
  22  266.0532
  23  309.8207
  24  363.9121
  25  243.6142
  26  236.2947
  27  366.2791
  28  407.0559
  29  383.5447
  30  367.6047
  31  295.8423
  32  187.731
  33  191.7219
  34  187.4627
  35  232.571
  36  154.3541
  37  185.7931
  38  197.6691
  39  162.3836
  40  97.67778
  41  261.3342
  42  267.4041
  43  251.0475
  44  348.8421
  45  423.7993
  46  192.5619
  47  99.5871
  48  77.34123
  49  152.0937
  50  150.8382
  51  158.4437
  52  279.1857
  53  329.398
  54  270.6798
  55  328.7773
  56  201.7634
  57  230.2155
  58  79.3541
  59  95.04157
  60  146.0284
  61  185.136
  62  265.7227
  63  220.1242
  64  152.9908
  65  240.1972
  66  210.9017
  67  176.2366
  68  176.3527
  69  129.5377
  70  143.0981
  71  150.3568
  72  215.3682
  73  255.86
  74  314.6283
  75  276.9954
  76  173.7909
  77  265.0297
  78  280.9776
  79  239.0907
  80  316.3742
  81  241.689
  82  233.6245
  83  145.9001
  84  101.6642
  85  257.2766
  86  441.585
  87  348.2422
  88  259.9667
  89  241.0396
  90  272.5247
  91  81.88656
  92  238.5183
  93  209.7306
  94  156.2691
  95  228.5619
  96  320.2226
  97  258.6829
  98  222.6977
  99  256.5819
 100  370.5335
 101  310.7299
 102  234.9847
 103  224.3362
 104  172.5461
 105  235.4248
 106  292.0526
 107  277.753
 108  223.4723
 109  155.7705
 110  201.0128
 111  246.154
 112  242.3828
 113  146.337
 114  226.2509
 115  225.0985
 116  383.5089
 117  326.3706
 118  277.6673
 119  209.5947
 120  342.1662
 121  390.6907
 122  267.1813
 123  199.5315
 124  134.3616
 125  262.5741
 126  224.3812
 127  294.1835
 128  291.6139
 129  400.9883
 130  368.2896
 131  292.8955
 132  240.4432
 133  330.8453
 134  346.3996
 135  345.8833
 136  378.7442
 137  281.048
 138  238.811
 139  211.0608
 140  178.2561
 141  210.6184
 142  224.5185
 143  234.3255
 144  261.1319
 145  130.4176
 146  241.3167
 147  185.6398
 148  197.2139
 149  178.0867
 150  273.1609
 151  246.9466
 152  287.0505
 153  270.414
 154  191.4028
 155  310.9467
 156  240.395
 157  235.6572
 158  410.1059
 159  435.9011
 160  245.8659
 161  242.9859
 162  333.8753
 163  346.2771
 164  341.4641
 165  283.2743
 166  152.7231
 167  112.1028
 168  201.3568
 169  264.4513
 170  268.0598
 171  279.9523
 172  382.6989
 173  378.1095
 174  342.1576
 175  303.9685
 176  306.5586
 177  297.1943
 178  225.823
 179  189.9354
 180  198.0953
 181  278.6806
 182  247.2872
 183  275.7326
 184  216.4203
 185  339.6029
 186  248.4608
 187  229.1507
 188  193.9418
 189  286.82
 190  110.2553
 191  160.8749
 192  356.7277
 193  410.5355
 194  314.9631
 195  268.4884
 196  408.3433
 197  326.7042
 198  319.074
 199  319.7006
 200  345.7919
 201  266.4877
 202  294.4743
 203  351.25
 204  325.0934
 205  187.953
 206  237.5121
 207  272.6495
 208  247.8005
 209  199.9835
 210  186.2005
 211  256.4673
 212  270.531
 213  184.9776
 214  99.69302
 215  184.5633
 216  296.2527
 217  310.7447
 218  246.2661
 219  174.3175
 220  214.1466
 221  332.3247
 222  355.3066
 223  273.4629
 224  163.9859
 225  208.8293
 226  227.3547
 227  263.8285
 228  212.8602
 229  160.176
 230  129.8359
 231  260.3916
 232  254.824
 233  86.81618
 234  198.1731
 235  146.2555
 236  216.049
 237  211.6129
 238  362.0706
 239  222.9764
 240  245.6953
 241  303.9228
 242  381.5593
 243  291.5641
 244  197.6433
 245  221.9782
 246  241.1951
 247  244.5162
 248  229.4166
 249  240.8665
 250  327.5131
 251  173.2629
 252  273.0486
 253  476.8112
 254  310.5448
 255  262.0649
 256  267.2328
 257  247.9102
 258  222.3517
 259  362.9901
 260  241.2302
 261  164.2292
 262  332.2047
 263  349.3992
 264  241.791
 265  198.3639
 266  306.1819
 267  162.2604
 268  196.4312
 269  135.3822
 270  115.3332
 271  215.6707
 272  201.1125
 273  290.5511
 274  275.9971
 275  259.0745
 276  185.8021
 277  268.0537
 278  225.7478
 279  139.8763
 280  280.2406
 281  248.0549
 282  264.8682
 283  316.645
 284  418.0248
 285  360.4462
 286  174.9099
 287  200.0351
 288  292.7868
 289  346.1382
 290  265.2674
 291  217.198
 292  263.1548
 293  344.3475
 294  374.3047
 295  519.4493
 296  379.4998
 297  337.1416
 298  285.5281
 299  314.3033
 300  258.689
 301  290.5933
 302  358.6646
 303  197.0012
 304  193.2395
 305  353.8317
 306  305.6906
 307  303.2904
 308  499.7873
 309  321.6152
 310  242.7417
 311  226.2021
 312  403.502
 313  446.4307
 314  384.4842
 315  369.1138
 316  224.7182
 317  248.8783
 318  346.9066
 319  297.8777
 320  197.2872
 321  358.7524
 322  293.6365
 323  272.1064
 324  297.9096
 325  282.7111
 326  279.5711
 327  218.727
 328  160.1087
 329  297.7165
 330  304.7441
 331  257.3323
 332  119.9292
 333  234.7014
 334  288.3588
 335  278.6382
 336  183.1877
 337  231.141
 338  153.0785
 339  305.28
 340  350.9146
 341  235.3063
 342  205.8394
 343  296.0176
 344  343.8723
 345  308.8526
 346  456.8929
 347  402.5485
 348  281.5478
 349  286.9015
 350  319.3257
 351  367.4233
 352  287.1635
 353  162.6002
 354  311.0874
 355  342.6708
 356  267.4952
 357  256.8471
 358  167.6653
 359  130.1033
 360  275.3167
 361  520.126
 362  361.2304
 363  374.3937
 364  263.2082
 365  229.4101
 366  267.9515
 367  310.8166
 368  270.8504
 369  245.7152
 370  273.6252
 371  222.0215
 372  167.3349
 373  241.0459
 374  235.8877
 375  317.7951
 376  325.7635
 377  224.1193
 378  227.9924
 379  170.6071
 380  208.2761
 381  145.8098
 382  329.0139
 383  311.1678
 384  199.2541
 385  228.5106
 386  260.461
 387  249.7272
 388  325.3033
 389  384.6019
 390  325.6317
 391  278.6165
 392  379.7622
 393  217.7542
 394  225.7861
 395  345.081
 396  319.4909
 397  292.6205
 398  295.4822
 399  246.5837
 400  191.7319
 401  147.9822
 402  171.2303
 403  317.6748
 404  396.3617
 405  232.9262
 406  191.7532
 407  181.0467
 408  410.5985
 409  185.287
 410  96.62074
 411  186.655
 412  178.0988
 413  273.7079
 414  210.0007
 415  174.3619
 416  298.0669
 417  268.4729
 418  253.7843
 419  393.5591
 420  380.7431
 421  249.3601
 422  304.1788
 423  294.4337
 424  373.5453
 425  290.2154
 426  359.5793
 427  382.7305
 428  416.4507
 429  303.5381
 430  339.299
 431  374.0374
 432  349.8107
 433  348.1245
 434  371.7664
 435  335.116
 436  361.176
 437  376.4643
 438  414.0456
 439  204.1152
 440  253.4669
 441  277.6386
 442  177.5039
 443  42.7782
 444  171.0747
 445  366.6743
 446  285.6018
 447  116.7753
 448  189.0186
 449  418.2475
 450  399.2061
 451  340.0566
 452  316.634
 453  345.1555
 454  277.8281
 455  255.3374
 456  235.6314
 457  258.0555
 458  343.8396
 459  301.7719
 460  248.4231
 461  133.043
 462  215.2901
 463  212.6213
 464  359.4181
 465  437.3161
 466  289.0002
 467  168.914
 468  337.8729
 469  282.8917
 470  341.5297
 471  317.6004
 472  222.6657
 473  294.3226
 474  370.5486
 475  401.7907
 476  411.1044
 477  303.6888
 478  334.37
 479  350.5141
 480  197.666
 481  198.8323
 482  334.8054
 483  305.5728
 484  254.9417
 485  215.781
 486  305.6598
 487  198.2498
 488  268.2108
 489  345.4383
 490  411.9636
 491  376.4129
 492  424.6603
 493  199.6483
 494  322.8956
 495  491.5473
 496  405.7171
 497  227.6825
 498  361.5908
 499  360.7
 500  179.5204
 501  102.2316
 502  132.8635
 503  323.2886
 504  362.3315
 505  362.3669
 506  302.7415
 507  367.4841
 508  388.119
 509  597.8569
 510  656.4233
 511  722.7039
