# Input file       =  1204620467.112361_cleaned.dat
# Candidate        =  PSR_0332+5434
# Telescope        =  AR
# Epoch_topo       =  58186.366309170844
# Epoch_bary       =  N/A
# T_sample         =  0.002
# Data Folded      =  7208960
# Data Avg         =  0.0228657190892089
# Data StdDev      =  0.999946611237192
# Profile Bins     =  512
# Profile Avg      =  321.998383762883 
# Profile StdDev   =  118.652840726939 
# Reduced chi-sqr  =  1.816
# Prob(Noise)      <  1.34e-26   (~10.6 sigma)
# P_topo (ms)      =  714.579164367773  +/- 7.17e-05
# P'_topo (s/s)    =  -0                +/- 3.85e-11
# P''_topo (s/s^2) =  0                 +/- 1.73e-14
# P_bary (ms)      =  N/A
# P'_bary (s/s)    =  N/A
# P''_bary (s/s^2) =  N/A
# P_orb (s)        =  N/A
# asin(i)/c (s)    =  N/A
# eccentricity     =  N/A
# w (rad)          =  N/A
# T_peri           =  N/A
######################################################
   0  1010.703
   1  886.4354
   2  846.2573
   3  694.8904
   4  488.187
   5  546.4138
   6  533.3671
   7  472.5438
   8  288.8353
   9  298.766
  10  470.5551
  11  501.0318
  12  487.6884
  13  381.7026
  14  456.7458
  15  450.5674
  16  363.1541
  17  297.9013
  18  317.5534
  19  329.491
  20  457.8773
  21  482.2412
  22  461.723
  23  376.1338
  24  331.723
  25  412.3467
  26  487.9057
  27  526.4045
  28  392.8852
  29  447.6138
  30  589.0912
  31  474.109
  32  375.0186
  33  332.7971
  34  334.5338
  35  393.5674
  36  378.3463
  37  332.0197
  38  509.7324
  39  515.4245
  40  434.8244
  41  334.2334
  42  209.8647
  43  250.587
  44  292.6525
  45  354.6963
  46  424.5658
  47  496.5105
  48  387.6974
  49  144.3484
  50  212.125
  51  310.5657
  52  342.8072
  53  387.7838
  54  422.1001
  55  516.9131
  56  468.8606
  57  376.9177
  58  384.7414
  59  410.6924
  60  384.3481
  61  356.4492
  62  394.8921
  63  382.1645
  64  534.704
  65  550.7094
  66  333.9359
  67  220.452
  68  301.4532
  69  373.201
  70  340.0938
  71  381.8692
  72  533.0884
  73  367.8497
  74  265.2144
  75  416.9397
  76  502.541
  77  381.3861
  78  349.3897
  79  284.5002
  80  340.6475
  81  315.9382
  82  306.5643
  83  257.9479
  84  312.3324
  85  376.7927
  86  389.6868
  87  230.6211
  88  206.1025
  89  268.5607
  90  357.8225
  91  309.8241
  92  361.3095
  93  337.5438
  94  362.5909
  95  431.9316
  96  348.4089
  97  410.4552
  98  404.0809
  99  270.3895
 100  177.2972
 101  215.2024
 102  251.6134
 103  326.88
 104  354.1316
 105  425.5386
 106  336.8442
 107  306.0197
 108  316.9341
 109  259.1477
 110  390.2171
 111  370.1594
 112  383.8673
 113  368.5935
 114  253.372
 115  177.2661
 116  243.9389
 117  298.5792
 118  323.503
 119  354.46
 120  350.3115
 121  358.3062
 122  452.9105
 123  443.6413
 124  294.2126
 125  259.5578
 126  298.8697
 127  343.812
 128  401.6278
 129  336.5627
 130  351.1892
 131  321.871
 132  283.5604
 133  194.0924
 134  259.8002
 135  464.1198
 136  490.1018
 137  439.2372
 138  381.912
 139  359.3139
 140  304.2521
 141  426.9721
 142  324.4722
 143  321.2486
 144  321.3221
 145  273.764
 146  227.6753
 147  241.9045
 148  319.8987
 149  297.7995
 150  262.9694
 151  329.2472
 152  480.9318
 153  385.8342
 154  353.5733
 155  454.1998
 156  421.7774
 157  280.9385
 158  314.4359
 159  320.2408
 160  391.8277
 161  332.1625
 162  317.2074
 163  388.264
 164  317.2916
 165  255.1221
 166  278.1081
 167  227.5992
 168  397.414
 169  437.2823
 170  509.471
 171  353.4355
 172  338.5148
 173  363.6144
 174  391.1926
 175  375.8734
 176  303.6017
 177  260.3897
 178  313.8773
 179  214.4316
 180  259.9671
 181  154.0629
 182  182.8496
 183  163.5597
 184  276.1706
 185  323.7742
 186  316.6497
 187  392.9602
 188  303.3997
 189  267.4997
 190  371.2902
 191  350.7968
 192  219.6026
 193  207.8259
 194  233.17
 195  319.0926
 196  379.9475
 197  290.5296
 198  120.6151
 199  32.18258
 200  206.081
 201  326.3456
 202  315.1705
 203  390.9712
 204  368.1083
 205  320.379
 206  187.347
 207  261.7098
 208  382.2361
 209  356.5502
 210  279.8278
 211  343.3151
 212  418.7082
 213  396.8043
 214  358.7272
 215  361.7531
 216  221.0354
 217  146.9509
 218  243.6572
 219  326.587
 220  391.2445
 221  435.2544
 222  284.7785
 223  262.9304
 224  200.6473
 225  272.1571
 226  200.5006
 227  111.8649
 228  171.8035
 229  289.5589
 230  274.7307
 231  217.8234
 232  115.2235
 233  130.8414
 234  264.864
 235  295.6528
 236  422.419
 237  430.0001
 238  186.4912
 239  211.399
 240  239.6759
 241  156.2939
 242  221.4815
 243  289.9294
 244  261.7379
 245  245.5228
 246  265.5278
 247  228.9759
 248  143.9126
 249  204.3501
 250  229.7845
 251  166.5733
 252  327.4891
 253  396.5963
 254  300.2153
 255  173.0798
 256  261.6105
 257  225.8414
 258  287.7032
 259  315.9898
 260  232.387
 261  311.1587
 262  218.1125
 263  231.2461
 264  304.0572
 265  285.1846
 266  161.7415
 267  168.1119
 268  318.2633
 269  335.2585
 270  338.2736
 271  150.195
 272  152.7182
 273  176.3432
 274  323.5567
 275  157.7369
 276  156.6529
 277  175.2095
 278  265.3262
 279  199.5944
 280  164.6058
 281  155.1681
 282  205.9691
 283  218.2222
 284  289.2703
 285  293.7825
 286  300.8093
 287  312.2151
 288  318.9325
 289  306.9546
 290  163.0752
 291  173.7296
 292  198.3965
 293  335.906
 294  338.089
 295  343.8545
 296  392.803
 297  322.783
 298  198.5987
 299  172.0496
 300  498.6281
 301  367.3522
 302  331.5202
 303  348.8134
 304  179.2682
 305  155.4308
 306  226.1763
 307  243.0369
 308  240.768
 309  301.9265
 310  202.4948
 311  259.6639
 312  336.0007
 313  281.9418
 314  206.141
 315  334.5683
 316  295.4904
 317  213.3898
 318  284.6549
 319  369.0729
 320  253.2217
 321  189.5949
 322  238.1573
 323  268.5064
 324  289.7622
 325  318.067
 326  231.2581
 327  221.8016
 328  172.8931
 329  95.49186
 330  172.825
 331  99.33696
 332  236.2946
 333  317.3307
 334  242.1001
 335  195.0397
 336  456.0948
 337  347.5172
 338  168.1587
 339  184.0364
 340  349.3872
 341  321.0479
 342  274.0426
 343  173.8543
 344  229.3297
 345  241.1984
 346  195.8141
 347  146.2429
 348  79.75581
 349  94.70235
 350  87.18581
 351  211.3265
 352  281.664
 353  220.1152
 354  176.7968
 355  173.3008
 356  308.6383
 357  237.3782
 358  240.7877
 359  198.1685
 360  216.1445
 361  281.4704
 362  142.1373
 363  121.6552
 364  351.3682
 365  304.5627
 366  144.1125
 367  280.0924
 368  398.08
 369  414.9845
 370  479.1573
 371  359.1865
 372  427.9449
 373  452.4644
 374  358.4828
 375  315.1726
 376  189.7673
 377  283.6811
 378  370.9505
 379  295.2974
 380  204.5348
 381  272.1843
 382  200.9767
 383  227.2093
 384  251.1201
 385  311.442
 386  365.6374
 387  263.2583
 388  226.9401
 389  290.7404
 390  331.3957
 391  243.8466
 392  325.6329
 393  361.1208
 394  307.4896
 395  179.48
 396  97.72172
 397  302.1064
 398  337.1483
 399  294.9517
 400  303.5585
 401  465.2607
 402  577.2231
 403  444.9798
 404  410.1256
 405  325.2223
 406  392.7929
 407  421.4754
 408  275.1532
 409  233.8419
 410  241.4147
 411  339.0432
 412  146.8026
 413  297.4923
 414  293.3836
 415  191.8235
 416  287.237
 417  301.9138
 418  401.86
 419  491.7448
 420  435.508
 421  285.1902
 422  183.0275
 423  289.0404
 424  321.6893
 425  277.5858
 426  436.2152
 427  343.0559
 428  303.4056
 429  194.532
 430  93.92214
 431  306.8334
 432  341.0081
 433  291.1673
 434  299.9618
 435  356.4992
 436  411.0218
 437  345.1564
 438  341.7883
 439  382.5863
 440  437.5801
 441  272.1857
 442  162.4145
 443  337.7273
 444  422.3058
 445  386.7617
 446  229.0222
 447  314.8684
 448  367.4035
 449  249.906
 450  318.945
 451  294.5843
 452  415.6375
 453  332.7636
 454  380.4036
 455  343.5657
 456  383.851
 457  495.8004
 458  415.2218
 459  325.8406
 460  454.8584
 461  479.7596
 462  280.496
 463  225.5032
 464  282.1816
 465  322.5887
 466  316.466
 467  403.0111
 468  454.3528
 469  332.5886
 470  263.5418
 471  299.7785
 472  348.8335
 473  257.8365
 474  226.827
 475  326.062
 476  501.9297
 477  526.1508
 478  392.8114
 479  227.7439
 480  273.3417
 481  303.8422
 482  244.7362
 483  307.0738
 484  485.4767
 485  379.4523
 486  281.4209
 487  305.5664
 488  230.9708
 489  404.9903
 490  336.8064
 491  298.1902
 492  436.3975
 493  571.8555
 494  345.8459
 495  138.7019
 496  324.574
 497  383.9752
 498  452.0848
 499  483.2398
 500  513.3703
 501  509.0372
 502  415.5906
 503  370.9247
 504  392.7559
 505  573.2617
 506  601.1355
 507  439.5876
 508  532.9516
 509  671.0441
 510  740.2601
 511  868.5956
