# Input file       =  1204721893.107728_cleaned.dat
# Candidate        =  PSR_0332+5434
# Telescope        =  AR
# Epoch_topo       =  58187.540221154261
# Epoch_bary       =  N/A
# T_sample         =  0.002
# Data Folded      =  7340032
# Data Avg         =  0.0113196125123047
# Data StdDev      =  1.0000913956546  
# Profile Bins     =  512
# Profile Avg      =  162.210597763596 
# Profile StdDev   =  119.743979456003 
# Reduced chi-sqr  =  0.941
# Prob(Noise)      <  0.827   (~0.0 sigma)
# P_topo (ms)      =  714.578900705728  +/- 0.000448
# P'_topo (s/s)    =  -0                +/- 2.36e-10
# P''_topo (s/s^2) =  0                 +/- 1.04e-13
# P_bary (ms)      =  N/A
# P'_bary (s/s)    =  N/A
# P''_bary (s/s^2) =  N/A
# P_orb (s)        =  N/A
# asin(i)/c (s)    =  N/A
# eccentricity     =  N/A
# w (rad)          =  N/A
# T_peri           =  N/A
######################################################
   0  468.4782
   1  517.1134
   2  508.9562
   3  304.4897
   4  220.0882
   5  192.488
   6  111.4846
   7  133.9984
   8  239.4609
   9  248.9146
  10  187.4664
  11  185.9084
  12  272.3339
  13  277.5261
  14  246.7256
  15  180.9919
  16  168.8604
  17  91.84083
  18  136.6247
  19  191.1742
  20  234.1731
  21  250.9039
  22  224.5883
  23  200.5714
  24  226.7358
  25  189.4886
  26  180.8602
  27  155.3847
  28  181.5951
  29  244.1022
  30  247.507
  31  246.7659
  32  251.1496
  33  241.6528
  34  286.3125
  35  287.424
  36  280.5169
  37  210.5728
  38  217.8021
  39  268.4314
  40  290.4172
  41  250.9944
  42  174.1449
  43  218.9352
  44  231.1686
  45  260.7662
  46  204.3151
  47  101.418
  48  130.7912
  49  173.7294
  50  240.9153
  51  209.3887
  52  266.1244
  53  303.289
  54  246.6332
  55  290.097
  56  242.3593
  57  230.9586
  58  237.344
  59  217.231
  60  221.5481
  61  175.6639
  62  224.4599
  63  248.8828
  64  237.2669
  65  140.6891
  66  124.2562
  67  188.8987
  68  227.6707
  69  209.7354
  70  216.4906
  71  161.0255
  72  244.8645
  73  293.403
  74  278.984
  75  233.3273
  76  258.2023
  77  253.3738
  78  273.3575
  79  261.729
  80  145.3431
  81  178.8297
  82  193.914
  83  172.34
  84  240.6323
  85  280.6977
  86  217.0783
  87  174.8755
  88  133.9412
  89  149.1197
  90  216.4372
  91  165.8717
  92  189.1269
  93  158.1134
  94  197.3971
  95  161.3854
  96  127.4933
  97  141.7684
  98  180.0041
  99  191.9681
 100  47.37044
 101  77.7958
 102  53.45521
 103  35.43947
 104  3.137311
 105  18.83198
 106  84.58553
 107  68.8887
 108  90.80882
 109  36.36033
 110  63.12092
 111  91.01196
 112  94.58344
 113  120.327
 114  165.3718
 115  90.83318
 116  88.92294
 117  102.4239
 118  91.90939
 119  71.50222
 120  130.0122
 121  173.0778
 122  148.1283
 123  78.62602
 124  130.5473
 125  118.5661
 126  89.58424
 127  41.66164
 128  5.184372
 129  101.7002
 130  140.3282
 131  164.0164
 132  87.75836
 133  112.7457
 134  145.4265
 135  233.1456
 136  238.7916
 137  233.4064
 138  238.0222
 139  218.8532
 140  173.3196
 141  195.7845
 142  226.7332
 143  215.4306
 144  272.3517
 145  222.7927
 146  186.9387
 147  211.3321
 148  176.2887
 149  243.6453
 150  219.2433
 151  248.5753
 152  294.2997
 153  329.1942
 154  275.5755
 155  183.6008
 156  188.457
 157  188.3119
 158  148.4713
 159  268.8929
 160  208.9337
 161  121.3063
 162  118.2175
 163  199.9307
 164  143.4217
 165  246.8215
 166  225.8871
 167  161.7447
 168  147.7543
 169  134.8936
 170  115.2621
 171  132.5021
 172  167.5131
 173  122.3563
 174  -7.452928
 175  -1.259243
 176  141.6054
 177  115.7352
 178  163.2398
 179  146.7966
 180  185.9426
 181  176.3082
 182  195.9809
 183  190.2929
 184  189.6761
 185  90.24657
 186  108.5556
 187  52.80066
 188  45.8254
 189  34.18676
 190  48.34379
 191  119.0482
 192  97.08031
 193  148.0811
 194  214.4422
 195  235.8041
 196  99.67894
 197  112.8873
 198  154.6724
 199  82.61867
 200  156.0712
 201  194.5988
 202  212.1272
 203  249.8773
 204  273.471
 205  187.7014
 206  197.4124
 207  183.277
 208  191.4225
 209  215.0926
 210  315.2279
 211  159.9148
 212  173.6498
 213  258.0441
 214  248.1573
 215  265.24
 216  280.693
 217  289.9862
 218  366.0417
 219  273.4586
 220  190.8596
 221  215.1826
 222  261.0888
 223  291.4946
 224  227.5996
 225  216.5849
 226  221.977
 227  214.9102
 228  219.946
 229  196.5702
 230  171.4063
 231  216.065
 232  263.5334
 233  147.9891
 234  178.5007
 235  198.72
 236  218.822
 237  242.492
 238  188.5612
 239  159.7196
 240  176.5827
 241  183.0027
 242  173.4478
 243  242.6408
 244  222.5786
 245  104.9182
 246  76.27157
 247  104.8182
 248  158.6202
 249  133.141
 250  108.9925
 251  196.9227
 252  174.0673
 253  166.8886
 254  134.2276
 255  154.283
 256  148.688
 257  143.2072
 258  154.0785
 259  73.77488
 260  30.11084
 261  101.3369
 262  70.18356
 263  18.05136
 264  66.06036
 265  115.1333
 266  34.61313
 267  -34.47533
 268  10.43712
 269  1.116917
 270  -2.808085
 271  -96.47598
 272  -70.20762
 273  -75.16602
 274  -58.03276
 275  -4.79763
 276  51.58578
 277  110.4633
 278  81.67333
 279  93.96917
 280  -22.88369
 281  16.18483
 282  109.315
 283  208.2828
 284  200.3282
 285  168.9933
 286  149.2145
 287  84.39272
 288  115.2691
 289  91.59538
 290  157.2493
 291  193.3956
 292  166.9873
 293  217.2927
 294  220.5476
 295  156.3188
 296  98.57426
 297  77.68932
 298  95.33732
 299  127.0268
 300  153.1626
 301  130.8453
 302  193.918
 303  207.8289
 304  179.0453
 305  102.8684
 306  108.6642
 307  108.0263
 308  54.18494
 309  149.5512
 310  159.9094
 311  128.8811
 312  182.9667
 313  177.8474
 314  265.8799
 315  229.7547
 316  83.80408
 317  168.3846
 318  158.7707
 319  173.1756
 320  159.9275
 321  171.1618
 322  194.9796
 323  246.5801
 324  271.2687
 325  175.0991
 326  154.081
 327  154.9744
 328  135.114
 329  130.9949
 330  178.8309
 331  173.6497
 332  193.12
 333  171.4709
 334  144.3701
 335  92.42277
 336  86.77894
 337  23.30971
 338  81.26453
 339  138.0772
 340  89.9893
 341  -4.261187
 342  90.21392
 343  10.30065
 344  63.44768
 345  60.94799
 346  82.6862
 347  39.6207
 348  -43.25811
 349  27.55043
 350  59.86858
 351  132.5964
 352  167.4804
 353  170.5207
 354  127.9653
 355  96.02202
 356  70.72597
 357  157.7261
 358  184.1684
 359  118.0034
 360  198.2921
 361  192.5665
 362  227.4699
 363  211.8864
 364  131.2701
 365  133.3772
 366  139.1929
 367  162.0164
 368  219.0485
 369  255.1596
 370  247.1908
 371  164.6243
 372  184.8215
 373  121.0077
 374  93.62344
 375  111.814
 376  180.376
 377  165.3951
 378  151.3791
 379  157.0163
 380  208.4953
 381  103.5767
 382  126.4088
 383  100.8481
 384  99.67992
 385  94.99894
 386  64.16142
 387  43.0522
 388  45.75938
 389  100.6652
 390  70.7892
 391  56.03277
 392  113.8533
 393  118.729
 394  80.97427
 395  124.7984
 396  143.7476
 397  158.0448
 398  178.1667
 399  172.1289
 400  166.1898
 401  147.9662
 402  80.51456
 403  168.7767
 404  194.929
 405  158.2509
 406  120.3769
 407  84.35084
 408  124.1128
 409  155.7114
 410  125.9435
 411  84.43058
 412  161.2217
 413  265.2319
 414  167.9135
 415  148.917
 416  131.2171
 417  128.5704
 418  183.9953
 419  240.5518
 420  287.9175
 421  188.8036
 422  122.5736
 423  169.1215
 424  200.2418
 425  232.3713
 426  212.3352
 427  170.0274
 428  210.9621
 429  205.5365
 430  253.9557
 431  299.8825
 432  311.2013
 433  284.1859
 434  300.4749
 435  394.7258
 436  338.0396
 437  281.1939
 438  301.6767
 439  258.4526
 440  257.1068
 441  194.6061
 442  219.2538
 443  260.8951
 444  188.1324
 445  192.0059
 446  190.3004
 447  239.581
 448  221.0823
 449  164.3238
 450  142.1149
 451  100.6221
 452  91.71581
 453  118.2963
 454  175.2142
 455  195.0941
 456  151.7664
 457  173.1692
 458  178.2908
 459  209.6612
 460  151.3807
 461  84.6838
 462  21.70421
 463  85.15205
 464  126.2974
 465  36.9174
 466  -29.43441
 467  21.51778
 468  64.05044
 469  113.0903
 470  142.9892
 471  131.8984
 472  10.67503
 473  34.7108
 474  70.36575
 475  89.93695
 476  77.6246
 477  1.145796
 478  13.69709
 479  56.80204
 480  49.59715
 481  67.98296
 482  112.6446
 483  41.78587
 484  -17.26577
 485  74.29508
 486  113.166
 487  42.75148
 488  35.00902
 489  37.43531
 490  42.63078
 491  29.19798
 492  134.6835
 493  148.8373
 494  204.301
 495  151.3919
 496  108.4683
 497  152.0761
 498  171.1838
 499  219.7187
 500  179.4641
 501  111.3764
 502  223.4751
 503  243.2939
 504  169.5856
 505  200.0249
 506  284.4948
 507  327.3841
 508  289.2112
 509  319.485
 510  376.3318
 511  482.4631
