# Input file       =  1204706714.102575_cleaned.dat
# Candidate        =  PSR_0332+5434
# Telescope        =  AR
# Epoch_topo       =  58187.364538224247
# Epoch_bary       =  N/A
# T_sample         =  0.002
# Data Folded      =  7471104
# Data Avg         =  0.0116650303113365
# Data StdDev      =  1.00003464406212 
# Profile Bins     =  512
# Profile Avg      =  170.087394782458 
# Profile StdDev   =  120.801535875262 
# Reduced chi-sqr  =  1.569
# Prob(Noise)      <  3.03e-15   (~7.8 sigma)
# P_topo (ms)      =  714.578924555538  +/- 0.000232
# P'_topo (s/s)    =  -0                +/- 1.2e-10
# P''_topo (s/s^2) =  0                 +/- 5.21e-14
# P_bary (ms)      =  N/A
# P'_bary (s/s)    =  N/A
# P''_bary (s/s^2) =  N/A
# P_orb (s)        =  N/A
# asin(i)/c (s)    =  N/A
# eccentricity     =  N/A
# w (rad)          =  N/A
# T_peri           =  N/A
######################################################
   0  1060.487
   1  776.8056
   2  541.2147
   3  540.5468
   4  349.1179
   5  178.4655
   6  232.9926
   7  247.7669
   8  125.4122
   9  282.4074
  10  294.0958
  11  248.7338
  12  263.3465
  13  331.2198
  14  288.888
  15  302.7756
  16  344.3055
  17  384.4489
  18  181.8327
  19  118.0363
  20  145.4078
  21  157.1813
  22  134.3715
  23  41.44751
  24  24.90186
  25  85.85376
  26  126.7662
  27  272.6995
  28  205.8183
  29  130.8267
  30  266.1302
  31  58.60725
  32  85.68443
  33  279.5836
  34  182.8542
  35  218.0172
  36  323.6189
  37  322.5875
  38  232.3559
  39  158.2189
  40  143.1517
  41  166.1348
  42  95.77467
  43  140.8583
  44  85.3226
  45  123.5561
  46  228.5912
  47  253.2817
  48  121.863
  49  98.85413
  50  108.7391
  51  217.9833
  52  205.5355
  53  162.0213
  54  212.0107
  55  169.1994
  56  213.5028
  57  238.6149
  58  43.75087
  59  39.77295
  60  142.9254
  61  150.9962
  62  137.5309
  63  234.2647
  64  255.9199
  65  256.9831
  66  237.1081
  67  163.5876
  68  210.6274
  69  183.3412
  70  269.6106
  71  143.5596
  72  88.37733
  73  138.0767
  74  111.6852
  75  187.629
  76  208.4581
  77  191.3566
  78  227.7267
  79  174.6816
  80  238.4191
  81  229.2397
  82  95.8989
  83  123.0704
  84  106.8925
  85  58.64504
  86  157.4619
  87  201.062
  88  81.69183
  89  34.59563
  90  60.15727
  91  43.08492
  92  174.3823
  93  81.62275
  94  63.38945
  95  165.683
  96  148.6167
  97  93.78279
  98  173.8638
  99  170.0721
 100  198.9534
 101  211.143
 102  163.5241
 103  177.9223
 104  105.2622
 105  137.5082
 106  112.4258
 107  35.28405
 108  121.3006
 109  179.1596
 110  184.0251
 111  227.5252
 112  167.2871
 113  189.3808
 114  206.4189
 115  199.333
 116  128.691
 117  48.02387
 118  75.2191
 119  187.8189
 120  291.1819
 121  375.7654
 122  321.4095
 123  204.1022
 124  146.7536
 125  105.8067
 126  243.6583
 127  273.2058
 128  130.7144
 129  99.73416
 130  186.7254
 131  193.9255
 132  90.6808
 133  74.78399
 134  130.2743
 135  111.7293
 136  276.6994
 137  186.8464
 138  186.4064
 139  221.5073
 140  200.2533
 141  23.78838
 142  151.3528
 143  230.2531
 144  216.6802
 145  188.7797
 146  253.7503
 147  288.2562
 148  263.8757
 149  166.5492
 150  67.36368
 151  212.8308
 152  194.954
 153  55.18098
 154  17.21952
 155  91.98783
 156  114.2057
 157  72.2059
 158  -14.08836
 159  159.5436
 160  296.0756
 161  159.78
 162  5.937542
 163  28.2205
 164  90.67294
 165  85.55594
 166  121.0962
 167  151.7293
 168  59.15542
 169  106.4654
 170  98.43822
 171  144.7157
 172  75.08415
 173  119.9941
 174  168.2476
 175  214.0205
 176  208.6888
 177  148.5517
 178  226.7111
 179  179.2969
 180  193.7032
 181  60.97561
 182  75.87137
 183  67.07579
 184  149.3818
 185  163.4225
 186  114.065
 187  154.7151
 188  188.213
 189  193.9934
 190  57.68179
 191  209.8405
 192  180.4883
 193  275.3549
 194  172.866
 195  103.3876
 196  266.0833
 197  286.1566
 198  216.1252
 199  120.5155
 200  85.74812
 201  117.8947
 202  192.9109
 203  218.8053
 204  208.0955
 205  112.5971
 206  110.1099
 207  34.84906
 208  -20.90669
 209  197.8992
 210  185.6163
 211  118.5374
 212  81.32853
 213  165.6695
 214  190.7736
 215  38.64368
 216  84.93974
 217  169.4723
 218  249.7696
 219  386.3666
 220  306.8988
 221  184.7048
 222  133.6731
 223  240.7651
 224  262.9207
 225  195.3078
 226  188.5012
 227  222.1214
 228  323.7243
 229  292.0714
 230  327.0953
 231  232.8781
 232  234.4063
 233  270.0287
 234  197.3757
 235  225.8629
 236  111.0185
 237  57.95923
 238  59.52704
 239  141.5185
 240  107.7253
 241  106.7514
 242  8.303545
 243  -54.27118
 244  49.72982
 245  65.30233
 246  37.96608
 247  149.5022
 248  258.4502
 249  292.0311
 250  248.6386
 251  85.44359
 252  103.329
 253  150.3033
 254  6.644451
 255  72.47937
 256  211.3438
 257  297.9368
 258  294.0078
 259  170.4706
 260  21.47364
 261  176.1891
 262  212.9164
 263  174.1862
 264  192.0001
 265  289.3426
 266  161.6344
 267  124.5987
 268  200.2607
 269  215.747
 270  227.9877
 271  273.275
 272  267.2118
 273  191.0355
 274  200.6862
 275  177.3953
 276  143.0672
 277  274.5014
 278  292.3189
 279  202.6937
 280  271.0335
 281  240.2112
 282  280.6523
 283  202.5304
 284  71.88032
 285  70.96141
 286  17.04559
 287  232.3261
 288  116.7962
 289  50.27874
 290  247.9947
 291  181.0325
 292  232.0818
 293  219.9377
 294  177.1874
 295  55.80237
 296  15.72595
 297  79.857
 298  107.8993
 299  188.9512
 300  215.5418
 301  261.9173
 302  116.3749
 303  74.04279
 304  207.1519
 305  195.2763
 306  217.531
 307  165.8372
 308  217.0655
 309  222.7726
 310  61.61813
 311  164.6428
 312  80.37643
 313  124.1151
 314  133.9615
 315  114.9357
 316  109.9141
 317  187.1483
 318  100.7722
 319  70.30462
 320  80.97757
 321  51.43041
 322  41.81385
 323  56.59009
 324  186.7899
 325  142.3679
 326  92.19485
 327  -23.47526
 328  191.7842
 329  115.5741
 330  30.23688
 331  137.1325
 332  310.8442
 333  253.2012
 334  165.8683
 335  36.00959
 336  109.277
 337  172.5607
 338  20.10995
 339  133.4679
 340  171.6418
 341  285.9023
 342  143.0805
 343  180.8076
 344  293.1
 345  278.3423
 346  196.1497
 347  136.1438
 348  183.5701
 349  192.5688
 350  240.9131
 351  115.6246
 352  49.24034
 353  190.0281
 354  188.2066
 355  42.98653
 356  3.19495
 357  214.9328
 358  138.1946
 359  195.436
 360  177.732
 361  -66.61323
 362  42.71577
 363  94.3508
 364  253.6443
 365  194.9418
 366  186.4578
 367  16.21531
 368  82.49774
 369  359.4613
 370  101.9132
 371  152.2867
 372  78.6424
 373  100.146
 374  140.7962
 375  207.0714
 376  169.2183
 377  184.9281
 378  174.7343
 379  157.0504
 380  148.3793
 381  104.9775
 382  179.124
 383  142.7299
 384  143.5686
 385  112.1089
 386  242.1977
 387  195.5228
 388  173.6485
 389  46.39251
 390  133.0403
 391  55.35403
 392  137.5967
 393  141.4544
 394  162.562
 395  182.236
 396  66.42942
 397  73.41611
 398  134.3115
 399  94.53072
 400  80.22626
 401  169.4741
 402  48.18446
 403  132.0366
 404  162.0513
 405  62.37503
 406  4.494509
 407  174.575
 408  193.858
 409  320.5136
 410  217.3402
 411  45.00803
 412  61.92178
 413  -6.81846
 414  60.96682
 415  134.4912
 416  180.8615
 417  96.09595
 418  -47.28958
 419  86.36399
 420  181.1852
 421  151.6112
 422  209.39
 423  167.9418
 424  206.0688
 425  95.66042
 426  105.1441
 427  145.2773
 428  181.0424
 429  174.7054
 430  84.43917
 431  88.72137
 432  189.7945
 433  156.6155
 434  243.4976
 435  192.5368
 436  109.7079
 437  149.8091
 438  114.3187
 439  181.1392
 440  132.816
 441  75.39789
 442  149.9352
 443  197.1493
 444  123.7778
 445  138.0485
 446  223.1532
 447  142.5801
 448  210.86
 449  258.0329
 450  159.7751
 451  16.87086
 452  54.03929
 453  129.8107
 454  98.5365
 455  37.30135
 456  132.8965
 457  239.141
 458  235.1203
 459  156.4582
 460  173.6542
 461  142.1029
 462  265.1543
 463  225.7514
 464  181.092
 465  188.6089
 466  193.3131
 467  373.0912
 468  256.2975
 469  340.5027
 470  371.0875
 471  251.8565
 472  225.3311
 473  192.3797
 474  200.6397
 475  121.7754
 476  176.8182
 477  247.7939
 478  118.8646
 479  90.45192
 480  251.2537
 481  226.4721
 482  211.7418
 483  170.4132
 484  180.183
 485  94.80103
 486  79.71117
 487  149.6293
 488  122.9958
 489  165.0805
 490  105.4815
 491  120.2828
 492  98.78654
 493  48.24426
 494  273.1786
 495  253.3841
 496  234.5159
 497  280.3048
 498  290.6777
 499  165.931
 500  184.8106
 501  324.5681
 502  194.5962
 503  67.06858
 504  106.8127
 505  167.9425
 506  286.2827
 507  283.3136
 508  212.1818
 509  457.0098
 510  811.6522
 511  1137.825
