# Input file       =  1204635104.108858_cleaned.dat
# Candidate        =  PSR_0332+5434
# Telescope        =  AR
# Epoch_topo       =  58186.535718852523
# Epoch_bary       =  N/A
# T_sample         =  0.002
# Data Folded      =  7340032
# Data Avg         =  0.0111837427877216
# Data StdDev      =  1.00023133338244 
# Profile Bins     =  512
# Profile Avg      =  159.66899663279  
# Profile StdDev   =  119.760734625061 
# Reduced chi-sqr  =  1.022
# Prob(Noise)      <  0.356   (~0.4 sigma)
# P_topo (ms)      =  714.579134815705  +/- 0.000476
# P'_topo (s/s)    =  -0                +/- 2.51e-10
# P''_topo (s/s^2) =  0                 +/- 1.11e-13
# P_bary (ms)      =  N/A
# P'_bary (s/s)    =  N/A
# P''_bary (s/s^2) =  N/A
# P_orb (s)        =  N/A
# asin(i)/c (s)    =  N/A
# eccentricity     =  N/A
# w (rad)          =  N/A
# T_peri           =  N/A
######################################################
   0  580.5839
   1  499.1335
   2  415.1144
   3  348.2702
   4  336.9994
   5  324.7012
   6  318.9236
   7  378.5011
   8  301.7183
   9  295.498
  10  304.9108
  11  288.9843
  12  278.006
  13  279.225
  14  256.4245
  15  331.0744
  16  353.4752
  17  361.0784
  18  366.3264
  19  315.636
  20  216.6516
  21  190.8664
  22  256.1555
  23  296.8027
  24  262.0917
  25  270.278
  26  367.9226
  27  239.8059
  28  187.9596
  29  231.0563
  30  243.6512
  31  240.9993
  32  222.9609
  33  237.097
  34  191.3316
  35  161.2661
  36  132.0423
  37  190.5726
  38  263.2408
  39  203.1831
  40  156.7471
  41  120.9083
  42  176.7445
  43  135.6118
  44  103.2004
  45  184.392
  46  114.3206
  47  96.7254
  48  140.0099
  49  175.9821
  50  97.30051
  51  122.3345
  52  153.5955
  53  188.2529
  54  167.1037
  55  209.4043
  56  170.6554
  57  10.71386
  58  0.2464039
  59  52.10565
  60  170.8317
  61  186.2661
  62  60.72084
  63  72.83728
  64  28.34263
  65  -2.360903
  66  92.63216
  67  53.75434
  68  142.3006
  69  108.2401
  70  126.7596
  71  169.5241
  72  103.6459
  73  153.1909
  74  156.9886
  75  214.9634
  76  204.3889
  77  190.9058
  78  115.0061
  79  160.0875
  80  134.7987
  81  135.737
  82  135.7153
  83  203.0359
  84  225.3594
  85  188.9431
  86  178.8595
  87  119.161
  88  174.059
  89  236.081
  90  192.9373
  91  144.6411
  92  108.7458
  93  91.8704
  94  73.12572
  95  73.94835
  96  61.296
  97  83.63187
  98  51.35751
  99  41.77615
 100  30.07075
 101  -22.6359
 102  84.55771
 103  107.7597
 104  4.030658
 105  61.17018
 106  163.7261
 107  109.0204
 108  125.774
 109  162.9693
 110  175.3271
 111  161.1713
 112  173.2044
 113  148.5433
 114  108.3212
 115  154.7713
 116  158.8452
 117  161.2619
 118  249.2237
 119  220.5957
 120  167.1694
 121  151.7242
 122  143.8219
 123  94.83797
 124  3.225838
 125  104.5459
 126  130.3294
 127  216.4496
 128  210.6701
 129  201.3301
 130  236.1066
 131  204.5353
 132  241.0075
 133  221.2929
 134  198.0751
 135  195.38
 136  142.9042
 137  149.6098
 138  259.1583
 139  182.6846
 140  132.3139
 141  152.5453
 142  147.9388
 143  163.4438
 144  168.4297
 145  103.1662
 146  53.57766
 147  90.34521
 148  188.8743
 149  147.8781
 150  156.7915
 151  207.3147
 152  153.0486
 153  140.7441
 154  163.4061
 155  153.338
 156  189.1837
 157  242.0651
 158  246.6147
 159  272.2273
 160  309.8418
 161  178.3358
 162  139.1064
 163  156.1334
 164  205.944
 165  170.8894
 166  146.0406
 167  207.4066
 168  220.535
 169  170.6926
 170  87.85165
 171  88.62982
 172  143.5862
 173  100.3114
 174  54.0393
 175  105.0439
 176  54.85335
 177  50.42426
 178  124.6779
 179  209.6327
 180  218.9615
 181  217.1901
 182  198.4316
 183  152.8203
 184  114.2454
 185  137.2985
 186  159.5359
 187  199.4461
 188  220.4624
 189  186.4749
 190  204.3023
 191  107.8281
 192  143.2629
 193  100.3975
 194  129.3922
 195  201.2343
 196  256.4844
 197  226.8241
 198  166.2972
 199  227.2741
 200  265.9655
 201  191.1323
 202  145.3233
 203  210.9036
 204  96.96595
 205  111.3319
 206  91.38391
 207  175.0755
 208  201.7638
 209  110.0354
 210  177.5932
 211  245.7703
 212  273.6131
 213  243.831
 214  225.0959
 215  320.0598
 216  248.6839
 217  165.1884
 218  171.9589
 219  196.6035
 220  254.7989
 221  290.1313
 222  209.0816
 223  158.4561
 224  135.9138
 225  145.8282
 226  118.2536
 227  92.05909
 228  135.0363
 229  97.37121
 230  99.12893
 231  80.31717
 232  62.52297
 233  167.0877
 234  194.5432
 235  120.5888
 236  131.8912
 237  204.4961
 238  191.5452
 239  87.52179
 240  32.46457
 241  115.3863
 242  233.4647
 243  226.2074
 244  148.3692
 245  157.0791
 246  169.1554
 247  141.3121
 248  241.4315
 249  156.9126
 250  162.7818
 251  170.6857
 252  170.8891
 253  234.3666
 254  250.5884
 255  167.3031
 256  135.7514
 257  96.6602
 258  64.08036
 259  86.08014
 260  179.7522
 261  197.0901
 262  175.5533
 263  119.9305
 264  125.4163
 265  172.4958
 266  156.7481
 267  200.4513
 268  240.4982
 269  156.2198
 270  144.2193
 271  143.4849
 272  188.5324
 273  182.4689
 274  205.9344
 275  216.5351
 276  238.9119
 277  203.1056
 278  241.0925
 279  163.3016
 280  116.4331
 281  142.104
 282  218.1491
 283  231.3718
 284  105.9914
 285  75.13668
 286  179.3297
 287  233.8413
 288  231.7146
 289  311.0241
 290  238.3248
 291  222.0848
 292  191.4263
 293  197.0659
 294  240.298
 295  256.4762
 296  245.778
 297  272.0129
 298  165.3751
 299  158.476
 300  151.2038
 301  115.3443
 302  146.2523
 303  146.7041
 304  160.7124
 305  219.5662
 306  173.1497
 307  182.5783
 308  179.5536
 309  95.78654
 310  71.70828
 311  108.8138
 312  150.8494
 313  184.573
 314  178.6021
 315  123.2767
 316  32.30893
 317  73.44398
 318  190.5577
 319  181.3496
 320  156.9949
 321  231.866
 322  251.0022
 323  293.9394
 324  243.8167
 325  181.1398
 326  250.0483
 327  177.2187
 328  178.5804
 329  176.1531
 330  157.7873
 331  130.9592
 332  151.8258
 333  229.0192
 334  253.5899
 335  191.3206
 336  145.2815
 337  95.01445
 338  68.94953
 339  112.3877
 340  232.2581
 341  160.4005
 342  128.0724
 343  84.11516
 344  77.97111
 345  92.48677
 346  120.6671
 347  140.3454
 348  109.8075
 349  108.4933
 350  117.9098
 351  61.99965
 352  58.32024
 353  112.2531
 354  78.00288
 355  31.63897
 356  23.29184
 357  61.71012
 358  8.708906
 359  -82.83445
 360  -77.3611
 361  84.66846
 362  109.7507
 363  68.56384
 364  34.93967
 365  38.0755
 366  63.68601
 367  -42.39138
 368  -95.33495
 369  22.97684
 370  -33.11169
 371  73.03096
 372  116.3949
 373  52.27452
 374  66.13452
 375  27.86299
 376  45.25985
 377  11.68651
 378  -48.5677
 379  50.22784
 380  91.57874
 381  -53.49649
 382  10.26556
 383  22.59009
 384  32.75302
 385  43.04995
 386  52.79256
 387  76.61974
 388  5.090507
 389  -14.5239
 390  55.85627
 391  6.565755
 392  49.75769
 393  181.7002
 394  124.4439
 395  86.3037
 396  20.42496
 397  75.11978
 398  170.6479
 399  124.9355
 400  81.66259
 401  127.3533
 402  219.1269
 403  222.3776
 404  200.4505
 405  226.3896
 406  141.4755
 407  118.0603
 408  165.9526
 409  162.7321
 410  193.1407
 411  195.6849
 412  222.4162
 413  149.399
 414  124.769
 415  114.895
 416  62.23648
 417  111.6544
 418  214.3136
 419  131.3277
 420  20.49539
 421  100.3762
 422  80.73259
 423  85.13914
 424  128.4937
 425  110.2618
 426  184.7025
 427  263.4162
 428  257.6517
 429  178.2571
 430  132.333
 431  150.8257
 432  161.4884
 433  262.4633
 434  222.2216
 435  94.16914
 436  151.343
 437  123.3472
 438  26.47583
 439  8.476004
 440  95.04113
 441  145.6871
 442  123.1293
 443  62.94422
 444  53.93834
 445  39.06377
 446  44.97499
 447  66.1323
 448  82.36497
 449  115.287
 450  88.1078
 451  162.3027
 452  138.8052
 453  102.5304
 454  123.7021
 455  106.1139
 456  102.3699
 457  87.83387
 458  200.8919
 459  199.9029
 460  119.771
 461  122.9559
 462  206.4829
 463  275.616
 464  259.2917
 465  274.1534
 466  255.6136
 467  238.0392
 468  170.9892
 469  118.6684
 470  56.61411
 471  51.17453
 472  134.505
 473  148.8115
 474  163.4549
 475  103.0792
 476  72.18419
 477  89.78662
 478  128.1537
 479  107.417
 480  129.0816
 481  143.2257
 482  81.91607
 483  146.6285
 484  209.032
 485  119.9955
 486  223.732
 487  240.659
 488  239.5687
 489  206.1957
 490  196.1685
 491  220.9148
 492  237.5586
 493  259.3672
 494  222.4447
 495  221.3506
 496  231.1545
 497  188.9917
 498  245.8255
 499  228.4948
 500  133.9336
 501  207.0915
 502  250.3721
 503  183.8406
 504  167.5861
 505  376.7729
 506  383.6323
 507  356.9275
 508  283.9236
 509  356.6607
 510  504.3349
 511  658.1703
