# Input file       =  1204534384.116725_cleaned.dat
# Candidate        =  PSR_0332+5434
# Telescope        =  AR
# Epoch_topo       =  58185.369978202834
# Epoch_bary       =  N/A
# T_sample         =  0.002
# Data Folded      =  7405568
# Data Avg         =  0.0359156348517895
# Data StdDev      =  1.0000952245357  
# Profile Bins     =  512
# Profile Avg      =  519.480860803137 
# Profile StdDev   =  120.277823336324 
# Reduced chi-sqr  =  1.337
# Prob(Noise)      <  4.98e-07   (~4.9 sigma)
# P_topo (ms)      =  714.579383916456  +/- 0.000105
# P'_topo (s/s)    =  -0                +/- 5.5e-11
# P''_topo (s/s^2) =  0                 +/- 2.41e-14
# P_bary (ms)      =  N/A
# P'_bary (s/s)    =  N/A
# P''_bary (s/s^2) =  N/A
# P_orb (s)        =  N/A
# asin(i)/c (s)    =  N/A
# eccentricity     =  N/A
# w (rad)          =  N/A
# T_peri           =  N/A
######################################################
   0  1070.932
   1  991.7755
   2  826.1179
   3  670.4883
   4  603.5251
   5  593.4471
   6  633.8214
   7  525.4911
   8  362.1291
   9  457.3743
  10  570.4471
  11  541.7797
  12  489.9076
  13  539.8836
  14  649.7635
  15  462.4425
  16  462.6711
  17  420.9022
  18  484.7227
  19  484.1917
  20  524.8486
  21  539.8649
  22  514.0308
  23  520.4411
  24  552.4131
  25  565.4889
  26  617.8034
  27  619.1204
  28  461.6283
  29  547.9905
  30  706.512
  31  601.2958
  32  545.6598
  33  478.5258
  34  576.1987
  35  522.0698
  36  577.0219
  37  511.4792
  38  568.128
  39  616.1353
  40  639.4005
  41  644.0704
  42  736.0527
  43  747.7605
  44  633.5153
  45  639.6609
  46  630.6151
  47  510.4164
  48  423.2552
  49  542.8482
  50  610.0389
  51  650.4678
  52  661.5588
  53  704.3029
  54  686.7414
  55  737.4767
  56  626.0768
  57  644.9965
  58  769.4036
  59  562.842
  60  486.7195
  61  564.3935
  62  517.1392
  63  462.625
  64  587.2947
  65  575.9539
  66  682.2641
  67  608.4287
  68  541.9017
  69  523.5266
  70  523.6085
  71  570.4041
  72  590.1866
  73  580.8831
  74  591.3116
  75  467.6416
  76  489.8354
  77  524.3333
  78  503.0337
  79  491.4617
  80  446.1755
  81  494.3983
  82  445.0857
  83  560.7601
  84  581.4642
  85  582.6691
  86  544.5768
  87  639.8806
  88  579.3362
  89  520.1703
  90  558.1224
  91  570.6999
  92  566.3845
  93  518.9578
  94  619.3043
  95  487.6762
  96  332.1334
  97  427.8526
  98  582.0229
  99  540.169
 100  417.3213
 101  425.1585
 102  567.4071
 103  532.7783
 104  511.9457
 105  543.7535
 106  525.0621
 107  572.3537
 108  502.4074
 109  532.9433
 110  439.1797
 111  431.7579
 112  563.9462
 113  497.2663
 114  431.8688
 115  479.4307
 116  666.2881
 117  587.4841
 118  550.6708
 119  614.9523
 120  726.244
 121  495.0382
 122  386.9263
 123  433.1094
 124  494.8844
 125  613.5436
 126  483.3896
 127  398.2538
 128  435.76
 129  414.0623
 130  471.5856
 131  454.3674
 132  483.1078
 133  484.836
 134  510.5304
 135  540.694
 136  535.9103
 137  480.9425
 138  463.4029
 139  392.5643
 140  446.9677
 141  474.8964
 142  460.4979
 143  459.4278
 144  393.9636
 145  256.4606
 146  232.409
 147  287.1521
 148  281.6612
 149  343.2494
 150  478.6035
 151  380.9703
 152  442.7194
 153  503.3759
 154  433.7947
 155  467.9323
 156  554.2598
 157  403.8111
 158  399.9266
 159  429.9743
 160  521.7839
 161  551.5984
 162  465.6461
 163  395.5913
 164  239.8266
 165  361.2814
 166  493.3154
 167  606.0291
 168  510.5221
 169  351.9958
 170  366.0674
 171  433.5074
 172  407.5485
 173  455.9656
 174  498.2449
 175  394.932
 176  366.6946
 177  360.243
 178  399.21
 179  449.2944
 180  500.7774
 181  408.3685
 182  440.6666
 183  502.2066
 184  404.7254
 185  470.9231
 186  434.4084
 187  532.6932
 188  489.4661
 189  503.0121
 190  633.8427
 191  690.7412
 192  579.1694
 193  425.6338
 194  487.0207
 195  422.0988
 196  480.9156
 197  328.8629
 198  427.9287
 199  569.66
 200  579.8427
 201  429.9783
 202  466.2939
 203  610.5473
 204  495.0264
 205  455.5155
 206  478.5955
 207  545.4419
 208  534.723
 209  406.6501
 210  469.855
 211  534.9171
 212  536.9362
 213  349.1368
 214  404.6739
 215  516.3372
 216  492.7956
 217  642.8566
 218  429.6895
 219  386.8259
 220  655.067
 221  506.8281
 222  429.5415
 223  314.7368
 224  352.7611
 225  552.031
 226  590.5737
 227  600.1888
 228  615.5484
 229  656.693
 230  504.2416
 231  561.8582
 232  645.9465
 233  755.2819
 234  621.4113
 235  590.1523
 236  586.5911
 237  575.33
 238  523.8725
 239  481.0377
 240  561.8685
 241  431.4128
 242  386.7836
 243  463.9085
 244  577.0579
 245  547.3257
 246  404.0963
 247  361.3034
 248  602.4566
 249  657.7816
 250  605.2899
 251  572.9475
 252  586.1947
 253  524.1354
 254  590.0089
 255  516.469
 256  500.5695
 257  602.502
 258  585.7403
 259  566.5795
 260  669.6657
 261  671.2188
 262  513.0646
 263  388.2507
 264  430.5108
 265  489.1084
 266  497.3808
 267  577.7064
 268  583.1381
 269  552.3132
 270  561.6804
 271  440.2603
 272  424.026
 273  584.0583
 274  522.1423
 275  516.4754
 276  457.5312
 277  460.0046
 278  495.0732
 279  412.3228
 280  415.7325
 281  518.584
 282  566.9612
 283  563.6408
 284  478.9568
 285  411.1329
 286  401.6559
 287  368.0934
 288  393.1798
 289  418.4027
 290  452.2805
 291  517.6624
 292  542.2197
 293  455.2861
 294  515.6113
 295  514.0346
 296  566.0468
 297  555.9097
 298  581.2372
 299  647.5853
 300  570.784
 301  498.7108
 302  660.4758
 303  602.8877
 304  491.8234
 305  408.6064
 306  504.1816
 307  553.6228
 308  489.6753
 309  451.0699
 310  411.2997
 311  600.8021
 312  637.8698
 313  512.4989
 314  550.9135
 315  624.8408
 316  556.0889
 317  588.5626
 318  623.937
 319  559.2033
 320  604.2709
 321  561.5172
 322  687.2126
 323  560.2872
 324  567.2004
 325  475.3947
 326  549.4501
 327  560.4716
 328  495.5652
 329  406.4955
 330  407.8495
 331  503.8069
 332  467.561
 333  496.1555
 334  487.1174
 335  540.9489
 336  643.6357
 337  539.9139
 338  547.3516
 339  526.7365
 340  525.9236
 341  452.9391
 342  399.9374
 343  347.4762
 344  410.5621
 345  432.9572
 346  489.5668
 347  465.4389
 348  397.1664
 349  395.6484
 350  468.7421
 351  620.6769
 352  628.9952
 353  480.632
 354  530.7998
 355  661.8117
 356  634.0986
 357  579.1412
 358  459.6105
 359  435.8064
 360  532.3663
 361  497.0245
 362  487.1242
 363  435.5056
 364  416.6532
 365  584.5158
 366  513.2311
 367  612.1276
 368  633.7794
 369  529.7524
 370  569.5011
 371  609.1178
 372  501.2261
 373  347.8466
 374  322.4932
 375  447.3396
 376  467.4507
 377  486.7831
 378  431.715
 379  422.2484
 380  390.1893
 381  424.8617
 382  513.5521
 383  472.8644
 384  449.1432
 385  410.2212
 386  446.1865
 387  418.4499
 388  396.8211
 389  369.2951
 390  364.2691
 391  326.4999
 392  446.9056
 393  470.3485
 394  386.2164
 395  354.2389
 396  421.2624
 397  464.8127
 398  422.451
 399  472.2588
 400  539.5267
 401  493.9655
 402  462.5185
 403  422.041
 404  476.8818
 405  551.7789
 406  584.4153
 407  478.1807
 408  498.6079
 409  574.0911
 410  684.9897
 411  537.5338
 412  492.4791
 413  589.9907
 414  720.4368
 415  672.7741
 416  604.914
 417  538.3533
 418  589.4185
 419  560.2092
 420  610.2036
 421  592.0004
 422  565.2292
 423  538.7398
 424  551.4232
 425  518.3182
 426  441.166
 427  476.9746
 428  505.0491
 429  494.6894
 430  512.7911
 431  542.0631
 432  585.0999
 433  622.8787
 434  618.7051
 435  692.2618
 436  544.7831
 437  526.5487
 438  485.806
 439  578.438
 440  641.743
 441  517.0738
 442  533.4821
 443  521.5069
 444  469.3605
 445  458.7224
 446  481.0929
 447  485.3119
 448  524.3032
 449  550.2994
 450  536.9862
 451  537.2081
 452  485.415
 453  482.7879
 454  478.335
 455  644.8115
 456  406.4867
 457  391.4996
 458  431.5621
 459  503.3352
 460  431.1682
 461  431.7619
 462  463.8141
 463  583.2386
 464  651.7836
 465  733.1396
 466  579.1526
 467  546.5434
 468  461.3344
 469  407.9767
 470  470.3116
 471  554.0825
 472  515.5507
 473  467.3181
 474  526.1013
 475  495.884
 476  608.3221
 477  571.1249
 478  364.7229
 479  360.3184
 480  543.0878
 481  581.2755
 482  574.5125
 483  542.2316
 484  641.2495
 485  600.168
 486  554.3297
 487  514.9487
 488  406.781
 489  403.1736
 490  407.5658
 491  416.2784
 492  544.5465
 493  486.1187
 494  513.2906
 495  390.1039
 496  459.6242
 497  658.1961
 498  685.2979
 499  487.4293
 500  455.2972
 501  578.4313
 502  594.0859
 503  523.2634
 504  532.0518
 505  645.1791
 506  644.1484
 507  564.9115
 508  708.3893
 509  839.3088
 510  918.5479
 511  1026.485
