# Input file       =  1204564430.106454_cleaned.dat
# Candidate        =  PSR_0332+5434
# Telescope        =  AR
# Epoch_topo       =  58185.717732713587
# Epoch_bary       =  N/A
# T_sample         =  0.002
# Data Folded      =  7340032
# Data Avg         =  0.0217700294754427
# Data StdDev      =  1.00009302420776 
# Profile Bins     =  512
# Profile Avg      =  312.224202484414 
# Profile StdDev   =  119.744174447618 
# Reduced chi-sqr  =  1.057
# Prob(Noise)      <  0.182   (~0.9 sigma)
# P_topo (ms)      =  714.579668237583  +/- 0.000307
# P'_topo (s/s)    =  -0                +/- 1.62e-10
# P''_topo (s/s^2) =  0                 +/- 7.16e-14
# P_bary (ms)      =  N/A
# P'_bary (s/s)    =  N/A
# P''_bary (s/s^2) =  N/A
# P_orb (s)        =  N/A
# asin(i)/c (s)    =  N/A
# eccentricity     =  N/A
# w (rad)          =  N/A
# T_peri           =  N/A
######################################################
   0  843.1066
   1  799.6891
   2  520.0492
   3  428.4728
   4  373.371
   5  232.028
   6  305.8142
   7  360.7355
   8  315.102
   9  327.4529
  10  326.3283
  11  335.3088
  12  382.9705
  13  236.1317
  14  308.721
  15  411.4427
  16  348.5639
  17  321.6836
  18  318.4155
  19  345.0353
  20  334.7326
  21  286.1541
  22  397.0851
  23  360.7216
  24  233.7214
  25  324.9167
  26  311.4145
  27  234.2747
  28  239.5321
  29  297.8126
  30  383.4684
  31  346.7695
  32  235.0945
  33  284.3544
  34  275.539
  35  324.5302
  36  332.8586
  37  308.9934
  38  311.1022
  39  360.8244
  40  261.6572
  41  310.2845
  42  278.7996
  43  236.3122
  44  280.4555
  45  299.3364
  46  414.0748
  47  320.3818
  48  260.7661
  49  391.7731
  50  479.1017
  51  383.6885
  52  382.4534
  53  318.9166
  54  310.0876
  55  304.3622
  56  371.2039
  57  367.5651
  58  312.9112
  59  220.1642
  60  426.854
  61  421.3575
  62  306.9182
  63  306.1399
  64  393.1346
  65  466.4262
  66  319.6503
  67  253.4588
  68  280.894
  69  298.9027
  70  336.988
  71  316.8372
  72  361.6332
  73  391.7749
  74  284.2183
  75  317.8477
  76  273.5348
  77  272.8164
  78  390.5426
  79  322.8307
  80  251.1002
  81  133.0986
  82  276.959
  83  262.8419
  84  265.1228
  85  397.4417
  86  350.0861
  87  328.0817
  88  325.576
  89  213.0101
  90  174.8426
  91  225.0604
  92  261.4333
  93  143.5088
  94  225.6304
  95  246.8374
  96  284.9156
  97  393.1108
  98  300.8261
  99  342.7144
 100  237.2418
 101  333.4861
 102  327.4708
 103  262.0028
 104  387.6488
 105  365.5374
 106  259.4125
 107  161.9743
 108  181.0358
 109  227.4639
 110  247.4697
 111  240.4434
 112  260.767
 113  303.7517
 114  266.9188
 115  311.6274
 116  296.5941
 117  228.3102
 118  242.4655
 119  255.2547
 120  288.6003
 121  256.4155
 122  222.9501
 123  285.6579
 124  343.6523
 125  397.8856
 126  496.4905
 127  511.8341
 128  431.8654
 129  557.054
 130  546.6292
 131  472.4614
 132  332.5592
 133  275.9562
 134  370.4444
 135  317.7886
 136  254.5129
 137  404.7304
 138  415.6586
 139  390.0275
 140  275.8717
 141  209.4195
 142  192.7872
 143  258.0912
 144  329.4251
 145  364.536
 146  271.2914
 147  256.2231
 148  202.2364
 149  385.466
 150  363.3017
 151  382.2048
 152  442.6808
 153  238.0032
 154  283.0115
 155  265.5536
 156  357.3221
 157  296.9106
 158  237.2489
 159  245.0073
 160  166.7205
 161  259.4268
 162  209.4268
 163  252.1811
 164  341.0434
 165  330.244
 166  322.785
 167  319.3057
 168  247.1842
 169  283.0076
 170  278.0571
 171  351.9808
 172  452.0563
 173  371.1584
 174  332.045
 175  312.1411
 176  200.7074
 177  343.9272
 178  359.1476
 179  394.1947
 180  297.5895
 181  177.7975
 182  238.1565
 183  378.0085
 184  409.8012
 185  361.5065
 186  314.1294
 187  373.275
 188  341.4096
 189  204.2323
 190  174.3279
 191  239.8284
 192  305.1353
 193  399.9869
 194  276.9568
 195  216.0597
 196  347.3573
 197  396.6209
 198  320.9232
 199  348.1231
 200  282.9821
 201  331.5801
 202  414.8978
 203  597.1418
 204  376.6544
 205  270.8493
 206  345.8709
 207  341.1753
 208  286.9284
 209  374.1236
 210  579.3164
 211  544.2757
 212  328.2529
 213  156.2867
 214  274.576
 215  252.3222
 216  281.8919
 217  358.6448
 218  350.1771
 219  286.9863
 220  392.7581
 221  332.3604
 222  215.2196
 223  286.0219
 224  349.2433
 225  345.877
 226  331.6703
 227  274.4928
 228  217.2199
 229  208.3924
 230  303.4041
 231  428.731
 232  328.3761
 233  266.971
 234  108.2706
 235  158.8049
 236  352.875
 237  414.789
 238  392.4343
 239  358.3332
 240  380.9278
 241  355.143
 242  269.5907
 243  206.084
 244  202.1122
 245  285.7957
 246  192.9689
 247  262.4836
 248  458.5003
 249  488.7518
 250  347.5804
 251  341.6992
 252  460.8953
 253  363.1115
 254  342.1549
 255  344.4402
 256  249.1127
 257  316.6241
 258  356.9548
 259  340.7416
 260  371.2781
 261  374.5364
 262  366.5964
 263  375.9245
 264  349.8596
 265  354.2617
 266  335.1286
 267  358.5802
 268  437.6643
 269  361.6426
 270  230.6389
 271  218.7194
 272  233.8698
 273  213.0402
 274  324.4403
 275  393.5378
 276  327.7514
 277  352.9828
 278  444.0705
 279  321.1947
 280  280.7569
 281  313.0604
 282  380.939
 283  507.9856
 284  386.9089
 285  297.6266
 286  288.3559
 287  365.4673
 288  430.4396
 289  331.2606
 290  261.7795
 291  329.1145
 292  294.6144
 293  94.8724
 294  85.95815
 295  179.194
 296  254.2578
 297  256.9082
 298  278.1779
 299  325.0581
 300  386.8936
 301  376.6758
 302  424.0828
 303  376.9584
 304  277.0891
 305  304.8867
 306  355.5083
 307  423.2697
 308  446.0641
 309  338.9291
 310  397.2278
 311  292.706
 312  263.6425
 313  288.3685
 314  399.4701
 315  479.3087
 316  412.8747
 317  231.0668
 318  352.526
 319  459.9253
 320  360.9701
 321  322.7889
 322  347.4309
 323  263.1569
 324  290.8412
 325  199.0645
 326  265.6847
 327  328.0554
 328  340.5648
 329  175.7931
 330  185.0839
 331  238.0073
 332  252.3482
 333  302.7603
 334  280.4894
 335  317.1364
 336  299.0251
 337  270.7064
 338  227.3792
 339  220.7753
 340  256.2972
 341  254.9199
 342  230.5594
 343  252.9824
 344  218.2606
 345  333.5024
 346  414.2747
 347  333.4243
 348  368.7773
 349  466.3184
 350  299.504
 351  424.3494
 352  444.4065
 353  440.7943
 354  407.9654
 355  507.5902
 356  408.6024
 357  257.1657
 358  255.8695
 359  325.6611
 360  484.6454
 361  368.5202
 362  229.3368
 363  301.4828
 364  269.3512
 365  338.2356
 366  244.2214
 367  281.4888
 368  346.8365
 369  288.015
 370  300.2093
 371  408.884
 372  397.1838
 373  293.2015
 374  215.0839
 375  308.5611
 376  361.6729
 377  360.3806
 378  336.0626
 379  389.038
 380  295.3257
 381  207.269
 382  258.2102
 383  175.7175
 384  298.9575
 385  321.3022
 386  371.3452
 387  243.3738
 388  154.1843
 389  258.6405
 390  372.4449
 391  356.4394
 392  318.6544
 393  284.5566
 394  267.9499
 395  245.0057
 396  124.67
 397  219.4574
 398  216.4299
 399  259.764
 400  258.9944
 401  353.3305
 402  373.983
 403  300.0018
 404  256.0923
 405  282.0078
 406  235.7108
 407  216.5296
 408  263.4937
 409  274.9272
 410  152.955
 411  88.05823
 412  174.5625
 413  80.45878
 414  121.4798
 415  232.5974
 416  278.3968
 417  238.1461
 418  218.924
 419  192.564
 420  261.574
 421  356.6774
 422  268.9411
 423  159.5486
 424  291.239
 425  300.527
 426  304.2247
 427  335.2736
 428  292.9306
 429  415.4388
 430  367.1747
 431  339.4057
 432  316.2399
 433  363.7572
 434  338.8286
 435  321.6123
 436  372.516
 437  337.4939
 438  369.5451
 439  383.7251
 440  385.758
 441  332.1095
 442  292.872
 443  179.971
 444  275.5142
 445  223.9791
 446  279.6021
 447  234.3807
 448  222.5524
 449  317.5757
 450  315.8427
 451  247.8925
 452  202.3353
 453  260.1535
 454  209.3595
 455  94.36391
 456  124.7943
 457  251.0961
 458  208.3545
 459  202.3328
 460  278.0892
 461  263.4476
 462  251.5892
 463  290.8433
 464  319.8244
 465  245.2995
 466  243.1075
 467  306.3605
 468  213.8704
 469  207.3068
 470  232.5703
 471  253.8484
 472  304.1483
 473  213.3735
 474  190.0602
 475  136.1987
 476  262.8677
 477  322.9127
 478  287.163
 479  293.0892
 480  232.7764
 481  265.579
 482  301.6847
 483  305.5229
 484  305.8784
 485  311.1053
 486  318.586
 487  300.73
 488  325.6981
 489  321.8334
 490  392.6085
 491  307.9075
 492  259.0602
 493  366.2826
 494  442.0096
 495  339.765
 496  252.1814
 497  300.026
 498  262.3969
 499  301.9622
 500  477.809
 501  333.521
 502  295.0043
 503  389.7677
 504  341.1809
 505  334.8858
 506  312.8628
 507  319.1323
 508  366.1634
 509  495.4315
 510  622.426
 511  737.9545
