# Input file       =  1204367855.101803_cleaned.dat
# Candidate        =  PSR_0332+5434
# Telescope        =  AR
# Epoch_topo       =  58183.442559048650
# Epoch_bary       =  N/A
# T_sample         =  0.002
# Data Folded      =  7340032
# Data Avg         =  0.0154517329588644
# Data StdDev      =  0.999969558126076
# Profile Bins     =  512
# Profile Avg      =  220.822163384901 
# Profile StdDev   =  119.729391478768 
# Reduced chi-sqr  =  1.401
# Prob(Noise)      <  5e-09   (~5.7 sigma)
# P_topo (ms)      =  714.579719270175  +/- 0.000182
# P'_topo (s/s)    =  -0                +/- 9.63e-11
# P''_topo (s/s^2) =  0                 +/- 4.25e-14
# P_bary (ms)      =  N/A
# P'_bary (s/s)    =  N/A
# P''_bary (s/s^2) =  N/A
# P_orb (s)        =  N/A
# asin(i)/c (s)    =  N/A
# eccentricity     =  N/A
# w (rad)          =  N/A
# T_peri           =  N/A
######################################################
   0  970.1219
   1  852.4305
   2  496.9537
   3  303.9408
   4  429.7319
   5  332.4572
   6  343.5201
   7  292.6572
   8  137.1781
   9  175.5273
  10  210.8739
  11  272.8305
  12  308.7504
  13  319.5301
  14  208.6528
  15  261.1288
  16  142.4062
  17  157.9719
  18  147.4701
  19  147.036
  20  225.3418
  21  234.0165
  22  215.712
  23  217.8666
  24  138.5031
  25  162.1526
  26  170.8212
  27  133.3439
  28  173.1444
  29  149.8967
  30  127.2794
  31  137.1771
  32  306.1399
  33  291.1201
  34  257.4088
  35  195.8325
  36  171.5037
  37  222.3926
  38  163.722
  39  269.971
  40  248.8925
  41  112.6416
  42  95.29286
  43  147.0575
  44  163.8112
  45  191.2334
  46  61.29311
  47  155.7161
  48  60.48606
  49  121.7687
  50  209.3044
  51  259.1797
  52  238.9835
  53  242.708
  54  179.1094
  55  81.51836
  56  214.1818
  57  262.0328
  58  234.516
  59  236.746
  60  167.328
  61  233.2732
  62  119.6891
  63  165.7277
  64  70.83742
  65  124.6194
  66  203.8418
  67  176.893
  68  102.7541
  69  207.6194
  70  271.8601
  71  165.1143
  72  -19.13917
  73  28.2527
  74  146.9112
  75  67.82758
  76  126.1939
  77  245.3499
  78  246.9349
  79  96.95461
  80  188.4591
  81  128.0108
  82  113.2114
  83  113.6455
  84  180.0062
  85  136.4942
  86  177.965
  87  138.1695
  88  89.18342
  89  44.00307
  90  202.8386
  91  73.31169
  92  2.675648
  93  73.00275
  94  212.1835
  95  135.9398
  96  95.26808
  97  156.4399
  98  57.78423
  99  34.1461
 100  110.2485
 101  94.50251
 102  53.27948
 103  38.97229
 104  196.7207
 105  187.0779
 106  207.7078
 107  125.541
 108  123.9605
 109  150.8154
 110  170.7804
 111  124.7263
 112  127.2715
 113  159.1819
 114  241.4317
 115  222.865
 116  34.22658
 117  124.0904
 118  118.9882
 119  107.1005
 120  136.7448
 121  253.1789
 122  289.193
 123  193.7079
 124  272.1009
 125  320.0162
 126  145.8313
 127  45.38593
 128  47.6677
 129  140.9344
 130  123.1156
 131  155.8363
 132  261.7992
 133  278.175
 134  278.5258
 135  164.7469
 136  190.7128
 137  260.0664
 138  209.6986
 139  139.0699
 140  135.6399
 141  242.9183
 142  144.1199
 143  161.6058
 144  246.1185
 145  308.0831
 146  268.5199
 147  328.6012
 148  361.6549
 149  297.6087
 150  343.8142
 151  207.1536
 152  176.8438
 153  282.8886
 154  279.605
 155  238.9836
 156  253.6345
 157  191.6746
 158  229.2007
 159  185.6363
 160  173.5403
 161  250.3858
 162  375.3161
 163  287.8532
 164  249.1014
 165  294.9128
 166  235.3738
 167  200.7431
 168  236.521
 169  219.6411
 170  317.1686
 171  425.0945
 172  448.1707
 173  285.2576
 174  176.1371
 175  166.0152
 176  238.5065
 177  80.68488
 178  196.2846
 179  237.686
 180  227.3803
 181  229.953
 182  117.3892
 183  155.3789
 184  186.2998
 185  209.708
 186  188.3503
 187  212.4624
 188  179.9171
 189  232.6324
 190  288.1923
 191  182.254
 192  155.6365
 193  184.9073
 194  237.7423
 195  250.0072
 196  283.7664
 197  204.0751
 198  114.812
 199  185.3638
 200  10.4855
 201  -33.81929
 202  79.2572
 203  237.5552
 204  291.2114
 205  299.5411
 206  180.1671
 207  126.2769
 208  139.7186
 209  219.4302
 210  271.0314
 211  302.2122
 212  273.1162
 213  133.618
 214  96.34425
 215  75.33758
 216  163.4861
 217  258.6954
 218  231.877
 219  281.9263
 220  90.97346
 221  157.8497
 222  168.1006
 223  148.9193
 224  171.3665
 225  167.681
 226  150.1526
 227  191.4246
 228  184.5962
 229  134.8881
 230  197.9502
 231  148.8119
 232  199.4813
 233  153.2811
 234  120.9277
 235  260.0597
 236  243.0111
 237  348.034
 238  401.7413
 239  218.2097
 240  304.7133
 241  208.1354
 242  147.3463
 243  195.0331
 244  196.5069
 245  336.9019
 246  275.5558
 247  129.2807
 248  99.85199
 249  131.4265
 250  302.4831
 251  296.7014
 252  266.1312
 253  265.6006
 254  105.0133
 255  165.4139
 256  229.196
 257  315.9907
 258  319.0231
 259  289.4724
 260  199.0733
 261  137.7095
 262  242.7257
 263  352.7068
 264  237.581
 265  142.3475
 266  192.9356
 267  290.4588
 268  240.7188
 269  206.1886
 270  104.5922
 271  187.5354
 272  289.9802
 273  261.9446
 274  239.2084
 275  187.6063
 276  114.4881
 277  127.1417
 278  204.3262
 279  236.1306
 280  359.5872
 281  355.3533
 282  329.8311
 283  293.1461
 284  273.0545
 285  274.6152
 286  198.8884
 287  162.1923
 288  216.8223
 289  235.9638
 290  258.3369
 291  251.3217
 292  184.6324
 293  256.323
 294  246.6725
 295  216.3202
 296  255.2448
 297  257.0838
 298  290.1477
 299  275.7481
 300  239.3749
 301  242.3227
 302  213.8166
 303  221.6139
 304  390.9824
 305  316.1557
 306  256.9083
 307  341.0189
 308  222.202
 309  159.6031
 310  166.6316
 311  184.1399
 312  227.7173
 313  195.0568
 314  223.2225
 315  208.6763
 316  175.6114
 317  188.4002
 318  266.088
 319  339.5249
 320  404.2255
 321  368.5057
 322  262.7
 323  285.424
 324  316.0278
 325  312.2528
 326  188.0586
 327  331.8684
 328  488.6265
 329  411.4626
 330  244.0976
 331  307.488
 332  325.7378
 333  282.2199
 334  217.9364
 335  245.5331
 336  345.0961
 337  410.2173
 338  320.4212
 339  328.8268
 340  270.6692
 341  360.8854
 342  362.5056
 343  220.285
 344  240.0433
 345  265.6565
 346  297.0302
 347  285.6179
 348  288.7057
 349  249.9165
 350  215.3156
 351  188.4272
 352  184.532
 353  239.565
 354  217.0439
 355  180.8666
 356  213.5403
 357  335.1938
 358  381.3871
 359  346.1955
 360  230.4359
 361  212.0202
 362  233.0153
 363  260.1646
 364  306.457
 365  226.809
 366  223.5832
 367  76.39539
 368  145.6142
 369  206.7921
 370  136.1884
 371  153.986
 372  190.5573
 373  367.8141
 374  322.7582
 375  301.4787
 376  379.0345
 377  315.1337
 378  190.8414
 379  104.7537
 380  100.9379
 381  206.4649
 382  289.5244
 383  282.7203
 384  241.1583
 385  284.2008
 386  226.4209
 387  225.7797
 388  274.8196
 389  103.0311
 390  180.792
 391  183.2656
 392  172.759
 393  136.7117
 394  175.4145
 395  352.9666
 396  205.0142
 397  181.2047
 398  129.7384
 399  122.4452
 400  366.3878
 401  335.8154
 402  228.1456
 403  237.2456
 404  268.7341
 405  298.9758
 406  322.6245
 407  316.5491
 408  279.5573
 409  301.3126
 410  272.6726
 411  212.6366
 412  256.8519
 413  298.3391
 414  147.9494
 415  223.6565
 416  114.5684
 417  9.819087
 418  176.0426
 419  307.8568
 420  217.3373
 421  189.0967
 422  86.88528
 423  80.21375
 424  218.455
 425  287.2731
 426  274.6979
 427  307.0852
 428  321.8729
 429  189.7821
 430  278.5235
 431  196.0335
 432  149.2362
 433  193.2663
 434  229.6629
 435  271.5006
 436  244.2416
 437  230.9588
 438  195.2919
 439  260.6069
 440  165.344
 441  182.8093
 442  177.3804
 443  216.6916
 444  86.59552
 445  191.6242
 446  263.9688
 447  313.516
 448  340.0717
 449  191.2548
 450  208.468
 451  208.3488
 452  133.4073
 453  190.4025
 454  285.1288
 455  254.8146
 456  266.55
 457  240.3888
 458  259.9584
 459  179.6158
 460  82.39013
 461  179.1055
 462  244.8534
 463  318.1685
 464  242.3783
 465  236.6747
 466  160.611
 467  97.55063
 468  159.6473
 469  124.0245
 470  188.1659
 471  159.1427
 472  194.8993
 473  256.4211
 474  256.0663
 475  205.5192
 476  137.6042
 477  147.8094
 478  186.2056
 479  189.6492
 480  36.05693
 481  41.93573
 482  64.76887
 483  64.7853
 484  99.16485
 485  317.0363
 486  413.847
 487  326.6157
 488  106.0564
 489  166.0754
 490  125.6684
 491  188.0369
 492  394.0808
 493  308.7354
 494  293.8482
 495  231.095
 496  322.6627
 497  253.1662
 498  128.9307
 499  127.6453
 500  231.4357
 501  302.8171
 502  246.0755
 503  339.167
 504  378.7247
 505  308.4181
 506  289.2063
 507  349.3629
 508  402.8395
 509  511.0312
 510  679.7086
 511  927.6981
