# Input file       =  1204808031.109151_cleaned.dat
# Candidate        =  PSR_0332+5434
# Telescope        =  AR
# Epoch_topo       =  58188.537188763323
# Epoch_bary       =  N/A
# T_sample         =  0.002
# Data Folded      =  7340032
# Data Avg         =  0.0174524051111356
# Data StdDev      =  1.00007275656913 
# Profile Bins     =  512
# Profile Avg      =  250.090752755324 
# Profile StdDev   =  119.741747741704 
# Reduced chi-sqr  =  1.010
# Prob(Noise)      <  0.427   (~0.2 sigma)
# P_topo (ms)      =  714.578641264958  +/- 0.000885
# P'_topo (s/s)    =  -0                +/- 4.67e-10
# P''_topo (s/s^2) =  0                 +/- 2.06e-13
# P_bary (ms)      =  N/A
# P'_bary (s/s)    =  N/A
# P''_bary (s/s^2) =  N/A
# P_orb (s)        =  N/A
# asin(i)/c (s)    =  N/A
# eccentricity     =  N/A
# w (rad)          =  N/A
# T_peri           =  N/A
######################################################
   0  496.4976
   1  466.567
   2  378.4086
   3  276.0858
   4  233.1433
   5  235.3767
   6  208.114
   7  176.2684
   8  226.7027
   9  247.5902
  10  184.9605
  11  205.2327
  12  217.1303
  13  254.3825
  14  194.7916
  15  204.9065
  16  167.6308
  17  143.0919
  18  221.8885
  19  268.4926
  20  268.4883
  21  257.4985
  22  323.6814
  23  282.7162
  24  293.689
  25  253.7305
  26  286.9279
  27  274.1444
  28  266.2887
  29  244.54
  30  246.9237
  31  228.8759
  32  218.6472
  33  237.3454
  34  296.1378
  35  288.7081
  36  225.9763
  37  246.3112
  38  275.4884
  39  228.0467
  40  254.5465
  41  225.3011
  42  241.5749
  43  251.3997
  44  259.263
  45  177.0047
  46  275.2708
  47  347.4784
  48  312.0435
  49  336.9661
  50  341.8085
  51  361.0023
  52  371.0369
  53  403.129
  54  393.8428
  55  374.4166
  56  353.6997
  57  401.7834
  58  464.9553
  59  395.5893
  60  357.211
  61  366.1206
  62  395.6497
  63  364.2932
  64  282.8094
  65  270.3194
  66  295.8664
  67  323.7535
  68  304.0473
  69  317.2935
  70  347.5013
  71  349.0343
  72  317.2504
  73  272.0387
  74  251.2284
  75  252.5834
  76  286.5312
  77  313.7622
  78  339.3112
  79  319.5396
  80  262.3297
  81  271.1767
  82  258.8989
  83  250.7352
  84  276.2382
  85  244.3353
  86  260.6241
  87  303.6131
  88  320.4149
  89  315.1361
  90  321.3708
  91  283.9551
  92  255.5246
  93  247.062
  94  190.5365
  95  257.4308
  96  277.0638
  97  270.1227
  98  251.4222
  99  280.7577
 100  320.9891
 101  307.4785
 102  224.844
 103  230.6559
 104  297.8948
 105  249.4729
 106  217.638
 107  199.3138
 108  254.2484
 109  238.3087
 110  223.1063
 111  264.222
 112  266.8417
 113  256.5036
 114  265.8844
 115  297.5756
 116  309.0645
 117  271.8002
 118  249.8034
 119  174.0145
 120  211.439
 121  299.9532
 122  308.6457
 123  297.6901
 124  280.9014
 125  302.3482
 126  297.1775
 127  293.734
 128  274.1916
 129  230.3289
 130  220.789
 131  249.2335
 132  255.1163
 133  297.5692
 134  259.5577
 135  270.5235
 136  255.0135
 137  199.5519
 138  242.3448
 139  271.5663
 140  338.9359
 141  299.6813
 142  296.0342
 143  282.524
 144  254.9068
 145  326.0765
 146  288.5042
 147  317.8525
 148  388.5061
 149  435.3569
 150  423.2716
 151  357.3496
 152  400.1789
 153  423.2624
 154  432.8051
 155  412.1143
 156  431.2234
 157  421.2077
 158  399.9624
 159  497.0569
 160  476.2242
 161  455.1365
 162  395.7607
 163  341.7276
 164  287.7162
 165  342.8674
 166  292.2287
 167  257.5182
 168  308.5194
 169  340.4438
 170  298.4592
 171  366.5287
 172  358.6235
 173  337.3001
 174  313.5287
 175  314.1299
 176  294.2025
 177  329.7425
 178  386.5807
 179  372.9836
 180  340.4792
 181  377.9046
 182  399.1812
 183  356.6372
 184  382.023
 185  419.0138
 186  355.779
 187  345.5491
 188  319.2651
 189  387.6854
 190  327.7983
 191  312.4352
 192  308.7727
 193  322.8225
 194  323.3036
 195  252.1439
 196  338.8405
 197  307.6021
 198  310.5565
 199  347.0673
 200  376.6736
 201  289.4763
 202  263.9096
 203  231.8206
 204  264.2966
 205  248.3139
 206  284.571
 207  281.6892
 208  318.4105
 209  304.0689
 210  293.3678
 211  264.765
 212  268.213
 213  332.3968
 214  316.8785
 215  244.024
 216  269.6036
 217  314.5804
 218  306.0948
 219  250.6868
 220  261.5844
 221  255.7619
 222  253.7692
 223  214.5581
 224  224.4829
 225  250.1179
 226  260.7726
 227  269.6943
 228  217.7795
 229  307.0876
 230  292.4668
 231  322.6019
 232  292.7768
 233  254.142
 234  271.7345
 235  307.2221
 236  278.56
 237  282.9727
 238  324.487
 239  302.2101
 240  303.842
 241  270.4085
 242  265.195
 243  249.2153
 244  209.5029
 245  223.0448
 246  211.476
 247  216.008
 248  198.6512
 249  181.903
 250  204.7471
 251  284.2758
 252  262.0798
 253  265.3401
 254  263.2804
 255  284.8803
 256  288.987
 257  317.6196
 258  376.9329
 259  414.64
 260  436.68
 261  411.1729
 262  362.6574
 263  389.1196
 264  398.5298
 265  327.0337
 266  328.7708
 267  400.2135
 268  371.1877
 269  269.5162
 270  306.9986
 271  283.6881
 272  262.679
 273  188.8682
 274  276.8271
 275  330.7646
 276  332.5159
 277  266.9297
 278  245.8654
 279  302.2075
 280  310.8
 281  274.0869
 282  290.7632
 283  308.713
 284  248.0658
 285  232.976
 286  207.3822
 287  259.5547
 288  253.0963
 289  242.9542
 290  241.6843
 291  212.5471
 292  191.2059
 293  200.8992
 294  243.5277
 295  283.767
 296  244.0436
 297  230.1373
 298  265.7495
 299  264.8346
 300  271.2267
 301  251.7659
 302  271.8186
 303  313.8323
 304  203.5825
 305  233.3095
 306  240.6485
 307  235.227
 308  291.1813
 309  333.0976
 310  270.368
 311  200.9498
 312  195.9846
 313  218.7661
 314  182.6715
 315  224.4234
 316  262.246
 317  234.8351
 318  243.7578
 319  281.3717
 320  320.6568
 321  278.4038
 322  259.5003
 323  305.954
 324  380.851
 325  363.5392
 326  266.4366
 327  269.7744
 328  288.4189
 329  294.1532
 330  299.073
 331  329.6147
 332  301.908
 333  228.4575
 334  202.3103
 335  209.2828
 336  246.5241
 337  243.9065
 338  244.3671
 339  263.4841
 340  213.3697
 341  182.744
 342  173.4768
 343  205.3614
 344  191.6476
 345  146.2085
 346  165.0556
 347  112.8356
 348  157.0033
 349  238.9339
 350  225.4344
 351  202.5344
 352  210.0171
 353  242.7527
 354  208.1717
 355  165.4501
 356  135.0945
 357  143.3739
 358  122.9325
 359  163.2859
 360  259.2809
 361  200.161
 362  219.9394
 363  253.5308
 364  175.9121
 365  190.5493
 366  191.9616
 367  230.2741
 368  228.9633
 369  258.5716
 370  250.7214
 371  281.5806
 372  305.2941
 373  354.2058
 374  311.0713
 375  264.9919
 376  287.5982
 377  276.962
 378  238.5064
 379  269.5072
 380  300.3831
 381  204.7071
 382  104.0236
 383  183.76
 384  235.4535
 385  182.146
 386  205.9773
 387  233.1448
 388  167.9214
 389  147.5026
 390  181.5236
 391  200.4737
 392  178.2634
 393  213.259
 394  223.0734
 395  254.3122
 396  222.741
 397  237.9984
 398  273.9138
 399  246.9487
 400  214.4078
 401  161.9116
 402  157.0188
 403  122.0949
 404  113.0688
 405  204.9883
 406  214.0168
 407  206.5323
 408  128.7989
 409  129.793
 410  262.3723
 411  222.2767
 412  172.0699
 413  159.4203
 414  153.8955
 415  149.9284
 416  148.6809
 417  142.4002
 418  78.66756
 419  117.5216
 420  184.9883
 421  156.0876
 422  106.6869
 423  197.8793
 424  244.6277
 425  227.6273
 426  194.5506
 427  160.6689
 428  155.2887
 429  176.5023
 430  171.7763
 431  209.4405
 432  261.373
 433  201.7107
 434  187.5917
 435  198.9071
 436  146.6371
 437  148.8361
 438  196.9366
 439  235.7579
 440  261.1643
 441  263.9352
 442  217.1277
 443  188.5695
 444  167.3776
 445  194.8157
 446  215.7892
 447  239.3948
 448  252.8855
 449  154.1662
 450  113.6901
 451  86.49137
 452  68.45028
 453  113.4523
 454  106.6554
 455  104.6132
 456  99.70186
 457  53.03948
 458  36.63838
 459  96.75749
 460  61.66436
 461  136.0886
 462  111.0595
 463  113.7405
 464  170.0015
 465  203.0337
 466  146.8754
 467  155.6918
 468  110.2675
 469  111.9225
 470  125.568
 471  97.85596
 472  67.64288
 473  122.4445
 474  136.4004
 475  90.72059
 476  44.47817
 477  81.43647
 478  36.81529
 479  41.02998
 480  101.4462
 481  53.16118
 482  -9.613417
 483  36.41059
 484  65.83576
 485  40.56392
 486  60.2177
 487  77.14513
 488  59.26371
 489  58.93192
 490  94.20733
 491  43.71672
 492  36.90129
 493  79.88606
 494  137.2207
 495  112.8156
 496  140.0478
 497  94.41237
 498  78.7964
 499  128.3052
 500  109.3836
 501  153.4163
 502  210.5354
 503  195.2423
 504  174.8601
 505  179.6619
 506  169.3874
 507  195.2003
 508  239.2138
 509  288.7347
 510  437.8516
 511  522.3102
