# Input file       =  1204635104.108858_cleaned.dat
# Candidate        =  PSR_0332+5434
# Telescope        =  AR
# Epoch_topo       =  58186.535718852523
# Epoch_bary       =  N/A
# T_sample         =  0.002
# Data Folded      =  7340032
# Data Avg         =  0.0111837427877216
# Data StdDev      =  1.00023133338244 
# Profile Bins     =  512
# Profile Avg      =  159.668996653455 
# Profile StdDev   =  119.760734625061 
# Reduced chi-sqr  =  1.024
# Prob(Noise)      <  0.343   (~0.4 sigma)
# P_topo (ms)      =  714.579135002755  +/- 0.000479
# P'_topo (s/s)    =  -0                +/- 2.53e-10
# P''_topo (s/s^2) =  0                 +/- 1.12e-13
# P_bary (ms)      =  N/A
# P'_bary (s/s)    =  N/A
# P''_bary (s/s^2) =  N/A
# P_orb (s)        =  N/A
# asin(i)/c (s)    =  N/A
# eccentricity     =  N/A
# w (rad)          =  N/A
# T_peri           =  N/A
######################################################
   0  651.5248
   1  536.2203
   2  475.2062
   3  373.0359
   4  332.7178
   5  336.691
   6  310.356
   7  363.2531
   8  346.6295
   9  290.1769
  10  299.6646
  11  302.7046
  12  274.9
  13  278.998
  14  276.4919
  15  267.1965
  16  369.9947
  17  336.5224
  18  381.2745
  19  338.8303
  20  281.946
  21  178.6588
  22  229.9195
  23  272.0331
  24  288.7497
  25  253.1615
  26  315.5179
  27  343.7129
  28  188.6592
  29  210.397
  30  237.0297
  31  235.2748
  32  240.6797
  33  221.7437
  34  223.9404
  35  178.8031
  36  143.6215
  37  146.0594
  38  242.0741
  39  244.2513
  40  179.2004
  41  135.0914
  42  131.0864
  43  188.5147
  44  97.15509
  45  144.3898
  46  163.4427
  47  94.80769
  48  108.4173
  49  176.8302
  50  143.4489
  51  99.52814
  52  125.3342
  53  179.685
  54  174.1082
  55  178.3092
  56  223.9376
  57  87.27154
  58  -1.208313
  59  3.793638
  60  112.4441
  61  194.2394
  62  140.1812
  63  48.30939
  64  65.40892
  65  6.337131
  66  34.36877
  67  87.71976
  68  69.77029
  69  157.3798
  70  82.69952
  71  173.5693
  72  124.1411
  73  126.8702
  74  151.9375
  75  188.5927
  76  204.0118
  77  213.7757
  78  154.3043
  79  123.447
  80  164.899
  81  115.6455
  82  158.4744
  83  142.5832
  84  233.2572
  85  199.4079
  86  181.3201
  87  158.7935
  88  122.8404
  89  214.3932
  90  224.8881
  91  169.7822
  92  125.9876
  93  106.8544
  94  82.70577
  95  78.46136
  96  59.72593
  97  71.6896
  98  75.74801
  99  31.65807
 100  55.61879
 101  1.481824
 102  3.976938
 103  126.0529
 104  54.93216
 105  4.246032
 106  125.2408
 107  136.7949
 108  111.9863
 109  130.0007
 110  189.9597
 111  163.746
 112  168.0712
 113  169.2059
 114  119.8939
 115  125.2858
 116  161.752
 117  150.6703
 118  208.1799
 119  252.5802
 120  187.5426
 121  156.3569
 122  148.4891
 123  139.1207
 124  38.27101
 125  36.29848
 126  134.3909
 127  144.0213
 128  230.4105
 129  200.0616
 130  225.41
 131  225.9217
 132  205.0356
 133  254.4354
 134  195.7769
 135  201.2882
 136  181.4876
 137  126.3594
 138  205.1555
 139  241.6903
 140  147.0826
 141  139.2576
 142  153.5717
 143  150.8869
 144  176.1756
 145  138.1504
 146  82.30832
 147  43.18202
 148  157.5792
 149  172.4169
 150  138.9886
 151  182.7803
 152  192.7412
 153  136.231
 154  146.9348
 155  165.3942
 156  165.645
 157  216.5545
 158  242.4141
 159  252.1911
 160  312.6232
 161  256.1789
 162  150.3384
 163  130.5994
 164  188.0419
 165  198.4889
 166  153.0317
 167  162.0272
 168  227.065
 169  197.0598
 170  129.8086
 171  77.21663
 172  109.8522
 173  147.9733
 174  69.30451
 175  74.92975
 176  94.08553
 177  33.0706
 178  70.86994
 179  183.0084
 180  220.435
 181  218.2223
 182  206.1344
 183  180.9836
 184  130.9591
 185  121.0537
 186  144.0249
 187  173.845
 188  218.1925
 189  206.4558
 190  201.5719
 191  163.4642
 192  109.3537
 193  135.9346
 194  98.73399
 195  155.043
 196  226.8061
 197  259.4063
 198  192.0725
 199  185.1359
 200  257.1163
 201  257.0195
 202  138.9006
 203  189.5636
 204  160.8703
 205  94.15741
 206  105.8004
 207  117.0341
 208  206.1378
 209  157.6657
 210  118.1538
 211  222.0695
 212  256.6861
 213  266.8696
 214  217.6468
 215  266.7245
 216  322.0854
 217  195.0665
 218  162.336
 219  169.5005
 220  232.3813
 221  279.0704
 222  271.3921
 223  167.9211
 224  152.7962
 225  135.9208
 226  139.3721
 227  94.81625
 228  119.4775
 229  114.6509
 230  99.58028
 231  93.49165
 232  66.51672
 233  94.01357
 234  195.2024
 235  165.0021
 236  106.3389
 237  166.8754
 238  223.2217
 239  144.2352
 240  49.23973
 241  57.00607
 242  175.52
 243  250.5946
 244  192.8113
 245  122.9546
 246  190.2098
 247  131.4728
 248  203.516
 249  214.2032
 250  138.4292
 251  181.3879
 252  159.4435
 253  190.7525
 254  254.6013
 255  216.1917
 256  150.4416
 257  118.126
 258  81.32706
 259  64.80325
 260  128.312
 261  203.3878
 262  168.8697
 263  174.453
 264  91.2197
 265  167.2271
 266  153.138
 267  177.031
 268  231.5208
 269  210.3298
 270  135.642
 271  139.236
 272  180.2986
 273  173.9578
 274  209.7919
 275  187.1222
 276  244.5178
 277  209.0574
 278  223.7168
 279  222.5473
 280  126.6025
 281  128.8109
 282  163.9264
 283  254.1783
 284  167.4236
 285  75.74678
 286  114.4003
 287  225.7883
 288  226.1196
 289  259.8839
 290  294.3363
 291  221.9776
 292  214.5084
 293  189.0446
 294  201.4123
 295  269.9986
 296  233.9661
 297  277.0244
 298  224.3512
 299  143.807
 300  164.4933
 301  140.0401
 302  114.8624
 303  166.159
 304  127.3095
 305  201.9028
 306  200.5532
 307  168.5668
 308  186.2149
 309  156.0565
 310  62.33762
 311  91.81642
 312  121.7322
 313  171.8082
 314  204.0596
 315  152.5325
 316  89.88504
 317  13.24586
 318  142.254
 319  193.88
 320  161.0077
 321  187.1068
 322  246.7686
 323  264.6808
 324  290.3504
 325  203.2408
 326  212.755
 327  239.1404
 328  149.1932
 329  193.984
 330  153.3909
 331  157.7199
 332  131.3492
 333  183.0924
 334  247.2524
 335  233.178
 336  171.4242
 337  114.6899
 338  76.60529
 339  73.55147
 340  166.7337
 341  226.1181
 342  138.1316
 343  120.4577
 344  64.96415
 345  87.37722
 346  98.43965
 347  142.4066
 348  126.1662
 349  98.97391
 350  129.4875
 351  85.79159
 352  53.83719
 353  78.50726
 354  110.4489
 355  48.22267
 356  17.99369
 357  44.60544
 358  54.49651
 359  -29.6884
 360  -107.4242
 361  -11.77557
 362  118.6988
 363  91.8815
 364  53.54649
 365  25.45989
 366  60.41644
 367  37.04456
 368  -98.99033
 369  -32.38689
 370  6.231654
 371  -18.29232
 372  126.4882
 373  72.73004
 374  73.58679
 375  42.66234
 376  29.77139
 377  44.9839
 378  -23.40741
 379  -24.27417
 380  99.78955
 381  21.48238
 382  -38.27427
 383  24.3944
 384  17.90932
 385  34.85322
 386  53.17609
 387  55.71836
 388  67.37069
 389  -31.03235
 390  34.77919
 391  36.33213
 392  0.635842
 393  112.1766
 394  172.8862
 395  102.4082
 396  60.60266
 397  26.83488
 398  127.9706
 399  169.2436
 400  88.53448
 401  97.81494
 402  158.4747
 403  248.0876
 404  190.4369
 405  222.4809
 406  194.2384
 407  121.3053
 408  141.7076
 409  161.0923
 410  173.847
 411  196.1114
 412  209.9236
 413  206.7347
 414  130.9449
 415  122.7901
 416  81.43707
 417  70.09877
 418  169.9157
 419  207.6182
 420  61.79122
 421  42.65907
 422  122.3045
 423  48.73878
 424  122.6581
 425  106.4418
 426  150.7338
 427  216.3273
 428  277.0259
 429  216.2528
 430  149.8326
 431  144.573
 432  152.4296
 433  197.9216
 434  279.8416
 435  145.3056
 436  108.6126
 437  155.4507
 438  76.83289
 439  12.41866
 440  29.89961
 441  128.2819
 442  148.1774
 443  89.91608
 444  68.36035
 445  39.69695
 446  41.11018
 447  51.07946
 448  75.83662
 449  102.866
 450  94.55576
 451  116.6074
 452  164.5343
 453  121.2424
 454  104.566
 455  122.4243
 456  98.76735
 457  99.80102
 458  116.0554
 459  231.7215
 460  147.8362
 461  121.9832
 462  148.1183
 463  245.5633
 464  267.6223
 465  272.102
 466  270.3434
 467  253.3203
 468  212.3482
 469  137.2688
 470  101.5509
 471  20.73151
 472  112.7191
 473  131.6034
 474  173.2035
 475  133.734
 476  84.58801
 477  66.61209
 478  115.2314
 479  121.7028
 480  104.2549
 481  156.431
 482  118.1579
 483  81.08613
 484  207.7255
 485  143.4877
 486  168.5862
 487  233.2238
 488  247.0847
 489  220.461
 490  200.9274
 491  201.9568
 492  233.4122
 493  248.951
 494  242.1636
 495  221.6817
 496  226.6717
 497  220.576
 498  192.6042
 499  270.5778
 500  169.1414
 501  162.8047
 502  228.9363
 503  240.0048
 504  144.3483
 505  253.1967
 506  412.9128
 507  364.8254
 508  318.6151
 509  300.7566
 510  412.5549
 511  584.2324
