# Input file       =  1204448258.101844_cleaned.dat
# Candidate        =  PSR_0332+5434
# Telescope        =  AR
# Epoch_topo       =  58184.373149326901
# Epoch_bary       =  N/A
# T_sample         =  0.002
# Data Folded      =  7143424
# Data Avg         =  0.000572656851492487
# Data StdDev      =  1.00005195085249 
# Profile Bins     =  512
# Profile Avg      =  8.03338569737567 
# Profile StdDev   =  118.124720843026 
# Reduced chi-sqr  =  1.467
# Prob(Noise)      <  2.59e-11   (~6.6 sigma)
# P_topo (ms)      =  714.57958742029   +/- 4.78e-05
# P'_topo (s/s)    =  -0                +/- 2.59e-11
# P''_topo (s/s^2) =  0                 +/- 1.17e-14
# P_bary (ms)      =  N/A
# P'_bary (s/s)    =  N/A
# P''_bary (s/s^2) =  N/A
# P_orb (s)        =  N/A
# asin(i)/c (s)    =  N/A
# eccentricity     =  N/A
# w (rad)          =  N/A
# T_peri           =  N/A
######################################################
   0  444.4879
   1  344.528
   2  182.5871
   3  104.8094
   4  117.3353
   5  153.1125
   6  66.03011
   7  -16.75884
   8  -21.14017
   9  -81.38618
  10  8.37995
  11  45.42119
  12  42.09151
  13  98.74725
  14  -47.95707
  15  -34.74528
  16  -1.822717
  17  27.68581
  18  1.592523
  19  -96.77073
  20  179.179
  21  234.9113
  22  222.1514
  23  145.1731
  24  -28.9419
  25  45.77219
  26  -35.54552
  27  -135.5549
  28  -10.83518
  29  55.12764
  30  60.12275
  31  -5.902541
  32  -68.48457
  33  -82.2462
  34  -44.76607
  35  -58.26845
  36  6.208525
  37  53.84096
  38  169.8115
  39  114.4011
  40  31.87424
  41  25.28014
  42  83.24598
  43  -35.07058
  44  39.70681
  45  172.686
  46  -42.09804
  47  -37.05801
  48  -22.2585
  49  22.26843
  50  -10.19252
  51  -59.34947
  52  17.76624
  53  45.71008
  54  70.12746
  55  53.15207
  56  90.80484
  57  -86.46807
  58  -124.376
  59  -96.28531
  60  -69.63934
  61  37.98338
  62  2.24828
  63  -115.6712
  64  -130.9768
  65  -105.4939
  66  -87.56429
  67  -41.99162
  68  -10.57216
  69  75.74203
  70  92.3538
  71  220.9853
  72  109.4377
  73  -82.72976
  74  -81.33096
  75  -24.30022
  76  -171.3374
  77  -168.1335
  78  -100.6533
  79  -79.8311
  80  -80.48133
  81  -135.0569
  82  -115.288
  83  -23.27971
  84  -46.32776
  85  -59.58802
  86  24.56833
  87  129.9784
  88  34.49709
  89  -56.02386
  90  -60.90284
  91  -73.55962
  92  48.43475
  93  49.76198
  94  24.71903
  95  -2.065256
  96  22.46819
  97  -168.2993
  98  -207.7477
  99  -82.48603
 100  -26.23249
 101  107.4535
 102  190.9733
 103  83.79829
 104  118.9314
 105  -69.11153
 106  -114.7112
 107  -53.60188
 108  -128.7724
 109  -54.84773
 110  -10.1507
 111  121.4409
 112  70.8649
 113  40.77749
 114  -59.4556
 115  -80.0244
 116  -52.37151
 117  99.35202
 118  126.8047
 119  198.9781
 120  203.6017
 121  102.1139
 122  34.13918
 123  -72.47874
 124  -137.0108
 125  -112.8463
 126  -121.7714
 127  -103.718
 128  50.73399
 129  134.7663
 130  27.52057
 131  -165.8044
 132  -247.1048
 133  -203.5955
 134  -42.46008
 135  -13.89712
 136  43.03972
 137  155.1531
 138  170.6144
 139  102.5243
 140  -53.70366
 141  -119.4759
 142  -194.9729
 143  -82.03122
 144  -31.14112
 145  12.38531
 146  -64.2343
 147  -69.00248
 148  -111.889
 149  -141.1872
 150  -60.28022
 151  -10.10745
 152  9.074142
 153  178.6967
 154  273.7656
 155  177.7279
 156  -3.439524
 157  -0.212618
 158  -123.3772
 159  -94.30668
 160  -141.9336
 161  -137.0332
 162  -104.8023
 163  -33.88449
 164  14.28215
 165  -39.16638
 166  -12.60412
 167  -31.79629
 168  80.33478
 169  173.473
 170  53.54378
 171  72.31509
 172  -15.31503
 173  -112.4106
 174  -107.5568
 175  52.94231
 176  -51.59904
 177  -15.69271
 178  73.42029
 179  53.63308
 180  -154.5393
 181  -90.08047
 182  -89.64119
 183  33.92138
 184  151.4914
 185  78.97965
 186  96.07526
 187  120.2382
 188  51.6912
 189  -59.85088
 190  -12.91366
 191  -32.92135
 192  -23.92411
 193  61.91144
 194  77.60648
 195  -92.74149
 196  -43.95412
 197  4.080098
 198  2.666714
 199  24.42634
 200  20.71804
 201  69.85314
 202  136.7269
 203  121.1554
 204  27.82474
 205  -98.48349
 206  -134.9591
 207  -97.22894
 208  -0.8656355
 209  31.78667
 210  46.41182
 211  81.88007
 212  18.70525
 213  39.31055
 214  45.71476
 215  -35.54685
 216  -75.46332
 217  64.17433
 218  297.2379
 219  243.717
 220  257.3311
 221  188.5211
 222  110.9781
 223  120.6617
 224  -33.8755
 225  -56.66148
 226  90.27985
 227  31.83649
 228  -40.08185
 229  75.79282
 230  -49.28044
 231  -36.09489
 232  -126.9195
 233  -160.0274
 234  -71.44511
 235  50.02924
 236  125.473
 237  170.3911
 238  82.00356
 239  -9.198485
 240  -118.0613
 241  -57.96879
 242  42.46352
 243  0.5657262
 244  -137.6509
 245  -123.7181
 246  -102.4534
 247  39.23035
 248  -63.08531
 249  -113.4
 250  28.75751
 251  167.0559
 252  135.1668
 253  -2.971688
 254  -24.11673
 255  79.82567
 256  114.8224
 257  -4.762554
 258  -69.94319
 259  -26.8898
 260  -40.79334
 261  25.7129
 262  -23.78055
 263  -49.90776
 264  -88.19933
 265  -25.17343
 266  -86.30842
 267  102.4291
 268  185.599
 269  173.2277
 270  67.63593
 271  18.20293
 272  13.08771
 273  79.3092
 274  36.7431
 275  55.28622
 276  122.3533
 277  -40.39886
 278  -135.0768
 279  -44.51267
 280  -55.07169
 281  -71.14014
 282  -53.64382
 283  6.756788
 284  28.90537
 285  77.54703
 286  21.27931
 287  139.5751
 288  60.23454
 289  -57.07424
 290  -40.02284
 291  21.12547
 292  -76.90208
 293  -8.773987
 294  -42.14296
 295  -11.27553
 296  -113.4849
 297  24.60384
 298  -149.1312
 299  -134.4553
 300  48.30967
 301  218.262
 302  188.3029
 303  162.6443
 304  107.7245
 305  -68.05844
 306  -112.2825
 307  -121.492
 308  -70.66326
 309  -36.55576
 310  49.97517
 311  90.1469
 312  73.64553
 313  -84.02214
 314  -192.7312
 315  -180.6312
 316  -106.8195
 317  28.93235
 318  115.2286
 319  191.7896
 320  102.0499
 321  -54.95261
 322  -153.8972
 323  -28.80098
 324  -30.75529
 325  -93.51247
 326  -48.7457
 327  83.1767
 328  49.16691
 329  -2.678399
 330  -116.7874
 331  -91.01379
 332  -13.50403
 333  44.69479
 334  98.87723
 335  117.828
 336  111.0901
 337  99.18417
 338  53.57273
 339  -15.52516
 340  16.66585
 341  9.906129
 342  -31.29101
 343  -10.62918
 344  -32.8307
 345  -14.12139
 346  -26.23938
 347  -117.2303
 348  -121.8902
 349  -69.80772
 350  89.65707
 351  101.7912
 352  147.287
 353  96.20205
 354  -29.41919
 355  -84.16202
 356  18.36825
 357  33.66418
 358  -73.70969
 359  -23.44996
 360  -6.317616
 361  -5.984863
 362  -28.12012
 363  -125.9258
 364  -92.19616
 365  -9.684982
 366  17.66991
 367  76.08007
 368  131.5892
 369  79.97906
 370  155.8377
 371  118.0001
 372  -18.56462
 373  -68.20336
 374  -66.51971
 375  -20.89942
 376  -40.305
 377  61.40195
 378  106.8493
 379  -65.42993
 380  -58.75937
 381  102.6154
 382  119.1019
 383  176.6483
 384  172.6949
 385  176.3455
 386  263.2906
 387  227.9666
 388  30.73441
 389  -60.42089
 390  -49.34051
 391  -52.80547
 392  -21.2681
 393  54.16609
 394  14.21187
 395  -139.3493
 396  -73.88057
 397  21.03443
 398  165.2234
 399  192.9844
 400  122.8009
 401  125.0817
 402  149.6952
 403  -55.95879
 404  11.77825
 405  60.95196
 406  43.32038
 407  -58.11272
 408  -10.4187
 409  19.04315
 410  12.04819
 411  -13.46195
 412  -0.1336674
 413  157.2766
 414  43.99205
 415  13.7515
 416  89.4393
 417  218.9417
 418  147.9112
 419  46.71816
 420  85.76669
 421  54.51885
 422  36.01484
 423  -38.38686
 424  71.06027
 425  118.5195
 426  0.8670838
 427  -110.8453
 428  -220.8877
 429  -186.2894
 430  -75.94732
 431  80.54744
 432  48.58116
 433  -28.49674
 434  138.5056
 435  139.8058
 436  11.42672
 437  -141.1337
 438  -139.6042
 439  -11.49867
 440  28.96179
 441  -75.39371
 442  -154.1527
 443  -199.5175
 444  -27.31785
 445  26.35709
 446  -49.70329
 447  -16.26189
 448  18.38199
 449  4.614986
 450  29.05238
 451  93.39312
 452  4.887214
 453  -38.47514
 454  -42.42763
 455  26.9733
 456  -2.217011
 457  -109.0265
 458  -127.1685
 459  -37.11077
 460  -68.34604
 461  -67.37342
 462  -97.0761
 463  -214.406
 464  -86.35855
 465  43.72198
 466  65.84554
 467  235.0379
 468  296.8474
 469  161.4441
 470  -1.907449
 471  -84.00042
 472  -94.06835
 473  -157.2425
 474  -71.38406
 475  29.43714
 476  91.7462
 477  -26.16154
 478  -107.5245
 479  -193.093
 480  -124.5137
 481  -66.43594
 482  -4.429349
 483  148.9749
 484  104.9781
 485  -9.455471
 486  -94.51051
 487  -67.88782
 488  -41.91268
 489  -44.18017
 490  18.76221
 491  175.2397
 492  70.78059
 493  -97.97728
 494  -104.1692
 495  -132.7618
 496  -187.5274
 497  -49.51661
 498  21.62969
 499  37.83938
 500  75.9817
 501  -10.04683
 502  12.47188
 503  54.92447
 504  3.824254
 505  16.24449
 506  -86.79324
 507  84.01474
 508  64.5648
 509  216.5703
 510  335.8033
 511  416.1855
