# Input file       =  1204017792.172484_cleaned.dat
# Candidate        =  PSR_0332+5434
# Telescope        =  AR
# Epoch_topo       =  58179.390904774118
# Epoch_bary       =  N/A
# T_sample         =  0.002
# Data Folded      =  7274496
# Data Avg         =  0.0139975945094281
# Data StdDev      =  1.00004994508746 
# Profile Bins     =  512
# Profile Avg      =  198.953357420071 
# Profile StdDev   =  119.203268726353 
# Reduced chi-sqr  =  1.467
# Prob(Noise)      <  2.56e-11   (~6.6 sigma)
# P_topo (ms)      =  714.580346768941  +/- 0.00011
# P'_topo (s/s)    =  -0                +/- 5.86e-11
# P''_topo (s/s^2) =  0                 +/- 2.61e-14
# P_bary (ms)      =  N/A
# P'_bary (s/s)    =  N/A
# P''_bary (s/s^2) =  N/A
# P_orb (s)        =  N/A
# asin(i)/c (s)    =  N/A
# eccentricity     =  N/A
# w (rad)          =  N/A
# T_peri           =  N/A
######################################################
   0  809.4287
   1  705.3985
   2  489.3253
   3  403.3138
   4  355.0635
   5  177.1173
   6  191.517
   7  191.6686
   8  10.2349
   9  193.2998
  10  175.84
  11  73.56596
  12  129.3294
  13  238.8304
  14  223.3571
  15  119.6327
  16  103.2889
  17  111.4476
  18  53.923
  19  184.7131
  20  170.8788
  21  201.9194
  22  79.85725
  23  47.00078
  24  155.2685
  25  167.2031
  26  88.62413
  27  75.61063
  28  163.7032
  29  237.386
  30  321.0334
  31  223.2519
  32  84.6773
  33  88.98763
  34  178.982
  35  261.7938
  36  158.5296
  37  287.3395
  38  250.8657
  39  177.5692
  40  131.8062
  41  115.3012
  42  244.6756
  43  245.6489
  44  213.3231
  45  186.8507
  46  169.9476
  47  108.7369
  48  126.8579
  49  152.6902
  50  190.9768
  51  111.4035
  52  30.20917
  53  81.38281
  54  120.9629
  55  165.8953
  56  214.1096
  57  204.6683
  58  -26.27963
  59  -94.05858
  60  115.2134
  61  198.1782
  62  190.7
  63  138.9722
  64  202.7187
  65  241.6047
  66  171.5047
  67  84.68891
  68  166.506
  69  246.0434
  70  181.2466
  71  148.3956
  72  101.0816
  73  -87.4789
  74  2.078542
  75  28.24443
  76  -9.246733
  77  62.15425
  78  129.4332
  79  145.0639
  80  126.0045
  81  144.5788
  82  195.836
  83  146.349
  84  155.8846
  85  225.0788
  86  231.8645
  87  66.08408
  88  155.5464
  89  122.5948
  90  65.86303
  91  36.43161
  92  -70.38552
  93  82.20011
  94  131.1973
  95  164.3168
  96  275.3048
  97  312.1475
  98  272.7285
  99  256.813
 100  183.7438
 101  245.6997
 102  302.4913
 103  247.1881
 104  208.8682
 105  129.908
 106  176.2179
 107  152.3697
 108  154.9378
 109  186.5952
 110  189.582
 111  147.8608
 112  151.833
 113  278.0236
 114  308.891
 115  205.2979
 116  96.06013
 117  173.2632
 118  260.1295
 119  362.3349
 120  359.546
 121  208.6721
 122  120.2844
 123  116.7489
 124  62.77995
 125  197.9939
 126  229.0825
 127  167.4765
 128  229.6796
 129  130.7853
 130  114.0892
 131  313.7809
 132  285.2401
 133  180.1414
 134  240.9623
 135  322.0485
 136  167.4843
 137  250.3897
 138  273.4291
 139  275.3328
 140  220.231
 141  275.2229
 142  276.2213
 143  171.9567
 144  69.2716
 145  86.17493
 146  223.0148
 147  253.7298
 148  285.7455
 149  313.3713
 150  422.2038
 151  191.5586
 152  178.5025
 153  210.1317
 154  87.98312
 155  74.75923
 156  175.7786
 157  49.79909
 158  58.69607
 159  27.78716
 160  -53.07752
 161  -2.363022
 162  230.4148
 163  300.488
 164  38.62448
 165  -37.9905
 166  135.0092
 167  52.59631
 168  140.3772
 169  120.7138
 170  156.662
 171  122.2667
 172  160.7997
 173  -54.01174
 174  46.14429
 175  101.0223
 176  154.6831
 177  139.1822
 178  177.5068
 179  157.7744
 180  166.117
 181  175.1826
 182  103.108
 183  174.7713
 184  120.7069
 185  71.53782
 186  138.7727
 187  108.5803
 188  55.59822
 189  -56.66471
 190  -16.66171
 191  -15.68544
 192  113.6495
 193  232.4485
 194  229.4278
 195  211.221
 196  178.3551
 197  173.7925
 198  276.0033
 199  338.2818
 200  304.8581
 201  231.5437
 202  233.5495
 203  114.2632
 204  94.63371
 205  153.5481
 206  162.7202
 207  170.4864
 208  173.4172
 209  145.653
 210  190.3174
 211  315.3616
 212  176.2428
 213  171.617
 214  242.0368
 215  84.75282
 216  119.7604
 217  193.2156
 218  317.4483
 219  264.0138
 220  226.0359
 221  244.8102
 222  86.93086
 223  86.71616
 224  148.1685
 225  171.4592
 226  96.5327
 227  131.6088
 228  352.8476
 229  326.1846
 230  246.7206
 231  299.8384
 232  293.4193
 233  101.8072
 234  211.7504
 235  253.6693
 236  196.1761
 237  171.6974
 238  50.27156
 239  60.89568
 240  126.3219
 241  145.1066
 242  163.1366
 243  158.0656
 244  183.0478
 245  189.1058
 246  107.9948
 247  188.9381
 248  182.2673
 249  157.6763
 250  204.3382
 251  296.6533
 252  254.6209
 253  177.5123
 254  216.863
 255  168.3103
 256  119.7847
 257  68.67773
 258  158.0692
 259  301.144
 260  209.6543
 261  142.3896
 262  12.21838
 263  254.1225
 264  245.2111
 265  171.4003
 266  166.8593
 267  358.4729
 268  456.5855
 269  330.577
 270  271.2129
 271  213.2399
 272  158.7802
 273  230.7163
 274  288.9198
 275  240.2219
 276  171.1154
 277  211.048
 278  327.2913
 279  224.3444
 280  275.7005
 281  222.3552
 282  272.7935
 283  428.7781
 284  366.3869
 285  286.0135
 286  111.5064
 287  159.3961
 288  226.9412
 289  266.148
 290  257.6833
 291  257.674
 292  224.3386
 293  170.3622
 294  131.1154
 295  203.4595
 296  292.385
 297  247.097
 298  349.0482
 299  250.4686
 300  325.9866
 301  331.3765
 302  217.6132
 303  166.7498
 304  131.2746
 305  146.5225
 306  177.883
 307  176.8199
 308  240.547
 309  224.2468
 310  204.2744
 311  209.936
 312  429.0222
 313  226.2545
 314  232.002
 315  342.9887
 316  287.2193
 317  209.0883
 318  147.2654
 319  315.1234
 320  289.7675
 321  139.2241
 322  113.3652
 323  -6.348977
 324  9.781374
 325  213.5831
 326  308.2147
 327  331.2227
 328  331.7024
 329  178.7094
 330  228.947
 331  230.5139
 332  226.1365
 333  372.7692
 334  247.5815
 335  353.7016
 336  301.6539
 337  157.146
 338  175.6872
 339  77.66419
 340  130.2556
 341  264.9181
 342  284.8088
 343  253.9129
 344  303.7723
 345  418.8316
 346  297.5296
 347  180.1285
 348  97.59608
 349  183.3106
 350  271.6143
 351  365.5656
 352  382.6935
 353  247.5329
 354  82.39803
 355  150.153
 356  155.5356
 357  160.7303
 358  209.4283
 359  368.2481
 360  406.0054
 361  388.8661
 362  330.118
 363  292.1018
 364  293.0992
 365  239.7148
 366  217.0329
 367  233.4457
 368  290.6608
 369  386.5988
 370  232.4914
 371  99.26163
 372  184.5393
 373  164.34
 374  72.05842
 375  154.1813
 376  149.4161
 377  150.6313
 378  35.84862
 379  218.1824
 380  170.2542
 381  75.68893
 382  68.8939
 383  206.4167
 384  278.3635
 385  127.1601
 386  81.01592
 387  169.9118
 388  146.8013
 389  90.09745
 390  175.0914
 391  256.8811
 392  282.5064
 393  198.5961
 394  230.8615
 395  352.6046
 396  340.1994
 397  229.3614
 398  285.5258
 399  203.3598
 400  200.1619
 401  160.8015
 402  221.4966
 403  184.5895
 404  222.7038
 405  188.4328
 406  75.60121
 407  117.5735
 408  238.5744
 409  311.8633
 410  182.6703
 411  169.398
 412  151.7356
 413  47.65207
 414  169.5279
 415  200.6674
 416  222.2982
 417  131.5483
 418  225.4191
 419  154.9711
 420  172.7849
 421  207.8989
 422  187.4604
 423  75.62294
 424  190.6445
 425  262.7207
 426  225.2769
 427  264.3954
 428  283.3642
 429  259.7978
 430  270.6796
 431  204.7068
 432  310.549
 433  341.8524
 434  313.1801
 435  229.162
 436  170.8929
 437  74.02504
 438  113.0182
 439  176.7809
 440  319.2669
 441  405.5075
 442  359.791
 443  253.4478
 444  90.54566
 445  188.017
 446  282.1365
 447  171.9306
 448  200.1724
 449  205.4306
 450  279.2418
 451  292.4872
 452  139.7974
 453  93.11806
 454  119.1776
 455  233.042
 456  237.4142
 457  152.1059
 458  236.1918
 459  270.7166
 460  212.1447
 461  90.5864
 462  280.2025
 463  357.8834
 464  144.5093
 465  102.1683
 466  277.455
 467  296.6324
 468  195.0581
 469  245.1399
 470  238.6396
 471  210.7625
 472  244.5726
 473  274.0078
 474  248.3335
 475  217.1118
 476  161.8201
 477  217.6142
 478  279.2889
 479  204.175
 480  127.6311
 481  286.6752
 482  392.2686
 483  319.5433
 484  304.4832
 485  256.7916
 486  243.2265
 487  138.045
 488  90.1124
 489  101.0611
 490  253.5415
 491  292.9871
 492  278.2839
 493  270.8982
 494  116.8184
 495  254.5515
 496  307.6559
 497  227.2592
 498  244.7127
 499  133.4512
 500  177.6386
 501  72.81422
 502  205.7174
 503  236.8892
 504  150.4975
 505  53.62651
 506  261.5209
 507  195.1766
 508  243.8997
 509  495.4809
 510  704.0732
 511  743.4548
