# Input file       =  1204305439.103577_cleaned.dat
# Candidate        =  PSR_0332+5434
# Telescope        =  AR
# Epoch_topo       =  58182.720151661772
# Epoch_bary       =  N/A
# T_sample         =  0.002
# Data Folded      =  7340032
# Data Avg         =  0.0268852296562598
# Data StdDev      =  1.00000470335946 
# Profile Bins     =  512
# Profile Avg      =  385.436352073676 
# Profile StdDev   =  119.733599524275 
# Reduced chi-sqr  =  1.206
# Prob(Noise)      <  0.000953   (~3.1 sigma)
# P_topo (ms)      =  714.580233760628  +/- 0.000253
# P'_topo (s/s)    =  -0                +/- 1.34e-10
# P''_topo (s/s^2) =  0                 +/- 5.9e-14
# P_bary (ms)      =  N/A
# P'_bary (s/s)    =  N/A
# P''_bary (s/s^2) =  N/A
# P_orb (s)        =  N/A
# asin(i)/c (s)    =  N/A
# eccentricity     =  N/A
# w (rad)          =  N/A
# T_peri           =  N/A
######################################################
   0  858.0495
   1  796.3153
   2  632.5428
   3  477.5083
   4  483.8279
   5  301.6977
   6  288.7799
   7  314.8768
   8  491.0681
   9  402.7343
  10  291.0379
  11  481.7567
  12  467.4721
  13  399.2203
  14  456.8528
  15  454.0979
  16  312.2176
  17  362.3411
  18  422.2654
  19  473.2444
  20  437.1212
  21  497.0491
  22  513.7749
  23  433.2197
  24  351.5139
  25  277.7457
  26  362.6427
  27  440.1468
  28  369.8316
  29  411.6103
  30  436.2979
  31  282.7592
  32  395.6674
  33  335.6373
  34  177.4497
  35  304.602
  36  363.4732
  37  276.5356
  38  259.6046
  39  440.0389
  40  480.3098
  41  412.5511
  42  394.5716
  43  409.7684
  44  474.2617
  45  540.636
  46  499.9177
  47  512.058
  48  467.5779
  49  430.0047
  50  386.0174
  51  492.5226
  52  416.0012
  53  377.0288
  54  433.7115
  55  486.0771
  56  484.6725
  57  402.1955
  58  360.0027
  59  397.1767
  60  531.6038
  61  586.1284
  62  427.5854
  63  336.2949
  64  358.5935
  65  397.1201
  66  333.4858
  67  370.6388
  68  291.6252
  69  235.2032
  70  285.5538
  71  307.8323
  72  249.4135
  73  276.0163
  74  264.9679
  75  291.4363
  76  395.9485
  77  408.9589
  78  431.8286
  79  436.6213
  80  366.9999
  81  348.6711
  82  457.2035
  83  560.8925
  84  542.3847
  85  513.9712
  86  457.4283
  87  439.0686
  88  412.4825
  89  459.2476
  90  413.5609
  91  503.3212
  92  504.2019
  93  362.1445
  94  388.541
  95  363.1791
  96  299.7213
  97  307.7846
  98  344.9082
  99  307.1185
 100  364.9726
 101  340.7264
 102  352.4942
 103  478.8849
 104  437.1576
 105  385.0652
 106  390.2343
 107  414.8085
 108  321.831
 109  522.6659
 110  493.6736
 111  472.8503
 112  370.7953
 113  410.9723
 114  477.4943
 115  481.2288
 116  492.2112
 117  412.9714
 118  436.0909
 119  338.7222
 120  284.691
 121  422.4428
 122  439.9618
 123  431.6499
 124  434.9514
 125  412.0812
 126  376.1779
 127  331.4229
 128  361.1475
 129  450.5843
 130  540.8552
 131  577.23
 132  363.2545
 133  385.5423
 134  344.0943
 135  341.623
 136  381.7921
 137  397.8728
 138  225.137
 139  340.8732
 140  428.9217
 141  347.0977
 142  389.7255
 143  473.697
 144  398.8252
 145  422.5061
 146  432.8063
 147  467.438
 148  464.7625
 149  431.4045
 150  442.41
 151  487.1082
 152  552.788
 153  451.6907
 154  305.1965
 155  328.5128
 156  446.1295
 157  432.8891
 158  481.9847
 159  473.1965
 160  462.1575
 161  351.1128
 162  337.5782
 163  424.2065
 164  365.6481
 165  369.7523
 166  317.5266
 167  270.3433
 168  380.445
 169  457.8724
 170  380.375
 171  345.129
 172  289.3656
 173  343.7762
 174  275.282
 175  295.9814
 176  368.7961
 177  363.2209
 178  360.1524
 179  412.2023
 180  348.5071
 181  309.8163
 182  347.4207
 183  415.5429
 184  516.1668
 185  335.4951
 186  358.5712
 187  335.604
 188  380.5627
 189  311.2104
 190  338.548
 191  422.696
 192  389.338
 193  382.7851
 194  239.4464
 195  367.5289
 196  416.1188
 197  386.5916
 198  459.6027
 199  341.9764
 200  340.8799
 201  349.5778
 202  315.7524
 203  372.9626
 204  427.4926
 205  391.2363
 206  392.4247
 207  400.7461
 208  488.509
 209  412.9107
 210  371.4943
 211  414.5517
 212  345.1117
 213  304.1418
 214  384.8873
 215  430.7198
 216  490.1031
 217  688.6204
 218  560.8394
 219  323.7048
 220  293.4818
 221  338.1884
 222  274.6341
 223  283.689
 224  312.1313
 225  366.1524
 226  372.6527
 227  288.9342
 228  299.0827
 229  316.9628
 230  318.0882
 231  281.865
 232  390.5845
 233  329.0316
 234  241.51
 235  303.2511
 236  377.115
 237  253.4157
 238  224.3688
 239  350.8786
 240  438.8983
 241  288.494
 242  196.5467
 243  279.5804
 244  235.3159
 245  277.5781
 246  376.718
 247  348.0937
 248  358.0974
 249  366.0216
 250  282.9945
 251  207.682
 252  190.115
 253  143.3195
 254  181.7628
 255  201.713
 256  180.8427
 257  376.1664
 258  439.4295
 259  326.9647
 260  219.7259
 261  264.0785
 262  264.4307
 263  304.6622
 264  490.336
 265  424.7928
 266  335.6389
 267  285.3674
 268  355.4281
 269  260.1683
 270  333.2316
 271  350.3608
 272  335.2824
 273  381.747
 274  291.6509
 275  284.9715
 276  259.6175
 277  247.7322
 278  363.8221
 279  500.6345
 280  479.2419
 281  391.8609
 282  336.3714
 283  433.2763
 284  317.487
 285  272.4863
 286  439.7472
 287  331.3449
 288  352.2869
 289  384.578
 290  243.397
 291  249.3362
 292  319.9708
 293  410.2057
 294  418.6298
 295  346.9707
 296  280.441
 297  205.566
 298  349.256
 299  443.6938
 300  229.8224
 301  341.9122
 302  378.6622
 303  306.6847
 304  368.7848
 305  497.0413
 306  478.7773
 307  356.4898
 308  269.9117
 309  328.9085
 310  298.6899
 311  445.4602
 312  420.7784
 313  297.4038
 314  527.4496
 315  510.9649
 316  495.5835
 317  538.626
 318  437.2513
 319  411.8857
 320  434.0851
 321  518.0186
 322  585.1733
 323  556.649
 324  537.5015
 325  422.6806
 326  410.8076
 327  412.9276
 328  326.7717
 329  339.4496
 330  362.987
 331  439.2876
 332  383.2964
 333  359.0825
 334  360.3666
 335  336.5365
 336  391.6796
 337  466.3242
 338  596.0985
 339  514.2391
 340  482.9431
 341  506.2324
 342  405.6868
 343  393.3933
 344  370.2618
 345  400.842
 346  365.7973
 347  328.5833
 348  454.0708
 349  437.0451
 350  220.2632
 351  360.2571
 352  483.0096
 353  473.6107
 354  479.4334
 355  473.14
 356  513.7355
 357  454.2427
 358  479.181
 359  434.2547
 360  452.1476
 361  515.4257
 362  444.5099
 363  347.0142
 364  448.7377
 365  448.015
 366  430.4909
 367  550.4021
 368  445.7331
 369  395.2708
 370  435.4151
 371  520.9645
 372  517.7402
 373  269.5618
 374  236.0064
 375  305.5499
 376  285.2797
 377  332.5032
 378  247.0951
 379  282.1126
 380  351.7164
 381  274.6049
 382  219.2883
 383  230.803
 384  321.3512
 385  349.7778
 386  338.1431
 387  333.4837
 388  309.4156
 389  394.127
 390  469.7458
 391  410.838
 392  296.2385
 393  296.3322
 394  277.645
 395  337.8457
 396  461.3235
 397  465.6628
 398  345.8817
 399  359.2089
 400  371.0897
 401  371.5638
 402  282.1676
 403  283.8202
 404  262.3244
 405  348.9597
 406  358.2517
 407  253.6923
 408  338.0599
 409  430.2083
 410  416.0412
 411  376.1113
 412  327.0668
 413  436.5066
 414  374.0679
 415  456.7096
 416  372.2098
 417  146.3434
 418  227.1071
 419  401.3928
 420  411.9288
 421  439.7547
 422  498.8485
 423  423.486
 424  444.2822
 425  424.735
 426  395.6583
 427  402.2878
 428  352.5887
 429  477.2094
 430  468.3751
 431  414.9695
 432  443.1158
 433  417.597
 434  367.5336
 435  334.8807
 436  394.5207
 437  365.6036
 438  492.8921
 439  495.0621
 440  440.4839
 441  306.0805
 442  313.5186
 443  346.6439
 444  354.83
 445  342.4962
 446  266.9003
 447  222.2554
 448  289.7755
 449  400.2071
 450  389.5339
 451  430.6223
 452  473.2321
 453  433.1186
 454  445.8544
 455  284.8596
 456  292.7284
 457  356.7605
 458  338.5975
 459  494.5253
 460  380.3346
 461  299.4116
 462  424.9056
 463  497.903
 464  423.6374
 465  393.6282
 466  388.0222
 467  362.3558
 468  400.5377
 469  484.2491
 470  351.8514
 471  349.6319
 472  373.679
 473  369.7422
 474  238.3535
 475  271.3639
 476  135.1757
 477  222.9027
 478  335.3006
 479  323.378
 480  382.3764
 481  390.9033
 482  321.6549
 483  201.3421
 484  395.3168
 485  399.1122
 486  399.0286
 487  324.1852
 488  349.6044
 489  404.943
 490  397.1982
 491  462.8567
 492  380.3945
 493  550.0559
 494  522.7623
 495  435.4921
 496  405.9569
 497  378.9728
 498  320.0883
 499  231.4165
 500  231.6245
 501  318.9944
 502  288.7134
 503  330.9799
 504  438.3542
 505  535.6906
 506  533.3997
 507  524.9775
 508  508.3152
 509  622.6283
 510  825.5936
 511  904.621
