# Input file       =  1204133086.10236_cleaned.dat
# Candidate        =  PSR_0332+5434
# Telescope        =  AR
# Epoch_topo       =  58180.725325258798
# Epoch_bary       =  N/A
# T_sample         =  0.002
# Data Folded      =  7340032
# Data Avg         =  0.0243352204872692
# Data StdDev      =  1.00004517847907 
# Profile Bins     =  512
# Profile Avg      =  348.876082898934 
# Profile StdDev   =  119.738445733244 
# Reduced chi-sqr  =  1.033
# Prob(Noise)      <  0.291   (~0.5 sigma)
# P_topo (ms)      =  714.580533289741  +/- 0.000568
# P'_topo (s/s)    =  -0                +/- 3e-10
# P''_topo (s/s^2) =  0                 +/- 1.32e-13
# P_bary (ms)      =  N/A
# P'_bary (s/s)    =  N/A
# P''_bary (s/s^2) =  N/A
# P_orb (s)        =  N/A
# asin(i)/c (s)    =  N/A
# eccentricity     =  N/A
# w (rad)          =  N/A
# T_peri           =  N/A
######################################################
   0  907.9344
   1  832.9599
   2  663.8383
   3  483.2811
   4  469.7366
   5  411.0161
   6  402.8155
   7  434.5132
   8  384.0477
   9  328.8895
  10  302.7338
  11  495.3446
  12  354.4126
  13  300.7551
  14  357.4534
  15  350.765
  16  414.7006
  17  367.2132
  18  429.2276
  19  478.0163
  20  423.2423
  21  364.0368
  22  373.4331
  23  360.5242
  24  429.8606
  25  391.4265
  26  377.3145
  27  296.8993
  28  276.609
  29  346.4074
  30  325.1774
  31  303.9169
  32  246.8817
  33  309.2772
  34  371.9487
  35  330.1567
  36  384.3138
  37  347.1372
  38  558.8205
  39  559.3978
  40  540.0173
  41  476.2677
  42  370.2189
  43  466.7425
  44  411.8084
  45  454.7828
  46  519.6464
  47  486.6886
  48  526.2647
  49  465.9077
  50  439.561
  51  446.9054
  52  426.7263
  53  467.0401
  54  502.0691
  55  437.8165
  56  471.1281
  57  388.7845
  58  433.0455
  59  374.0754
  60  366.1017
  61  311.333
  62  238.7702
  63  328.2739
  64  371.8417
  65  323.4479
  66  281.5736
  67  218.9049
  68  280.8549
  69  309.5654
  70  384.3417
  71  249.2113
  72  253.6424
  73  277.5007
  74  340.5331
  75  325.0042
  76  278.3444
  77  296.3825
  78  310.0139
  79  332.9788
  80  255.0008
  81  366.4412
  82  356.0206
  83  346.4715
  84  303.1306
  85  325.0495
  86  340.0962
  87  376.5489
  88  318.1837
  89  296.9706
  90  266.8139
  91  332.6874
  92  410.4784
  93  484.0876
  94  506.1801
  95  448.4794
  96  350.7645
  97  211.7457
  98  314.3354
  99  277.3433
 100  410.2727
 101  384.0135
 102  387.3849
 103  551.9604
 104  493.6512
 105  301.6406
 106  327.4641
 107  423.9709
 108  440.2297
 109  366.6805
 110  361.8334
 111  284.3709
 112  355.0616
 113  401.7169
 114  408.3779
 115  364.1011
 116  338.8364
 117  403.1885
 118  424.267
 119  429.9392
 120  423.6819
 121  389.5185
 122  452.7689
 123  523.2495
 124  356.9163
 125  392.3903
 126  386.9055
 127  347.6855
 128  344.2957
 129  395.8199
 130  404.493
 131  347.1685
 132  334.5909
 133  301.9692
 134  350.924
 135  377.9885
 136  303.5897
 137  327.5573
 138  298.1926
 139  192.2174
 140  311.7448
 141  191.005
 142  296.8367
 143  303.2868
 144  371.6619
 145  511.9712
 146  394.7748
 147  388.0575
 148  332.0501
 149  391.5415
 150  426.6665
 151  405.7979
 152  314.2819
 153  378.4651
 154  428.4039
 155  437.0907
 156  430.6854
 157  368.9876
 158  392.6649
 159  444.7656
 160  332.7325
 161  343.4831
 162  360.0445
 163  380.8722
 164  290.3591
 165  242.82
 166  404.8753
 167  487.7203
 168  436.4069
 169  403.0578
 170  333.1172
 171  323.4314
 172  326.5144
 173  311.0914
 174  276.3123
 175  348.9481
 176  373.7411
 177  400.8687
 178  417.889
 179  458.3593
 180  386.9469
 181  288.8058
 182  389.0813
 183  286.5345
 184  337.1155
 185  328.3877
 186  277.1443
 187  454.5567
 188  567.9769
 189  519.533
 190  432.7407
 191  399.9431
 192  344.6132
 193  390.1235
 194  365.9937
 195  437.7863
 196  426.0766
 197  325.1485
 198  329.8551
 199  293.3147
 200  349.2204
 201  348.6175
 202  441.3421
 203  419.6753
 204  428.761
 205  304.4421
 206  295.9653
 207  380.3389
 208  341.798
 209  421.6598
 210  427.9282
 211  436.0033
 212  476.7166
 213  333.4325
 214  333.5898
 215  404.5969
 216  343.6683
 217  345.7743
 218  331.3245
 219  326.2927
 220  321.9673
 221  271.5464
 222  334.4292
 223  393.4035
 224  344.252
 225  300.0147
 226  345.6108
 227  358.9206
 228  432.0467
 229  417.2769
 230  341.4365
 231  256.8176
 232  345.5628
 233  306.7382
 234  352.3469
 235  464.3126
 236  375.8133
 237  384.5721
 238  270.2456
 239  331.4042
 240  373.1738
 241  292.2677
 242  288.8676
 243  296.9265
 244  284.7476
 245  352.0653
 246  356.969
 247  306.0253
 248  338.2634
 249  339.3975
 250  382.9162
 251  352.9318
 252  330.0138
 253  224.9767
 254  232.2483
 255  327.7825
 256  364.6268
 257  156.95
 258  239.4804
 259  367.8091
 260  289.4574
 261  179.8386
 262  118.3163
 263  189.2519
 264  328.3143
 265  383.187
 266  333.8258
 267  201.5718
 268  207.4418
 269  310.5833
 270  243.7396
 271  311.8404
 272  346.5367
 273  273.8296
 274  257.1799
 275  161.4971
 276  223.1832
 277  286.8229
 278  296.3206
 279  333.1108
 280  287.8009
 281  209.4282
 282  299.3474
 283  304.3203
 284  281.9331
 285  344.8772
 286  330.2888
 287  371.6331
 288  346.8128
 289  296.945
 290  208.7529
 291  147.1091
 292  196.0764
 293  216.0267
 294  272.5347
 295  265.4432
 296  235.766
 297  353.3083
 298  338.0837
 299  336.8162
 300  381.8298
 301  316.8609
 302  275.8474
 303  419.4536
 304  421.0005
 305  304.9304
 306  282.7882
 307  360.6287
 308  323.0326
 309  384.6796
 310  449.2299
 311  375.6689
 312  268.2941
 313  292.5847
 314  272.377
 315  315.2639
 316  521.9135
 317  434.8806
 318  400.3578
 319  358.6611
 320  337.165
 321  414.2124
 322  320.0587
 323  331.527
 324  381.3298
 325  429.3084
 326  425.2173
 327  317.5227
 328  359.2349
 329  367.1256
 330  304.0177
 331  447.9423
 332  522.9552
 333  458.5919
 334  357.0897
 335  359.3509
 336  326.9319
 337  307.0998
 338  409.2854
 339  336.6751
 340  378.9058
 341  303.9618
 342  280.311
 343  298.1824
 344  282.027
 345  355.4977
 346  498.7827
 347  477.2918
 348  449.9798
 349  360.9252
 350  325.6509
 351  370.939
 352  431.8217
 353  391.6204
 354  242.7371
 355  233.6581
 356  220.5518
 357  255.8508
 358  331.7258
 359  385.6847
 360  359.9177
 361  352.2004
 362  374.4921
 363  449.334
 364  440.5787
 365  233.6773
 366  302.0427
 367  345.7325
 368  293.3712
 369  361.4225
 370  359.0109
 371  271.3098
 372  320.494
 373  258.4167
 374  267.9952
 375  197.7996
 376  176.0343
 377  200.6574
 378  255.8528
 379  334.87
 380  382.3447
 381  289.5214
 382  289.2429
 383  304.8455
 384  292.6413
 385  338.2295
 386  340.0126
 387  317.1551
 388  354.6215
 389  348.6993
 390  314.0362
 391  321.4427
 392  271.8661
 393  212.8966
 394  260.6375
 395  252.7391
 396  280.8821
 397  300.615
 398  411.6385
 399  365.0951
 400  206.3582
 401  141.6704
 402  144.2214
 403  276.6642
 404  277.2224
 405  394.2628
 406  294.0132
 407  215.6196
 408  290.8633
 409  171.8418
 410  260.4261
 411  362.9281
 412  338.6809
 413  313.6943
 414  265.0768
 415  328.9585
 416  309.9901
 417  185.2775
 418  322.0495
 419  376.9266
 420  332.6445
 421  268.1392
 422  171.1992
 423  357.3156
 424  217.6685
 425  174.0555
 426  258.1374
 427  295.0247
 428  295.9968
 429  263.3609
 430  220.1216
 431  276.5849
 432  247.7699
 433  319.0514
 434  374.7449
 435  305.7818
 436  237.9664
 437  301.1884
 438  351.6753
 439  322.4465
 440  373.2093
 441  421.9503
 442  277.2404
 443  310.8583
 444  268.4909
 445  308.9901
 446  285.2896
 447  313.12
 448  326.8604
 449  272.8756
 450  275.9687
 451  290.2462
 452  306.2457
 453  358.346
 454  333.6859
 455  296.906
 456  343.3764
 457  360.1439
 458  295.7759
 459  306.4867
 460  318.441
 461  426.2184
 462  465.794
 463  485.8435
 464  394.5692
 465  291.4969
 466  332.4755
 467  357.8977
 468  321.6686
 469  317.632
 470  305.1654
 471  384.7815
 472  399.1502
 473  351.3469
 474  302.8655
 475  247.7183
 476  295.1845
 477  449.1146
 478  393.1664
 479  419.4585
 480  358.8735
 481  347.4734
 482  359.6943
 483  312.4346
 484  371.588
 485  406.619
 486  398.2756
 487  432.2725
 488  408.1252
 489  382.9108
 490  295.5759
 491  255.0834
 492  391.2899
 493  515.0439
 494  410.3757
 495  354.5003
 496  327.2245
 497  182.7098
 498  184.6177
 499  293.195
 500  234.1158
 501  296.7464
 502  340.3851
 503  402.509
 504  412.8722
 505  382.5526
 506  403.1895
 507  430.5209
 508  422.5238
 509  574.1748
 510  684.1022
 511  795.1152
