# Input file       =  1204994642.105844_cleaned.dat
# Candidate        =  PSR_0332+5434
# Telescope        =  AR
# Epoch_topo       =  58190.697038262086
# Epoch_bary       =  N/A
# T_sample         =  0.002
# Data Folded      =  7340032
# Data Avg         =  0.0179391767003298
# Data StdDev      =  1.00003928616761 
# Profile Bins     =  512
# Profile Avg      =  257.113231475335 
# Profile StdDev   =  119.737740228902 
# Reduced chi-sqr  =  1.143
# Prob(Noise)      <  0.0139   (~2.2 sigma)
# P_topo (ms)      =  714.578343870775  +/- 0.000276
# P'_topo (s/s)    =  -0                +/- 1.46e-10
# P''_topo (s/s^2) =  0                 +/- 6.43e-14
# P_bary (ms)      =  N/A
# P'_bary (s/s)    =  N/A
# P''_bary (s/s^2) =  N/A
# P_orb (s)        =  N/A
# asin(i)/c (s)    =  N/A
# eccentricity     =  N/A
# w (rad)          =  N/A
# T_peri           =  N/A
######################################################
   0  897.8098
   1  900.9193
   2  652.8418
   3  373.3583
   4  431.3107
   5  394.7335
   6  222.3179
   7  210.2527
   8  225.995
   9  325.7572
  10  379.8366
  11  356.593
  12  471.4149
  13  358.6725
  14  307.5051
  15  379.5012
  16  357.0253
  17  302.2782
  18  257.0191
  19  219.7539
  20  229.7346
  21  205.507
  22  215.6164
  23  233.5626
  24  187.4625
  25  102.4188
  26  124.1499
  27  92.45827
  28  131.5517
  29  234.1694
  30  344.5404
  31  328.4156
  32  225.4058
  33  227.2702
  34  168.026
  35  220.9948
  36  100.5696
  37  118.5618
  38  187.4545
  39  171.9846
  40  137.2898
  41  155.3366
  42  259.9843
  43  168.2392
  44  151.761
  45  196.235
  46  140.962
  47  127.8767
  48  224.015
  49  172.8405
  50  104.1696
  51  177.8261
  52  128.4323
  53  150.4297
  54  167.5855
  55  236.0916
  56  198.8098
  57  220.2653
  58  212.8599
  59  200.5195
  60  166.8837
  61  192.3756
  62  122.1422
  63  246.949
  64  390.0157
  65  356.3275
  66  258.2709
  67  290.3958
  68  240.4506
  69  250.4413
  70  244.851
  71  94.59393
  72  202.3433
  73  274.1971
  74  160.0341
  75  226.2188
  76  299.8768
  77  275.1002
  78  250.4647
  79  271.2866
  80  324.6065
  81  370.9722
  82  372.6436
  83  291.4764
  84  260.5982
  85  368.0251
  86  196.357
  87  151.9378
  88  291.4532
  89  359.2803
  90  337.0704
  91  294.4575
  92  296.0133
  93  308.5679
  94  232.8048
  95  225.3629
  96  243.5548
  97  161.792
  98  117.4799
  99  102.2232
 100  104.7508
 101  142.1124
 102  57.80134
 103  69.65046
 104  101.559
 105  229.0552
 106  187.4302
 107  227.5429
 108  319.4264
 109  321.0636
 110  287.2807
 111  170.7092
 112  99.65143
 113  222.7631
 114  263.637
 115  266.1453
 116  206.2896
 117  237.9382
 118  309.3967
 119  259.9676
 120  286.5096
 121  354.38
 122  228.0005
 123  311.3554
 124  331.9843
 125  355.4496
 126  354.9809
 127  322.2607
 128  281.9926
 129  206.4744
 130  210.704
 131  236.1037
 132  230.7159
 133  223.6568
 134  275.1716
 135  323.3774
 136  315.7416
 137  239.7722
 138  190.9445
 139  176.4549
 140  197.6699
 141  268.1278
 142  330.7809
 143  429.5941
 144  415.8652
 145  305.1044
 146  347.631
 147  257.1232
 148  159.2612
 149  310.6115
 150  329.0513
 151  275.9643
 152  235.6311
 153  327.6296
 154  363.215
 155  406.6789
 156  277.4624
 157  379.8938
 158  329.2816
 159  255.2059
 160  247.7599
 161  284.8391
 162  276.3444
 163  258.9003
 164  234.635
 165  279.8816
 166  342.0432
 167  232.3724
 168  208.9812
 169  243.2431
 170  239.8105
 171  272.0909
 172  224.4339
 173  226.0998
 174  143.0508
 175  351.6421
 176  397.8521
 177  277.7963
 178  256.4427
 179  333.0102
 180  324.0548
 181  281.5818
 182  364.911
 183  286.4511
 184  226.8786
 185  250.4182
 186  268.8618
 187  218.7541
 188  289.8484
 189  374.4564
 190  369.3953
 191  257.073
 192  187.9313
 193  214.938
 194  330.856
 195  371.7785
 196  338.7816
 197  303.3752
 198  273.7143
 199  371.8806
 200  303.2746
 201  278.3924
 202  282.6341
 203  462.0813
 204  393.476
 205  284.3128
 206  189.6436
 207  254.7842
 208  231.3486
 209  255.9119
 210  359.8421
 211  259.9725
 212  281.8985
 213  271.2531
 214  286.5483
 215  311.9757
 216  314.8537
 217  246.9729
 218  161.296
 219  328.5776
 220  322.5016
 221  245.9977
 222  271.2395
 223  133.3821
 224  264.3311
 225  302.2487
 226  356.4524
 227  249.5668
 228  140.0686
 229  292.0004
 230  318.7763
 231  362.883
 232  379.4529
 233  292.5665
 234  281.869
 235  256.3353
 236  229.1084
 237  157.0511
 238  215.8311
 239  242.4965
 240  328.0391
 241  246.4023
 242  240.6357
 243  363.6135
 244  338.3205
 245  240.8818
 246  363.3116
 247  352.2095
 248  250.8216
 249  283.5344
 250  335.4059
 251  294.3617
 252  263.8627
 253  399.835
 254  415.1267
 255  239.4687
 256  153.6257
 257  240.1007
 258  335.9868
 259  299.8893
 260  349.1031
 261  347.3519
 262  201.7859
 263  197.9847
 264  202.517
 265  240.0867
 266  313.1198
 267  171.5034
 268  125.5528
 269  196.9664
 270  249.52
 271  209.9585
 272  203.4397
 273  215.8196
 274  286.218
 275  424.5825
 276  330.4478
 277  311.3577
 278  254.0906
 279  156.1619
 280  197.9517
 281  240.4064
 282  239.4784
 283  307.0273
 284  265.1133
 285  247.6099
 286  241.2413
 287  242.6386
 288  164.4175
 289  186.4093
 290  347.9392
 291  335.5325
 292  194.9083
 293  287.6377
 294  434.1476
 295  407.3856
 296  378.5036
 297  377.1622
 298  230.9659
 299  195.6648
 300  141.3488
 301  216.6344
 302  351.6756
 303  205.0022
 304  310.9574
 305  217.0389
 306  242.6073
 307  255.187
 308  176.8392
 309  200.6753
 310  392.6484
 311  360.9148
 312  305.1527
 313  370.2186
 314  383.5785
 315  326.1969
 316  290.7477
 317  294.9265
 318  382.8737
 319  356.9059
 320  294.5916
 321  352.8361
 322  373.4124
 323  358.6867
 324  288.472
 325  228.9237
 326  255.9197
 327  222.2485
 328  253.0014
 329  211.2678
 330  217.7358
 331  226.5976
 332  226.4508
 333  110.8691
 334  149.7614
 335  294.026
 336  388.579
 337  287.3914
 338  151.6315
 339  137.7023
 340  239.711
 341  297.8978
 342  261.1719
 343  251.2752
 344  208.2803
 345  240.6725
 346  209.7694
 347  220.8526
 348  232.4562
 349  235.1285
 350  182.8613
 351  161.3341
 352  113.4358
 353  82.96779
 354  225.7679
 355  227.4232
 356  262.7042
 357  198.188
 358  230.9884
 359  269.2763
 360  232.5743
 361  214.5489
 362  195.0457
 363  227.4924
 364  222.3906
 365  204.5122
 366  274.5506
 367  356.6354
 368  423.486
 369  433.7339
 370  247.4752
 371  244.292
 372  344.75
 373  274.3698
 374  218.9592
 375  372.6786
 376  344.0134
 377  313.4791
 378  295.8762
 379  250.551
 380  254.0897
 381  341.0211
 382  167.8294
 383  189.2824
 384  240.6188
 385  201.5365
 386  237.8892
 387  208.5168
 388  173.29
 389  236.2995
 390  390.9948
 391  260.4595
 392  210.3262
 393  168.1063
 394  147.7919
 395  76.98816
 396  113.7973
 397  228.3873
 398  302.8675
 399  233.2874
 400  140.7399
 401  143.2616
 402  227.7
 403  295.0256
 404  323.765
 405  277.2036
 406  275.1808
 407  265.2368
 408  133.772
 409  87.87033
 410  155.4755
 411  296.4936
 412  279.6456
 413  291.1408
 414  131.6209
 415  214.7915
 416  388.7327
 417  308.3372
 418  215.2342
 419  147.8914
 420  122.3248
 421  114.6642
 422  226.2126
 423  287.3077
 424  251.1841
 425  244.3586
 426  151.5614
 427  108.4431
 428  149.1499
 429  204.9019
 430  184.2137
 431  238.92
 432  245.6389
 433  285.7841
 434  293.8273
 435  227.9803
 436  206.7711
 437  346.1447
 438  345.2319
 439  180.778
 440  138.1872
 441  212.9897
 442  266.2238
 443  147.5443
 444  130.5231
 445  136.4378
 446  207.1012
 447  213.1425
 448  212.9857
 449  142.7759
 450  292.531
 451  363.8963
 452  253.5801
 453  213.8157
 454  254.2695
 455  270.4944
 456  340.8044
 457  233.3811
 458  219.9452
 459  383.6584
 460  310.6201
 461  266.0185
 462  168.5207
 463  124.3274
 464  253.0669
 465  221.5826
 466  282.3418
 467  230.7868
 468  236.7833
 469  267.3666
 470  220.6497
 471  290.6622
 472  242.6848
 473  85.8213
 474  81.30964
 475  262.2393
 476  205.2607
 477  218.7171
 478  124.6022
 479  170.114
 480  286.4996
 481  196.3434
 482  196.4355
 483  164.6842
 484  169.1772
 485  90.10897
 486  264.9108
 487  232.2841
 488  219.0297
 489  201.3463
 490  168.6511
 491  154.5848
 492  162.2648
 493  187.4497
 494  208.2196
 495  281.476
 496  282.7869
 497  275.9687
 498  327.1014
 499  250.4849
 500  174.717
 501  118.9609
 502  224.0626
 503  319.2123
 504  323.2229
 505  294.3897
 506  347.3845
 507  206.2871
 508  381.0103
 509  469.8187
 510  505.6732
 511  732.2744
