# Input file       =  1204620467.112361_cleaned.dat
# Candidate        =  PSR_0332+5434
# Telescope        =  AR
# Epoch_topo       =  58186.366309170844
# Epoch_bary       =  N/A
# T_sample         =  0.002
# Data Folded      =  7208960
# Data Avg         =  0.0228657190892089
# Data StdDev      =  0.999946611237192
# Profile Bins     =  512
# Profile Avg      =  321.998383939599 
# Profile StdDev   =  118.652840726939 
# Reduced chi-sqr  =  1.821
# Prob(Noise)      <  7.59e-27   (~10.7 sigma)
# P_topo (ms)      =  714.579164326896  +/- 7.16e-05
# P'_topo (s/s)    =  -0                +/- 3.85e-11
# P''_topo (s/s^2) =  0                 +/- 1.73e-14
# P_bary (ms)      =  N/A
# P'_bary (s/s)    =  N/A
# P''_bary (s/s^2) =  N/A
# P_orb (s)        =  N/A
# asin(i)/c (s)    =  N/A
# eccentricity     =  N/A
# w (rad)          =  N/A
# T_peri           =  N/A
######################################################
   0  951.8454
   1  846.319
   2  809.5775
   3  541.1365
   4  520.6856
   5  534.0116
   6  514.6022
   7  354.0748
   8  278.4055
   9  387.1131
  10  511.8326
  11  489.609
  12  427.2462
  13  415.9413
  14  468.9746
  15  400.8649
  16  317.7298
  17  295.9253
  18  326.8441
  19  400.4879
  20  490.0381
  21  450.1859
  22  446.3615
  23  322.3513
  24  388.5415
  25  447.3967
  26  516.6664
  27  472.8738
  28  365.588
  29  574.5859
  30  527.8854
  31  414.4159
  32  352.3279
  33  320.5909
  34  376.8819
  35  390.6453
  36  319.9843
  37  409.7004
  38  564.0462
  39  466.3705
  40  393.5311
  41  255.1557
  42  210.7925
  43  289.6419
  44  312.491
  45  399.2654
  46  459.522
  47  475.1958
  48  232.2559
  49  159.9069
  50  270.9968
  51  324.8901
  52  360.5816
  53  422.8654
  54  469.8506
  55  527.93
  56  383.5473
  57  387.8244
  58  388.5797
  59  419.2551
  60  344.2753
  61  391.5762
  62  368.0362
  63  461.5144
  64  574.9783
  65  446.507
  66  240.4719
  67  255.2322
  68  359.287
  69  359.6483
  70  340.8257
  71  487.8219
  72  459.9017
  73  284.3994
  74  326.6187
  75  502.5853
  76  427.481
  77  358.7058
  78  313.2991
  79  316.5708
  80  330.1096
  81  304.0365
  82  274.7034
  83  287.8636
  84  356.9019
  85  397.41
  86  300.6428
  87  199.9162
  88  222.312
  89  347.6053
  90  305.5356
  91  349.2724
  92  353.2386
  93  354.7391
  94  404.9051
  95  388.7325
  96  361.184
  97  416.636
  98  367.302
  99  184.2174
 100  193.1949
 101  228.5505
 102  290.7489
 103  361.6333
 104  385.3847
 105  401.6547
 106  289.8997
 107  320.7884
 108  280.3322
 109  314.2639
 110  402.2447
 111  371.3139
 112  386.3299
 113  328.386
 114  168.3114
 115  221.1615
 116  272.6996
 117  317.7399
 118  344.736
 119  340.2493
 120  367.6921
 121  382.605
 122  495.032
 123  347.488
 124  250.5358
 125  285.538
 126  315.7961
 127  400.7409
 128  367.5335
 129  343.9082
 130  325.9672
 131  305.0404
 132  230.557
 133  203.3248
 134  399.2254
 135  479.6868
 136  475.8014
 137  383.5945
 138  394.6424
 139  302.2387
 140  367.5662
 141  397.9339
 142  294.5603
 143  351.3878
 144  277.8792
 145  249.3237
 146  213.8431
 147  295.232
 148  331.882
 149  258.5815
 150  292.1162
 151  423.9367
 152  462.3168
 153  339.4295
 154  401.5776
 155  465.01
 156  312.1959
 157  306.3124
 158  308.5336
 159  366.452
 160  371.2633
 161  315.6998
 162  335.8383
 163  407.0523
 164  229.3509
 165  307.2809
 166  213.2753
 167  322.4636
 168  416.5909
 169  510.9395
 170  413.2886
 171  331.3945
 172  352.3308
 173  385.1417
 174  375.3158
 175  364.8894
 176  234.5078
 177  353.0598
 178  224.6819
 179  274.9926
 180  154.618
 181  195.915
 182  136.4663
 183  250.1078
 184  292.6232
 185  320.548
 186  341.7344
 187  395.6386
 188  241.5363
 189  332.1685
 190  388.1299
 191  254.0667
 192  231.8344
 193  192.8943
 194  283.511
 195  363.9407
 196  333.4297
 197  225.7888
 198  19.06149
 199  126.2476
 200  279.6552
 201  328.7234
 202  350.3131
 203  398.3579
 204  352.5046
 205  233.2197
 206  198.5508
 207  353.8456
 208  389.9241
 209  295.5765
 210  303.9692
 211  378.9328
 212  434.965
 213  352.9433
 214  374.9741
 215  296.3172
 216  148.1222
 217  200.2457
 218  297.936
 219  344.3274
 220  440.8628
 221  351.4071
 222  274.8574
 223  216.9185
 224  231.1389
 225  247.6582
 226  143.4788
 227  133.2247
 228  253.723
 229  300.906
 230  237.587
 231  156.6701
 232  95.70767
 233  228.5341
 234  279.8469
 235  346.1302
 236  475.0275
 237  286.8372
 238  166.0664
 239  256.3557
 240  170.429
 241  185.514
 242  261.5974
 243  292.931
 244  240.0254
 245  262.6178
 246  271.5475
 247  159.0791
 248  171.3094
 249  220.0982
 250  190.0458
 251  233.2096
 252  400.6388
 253  342.6021
 254  220.6021
 255  204.2355
 256  261.7652
 257  238.1574
 258  351.2731
 259  231.1239
 260  291.5167
 261  259.0971
 262  223.4433
 263  254.7283
 264  329.0907
 265  196.2283
 266  153.3185
 267  236.5565
 268  351.3344
 269  342.8881
 270  236.8384
 271  143.3239
 272  153.0385
 273  281.1278
 274  232.7932
 275  134.746
 276  165.5788
 277  247.8696
 278  226.8455
 279  173.5234
 280  149.2121
 281  192.3152
 282  208.6516
 283  269.4314
 284  281.3393
 285  302.0392
 286  294.4294
 287  335.2575
 288  318.7632
 289  226.2518
 290  151.0146
 291  188.6372
 292  273.6606
 293  352.4455
 294  315.439
 295  387.1484
 296  353.8679
 297  288.5702
 298  108.4885
 299  386.6576
 300  458.7856
 301  303.2197
 302  372.7157
 303  245.8069
 304  152.1824
 305  194.1493
 306  254.1765
 307  224.9951
 308  287.4276
 309  247.4557
 310  192.2635
 311  333.2714
 312  319.6831
 313  229.9003
 314  261.2937
 315  343.717
 316  242.0601
 317  231.9647
 318  360.2854
 319  308.2851
 320  207.1605
 321  198.9892
 322  270.5529
 323  260.7526
 324  321.2898
 325  276.8426
 326  207.2023
 327  228.4461
 328  96.29469
 329  150.7734
 330  122.1141
 331  150.9829
 332  318.9867
 333  289.7498
 334  180.2126
 335  329.6147
 336  469.7884
 337  211.6506
 338  164.8066
 339  260.7722
 340  360.1319
 341  296.9579
 342  221.1756
 343  172.1385
 344  251.6837
 345  211.9293
 346  182.4276
 347  104.0976
 348  83.96804
 349  74.43073
 350  162.2119
 351  260.0642
 352  275.5155
 353  173.9469
 354  170.7465
 355  237.4171
 356  293.938
 357  221.5155
 358  224.0245
 359  180.4779
 360  281.3185
 361  217.5078
 362  100.3535
 363  234.5628
 364  382.4003
 365  186.4752
 366  201.5313
 367  368.7624
 368  401.5007
 369  456.5272
 370  436.9305
 371  350.4986
 372  480.2083
 373  367.5322
 374  354.8434
 375  229.4951
 376  218.8257
 377  369.5183
 378  343.1853
 379  225.367
 380  234.2044
 381  240.398
 382  213.493
 383  251.511
 384  269.744
 385  345.6162
 386  309.3329
 387  235.3334
 388  255.1135
 389  345.0393
 390  275.7281
 391  272.316
 392  365.4442
 393  314.2923
 394  250.6255
 395  98.11743
 396  214.8291
 397  350.9741
 398  309.3665
 399  280.7604
 400  378.3316
 401  557.5263
 402  522.224
 403  411.7697
 404  377.335
 405  313.6383
 406  471.4789
 407  312.2696
 408  275.1563
 409  178.859
 410  354.8341
 411  212.094
 412  214.0165
 413  333.6957
 414  199.4708
 415  238.9336
 416  315.996
 417  341.2346
 418  467.8906
 419  462.0131
 420  360.5197
 421  209.3883
 422  219.7578
 423  338.6451
 424  270.6799
 425  379.2809
 426  410.5434
 427  306.1794
 428  259.4842
 429  101.0546
 430  209.0963
 431  368.6971
 432  310.4289
 433  273.0004
 434  324.106
 435  400.8125
 436  387.7813
 437  335.4442
 438  349.1701
 439  436.1519
 440  355.3813
 441  173.2452
 442  238.6296
 443  428.601
 444  406.0458
 445  295.0934
 446  233.9746
 447  390.3724
 448  278.5998
 449  291.0985
 450  294.7829
 451  383.4678
 452  369.4041
 453  345.6734
 454  385.7281
 455  335.1887
 456  472.3452
 457  448.5904
 458  353.0627
 459  372.0075
 460  529.9455
 461  363.5952
 462  234.2923
 463  243.3325
 464  304.8737
 465  322.6391
 466  338.8161
 467  473.1067
 468  377.2484
 469  304.7726
 470  242.6535
 471  374.9171
 472  276.7291
 473  251.0568
 474  230.1061
 475  447.7006
 476  539.6439
 477  467.8888
 478  278.2259
 479  222.9051
 480  322.1643
 481  270.3632
 482  247.406
 483  420.8011
 484  456.0457
 485  303.7533
 486  310.9327
 487  260.2997
 488  306.0376
 489  406.4458
 490  278.6042
 491  366.5005
 492  541.4203
 493  497.74
 494  164.9017
 495  223.258
 496  376.2165
 497  408.7785
 498  495.4223
 499  475.1528
 500  533.7394
 501  454.49
 502  383.1315
 503  383.6059
 504  475.3076
 505  634.5497
 506  504.3281
 507  451.2011
 508  624.0514
 509  710.7729
 510  790.9314
 511  984.4293
