# Input file       =  1204822943.102232_cleaned.dat
# Candidate        =  PSR_0332+5434
# Telescope        =  AR
# Epoch_topo       =  58188.709781275837
# Epoch_bary       =  N/A
# T_sample         =  0.002
# Data Folded      =  7340032
# Data Avg         =  0.025516073910782
# Data StdDev      =  1.00006132637662 
# Profile Bins     =  512
# Profile Avg      =  365.834464093535 
# Profile StdDev   =  119.740379170049 
# Reduced chi-sqr  =  1.314
# Prob(Noise)      <  2.15e-06   (~4.6 sigma)
# P_topo (ms)      =  714.578934988594  +/- 0.000237
# P'_topo (s/s)    =  -0                +/- 1.25e-10
# P''_topo (s/s^2) =  0                 +/- 5.52e-14
# P_bary (ms)      =  N/A
# P'_bary (s/s)    =  N/A
# P''_bary (s/s^2) =  N/A
# P_orb (s)        =  N/A
# asin(i)/c (s)    =  N/A
# eccentricity     =  N/A
# w (rad)          =  N/A
# T_peri           =  N/A
######################################################
   0  920.7494
   1  793.061
   2  733.2922
   3  435.1491
   4  456.2588
   5  432.6361
   6  529.2542
   7  349.867
   8  350.4777
   9  411.8909
  10  347.5891
  11  324.9438
  12  333.8391
  13  496.3045
  14  469.6447
  15  430.5153
  16  408.5759
  17  357.941
  18  387.809
  19  399.1611
  20  369.8639
  21  293.3954
  22  249.0388
  23  201.6039
  24  337.9668
  25  341.6431
  26  311.9647
  27  246.8501
  28  385.7146
  29  518.5142
  30  376.5226
  31  338.2101
  32  358.5314
  33  322.082
  34  340.0737
  35  403.3062
  36  503.6376
  37  428.0946
  38  444.9292
  39  488.8576
  40  389.7498
  41  259.7252
  42  332.5497
  43  401.5192
  44  507.8419
  45  480.2821
  46  399.1919
  47  380.7015
  48  368.5146
  49  421.3071
  50  422.1999
  51  373.1651
  52  422.187
  53  406.2297
  54  428.6637
  55  487.5729
  56  410.2579
  57  299.296
  58  345.6984
  59  429.0981
  60  400.1612
  61  433.2841
  62  386.5325
  63  354.8604
  64  470.7957
  65  412.7441
  66  319.4481
  67  186.6432
  68  339.6276
  69  345.6271
  70  262.2099
  71  297.9837
  72  244.5402
  73  344.7823
  74  302.0722
  75  323.175
  76  310.2169
  77  270.8246
  78  248.9038
  79  326.3387
  80  399.4065
  81  416.7381
  82  288.2572
  83  346.0019
  84  273.3403
  85  358.6466
  86  451.0457
  87  440.8232
  88  472.1049
  89  363.9382
  90  305.4913
  91  343.2389
  92  347.3125
  93  301.851
  94  243.4881
  95  341.4416
  96  374.5711
  97  388.74
  98  363.5609
  99  343.7129
 100  291.8199
 101  329.1434
 102  361.4715
 103  304.3714
 104  314.8767
 105  277.3269
 106  305.1208
 107  329.9534
 108  272.8021
 109  322.7998
 110  326.5442
 111  180.9561
 112  206.8613
 113  263.5576
 114  273.6121
 115  311.4483
 116  296.1617
 117  273.8749
 118  207.4418
 119  287.9629
 120  251.5426
 121  350.0956
 122  322.5195
 123  207.478
 124  315.5767
 125  345.836
 126  410.7388
 127  337.8871
 128  460.9335
 129  441.5249
 130  322.6924
 131  320.6733
 132  412.8987
 133  377.2991
 134  331.3153
 135  357.5706
 136  323.9427
 137  286.3479
 138  341.073
 139  337.0099
 140  270.1931
 141  279.6009
 142  331.0136
 143  145.9411
 144  218.1589
 145  314.774
 146  275.9696
 147  184.3423
 148  288.3376
 149  348.3956
 150  255.7617
 151  225.5603
 152  325.7424
 153  281.8994
 154  221.9964
 155  287.0428
 156  196.5452
 157  255.1827
 158  297.4569
 159  302.9948
 160  166.3223
 161  147.2686
 162  144.3976
 163  274.006
 164  367.299
 165  252.1745
 166  313.0179
 167  237.7344
 168  274.3613
 169  250.9157
 170  347.1296
 171  390.8174
 172  158.0411
 173  406.9707
 174  357.2136
 175  320.2335
 176  282.1599
 177  353.3618
 178  299.4823
 179  333.1345
 180  283.6423
 181  343.7043
 182  329.9474
 183  350.6383
 184  318.9263
 185  420.2932
 186  404.0455
 187  425.8793
 188  290.6083
 189  359.3166
 190  354.4307
 191  351.1996
 192  421.7175
 193  507.9743
 194  377.4881
 195  417.937
 196  344.9285
 197  390.779
 198  334.5109
 199  386.2963
 200  484.0623
 201  419.7783
 202  245.0538
 203  359.8083
 204  329.5327
 205  384.7168
 206  443.1125
 207  505.1986
 208  479.9998
 209  394.2749
 210  330.2148
 211  312.0523
 212  338.3001
 213  360.4213
 214  390.9763
 215  386.5199
 216  379.755
 217  207.716
 218  184.8306
 219  259.0686
 220  432.1635
 221  504.7479
 222  447.1985
 223  282.2135
 224  150.3529
 225  158.9947
 226  284.1954
 227  434.189
 228  383.6385
 229  399.6087
 230  515.0475
 231  490.6981
 232  391.9758
 233  408.8258
 234  482.0594
 235  406.3147
 236  300.5157
 237  232.2828
 238  237.4849
 239  253.8486
 240  301.8846
 241  176.802
 242  240.4879
 243  366.1295
 244  372.1986
 245  190.3234
 246  129.9946
 247  338.9905
 248  279.7946
 249  397.4243
 250  432.2144
 251  270.702
 252  327.8505
 253  315.2796
 254  168.2782
 255  198.2946
 256  309.2246
 257  291.0199
 258  232.5808
 259  156.4433
 260  184.5733
 261  207.0543
 262  211.9855
 263  270.2828
 264  365.0982
 265  336.6842
 266  414.6556
 267  396.1338
 268  250.2634
 269  254.8833
 270  224.1903
 271  387.7151
 272  400.0473
 273  395.4229
 274  258.1288
 275  329.7936
 276  469.4981
 277  491.7003
 278  481.3764
 279  436.5409
 280  389.5833
 281  349.9645
 282  310.0164
 283  335.0658
 284  484.0385
 285  463.8515
 286  356.9501
 287  278.7725
 288  371.6514
 289  454.6468
 290  246.6577
 291  239.863
 292  298.7391
 293  312.6584
 294  317.8038
 295  510.7874
 296  531.746
 297  338.016
 298  277.203
 299  372.7278
 300  325.5614
 301  408.3809
 302  512.1352
 303  416.5794
 304  376.4049
 305  371.2265
 306  351.589
 307  323.682
 308  323.2451
 309  325.0547
 310  340.1153
 311  435.1593
 312  379.5298
 313  325.6049
 314  344.5583
 315  472.4986
 316  382.2955
 317  353.105
 318  406.1934
 319  349.6803
 320  377.6877
 321  317.697
 322  413.446
 323  351.2083
 324  286.1092
 325  365.2361
 326  446.4959
 327  403.6779
 328  465.9767
 329  524.6733
 330  467.1206
 331  337.4294
 332  254.1754
 333  268.4578
 334  364.8286
 335  348.1501
 336  273.6074
 337  156.7111
 338  146.1436
 339  312.0591
 340  380.7639
 341  379.0776
 342  413.361
 343  456.088
 344  518.4598
 345  431.5683
 346  372.7411
 347  436.1172
 348  386.735
 349  455.7627
 350  477.1289
 351  550.2729
 352  499.9058
 353  402.1772
 354  367.1592
 355  356.3827
 356  258.7605
 357  175.0617
 358  328.4953
 359  310.5276
 360  293.6683
 361  286.026
 362  194.6522
 363  319.9789
 364  411.9884
 365  329.6467
 366  419.2877
 367  340.5611
 368  245.1844
 369  258.2566
 370  309.9312
 371  377.5897
 372  400.3637
 373  446.5002
 374  397.6484
 375  516.0627
 376  498.3793
 377  493.984
 378  446.3064
 379  374.616
 380  389.122
 381  275.3878
 382  277.387
 383  391.6258
 384  450.0119
 385  353.027
 386  316.0615
 387  432.4727
 388  540.4085
 389  416.7433
 390  292.4425
 391  342.8577
 392  353.7762
 393  389.2571
 394  408.743
 395  397.9243
 396  519.8436
 397  468.3646
 398  462.0584
 399  468.2897
 400  342.2166
 401  431.1501
 402  521.8846
 403  607.0026
 404  518.619
 405  423.7294
 406  359.0801
 407  353.8694
 408  408.0171
 409  243.417
 410  299.9235
 411  366.1048
 412  304.0719
 413  325.2875
 414  421.0585
 415  411.5485
 416  423.0796
 417  462.1496
 418  452.838
 419  359.8035
 420  412.5805
 421  506.727
 422  379.9926
 423  467.5563
 424  509.6129
 425  445.5429
 426  319.3193
 427  408.8221
 428  475.2604
 429  504.1932
 430  485.7978
 431  461.0528
 432  495.506
 433  444.3324
 434  391.327
 435  405.1805
 436  338.2633
 437  308.1031
 438  298.9808
 439  359.9501
 440  300.4863
 441  333.7681
 442  397.8163
 443  421.4422
 444  502.7495
 445  393.7155
 446  372.7401
 447  404.7042
 448  324.3704
 449  347.2982
 450  405.7209
 451  451.2605
 452  381.7397
 453  312.2949
 454  384.2124
 455  457.7854
 456  381.9791
 457  373.8797
 458  298.5015
 459  415.5833
 460  353.0431
 461  364.1263
 462  484.1494
 463  437.1458
 464  299.8047
 465  331.4995
 466  312.4164
 467  439.9654
 468  499.0435
 469  522.7673
 470  443.6889
 471  338.1582
 472  441.8704
 473  508.3486
 474  523.308
 475  466.3605
 476  387.8606
 477  297.788
 478  299.9018
 479  210.6542
 480  197.9375
 481  429.7845
 482  492.2797
 483  432.8165
 484  296.0049
 485  270.3004
 486  407.0123
 487  270.6893
 488  320.6962
 489  387.2667
 490  329.765
 491  397.4489
 492  496.3066
 493  419.4335
 494  494.469
 495  421.2117
 496  445.4546
 497  502.83
 498  537.0794
 499  461.6175
 500  444.3589
 501  448.4724
 502  342.2945
 503  369.1158
 504  439.8925
 505  382.7827
 506  360.5842
 507  552.2505
 508  617.969
 509  667.7122
 510  753.321
 511  950.0042
