# Input file       =  1204367855.101803_cleaned.dat
# Candidate        =  PSR_0332+5434
# Telescope        =  AR
# Epoch_topo       =  58183.442559048650
# Epoch_bary       =  N/A
# T_sample         =  0.002
# Data Folded      =  7340032
# Data Avg         =  0.0154517329588644
# Data StdDev      =  0.999969558126076
# Profile Bins     =  512
# Profile Avg      =  220.82216349289  
# Profile StdDev   =  119.729391478768 
# Reduced chi-sqr  =  1.395
# Prob(Noise)      <  7.61e-09   (~5.7 sigma)
# P_topo (ms)      =  714.579719218041  +/- 0.00018
# P'_topo (s/s)    =  -0                +/- 9.48e-11
# P''_topo (s/s^2) =  0                 +/- 4.18e-14
# P_bary (ms)      =  N/A
# P'_bary (s/s)    =  N/A
# P''_bary (s/s^2) =  N/A
# P_orb (s)        =  N/A
# asin(i)/c (s)    =  N/A
# eccentricity     =  N/A
# w (rad)          =  N/A
# T_peri           =  N/A
######################################################
   0  951.0677
   1  968.1226
   2  696.3549
   3  382.545
   4  335.6903
   5  408.5912
   6  314.7423
   7  346.5542
   8  226.4665
   9  120.7266
  10  202.0583
  11  242.0259
  12  291.7979
  13  341.9513
  14  235.2592
  15  261.7269
  16  194.3027
  17  154.6763
  18  142.2274
  19  159.0319
  20  166.7199
  21  255.8231
  22  208.3713
  23  227.3622
  24  169.4429
  25  142.9724
  26  174.1113
  27  152.5081
  28  145.016
  29  162.7083
  30  153.6923
  31  102.0656
  32  217.964
  33  330.4571
  34  258.4048
  35  254.4849
  36  135.7009
  37  237.9039
  38  159.052
  39  228.8166
  40  268.101
  41  204.931
  42  82.45654
  43  122.6851
  44  144.6669
  45  180.834
  46  134.4975
  47  97.37215
  48  135.7363
  49  67.09426
  50  159.3473
  51  249.3007
  52  231.4662
  53  238.327
  54  231.972
  55  120.008
  56  129.586
  57  250.7374
  58  249.4908
  59  240.9211
  60  209.4226
  61  194.1948
  62  199.2824
  63  111.888
  64  151.5503
  65  58.87461
  66  177.4689
  67  211.1074
  68  123.5929
  69  153.3934
  70  227.3427
  71  271.9996
  72  47.68087
  73  -11.66671
  74  85.3176
  75  121.6261
  76  76.60096
  77  160.4981
  78  292.1549
  79  148.3373
  80  152.8828
  81  164.4085
  82  128.3122
  83  89.51066
  84  149.5137
  85  164.6765
  86  155.2131
  87  172.2028
  88  114.0261
  89  59.16304
  90  100.8436
  91  179.9084
  92  14.80813
  93  11.98695
  94  166.8905
  95  190.6041
  96  106.5044
  97  109.2869
  98  144.216
  99  17.58052
 100  76.88082
 101  119.609
 102  70.21461
 103  31.41025
 104  104.3801
 105  212.7502
 106  184.4803
 107  179.5426
 108  110.5021
 109  145.5702
 110  159.4529
 111  157.4091
 112  103.3469
 113  151.6662
 114  191.0564
 115  262.4742
 116  132.3013
 117  51.49545
 118  137.5546
 119  108.1038
 120  107.6238
 121  180.7883
 122  295.7358
 123  247.3
 124  197.1573
 125  331.4086
 126  244.1179
 127  94.48446
 128  34.44764
 129  77.69321
 130  167.8098
 131  95.29487
 132  231.341
 133  251.7741
 134  306.1565
 135  208.1519
 136  167.2343
 137  227.4462
 138  261.3589
 139  177.3431
 140  119.4909
 141  182.9576
 142  218.7167
 143  111.3767
 144  208.0524
 145  271.1243
 146  308.7558
 147  260.383
 148  387.3428
 149  304.4367
 150  345.312
 151  283.3863
 152  184.6939
 153  209.4938
 154  311.2374
 155  251.7535
 156  232.8154
 157  237.0872
 158  190.9415
 159  237.827
 160  164.1658
 161  183.171
 162  330.7612
 163  337.4926
 164  267.6632
 165  254.3685
 166  301.872
 167  198.3771
 168  232.3582
 169  210.6271
 170  243.1755
 171  376.2129
 172  450.4564
 173  400.725
 174  218.1159
 175  153.0825
 176  216.5314
 177  161.8774
 178  106.6956
 179  239.4895
 180  225.6936
 181  241.1689
 182  175.7332
 183  121.6211
 184  167.4112
 185  212.2057
 186  188.5099
 187  219.127
 188  180.6062
 189  206.6543
 190  259.0721
 191  257.17
 192  152.8741
 193  162.1588
 194  222.6234
 195  229.4777
 196  272.075
 197  255.0323
 198  164.5228
 199  144.4488
 200  137.5813
 201  -49.89878
 202  2.221436
 203  158.7615
 204  267.8227
 205  305.9363
 206  257.8465
 207  142.7155
 208  117.8334
 209  182.1762
 210  243.2955
 211  297.9826
 212  290.3384
 213  217.0098
 214  98.59547
 215  93.83515
 216  84.00703
 217  236.4999
 218  234.1008
 219  279.7888
 220  198.5381
 221  85.80399
 222  187.5809
 223  152.9341
 224  148.9152
 225  183.4167
 226  158.156
 227  164.2472
 228  207.9048
 229  130.1711
 230  176.5843
 231  163.4657
 232  178.8435
 233  192.8177
 234  126.4911
 235  164.9079
 236  267.6055
 237  258.6216
 238  423.6505
 239  311.25
 240  234.2182
 241  299.1368
 242  155.8771
 243  188.7864
 244  167.4954
 245  257.8486
 246  341.2862
 247  187.5703
 248  127.5065
 249  83.47836
 250  220.6973
 251  322.0529
 252  276.2339
 253  274.8322
 254  195.6544
 255  99.97015
 256  204.0639
 257  270.0143
 258  339.5312
 259  291.7472
 260  267.5046
 261  138.3104
 262  183.8837
 263  295.7163
 264  351.6638
 265  155.0466
 266  169.7641
 267  225.6187
 268  296.2671
 269  196.1591
 270  184.945
 271  88.95337
 272  278.3311
 273  269.6832
 274  250.8205
 275  228.2959
 276  136.7836
 277  128.8038
 278  136.7941
 279  233.7064
 280  274.4295
 281  387.1224
 282  337.2599
 283  312.4053
 284  284.3934
 285  267.7611
 286  259.4934
 287  166.883
 288  189.8185
 289  232.8833
 290  228.1115
 291  273.7577
 292  211.1867
 293  220.0934
 294  268.9836
 295  213.1448
 296  218.9395
 297  258.9412
 298  271.4182
 299  284.8178
 300  266.8631
 301  225.4494
 302  269.1102
 303  177.8148
 304  313.1678
 305  381.2661
 306  261.3889
 307  305.2253
 308  295.9952
 309  185.299
 310  156.0393
 311  183.2143
 312  193.835
 313  224.8016
 314  192.4355
 315  238.3221
 316  189.2338
 317  172.7183
 318  225.9934
 319  287.0017
 320  370.5842
 321  410.6589
 322  304.5557
 323  272.6797
 324  279.7186
 325  344.3304
 326  250.8893
 327  226.861
 328  412.8685
 329  489.4268
 330  314.9311
 331  262.2497
 332  338.0792
 333  282.9708
 334  278.0524
 335  199.6965
 336  304.2163
 337  374.2257
 338  375.0703
 339  325.1799
 340  291.3506
 341  302.6702
 342  368.2302
 343  330.3797
 344  183.4583
 345  275.3102
 346  263.265
 347  310.3883
 348  301.1116
 349  260.8137
 350  246.2613
 351  186.0341
 352  197.7986
 353  195.211
 354  236.832
 355  197.4209
 356  171.358
 357  279.2948
 358  351.8664
 359  407.3208
 360  251.4945
 361  253.5457
 362  191.1264
 363  263.7931
 364  275.9542
 365  265.0617
 366  240.6492
 367  156.0886
 368  73.75855
 369  205.795
 370  162.6523
 371  160.0422
 372  140.0476
 373  285.4475
 374  352.5898
 375  313.3827
 376  324.7783
 377  391.3333
 378  241.694
 379  150.4906
 380  92.40405
 381  134.895
 382  262.4449
 383  281.7884
 384  257.3939
 385  262.443
 386  278.0192
 387  192.9681
 388  270.1731
 389  205.8792
 390  113.0667
 391  208.6786
 392  160.1227
 393  177.1529
 394  125.9517
 395  276.8676
 396  302.6395
 397  153.45
 398  176.0498
 399  91.39462
 400  228.9295
 401  392.5332
 402  287.442
 403  213.8572
 404  272.0962
 405  268.696
 406  314.328
 407  331.9481
 408  273.9861
 409  313.7823
 410  290.7004
 411  253.2097
 412  192.1732
 413  306.2502
 414  220.3667
 415  185.2937
 416  204.8171
 417  39.29762
 418  59.08262
 419  255.1129
 420  283.9626
 421  183.5876
 422  162.0692
 423  46.91317
 424  147.8978
 425  268.0406
 426  282.4363
 427  271.9892
 428  334.5891
 429  256.9843
 430  217.5062
 431  286.0364
 432  138.85
 433  170.3957
 434  201.5321
 435  263.1227
 436  265.9085
 437  237.9087
 438  191.5372
 439  243.0836
 440  211.6319
 441  175.2224
 442  161.9328
 443  219.9453
 444  156.2046
 445  108.1905
 446  244.4566
 447  275.2163
 448  341.2741
 449  288.7256
 450  163.658
 451  226.5296
 452  168.3997
 453  137.4014
 454  252.3015
 455  273.3478
 456  257.8944
 457  265.6823
 458  241.1522
 459  241.1172
 460  134.147
 461  83.73058
 462  239.0615
 463  256.9082
 464  327.438
 465  209.137
 466  230.9352
 467  100.4996
 468  132.4197
 469  142.9632
 470  158.3712
 471  178.2969
 472  172.1209
 473  201.3366
 474  273.6834
 475  238.8624
 476  177.9597
 477  141.1714
 478  142.6911
 479  229.0316
 480  105.5707
 481  31.60047
 482  34.86747
 483  80.58196
 484  70.11437
 485  177.7377
 486  395.6165
 487  383.7811
 488  235.484
 489  82.73299
 490  187.6994
 491  89.77168
 492  326.2906
 493  370.8981
 494  293.7396
 495  279.8138
 496  249.8658
 497  325.008
 498  180.1252
 499  111.0022
 500  177.1056
 501  259.0816
 502  294.6407
 503  257.0914
 504  395.0894
 505  336.0076
 506  292.8226
 507  295.5565
 508  384.827
 509  449.4091
 510  569.3984
 511  799.0659
