# Input file       =  1204477759.110359_cleaned.dat
# Candidate        =  PSR_0332+5434
# Telescope        =  AR
# Epoch_topo       =  58184.714596184713
# Epoch_bary       =  N/A
# T_sample         =  0.002
# Data Folded      =  7340032
# Data Avg         =  0.0305372546486355
# Data StdDev      =  1.00005705794845 
# Profile Bins     =  512
# Profile Avg      =  437.774337741792 
# Profile StdDev   =  119.739868098183 
# Reduced chi-sqr  =  1.589
# Prob(Noise)      <  4.68e-16   (~8.0 sigma)
# P_topo (ms)      =  714.579865993216  +/- 0.000466
# P'_topo (s/s)    =  -0                +/- 2.46e-10
# P''_topo (s/s^2) =  0                 +/- 1.09e-13
# P_bary (ms)      =  N/A
# P'_bary (s/s)    =  N/A
# P''_bary (s/s^2) =  N/A
# P_orb (s)        =  N/A
# asin(i)/c (s)    =  N/A
# eccentricity     =  N/A
# w (rad)          =  N/A
# T_peri           =  N/A
######################################################
   0  1080.106
   1  1087.63
   2  888.9766
   3  665.512
   4  546.3505
   5  589.8566
   6  581.9763
   7  600.0078
   8  556.0577
   9  532.2617
  10  510.3924
  11  586.6101
  12  612.7418
  13  527.0624
  14  392.5972
  15  447.5984
  16  482.7501
  17  504.9697
  18  564.7599
  19  572.3622
  20  551.3289
  21  576.989
  22  649.235
  23  542.8765
  24  514.5098
  25  485.5674
  26  435.6435
  27  462.5019
  28  495.1929
  29  492.1124
  30  467.5238
  31  461.6956
  32  437.3863
  33  388.5095
  34  363.6651
  35  434.2469
  36  499.1555
  37  446.6134
  38  364.7838
  39  461.6883
  40  506.7477
  41  557.4606
  42  508.7759
  43  463.8994
  44  479.0958
  45  415.2324
  46  473.2173
  47  439.9648
  48  501.7144
  49  507.9014
  50  457.0188
  51  625.4926
  52  601.9779
  53  568.1321
  54  568.7225
  55  473.0399
  56  518.232
  57  498.9735
  58  604.0347
  59  494.2787
  60  445.4688
  61  502.9464
  62  441.6924
  63  429.6534
  64  497.9688
  65  461.1841
  66  450.8329
  67  493.8947
  68  495.2953
  69  422.3632
  70  440.7787
  71  538.9659
  72  613.3408
  73  513.3102
  74  479.5248
  75  499.8452
  76  475.7234
  77  402.4237
  78  295.1274
  79  408.241
  80  520.5933
  81  449.0656
  82  384.1846
  83  389.6455
  84  437.6954
  85  437.737
  86  336.008
  87  389.9719
  88  487.9492
  89  407.2925
  90  370.3189
  91  489.9866
  92  352.274
  93  402.4505
  94  406.5889
  95  420.0877
  96  500.1544
  97  433.4522
  98  316.5854
  99  344.3285
 100  375.2101
 101  482.4556
 102  490.5353
 103  371.3191
 104  324.6859
 105  428.5811
 106  329.2077
 107  361.1942
 108  452.9321
 109  445.4586
 110  356.5588
 111  324.5805
 112  434.5026
 113  460.3897
 114  395.8732
 115  358.1721
 116  309.9618
 117  356.9728
 118  363.7235
 119  301.435
 120  409.8402
 121  369.2825
 122  428.8619
 123  351.9612
 124  359.7401
 125  520.6274
 126  465.0879
 127  498.0802
 128  571.301
 129  410.7998
 130  484.2428
 131  433.1116
 132  413.0884
 133  459.0315
 134  401.8601
 135  420.6709
 136  485.413
 137  506.7457
 138  295.6365
 139  315.0335
 140  450.7005
 141  534.8279
 142  451.4444
 143  407.8585
 144  408.812
 145  436.3114
 146  494.9033
 147  407.25
 148  377.2966
 149  425.5726
 150  379.4911
 151  456.7993
 152  556.5286
 153  530.4058
 154  482.693
 155  538.9238
 156  420.8711
 157  426.6862
 158  494.7888
 159  467.3197
 160  380.2381
 161  419.2411
 162  460.7732
 163  481.0275
 164  351.3366
 165  409.3292
 166  541.401
 167  351.3094
 168  373.8749
 169  397.6021
 170  336.0126
 171  446.137
 172  393.0424
 173  416.3795
 174  377.0604
 175  379.0409
 176  360.2112
 177  347.6047
 178  440.5437
 179  431.6169
 180  366.0055
 181  230.584
 182  283.4744
 183  320.4263
 184  270.6836
 185  279.2616
 186  433.0283
 187  417.0582
 188  326.1784
 189  310.3677
 190  399.3239
 191  303.5791
 192  318.36
 193  396.3484
 194  382.7787
 195  360.3224
 196  400.9502
 197  264.5858
 198  320.2444
 199  447.3152
 200  306.4348
 201  267.9258
 202  306.4159
 203  376.8133
 204  292.9426
 205  220.0927
 206  340.9893
 207  410.4922
 208  276.7619
 209  330.8971
 210  418.4908
 211  377.373
 212  402.5483
 213  386.8759
 214  489.6961
 215  561.2735
 216  444.7192
 217  434.3935
 218  392.3674
 219  442.0975
 220  423.4169
 221  441.2452
 222  361.2012
 223  347.1869
 224  404.6981
 225  381.5321
 226  401.6879
 227  383.8314
 228  376.6095
 229  374.5953
 230  390.2808
 231  412.5997
 232  247.8009
 233  240.8389
 234  367.5759
 235  293.8818
 236  214.8347
 237  291.0544
 238  195.5117
 239  239.0561
 240  219.9493
 241  292.5942
 242  328.1665
 243  301.5723
 244  384.4507
 245  354.802
 246  239.0138
 247  298.2353
 248  390.5691
 249  290.2975
 250  427.3642
 251  341.1276
 252  406.983
 253  399.841
 254  344.382
 255  372.3192
 256  249.1418
 257  259.9214
 258  297.3069
 259  283.7864
 260  340.3378
 261  368.7302
 262  374.5343
 263  385.9834
 264  349.892
 265  353.7989
 266  277.329
 267  198.5121
 268  162.116
 269  275.981
 270  388.3633
 271  386.2293
 272  348.6204
 273  349.0736
 274  373.2825
 275  285.6566
 276  289.6472
 277  387.2052
 278  375.0826
 279  352.1604
 280  385.7243
 281  387.8218
 282  300.7258
 283  317.9666
 284  350.0614
 285  336.3716
 286  391.7232
 287  468.4673
 288  362.1324
 289  389.4853
 290  382.625
 291  264.5127
 292  270.7216
 293  358.9052
 294  332.0199
 295  377.6002
 296  438.5135
 297  323.2884
 298  284.2389
 299  300.4718
 300  356.1534
 301  388.5272
 302  378.9601
 303  293.3679
 304  371.5459
 305  313.1856
 306  286.222
 307  369.4548
 308  392.7323
 309  307.3243
 310  260.1529
 311  267.8721
 312  327.8647
 313  496.6752
 314  381.6599
 315  336.9081
 316  332.9872
 317  422.3377
 318  383.8786
 319  327.2951
 320  424.4256
 321  456.3207
 322  443.064
 323  392.8851
 324  327.3791
 325  248.3282
 326  349.6353
 327  434.5875
 328  389.3647
 329  375.6641
 330  380.0685
 331  366.9524
 332  438.5034
 333  545.4495
 334  532.2342
 335  433.4038
 336  267.727
 337  273.1133
 338  374.433
 339  376.4483
 340  463.7499
 341  447.0008
 342  501.6987
 343  472.643
 344  260.9729
 345  381.9069
 346  422.8553
 347  461.317
 348  374.992
 349  337.4744
 350  373.0289
 351  441.993
 352  271.7334
 353  333.7404
 354  453.4553
 355  497.3122
 356  475.2812
 357  378.1632
 358  413.3101
 359  466.8291
 360  550.619
 361  566.926
 362  507.7061
 363  387.627
 364  490.7935
 365  656.8011
 366  671.6867
 367  566.9825
 368  423.5187
 369  435.9925
 370  526.6447
 371  409.5599
 372  496.677
 373  551.415
 374  545.0939
 375  375.8144
 376  420.5717
 377  505.0796
 378  502.3456
 379  330.269
 380  384.559
 381  445.1077
 382  421.0899
 383  460.2302
 384  461.1054
 385  456.2307
 386  542.1068
 387  488.3184
 388  500.6711
 389  461.9921
 390  283.1305
 391  397.4763
 392  463.1272
 393  512.2823
 394  491.5809
 395  489.2395
 396  496.6545
 397  527.0734
 398  479.9244
 399  494.2594
 400  544.6599
 401  430.2831
 402  460.4915
 403  551.6783
 404  401.8064
 405  449.2223
 406  570.0801
 407  521.4103
 408  555.5515
 409  521.0674
 410  451.6212
 411  399.5248
 412  291.418
 413  298.9363
 414  390.8187
 415  428.1384
 416  381.7135
 417  406.6591
 418  350.915
 419  341.1188
 420  451.2974
 421  508.4239
 422  473.4029
 423  370.332
 424  530.1087
 425  484.1283
 426  533.8082
 427  599.5833
 428  596.8539
 429  564.8889
 430  554.4948
 431  597.0426
 432  497.8398
 433  477.9583
 434  503.1078
 435  477.6844
 436  565.9896
 437  571.5048
 438  578.3723
 439  568.8087
 440  485.4223
 441  358.3697
 442  462.8458
 443  445.6671
 444  432.9578
 445  484.4291
 446  515.9475
 447  538.5923
 448  519.7557
 449  535.5217
 450  398.6202
 451  467.4978
 452  512.4086
 453  588.7455
 454  589.0641
 455  597.7686
 456  529.1036
 457  477.5363
 458  424.5659
 459  498.932
 460  620.1392
 461  622.3322
 462  475.0609
 463  374.3984
 464  468.2026
 465  441.8675
 466  429.9549
 467  450.1553
 468  484.0273
 469  527.1436
 470  535.3345
 471  443.2617
 472  466.9172
 473  431.5116
 474  482.0635
 475  485.5836
 476  533.8253
 477  579.373
 478  565.9985
 479  582.2703
 480  505.3136
 481  590.5465
 482  518.1251
 483  495.7416
 484  498.8034
 485  517.0872
 486  468.7025
 487  567.4007
 488  610.7557
 489  501.7721
 490  450.3862
 491  549.2567
 492  384.0776
 493  492.0471
 494  697.7363
 495  559.9858
 496  471.3882
 497  515.6207
 498  418.4467
 499  434.6322
 500  552.6499
 501  548.6619
 502  528.2766
 503  547.6456
 504  686.2966
 505  666.9547
 506  659.9376
 507  713.5937
 508  671.4446
 509  767.4008
 510  740.8584
 511  954.4072
