# Input file       =  1204397746.104123_cleaned.dat
# Candidate        =  PSR_0332+5434
# Telescope        =  AR
# Epoch_topo       =  58183.788519723646
# Epoch_bary       =  N/A
# T_sample         =  0.002
# Data Folded      =  7340032
# Data Avg         =  0.0213850949767003
# Data StdDev      =  1.00015812684419 
# Profile Bins     =  512
# Profile Avg      =  306.625351412058 
# Profile StdDev   =  119.751969383954 
# Reduced chi-sqr  =  1.359
# Prob(Noise)      <  1.05e-07   (~5.2 sigma)
# P_topo (ms)      =  714.580198008087  +/- 0.000144
# P'_topo (s/s)    =  -0                +/- 7.61e-11
# P''_topo (s/s^2) =  0                 +/- 3.36e-14
# P_bary (ms)      =  N/A
# P'_bary (s/s)    =  N/A
# P''_bary (s/s^2) =  N/A
# P_orb (s)        =  N/A
# asin(i)/c (s)    =  N/A
# eccentricity     =  N/A
# w (rad)          =  N/A
# T_peri           =  N/A
######################################################
   0  924.4762
   1  992.5334
   2  755.7706
   3  487.2885
   4  327.7887
   5  295.8139
   6  301.9738
   7  335.5811
   8  374.9653
   9  446.0406
  10  467.1193
  11  306.7173
  12  309.7086
  13  382.946
  14  428.2099
  15  272.3073
  16  235.22
  17  364.1401
  18  256.7447
  19  230.6584
  20  248.304
  21  269.5005
  22  270.8936
  23  241.9941
  24  298.5481
  25  225.0042
  26  187.0809
  27  278.2091
  28  195.6603
  29  155.9368
  30  252.648
  31  361.3243
  32  287.3476
  33  260.6944
  34  301.3411
  35  233.4182
  36  53.72074
  37  272.5275
  38  267.2632
  39  339.2724
  40  301.8719
  41  270.5723
  42  261.4963
  43  286.4276
  44  313.6797
  45  326.2764
  46  244.0658
  47  325.6667
  48  463.5421
  49  291.9283
  50  353.0537
  51  378.4159
  52  344.1439
  53  402.2146
  54  377.5236
  55  497.8221
  56  384.0455
  57  366.5082
  58  392.7716
  59  466.6422
  60  437.5297
  61  392.8853
  62  344.5719
  63  369.408
  64  408.2442
  65  237.5738
  66  313.2704
  67  302.8094
  68  287.6911
  69  357.9703
  70  409.6124
  71  202.9642
  72  154.3966
  73  221.1695
  74  374.1149
  75  274.5894
  76  179.1477
  77  319.577
  78  239.2221
  79  216.3997
  80  225.5479
  81  196.6087
  82  287.8399
  83  321.8939
  84  285.0059
  85  274.0137
  86  368.4525
  87  416.8291
  88  493.3202
  89  413.8534
  90  300.8955
  91  274.1693
  92  257.4484
  93  330.5409
  94  275.1254
  95  352.005
  96  269.8453
  97  262.496
  98  313.9345
  99  273.6135
 100  240.3922
 101  282.7367
 102  259.626
 103  287.0345
 104  389.8267
 105  508.2927
 106  319.9063
 107  213.4969
 108  312.0921
 109  305.8155
 110  338.4453
 111  325.8417
 112  353.2131
 113  388.4619
 114  304.6235
 115  257.7151
 116  194.3381
 117  263.4098
 118  300.3211
 119  361.7134
 120  334.4664
 121  415.0777
 122  283.1598
 123  120.0181
 124  224.1056
 125  316.9344
 126  371.3567
 127  244.9758
 128  327.9418
 129  466.0691
 130  377.9403
 131  140.8321
 132  180.4894
 133  253.6527
 134  278.1406
 135  252.0537
 136  331.4527
 137  286.3932
 138  304.7592
 139  293.9129
 140  353.8806
 141  383.2065
 142  183.115
 143  259.7492
 144  282.4717
 145  129.0693
 146  318.4319
 147  397.3476
 148  422.5895
 149  362.4106
 150  192.6557
 151  146.5999
 152  126.8254
 153  327.6552
 154  403.1346
 155  418.447
 156  287.9119
 157  305.0981
 158  341.7074
 159  321.2993
 160  308.7167
 161  284.5795
 162  277.2029
 163  225.8069
 164  342.0326
 165  244.1916
 166  192.2618
 167  291.1021
 168  330.6125
 169  280.2699
 170  184.4195
 171  275.5347
 172  224.9289
 173  374.1119
 174  406.3147
 175  391.9228
 176  269.5548
 177  156.2255
 178  179.6195
 179  238.0768
 180  316.5762
 181  297.2171
 182  259.3782
 183  297.0689
 184  336.7113
 185  310.5034
 186  274.0845
 187  213.078
 188  344.4257
 189  350.9031
 190  362.907
 191  377.3388
 192  304.8391
 193  398.5672
 194  469.357
 195  375.6584
 196  313.8439
 197  250.5518
 198  258.5842
 199  384.0092
 200  477.8367
 201  496.5473
 202  362.8362
 203  302.2284
 204  354.1575
 205  440.4098
 206  300.9121
 207  340.8778
 208  425.7158
 209  379.1674
 210  317.3905
 211  280.5804
 212  325.4394
 213  178.0849
 214  309.6113
 215  409.4414
 216  226.0764
 217  218.0015
 218  312.5521
 219  424.6071
 220  436.3877
 221  330.891
 222  358.6144
 223  497.3769
 224  477.3588
 225  296.954
 226  334.7398
 227  388.8281
 228  270.3987
 229  233.8014
 230  308.482
 231  294.6627
 232  349.8581
 233  318.4862
 234  275.4633
 235  245.1046
 236  119.0901
 237  157.3297
 238  313.1742
 239  302.9401
 240  302.747
 241  294.2115
 242  251.6704
 243  231.6172
 244  277.4166
 245  219.971
 246  205.0835
 247  345.0625
 248  340.5984
 249  316.1227
 250  377.2648
 251  342.7871
 252  294.5384
 253  389.1671
 254  334.2607
 255  218.7779
 256  256.4798
 257  364.4255
 258  290.2732
 259  173.725
 260  188.3237
 261  79.37672
 262  148.0459
 263  131.4892
 264  333.628
 265  265.5186
 266  296.3991
 267  298.9766
 268  348.3849
 269  393.7024
 270  344.6369
 271  267.9048
 272  309.1107
 273  357.8749
 274  360.2553
 275  230.5661
 276  229.9158
 277  322.4936
 278  214.0957
 279  327.6902
 280  356.9175
 281  284.4421
 282  210.8056
 283  305.6839
 284  362.2622
 285  449.1002
 286  416.136
 287  343.8323
 288  325.0577
 289  385.5305
 290  308.7461
 291  257.4398
 292  405.6732
 293  504.084
 294  446.9734
 295  459.2443
 296  418.8007
 297  407.0715
 298  324.9288
 299  306.6713
 300  392.0793
 301  422.1121
 302  414.1732
 303  322.1067
 304  279.5548
 305  209.0445
 306  255.6962
 307  276.1156
 308  254.6527
 309  241.3414
 310  116.2027
 311  179.5977
 312  257.1603
 313  257.9993
 314  341.039
 315  398.5017
 316  226.6063
 317  238.9729
 318  296.1838
 319  297.4472
 320  338.5405
 321  329.6085
 322  329.1276
 323  254.8498
 324  163.1049
 325  255.0212
 326  194.0616
 327  319.0825
 328  350.4599
 329  352.5238
 330  319.4915
 331  264.9147
 332  160.5582
 333  208.9799
 334  206.7506
 335  197.5716
 336  271.5437
 337  244.3172
 338  325.306
 339  326.5305
 340  229.5838
 341  165.4391
 342  216.394
 343  308.394
 344  315.6765
 345  280.0531
 346  96.51874
 347  250.0761
 348  302.9926
 349  273.4521
 350  339.7235
 351  297.5804
 352  278.1955
 353  239.4337
 354  312.2105
 355  211.5285
 356  237.3198
 357  381.9139
 358  390.7439
 359  330.5971
 360  362.808
 361  381.1561
 362  279.5266
 363  232.401
 364  223.9773
 365  316.4087
 366  320.3727
 367  252.1339
 368  373.2868
 369  297.7328
 370  271.2204
 371  230.4361
 372  251.5506
 373  282.3226
 374  289.8653
 375  446.7137
 376  297.442
 377  269.8327
 378  297.6899
 379  277.6176
 380  298.4978
 381  388.1287
 382  333.6387
 383  308.3473
 384  274.1336
 385  303.8367
 386  336.1002
 387  349.7128
 388  313.3421
 389  341.3818
 390  373.0254
 391  287.9649
 392  257.4784
 393  282.064
 394  359.0762
 395  372.7214
 396  295.0299
 397  334.5164
 398  338.6665
 399  303.3316
 400  234.0335
 401  143.5373
 402  233.5122
 403  216.163
 404  221.2839
 405  221.2877
 406  215.9222
 407  239.5957
 408  173.2906
 409  182.3748
 410  257.4919
 411  288.8951
 412  272.8669
 413  363.4454
 414  349.7148
 415  310.7267
 416  237.5206
 417  324.139
 418  295.112
 419  425.2995
 420  264.1685
 421  186.0591
 422  276.3356
 423  386.945
 424  365.7142
 425  181.629
 426  187.7305
 427  265.2237
 428  253.3966
 429  189.7948
 430  203.201
 431  109.8972
 432  219.731
 433  296.1194
 434  337.894
 435  357.9858
 436  361.4747
 437  220.5546
 438  130.3053
 439  182.1023
 440  322.7032
 441  375.4861
 442  255.7181
 443  144.6082
 444  263.3697
 445  317.7605
 446  350.9165
 447  280.0532
 448  254.6706
 449  272.6412
 450  253.227
 451  359.6734
 452  261.3555
 453  235.3103
 454  206.1858
 455  313.4959
 456  405.6222
 457  102.8248
 458  136.7235
 459  339.0294
 460  298.7895
 461  153.7986
 462  128.9191
 463  275.3936
 464  414.7835
 465  368.0483
 466  363.2811
 467  269.9367
 468  396.011
 469  409.1304
 470  285.2878
 471  320.1461
 472  307.5889
 473  237.4776
 474  336.306
 475  431.1517
 476  184.2606
 477  289.7081
 478  321.3832
 479  401.7443
 480  438.9819
 481  335.9436
 482  234.5807
 483  183.9155
 484  260.8994
 485  341.6587
 486  394.0171
 487  139.6851
 488  114.0489
 489  171.2485
 490  283.9208
 491  350.1008
 492  373.4001
 493  417.53
 494  201.9552
 495  194.3907
 496  265.43
 497  308.7538
 498  292.8925
 499  236.2798
 500  391.6434
 501  432.1606
 502  343.4171
 503  327.7031
 504  377.0011
 505  368.8705
 506  447.7852
 507  480.6752
 508  523.5024
 509  678.1305
 510  924.191
 511  902.1395
