# Input file       =  1204133086.10236_cleaned.dat
# Candidate        =  PSR_0332+5434
# Telescope        =  AR
# Epoch_topo       =  58180.725325258798
# Epoch_bary       =  N/A
# T_sample         =  0.002
# Data Folded      =  7340032
# Data Avg         =  0.0243352204872692
# Data StdDev      =  1.00004517847907 
# Profile Bins     =  512
# Profile Avg      =  348.87608303263  
# Profile StdDev   =  119.738445733244 
# Reduced chi-sqr  =  1.037
# Prob(Noise)      <  0.273   (~0.6 sigma)
# P_topo (ms)      =  714.580533245666  +/- 0.000571
# P'_topo (s/s)    =  -0                +/- 3.01e-10
# P''_topo (s/s^2) =  0                 +/- 1.33e-13
# P_bary (ms)      =  N/A
# P'_bary (s/s)    =  N/A
# P''_bary (s/s^2) =  N/A
# P_orb (s)        =  N/A
# asin(i)/c (s)    =  N/A
# eccentricity     =  N/A
# w (rad)          =  N/A
# T_peri           =  N/A
######################################################
   0  866.3273
   1  899.8459
   2  767.3766
   3  562.3373
   4  451.6491
   5  453.7373
   6  395.7798
   7  427.9032
   8  406.3386
   9  388.2282
  10  275.2489
  11  405.6928
  12  469.3481
  13  289.0105
  14  349.2321
  15  330.9725
  16  397.2193
  17  377.1832
  18  394.6542
  19  451.7163
  20  482.0311
  21  387.3291
  22  356.9987
  23  379.5997
  24  357.9552
  25  451.8707
  26  359.123
  27  364.0587
  28  272.218
  29  302.712
  30  359.7147
  31  296.673
  32  294.8155
  33  244.2912
  34  365.0145
  35  330.0266
  36  369.8764
  37  345.4135
  38  437.3519
  39  590.9811
  40  537.9463
  41  525.0634
  42  420.326
  43  402.537
  44  470.2
  45  399.1511
  46  500.4104
  47  510.6141
  48  493.6072
  49  520.1342
  50  423.5905
  51  462.0097
  52  421.6193
  53  437.996
  54  495.1779
  55  472.3154
  56  452.2662
  57  432.9875
  58  409.9545
  59  417.2859
  60  363.5931
  61  353.9144
  62  268.603
  63  270.5018
  64  368.7226
  65  347.7522
  66  318.9642
  67  224.3391
  68  243.5083
  69  288.6084
  70  338.1449
  71  363.4033
  72  201.4415
  73  288.4051
  74  298.5631
  75  350.989
  76  308.3506
  77  279.1779
  78  293.5701
  79  327.4499
  80  291.4549
  81  287.6683
  82  381.2709
  83  348.9788
  84  322.351
  85  322.6307
  86  323.8939
  87  366.884
  88  342.2683
  89  315.3221
  90  269.5491
  91  298.8098
  92  374.6005
  93  439.5431
  94  509.7878
  95  466.6314
  96  443.4996
  97  250.9431
  98  261.9296
  99  292.0285
 100  325.1918
 101  431.4752
 102  354.0104
 103  461.3562
 104  562.0176
 105  395.3894
 106  282.5375
 107  377.7919
 108  453.1754
 109  404.8344
 110  365.3516
 111  330.8883
 112  288.8382
 113  407.9687
 114  384.8789
 115  421.9814
 116  316.0542
 117  381.4325
 118  399.9362
 119  430.6072
 120  432.9409
 121  414.4862
 122  384.7419
 123  518.2676
 124  460.5489
 125  346.5852
 126  411.3725
 127  355.0525
 128  336.2348
 129  366.8138
 130  415.6007
 131  376.3039
 132  337.863
 133  318.9438
 134  310.9667
 135  381.3169
 136  350.4629
 137  291.7938
 138  355.8551
 139  207.2422
 140  263.9208
 141  258.4618
 142  223.1969
 143  319.4555
 144  298.6083
 145  470.3638
 146  456.0167
 147  395.5676
 148  348.1545
 149  359.9629
 150  399.6591
 151  439.4682
 152  351.3384
 153  337.4874
 154  402.0619
 155  452.8177
 156  414.1789
 157  435.469
 158  333.1218
 159  454.2407
 160  382.0388
 161  312.2439
 162  353.1987
 163  374.7249
 164  378.0727
 165  235.6585
 166  313.6435
 167  452.2964
 168  473.2864
 169  403.0981
 170  379.2007
 171  322.3851
 172  319.0713
 173  336.6174
 174  289.2149
 175  300.8515
 176  376.5238
 177  378.7962
 178  403.8229
 179  449.4409
 180  428.5598
 181  329.4711
 182  324.0228
 183  374.7174
 184  275.5988
 185  370.3412
 186  273.3044
 187  340.5927
 188  522.6025
 189  559.5768
 190  476.3401
 191  428.7529
 192  364.3004
 193  356.7505
 194  381.2841
 195  389.0201
 196  462.4957
 197  364.0183
 198  319.2093
 199  318.7175
 200  335.049
 201  337.4806
 202  386.1245
 203  433.8363
 204  421.2605
 205  396.3646
 206  278.5497
 207  355.3762
 208  347.2633
 209  376.9659
 210  425.2464
 211  428.4475
 212  457.698
 213  425.2777
 214  303.3573
 215  378.9886
 216  379.4174
 217  347.0424
 218  339.9709
 219  345.1099
 220  312.778
 221  308.0636
 222  271.489
 223  379.3742
 224  362.7862
 225  314.9663
 226  312.3607
 227  351.0049
 228  392.8214
 229  449.0072
 230  384.0454
 231  300.9682
 232  269.6327
 233  364.0394
 234  274.7637
 235  450.697
 236  415.7839
 237  384.5629
 238  343.3072
 239  265.3246
 240  370.7216
 241  347.8156
 242  264.8359
 243  311.2162
 244  281.3892
 245  309.7878
 246  378.3651
 247  303.9525
 248  335.1129
 249  332.5826
 250  375.0507
 251  361.7019
 252  347.4879
 253  280.4672
 254  211.9031
 255  259.1728
 256  389.1562
 257  273.4899
 258  146.8792
 259  316.345
 260  353.841
 261  247.1557
 262  129.521
 263  152.0729
 264  223.9454
 265  393.2365
 266  349.6169
 267  296.3098
 268  161.3661
 269  274.3754
 270  294.0646
 271  241.0549
 272  370.0336
 273  292.3563
 274  280.1013
 275  215.7625
 276  155.8976
 277  284.2379
 278  271.8249
 279  318.5517
 280  328.9181
 281  225.8902
 282  253.0069
 283  308.4492
 284  288.0314
 285  315.8664
 286  329.3101
 287  346.5713
 288  362.8932
 289  341.8433
 290  259.003
 291  174.2032
 292  152.9309
 293  211.5328
 294  223.8253
 295  296.6015
 296  231.839
 297  296.9789
 298  364.4696
 299  327.7082
 300  365.057
 301  364.4197
 302  275.672
 303  319.1816
 304  457.4735
 305  361.2527
 306  294.4655
 307  301.1391
 308  365.7933
 309  325.2791
 310  428.7506
 311  436.0291
 312  317.1398
 313  261.9193
 314  307.6277
 315  244.0385
 316  432.5978
 317  507.9864
 318  407.2688
 319  388.1312
 320  335.0653
 321  368.8338
 322  392.5307
 323  292.5952
 324  375.2825
 325  382.8469
 326  454.6915
 327  361.9069
 328  326.9813
 329  379.2713
 330  328.2693
 331  339.926
 332  511.175
 333  508.2382
 334  411.3365
 335  350.3952
 336  345.368
 337  300.1944
 338  365.0863
 339  386.3477
 340  351.9552
 341  357.2104
 342  279.5763
 343  289.3156
 344  287.9585
 345  300.3191
 346  410.7278
 347  528.1329
 348  442.5822
 349  435.067
 350  316.2265
 351  349.8538
 352  391.275
 353  438.7179
 354  324.378
 355  219.3836
 356  239.486
 357  215.1991
 358  297.4945
 359  363.3877
 360  388.9597
 361  337.5029
 362  381.521
 363  383.1837
 364  484.9093
 365  326.5354
 366  232.6018
 367  353.7009
 368  322.9931
 369  302.9473
 370  387.6801
 371  305.1039
 372  289.102
 373  305.4241
 374  260.9354
 375  243.6767
 376  174.5863
 377  189.8039
 378  221.5155
 379  292.2119
 380  366.0665
 381  340.7056
 382  273.1241
 383  318.8422
 384  278.8552
 385  321.9742
 386  330.4909
 387  345.8202
 388  307.8097
 389  387.3774
 390  314.7342
 391  332.5042
 392  297.6278
 393  234.5039
 394  233.4196
 395  252.4586
 396  277.6756
 397  263.0126
 398  368.7386
 399  381.5089
 400  323.5784
 401  149.2731
 402  142.4129
 403  201.346
 404  282.8714
 405  328.4739
 406  381.4505
 407  230.1761
 408  262.161
 409  251.8018
 410  167.4615
 411  344.8453
 412  331.562
 413  346.8201
 414  266.6507
 415  297.2312
 416  335.9897
 417  250.9902
 418  207.8699
 419  387.0151
 420  346.9257
 421  335.1711
 422  173.6618
 423  270.7963
 424  315.8131
 425  187.2719
 426  189.7231
 427  296.9524
 428  284.9337
 429  301.201
 430  219.1671
 431  246.3866
 432  272.4794
 433  262.9496
 434  358.7961
 435  349.6475
 436  281.8378
 437  247.0102
 438  342.122
 439  327.2382
 440  327.8441
 441  419.0242
 442  356.861
 443  282.6175
 444  303.0555
 445  275.7196
 446  297.7328
 447  304.9123
 448  319.8175
 449  308.4349
 450  262.9196
 451  269.7998
 452  308.601
 453  319.5357
 454  366.5604
 455  307.6899
 456  310.2042
 457  371.1489
 458  321.4247
 459  300.8488
 460  294.1268
 461  380.5668
 462  451.6235
 463  490.1155
 464  446.1555
 465  342.2363
 466  279.1926
 467  371.6784
 468  314.1358
 469  339.9176
 470  289.6818
 471  353.1823
 472  392.6634
 473  387.7518
 474  316.965
 475  288.4745
 476  245.4409
 477  382.0093
 478  445.8978
 479  390.7047
 480  415.4782
 481  307.0129
 482  379.3412
 483  324.8412
 484  349.102
 485  385.0854
 486  398.2799
 487  406.6667
 488  435.727
 489  399.3132
 490  352.807
 491  263.5406
 492  296.1894
 493  450.5374
 494  499.3691
 495  357.5343
 496  377.5786
 497  266.1356
 498  142.5222
 499  252.9882
 500  275.6678
 501  244.2001
 502  316.1443
 503  360.7351
 504  416.5294
 505  393.945
 506  396.8918
 507  415.5644
 508  416.7113
 509  467.9628
 510  649.7445
 511  718.2577
