# Input file       =  1204397746.104123_cleaned.dat
# Candidate        =  PSR_0332+5434
# Telescope        =  AR
# Epoch_topo       =  58183.788519723646
# Epoch_bary       =  N/A
# T_sample         =  0.002
# Data Folded      =  7340032
# Data Avg         =  0.0213850949767003
# Data StdDev      =  1.00015812684419 
# Profile Bins     =  512
# Profile Avg      =  306.625351300233 
# Profile StdDev   =  119.751969383954 
# Reduced chi-sqr  =  1.379
# Prob(Noise)      <  2.49e-08   (~5.5 sigma)
# P_topo (ms)      =  714.580198087553  +/- 0.000143
# P'_topo (s/s)    =  -0                +/- 7.54e-11
# P''_topo (s/s^2) =  0                 +/- 3.33e-14
# P_bary (ms)      =  N/A
# P'_bary (s/s)    =  N/A
# P''_bary (s/s^2) =  N/A
# P_orb (s)        =  N/A
# asin(i)/c (s)    =  N/A
# eccentricity     =  N/A
# w (rad)          =  N/A
# T_peri           =  N/A
######################################################
   0  871.3931
   1  1005.519
   2  913.7082
   3  626.0121
   4  399.8264
   5  292.8672
   6  305.7959
   7  325.5835
   8  341.4131
   9  414.6013
  10  459.7839
  11  409.3431
  12  277.0047
  13  350.0886
  14  414.1095
  15  380.9726
  16  200.9334
  17  315.6907
  18  318.8321
  19  251.6745
  20  214.3427
  21  270.8495
  22  258.9686
  23  283.6584
  24  250.1708
  25  294.9777
  26  168.8972
  27  241.8562
  28  271.6661
  29  144.4416
  30  186.7728
  31  318.1364
  32  344.1084
  33  259.6978
  34  263.8623
  35  331.3149
  36  85.2875
  37  168.4082
  38  269.1546
  39  298.8972
  40  331.3303
  41  272.6231
  42  272.7509
  43  268.716
  44  313.801
  45  320.9783
  46  307.8619
  47  234.3525
  48  412.9731
  49  409.295
  50  266.9879
  51  415.5023
  52  325.9024
  53  395.1566
  54  360.1139
  55  451.0448
  56  454.619
  57  361.433
  58  376.0175
  59  427.7097
  60  474.3789
  61  420.0811
  62  369.8707
  63  317.9043
  64  426.7979
  65  314.5738
  66  271.0683
  67  313.213
  68  285.4732
  69  302.3455
  70  414.3116
  71  334.7909
  72  125.7526
  73  190.7451
  74  281.5175
  75  399.5441
  76  172.1715
  77  252.6278
  78  306.6038
  79  205.1873
  80  231.333
  81  202.5932
  82  241.7824
  83  305.6505
  84  311.4068
  85  258.2563
  86  325.6098
  87  382.7545
  88  460.7884
  89  478.5847
  90  351.7742
  91  289.9671
  92  248.6821
  93  314.3494
  94  299.6273
  95  297.692
  96  335.6507
  97  234.0273
  98  302.4726
  99  299.6475
 100  247.9046
 101  255.3675
 102  282.1443
 103  259.3759
 104  320.6989
 105  476.4312
 106  460.4436
 107  222.8151
 108  259.9353
 109  305.828
 110  321.8415
 111  323.2169
 112  336.9921
 113  377.4805
 114  378.3829
 115  270.6482
 116  228.4055
 117  214.9024
 118  280.157
 119  336.1885
 120  338.6536
 121  380.0763
 122  389.6218
 123  180.0232
 124  130.5445
 125  280.9967
 126  360.0819
 127  321.3738
 128  255.0768
 129  390.7026
 130  479.9917
 131  240.9458
 132  130.0169
 133  219.7865
 134  277.8718
 135  258.5934
 136  293.9848
 137  309.2001
 138  287.895
 139  308.1241
 140  323.5679
 141  388.7606
 142  297.9171
 143  157.0969
 144  341.2833
 145  167.1563
 146  209.4783
 147  365.1545
 148  428.2088
 149  398.8891
 150  278.9206
 151  161.4318
 152  146.5013
 153  184.5534
 154  391.6435
 155  402.7982
 156  378.9669
 157  268.3467
 158  330.6821
 159  327.4184
 160  322.1521
 161  288.1305
 162  301.2179
 163  229.5192
 164  298.1942
 165  310.1692
 166  207.7661
 167  208.8629
 168  324.1605
 169  329.4178
 170  205.354
 171  236.5113
 172  250.6979
 173  279.5826
 174  403.8046
 175  407.7861
 176  360.2404
 177  207.9574
 178  151.1691
 179  192.2159
 180  286.7972
 181  300.595
 182  298.8939
 183  250.7953
 184  337.3202
 185  310.1623
 186  310.2662
 187  227.5117
 188  268.0038
 189  371.2377
 190  335.2721
 191  384.2828
 192  349.2902
 193  304.3261
 194  482.9699
 195  405.7716
 196  377.3492
 197  258.1624
 198  259.5092
 199  277.8429
 200  449.1215
 201  469.9881
 202  478.0809
 203  300.561
 204  335.6511
 205  391.0859
 206  402.7287
 207  281.5664
 208  394.2215
 209  418.9644
 210  334.0432
 211  317.4169
 212  296.1026
 213  273.8316
 214  181.4746
 215  405.7529
 216  344.5705
 217  173.8992
 218  277.541
 219  349.5458
 220  464.8352
 221  372.382
 222  322.7713
 223  424.1225
 224  515.758
 225  401.6964
 226  275.8305
 227  395.3775
 228  337.7065
 229  222.1146
 230  280.4255
 231  297.5586
 232  319.3894
 233  364.0587
 234  287.4977
 235  271.2703
 236  178.1418
 237  98.94611
 238  245.6266
 239  313.4276
 240  321.8572
 241  287.7968
 242  294.3637
 243  207.2379
 244  257.6878
 245  260.2469
 246  196.8485
 247  274.0315
 248  346.859
 249  333.199
 250  323.5664
 251  385.6864
 252  299.825
 253  339.7209
 254  389.1835
 255  286.001
 256  207.0855
 257  316.5473
 258  359.6707
 259  218.3605
 260  182.3726
 261  149.3154
 262  82.6783
 263  150.4892
 264  212.9214
 265  338.4565
 266  263.0386
 267  282.7401
 268  333.9039
 269  363.3241
 270  409.8333
 271  273.7736
 272  274.5439
 273  332.1819
 274  384.9493
 275  303.1938
 276  197.3528
 277  307.3945
 278  249.5119
 279  261.9113
 280  334.8198
 281  353.9435
 282  234.0506
 283  226.1468
 284  347.4893
 285  392.9741
 286  455.7617
 287  386.162
 288  316.4019
 289  358.2121
 290  371.9098
 291  256.3245
 292  301.3169
 293  480.846
 294  471.3577
 295  474.1343
 296  431.6885
 297  420.9824
 298  370.0054
 299  296.0312
 300  352.6335
 301  391.703
 302  449.9408
 303  357.3818
 304  318.5033
 305  233.8042
 306  230.5426
 307  275.6834
 308  264.6324
 309  266.9493
 310  170.7793
 311  133.3026
 312  200.8692
 313  275.9618
 314  259.8897
 315  419.6778
 316  318.3183
 317  193.4702
 318  270.9637
 319  289.0166
 320  325.8853
 321  350.9403
 322  323.9432
 323  314.4943
 324  191.4372
 325  203.1092
 326  231.9942
 327  233.4612
 328  359.0811
 329  349.8509
 330  339.1419
 331  294.2577
 332  229.393
 333  150.7661
 334  244.6889
 335  161.0171
 336  256.7362
 337  246.6705
 338  276.2757
 339  342.1188
 340  293.2011
 341  196.9898
 342  164.7655
 343  275.2679
 344  308.6061
 345  318.9636
 346  192.2196
 347  120.2757
 348  316.131
 349  255.5537
 350  324.021
 351  313.9897
 352  315.3973
 353  227.7051
 354  298.9219
 355  264.5943
 356  203.5394
 357  278.2432
 358  422.3838
 359  360.7272
 360  330.704
 361  397.8956
 362  313.5028
 363  273.1905
 364  219.2015
 365  263.3004
 366  325.295
 367  274.3691
 368  311.0066
 369  362.715
 370  261.2325
 371  280.4558
 372  209.2147
 373  280.2228
 374  254.8689
 375  391.5549
 376  402.9924
 377  256.6115
 378  282.5721
 379  297.6754
 380  259.7464
 381  356.8803
 382  353.7101
 383  346.8485
 384  271.0514
 385  302.705
 386  301.8639
 387  363.3531
 388  344.1168
 389  296.3473
 390  382.4901
 391  314.7793
 392  278.1808
 393  259.2668
 394  311.3467
 395  380.1414
 396  327.3247
 397  313.6721
 398  340.2798
 399  337.3187
 400  261.8483
 401  202.932
 402  164.746
 403  250.404
 404  190.4704
 405  223.9688
 406  230.5391
 407  229.3071
 408  220.1826
 409  158.4654
 410  214.2022
 411  280.9919
 412  261.7406
 413  315.7612
 414  374.0376
 415  349.6108
 416  238.0977
 417  297.0403
 418  297.2156
 419  355.6818
 420  383.8644
 421  200.3175
 422  224.5702
 423  319.8412
 424  415.2234
 425  272.0662
 426  171.5484
 427  215.1388
 428  272.49
 429  212.7555
 430  209.1108
 431  152.8509
 432  154.0403
 433  245.3459
 434  342.9634
 435  305.889
 436  407.0587
 437  273.543
 438  201.2297
 439  104.9796
 440  274.7237
 441  342.2466
 442  366.925
 443  163.4424
 444  193.2929
 445  293.6172
 446  328.3506
 447  347.8562
 448  234.4367
 449  309.8965
 450  230.2509
 451  296.5796
 452  335.3806
 453  220.5906
 454  264.5492
 455  190.509
 456  415.432
 457  279.4117
 458  54.62169
 459  253.9326
 460  338.9166
 461  248.3688
 462  105.4738
 463  177.9724
 464  344.3619
 465  431.5133
 466  346.096
 467  340.4427
 468  259.9801
 469  464.2706
 470  325.1248
 471  315.6021
 472  309.0512
 473  298.2243
 474  221.8966
 475  453.081
 476  298.2446
 477  207.1677
 478  316.6897
 479  342.7409
 480  439.1685
 481  397.2293
 482  293.2576
 483  204.5476
 484  195.9524
 485  284.2336
 486  393.1497
 487  304.5894
 488  92.76105
 489  145.3829
 490  211.866
 491  330.1134
 492  353.8191
 493  415.3861
 494  337.382
 495  150.1176
 496  253.6437
 497  260.8421
 498  333.7681
 499  235.9035
 500  300.3967
 501  442.27
 502  382.3554
 503  319.7759
 504  373.2897
 505  368.2975
 506  393.6948
 507  462.0738
 508  486.34
 509  576.127
 510  783.6772
 511  957.1742
