# Input file       =  1204808031.109151_cleaned.dat
# Candidate        =  PSR_0332+5434
# Telescope        =  AR
# Epoch_topo       =  58188.537188763323
# Epoch_bary       =  N/A
# T_sample         =  0.002
# Data Folded      =  7340032
# Data Avg         =  0.0174524051111356
# Data StdDev      =  1.00007275656913 
# Profile Bins     =  512
# Profile Avg      =  250.090752736327 
# Profile StdDev   =  119.741747741704 
# Reduced chi-sqr  =  1.011
# Prob(Noise)      <  0.423   (~0.2 sigma)
# P_topo (ms)      =  714.578641430937  +/- 0.000886
# P'_topo (s/s)    =  -0                +/- 4.67e-10
# P''_topo (s/s^2) =  0                 +/- 2.06e-13
# P_bary (ms)      =  N/A
# P'_bary (s/s)    =  N/A
# P''_bary (s/s^2) =  N/A
# P_orb (s)        =  N/A
# asin(i)/c (s)    =  N/A
# eccentricity     =  N/A
# w (rad)          =  N/A
# T_peri           =  N/A
######################################################
   0  507.0304
   1  491.5022
   2  434.6265
   3  333.3497
   4  251.9539
   5  225.8369
   6  236.9756
   7  174.7409
   8  196.0351
   9  244.8176
  10  228.764
  11  185.8584
  12  204.8602
  13  246.1302
  14  230.356
  15  195.2372
  16  189.9163
  17  142.9739
  18  175.8187
  19  241.5863
  20  282.8674
  21  250.8229
  22  297.3681
  23  312.0197
  24  275.7541
  25  281.7474
  26  263.326
  27  285.2573
  28  271.0894
  29  255.4079
  30  247.0685
  31  244.8594
  32  220.0483
  33  219.8519
  34  257.0011
  35  314.8711
  36  247.9434
  37  237.8401
  38  258.262
  39  251.1413
  40  239.0022
  41  242.996
  42  229.4073
  43  246.5724
  44  261.7795
  45  227.438
  46  195.0412
  47  330.7332
  48  325.7704
  49  319.8138
  50  340.5383
  51  353.2324
  52  359.8873
  53  397.0956
  54  391.7671
  55  398.4141
  56  353.8438
  57  360.2766
  58  434.5026
  59  449.025
  60  364.3423
  61  369.9642
  62  375.1286
  63  391.9301
  64  324.7136
  65  263.6986
  66  286.2876
  67  306.732
  68  329.062
  69  295.2352
  70  338.126
  71  343.5948
  72  344.1649
  73  297.4809
  74  260.0841
  75  247.0249
  76  262.1419
  77  308.1856
  78  316.9724
  79  336.6013
  80  295.4359
  81  268.6274
  82  271.3155
  83  242.4816
  84  262.4527
  85  270.5189
  86  235.8963
  87  283.4708
  88  314.4376
  89  313.5393
  90  326.2618
  91  309.7534
  92  271.4967
  93  249.7557
  94  220.1652
  95  202.3998
  96  282.2713
  97  279.069
  98  261.3297
  99  262.2051
 100  300.8018
 101  316.0511
 102  282.2345
 103  198.885
 104  270.3039
 105  280.4937
 106  238.2845
 107  195.0054
 108  236.3478
 109  247.2119
 110  230.2518
 111  237.52
 112  267.4078
 113  266.4192
 114  251.29
 115  283.0691
 116  306.015
 117  296.6185
 118  263.7564
 119  221.3005
 120  162.4736
 121  259.4565
 122  302.5245
 123  316.7993
 124  275.7182
 125  298.8885
 126  295.7561
 127  295.6312
 128  294.0706
 129  256.0522
 130  220.5518
 131  232.8946
 132  247.0653
 133  278.713
 134  290.6305
 135  256.3553
 136  269.9658
 137  225.7174
 138  205.2458
 139  259.8867
 140  303.2484
 141  333.2191
 142  282.1401
 143  304.2568
 144  252.113
 145  296.2683
 146  316.5672
 147  292.5375
 148  346.2769
 149  415.0723
 150  440.1273
 151  389.2903
 152  363.7783
 153  426.5787
 154  417.1337
 155  428.8256
 156  414.7903
 157  435.6368
 158  402.1598
 159  433.5632
 160  505.7633
 161  462.6738
 162  436.1334
 163  370.375
 164  313.4599
 165  303.5363
 166  332.0512
 167  268.3906
 168  267.2036
 169  341.1319
 170  320.4342
 171  317.3114
 172  378.1794
 173  344.3333
 174  323.6084
 175  321.1583
 176  301.8237
 177  306.5583
 178  350.4689
 179  395.2523
 180  351.6147
 181  350.9872
 182  399.7153
 183  375.1795
 184  353.9945
 185  409.6195
 186  392.6681
 187  352.9024
 188  319.4929
 189  355.914
 190  377.4372
 191  312.6432
 192  308.659
 193  302.8988
 194  342.9246
 195  283.1698
 196  289.2439
 197  332.3924
 198  303.9397
 199  315.4699
 200  381.8815
 201  335.778
 202  280.4506
 203  247.4904
 204  243.6518
 205  254.6132
 206  255.1962
 207  284.9497
 208  298.6762
 209  312.8478
 210  296.7561
 211  287.7667
 212  262.3899
 213  294.1576
 214  339.3575
 215  283.9564
 216  244.4839
 217  289.942
 218  313.5623
 219  285.7328
 220  246.5275
 221  273.4969
 222  244.2361
 223  252.902
 224  196.2338
 225  255.2543
 226  231.635
 227  287.9556
 228  231.7955
 229  256.6071
 230  309.1039
 231  300.064
 232  313.6223
 233  270.6797
 234  256.9079
 235  292.4842
 236  304.8349
 237  264.1729
 238  317.3175
 239  298.3694
 240  325.3477
 241  276.277
 242  278.8812
 243  245.7392
 244  236.6229
 245  202.8755
 246  220.949
 247  215.1574
 248  211.6128
 249  199.6122
 250  176.2998
 251  247.7927
 252  284.2958
 253  255.2506
 254  267.5565
 255  263.118
 256  294.0496
 257  284.5746
 258  355.903
 259  388.3961
 260  435.0765
 261  426.679
 262  391.3372
 263  361.4779
 264  405.5371
 265  359.5392
 266  319.4671
 267  361.8804
 268  418.1504
 269  304.3635
 270  286.5918
 271  298.4821
 272  280.3543
 273  224.4797
 274  211.2815
 275  305.5714
 276  338.8191
 277  307.8908
 278  254.2349
 279  263.4942
 280  318.6638
 281  285.2899
 282  277.7163
 283  308.7768
 284  283.3129
 285  242.6002
 286  207.627
 287  238.6399
 288  256.4505
 289  245.8779
 290  242.1479
 291  235.3329
 292  206.5635
 293  187.6638
 294  211.1821
 295  268.874
 296  264.1832
 297  237.3718
 298  248.7218
 299  278.7466
 300  252.1187
 301  273.5202
 302  239.8015
 303  315.2905
 304  264.4322
 305  204.0757
 306  238.4361
 307  238.1489
 308  248.1958
 309  322.7186
 310  317.1069
 311  232.7298
 312  191.6762
 313  202.2776
 314  219.0605
 315  173.4003
 316  260.4273
 317  246.0299
 318  245.5904
 319  248.4651
 320  318.4636
 321  292.3004
 322  269.2765
 323  261.5994
 324  346.7926
 325  395.0844
 326  318.2815
 327  246.7971
 328  292.0458
 329  279.0715
 330  307.5802
 331  302.9519
 332  337.9028
 333  259.5397
 334  212.4061
 335  205.2397
 336  222.8079
 337  251.6119
 338  242.5762
 339  255.1741
 340  248.953
 341  192.3264
 342  178.797
 343  172.9095
 344  217.0223
 345  151.752
 346  181.5117
 347  126.8241
 348  124.2262
 349  187.2992
 350  257.0443
 351  202.9379
 352  219.2652
 353  209.6231
 354  247.9851
 355  171.3736
 356  160.517
 357  134.3423
 358  132.7419
 359  136.2628
 360  192.9782
 361  260.8542
 362  181.3243
 363  261.7066
 364  216.1094
 365  168.4448
 366  192.766
 367  209.8007
 368  233.14
 369  237.0565
 370  254.4421
 371  261.5616
 372  302.1785
 373  323.2715
 374  343.4925
 375  279.0387
 376  271.3877
 377  298.195
 378  253.9202
 379  247.9998
 380  284.6173
 381  280.6682
 382  142.8716
 383  128.1823
 384  222.5354
 385  207.1027
 386  185.8081
 387  218.8664
 388  221.6545
 389  141.9308
 390  157.6029
 391  202.2624
 392  181.4024
 393  192.683
 394  222.1188
 395  232.5076
 396  263.3333
 397  202.656
 398  269.5221
 399  257.0457
 400  231.8892
 401  195.6636
 402  150.0362
 403  160.9264
 404  93.45003
 405  153.9634
 406  215.9578
 407  214.8621
 408  189.733
 409  96.59538
 410  194.6236
 411  258.2069
 412  190.9821
 413  170.0226
 414  156.3058
 415  158.7095
 416  142.8748
 417  160.3601
 418  99.95319
 419  84.58814
 420  158.1352
 421  184.5875
 422  123.1305
 423  138.6978
 424  219.3913
 425  244.3648
 426  206.5722
 427  189.6555
 428  152.4828
 429  165.5348
 430  172.132
 431  186.4709
 432  236.9814
 433  247.5626
 434  177.1768
 435  206.6637
 436  173.1787
 437  132.4413
 438  176.7032
 439  211.9423
 440  255.5505
 441  262.8817
 442  248.284
 443  195.7048
 444  180.2436
 445  172.1016
 446  210.9948
 447  223.5427
 448  256.3845
 449  214.8189
 450  120.7388
 451  110.1268
 452  69.30684
 453  92.36672
 454  106.4017
 455  110.561
 456  96.35477
 457  87.68526
 458  28.59949
 459  78.92158
 460  82.70859
 461  86.2581
 462  139.3836
 463  90.13242
 464  142.1263
 465  193.2578
 466  181.6714
 467  146.752
 468  143.0403
 469  100.272
 470  117.6451
 471  126.0089
 472  63.42886
 473  99.67466
 474  129.0541
 475  131.575
 476  45.88387
 477  75.53224
 478  55.08049
 479  38.74391
 480  70.70042
 481  94.98921
 482  14.60955
 483  -14.30662
 484  80.18855
 485  43.53033
 486  57.42951
 487  60.85155
 488  78.33696
 489  50.00051
 490  66.75952
 491  87.822
 492  32.22633
 493  51.14569
 494  115.7588
 495  124.3887
 496  115.8037
 497  138.7467
 498  65.35947
 499  109.3894
 500  122.7858
 501  119.3784
 502  181.3916
 503  221.5476
 504  179.8258
 505  165.5381
 506  186.7538
 507  158.9398
 508  227.0557
 509  248.6216
 510  348.8783
 511  497.9754
