# Input file       =  1204047531.110057_cleaned.dat
# Candidate        =  PSR_0332+5434
# Telescope        =  AR
# Epoch_topo       =  58179.735105440479
# Epoch_bary       =  N/A
# T_sample         =  0.002
# Data Folded      =  7340032
# Data Avg         =  0.0213462119255325
# Data StdDev      =  1.00007980022453 
# Profile Bins     =  512
# Profile Avg      =  306.035963023551 
# Profile StdDev   =  119.742591099953 
# Reduced chi-sqr  =  1.000
# Prob(Noise)      <  0.492   (~0.0 sigma)
# P_topo (ms)      =  714.580673455063  +/- 0.000212
# P'_topo (s/s)    =  -0                +/- 1.12e-10
# P''_topo (s/s^2) =  0                 +/- 4.93e-14
# P_bary (ms)      =  N/A
# P'_bary (s/s)    =  N/A
# P''_bary (s/s^2) =  N/A
# P_orb (s)        =  N/A
# asin(i)/c (s)    =  N/A
# eccentricity     =  N/A
# w (rad)          =  N/A
# T_peri           =  N/A
######################################################
   0  654.2643
   1  623.7736
   2  461.1041
   3  369.2023
   4  328.769
   5  231.0636
   6  247.1175
   7  131.1044
   8  195.4702
   9  224.871
  10  299.2177
  11  257.0926
  12  232.8179
  13  335.8938
  14  343.1805
  15  274.4274
  16  212.7441
  17  161.2814
  18  252.296
  19  402.831
  20  304.2806
  21  243.8845
  22  288.1942
  23  285.8438
  24  300.1124
  25  236.0738
  26  145.6709
  27  277.4657
  28  398.9476
  29  315.1436
  30  323.8649
  31  427.3525
  32  364.5323
  33  350.4361
  34  295.4442
  35  289.1862
  36  244.4378
  37  338.6509
  38  290.1785
  39  253.8872
  40  307.5085
  41  358.9779
  42  419.7368
  43  326.1811
  44  314.5628
  45  408.1683
  46  400.9286
  47  348.0388
  48  242.7141
  49  270.8971
  50  312.2184
  51  320.1201
  52  262.6028
  53  251.3472
  54  231.7003
  55  226.039
  56  293.5416
  57  297.0782
  58  267.1561
  59  321.7392
  60  422.941
  61  421.1222
  62  280.6797
  63  293.8864
  64  325.2766
  65  229.1343
  66  363.8517
  67  436.3989
  68  342.3541
  69  404.409
  70  338.7446
  71  357.7944
  72  436.4875
  73  385.022
  74  402.347
  75  360.1253
  76  428.2477
  77  462.5404
  78  386.313
  79  413.0776
  80  308.911
  81  247.3173
  82  329.2153
  83  262.7426
  84  357.9142
  85  335.2382
  86  207.2683
  87  234.9661
  88  248.9103
  89  179.5996
  90  293.7641
  91  351.8494
  92  253.5294
  93  190.7701
  94  342.5884
  95  304.9339
  96  177.3407
  97  200.9068
  98  385.4931
  99  427.8026
 100  325.1819
 101  325.0685
 102  407.5194
 103  365.4825
 104  339.8953
 105  346.0543
 106  357.6852
 107  399.8846
 108  370.6269
 109  321.0406
 110  318.0681
 111  236.3477
 112  246.1663
 113  265.5674
 114  258.0536
 115  140.712
 116  170.3321
 117  259.23
 118  267.3966
 119  292.2263
 120  367.2774
 121  335.0876
 122  325.3176
 123  439.7247
 124  409.4121
 125  374.0903
 126  413.3026
 127  257.2479
 128  226.9973
 129  162.754
 130  176.9515
 131  236.8938
 132  227.9425
 133  141.8927
 134  43.51555
 135  82.92989
 136  156.5313
 137  187.6408
 138  160.5024
 139  89.39272
 140  103.7024
 141  217.3525
 142  298.6502
 143  262.4164
 144  302.185
 145  496.425
 146  427.0455
 147  355.3797
 148  300.2401
 149  156.8096
 150  168.7687
 151  176.8995
 152  236.7057
 153  268.4233
 154  256.3363
 155  235.926
 156  150.4367
 157  202.6942
 158  286.3896
 159  160.9506
 160  167.0612
 161  205.2616
 162  210.5944
 163  222.0328
 164  356.9292
 165  298.0728
 166  278.2214
 167  239.3929
 168  262.9068
 169  280.5559
 170  295.4859
 171  339.5879
 172  319.9478
 173  283.4248
 174  230.6893
 175  178.7825
 176  196.3757
 177  210.0096
 178  254.287
 179  226.1066
 180  226.043
 181  108.2209
 182  167.8976
 183  251.5126
 184  255.425
 185  229.7711
 186  253.14
 187  135.8082
 188  205.5696
 189  313.8059
 190  228.7599
 191  318.4251
 192  305.7299
 193  271.2675
 194  244.3859
 195  224.055
 196  195.5764
 197  279.5588
 198  380.8421
 199  396.0546
 200  358.8063
 201  206.793
 202  259.2589
 203  163.001
 204  214.1962
 205  297.419
 206  257.4712
 207  231.5558
 208  186.46
 209  225.3571
 210  379.1241
 211  351.9746
 212  283.7948
 213  278.664
 214  292.844
 215  263.8064
 216  290.4091
 217  307.5095
 218  332.2665
 219  305.9846
 220  290.1653
 221  288.2125
 222  237.803
 223  251.1319
 224  188.9055
 225  181.9192
 226  285.7083
 227  314.7062
 228  322.5472
 229  290.5833
 230  250.048
 231  300.4304
 232  255.2748
 233  318.8185
 234  369.6029
 235  268.8966
 236  263.7043
 237  356.1106
 238  355.4593
 239  475.2571
 240  426.0728
 241  293.9308
 242  242.2519
 243  310.1747
 244  295.6522
 245  276.032
 246  314.4987
 247  283.177
 248  163.2454
 249  223.615
 250  233.389
 251  267.8786
 252  234.5897
 253  258.1375
 254  273.0801
 255  198.893
 256  103.6355
 257  284.2873
 258  301.8569
 259  352.7994
 260  330.9619
 261  392.9957
 262  262.6339
 263  345.323
 264  408.4953
 265  236.706
 266  162.1435
 267  285.957
 268  294.28
 269  308.346
 270  285.6932
 271  253.8539
 272  290.0959
 273  229.2876
 274  236.7431
 275  272.8019
 276  347.9216
 277  308.7652
 278  206.923
 279  295.1168
 280  326.6967
 281  257.0633
 282  312.8179
 283  280.6996
 284  186.6506
 285  204.0748
 286  279.0636
 287  215.7052
 288  145.7483
 289  371.2995
 290  388.2485
 291  335.787
 292  405.6201
 293  300.2302
 294  276.1784
 295  319.4324
 296  545.1929
 297  426.2973
 298  344.2333
 299  306.6143
 300  253.5616
 301  277.2035
 302  239.2922
 303  293.5878
 304  198.6407
 305  280.2962
 306  282.0551
 307  259.6054
 308  322.5692
 309  333.6102
 310  228.4892
 311  321.7143
 312  341.2072
 313  282.2386
 314  257.7403
 315  210.9786
 316  284.0756
 317  320.8481
 318  199.1563
 319  299.15
 320  403.5689
 321  340.4619
 322  329.158
 323  368.2982
 324  421.6929
 325  379.8951
 326  408.3843
 327  355.2935
 328  498.3407
 329  472.8209
 330  357.2109
 331  421.0188
 332  382.8677
 333  393.0741
 334  389.6658
 335  335.3524
 336  344.4145
 337  318.4467
 338  316.794
 339  358.956
 340  353.751
 341  437.3481
 342  284.5718
 343  297.3916
 344  302.8613
 345  322.6309
 346  381.5011
 347  371.0836
 348  287.8718
 349  279.0097
 350  329.412
 351  277.6401
 352  278.7957
 353  199.2851
 354  265.7444
 355  231.8488
 356  288.8542
 357  275.8766
 358  213.6612
 359  299.3341
 360  327.6428
 361  399.3749
 362  356.712
 363  315.6054
 364  278.6078
 365  332.8318
 366  212.9429
 367  274.8134
 368  294.5684
 369  341.1211
 370  407.0085
 371  360.6678
 372  352.9159
 373  273.7468
 374  198.9449
 375  250.4989
 376  235.5145
 377  277.3634
 378  234.7479
 379  282.1947
 380  313.2608
 381  308.3096
 382  329.3975
 383  436.5116
 384  388.0689
 385  258.4832
 386  262.3532
 387  285.5774
 388  217.5653
 389  250.6484
 390  312.5133
 391  308.2887
 392  304.5428
 393  270.3857
 394  201.8959
 395  222.3048
 396  297.6471
 397  465.9955
 398  379.3018
 399  373.3119
 400  370.9675
 401  432.5438
 402  314.3998
 403  306.1039
 404  386.3855
 405  345.1551
 406  335.7578
 407  361.3287
 408  349.6498
 409  307.1549
 410  360.8605
 411  284.9905
 412  399.1653
 413  391.8757
 414  413.1607
 415  410.2777
 416  422.5722
 417  349.0804
 418  288.7263
 419  253.4534
 420  387.9034
 421  384.7067
 422  256.0862
 423  269.9093
 424  380.034
 425  520.4526
 426  392.6682
 427  282.1016
 428  386.1305
 429  298.7015
 430  179.3304
 431  155.28
 432  218.2006
 433  249.6352
 434  244.7328
 435  334.33
 436  448.4704
 437  487.6689
 438  481.8416
 439  445.505
 440  452.8613
 441  473.9248
 442  341.4153
 443  337.195
 444  410.7279
 445  326.568
 446  336.4073
 447  277.0726
 448  299.4059
 449  207.4745
 450  238.1721
 451  319.87
 452  380.2893
 453  345.9101
 454  306.0298
 455  265.9562
 456  326.1781
 457  370.9976
 458  441.8296
 459  285.2643
 460  290.6662
 461  283.6413
 462  255.1218
 463  281.5732
 464  339.9561
 465  352.1138
 466  300.9244
 467  366.5316
 468  274.6429
 469  258.8468
 470  324.9197
 471  448.5532
 472  491.2347
 473  434.4731
 474  336.0987
 475  399.3126
 476  495.2448
 477  384.9311
 478  276.0816
 479  317.2368
 480  286.127
 481  196.0311
 482  166.8209
 483  242.427
 484  341.8964
 485  306.3824
 486  299.2762
 487  115.9909
 488  105.6504
 489  236.134
 490  359.6005
 491  414.3231
 492  457.5332
 493  401.3121
 494  329.5726
 495  275.4077
 496  383.2458
 497  433.4674
 498  367.5525
 499  344.9284
 500  336.2047
 501  420.0275
 502  457.6251
 503  437.7108
 504  452.9077
 505  441.7455
 506  402.0866
 507  446.7019
 508  480.717
 509  583.2829
 510  672.0201
 511  562.0402
