# Input file       =  1204219305.114126_cleaned.dat
# Candidate        =  PSR_0332+5434
# Telescope        =  AR
# Epoch_topo       =  58181.723230487572
# Epoch_bary       =  N/A
# T_sample         =  0.002
# Data Folded      =  7340032
# Data Avg         =  0.0299717564960626
# Data StdDev      =  1.00004256884569 
# Profile Bins     =  512
# Profile Avg      =  429.485440387541 
# Profile StdDev   =  119.738133273915 
# Reduced chi-sqr  =  1.190
# Prob(Noise)      <  0.00195   (~2.9 sigma)
# P_topo (ms)      =  714.58039297678   +/- 0.000348
# P'_topo (s/s)    =  -0                +/- 1.83e-10
# P''_topo (s/s^2) =  0                 +/- 8.1e-14
# P_bary (ms)      =  N/A
# P'_bary (s/s)    =  N/A
# P''_bary (s/s^2) =  N/A
# P_orb (s)        =  N/A
# asin(i)/c (s)    =  N/A
# eccentricity     =  N/A
# w (rad)          =  N/A
# T_peri           =  N/A
######################################################
   0  862.6292
   1  896.424
   2  590.9031
   3  368.6964
   4  376.7741
   5  526.2623
   6  409.4117
   7  308.2477
   8  438.6408
   9  506.9969
  10  403.0526
  11  375.9356
  12  423.2459
  13  452.1979
  14  445.816
  15  431.1602
  16  443.8198
  17  419.5353
  18  316.8483
  19  343.041
  20  373.6143
  21  374.5704
  22  384.9754
  23  304.339
  24  345.174
  25  398.6545
  26  337.0443
  27  325.5362
  28  394.1485
  29  369.3124
  30  322.0232
  31  349.9452
  32  391.2215
  33  431.1712
  34  461.8827
  35  463.9323
  36  385.4427
  37  356.8026
  38  427.6447
  39  444.7482
  40  548.1304
  41  436.6967
  42  329.1118
  43  272.7598
  44  234.0635
  45  328.5536
  46  338.9721
  47  260.4677
  48  266.1043
  49  300.1071
  50  306.012
  51  422.8119
  52  516.9557
  53  522.6443
  54  501.8876
  55  405.0831
  56  417.2655
  57  305.9245
  58  355.5945
  59  485.9973
  60  462.1379
  61  347.2257
  62  450.4417
  63  337.1955
  64  388.7939
  65  338.5899
  66  358.5912
  67  271.8933
  68  272.6357
  69  460.4925
  70  360.6836
  71  266.2692
  72  285.5182
  73  349.0592
  74  423.8532
  75  425.463
  76  350.6046
  77  465.5638
  78  596.8723
  79  489.3522
  80  434.7209
  81  428.7667
  82  382.7334
  83  415.872
  84  419.8951
  85  415.8215
  86  447.2108
  87  396.6555
  88  457.5081
  89  455.0273
  90  433.1749
  91  468.8762
  92  525.6068
  93  495.9392
  94  483.2702
  95  370.662
  96  374.6396
  97  283.9494
  98  266.0188
  99  324.5762
 100  330.5772
 101  320.1257
 102  312.1023
 103  250.3492
 104  250.2967
 105  351.4823
 106  356.0282
 107  331.6647
 108  463.5249
 109  451.5014
 110  372.8922
 111  289.3381
 112  250.0283
 113  262.0059
 114  400.3597
 115  331.1934
 116  358.7476
 117  357.3056
 118  401.2699
 119  436.2774
 120  374.8897
 121  340.1378
 122  418.3053
 123  471.3313
 124  448.424
 125  479.2779
 126  460.9383
 127  472.6219
 128  473.2792
 129  465.4185
 130  447.569
 131  432.9846
 132  394.2137
 133  463.1627
 134  468.6621
 135  405.5455
 136  415.1062
 137  437.6124
 138  609.8262
 139  623.1255
 140  503.278
 141  431.3752
 142  413.1037
 143  477.7525
 144  418.0476
 145  472.1716
 146  406.9403
 147  388.9085
 148  486.7065
 149  497.7735
 150  387.427
 151  425.316
 152  557.8149
 153  480.7216
 154  507.1295
 155  554.3079
 156  409.4423
 157  389.6944
 158  541.8922
 159  464.2847
 160  493.8544
 161  431.668
 162  380.8854
 163  383.4478
 164  462.0428
 165  432.9053
 166  418.9935
 167  398.0952
 168  402.618
 169  452.4745
 170  430.7133
 171  476.0977
 172  492.9362
 173  443.2738
 174  447.3571
 175  403.712
 176  493.8557
 177  494.3911
 178  509.3773
 179  612.1116
 180  457.5013
 181  381.1642
 182  354.0512
 183  279.7043
 184  354.3479
 185  448.1345
 186  394.4267
 187  301.2465
 188  345.9225
 189  289.1718
 190  380.7195
 191  471.0518
 192  451.7444
 193  467.6099
 194  448.3031
 195  510.7215
 196  422.0737
 197  363.1089
 198  471.8052
 199  399.6442
 200  333.565
 201  389.6739
 202  524.1968
 203  412.0144
 204  403.0709
 205  480.1069
 206  392.9775
 207  389.1602
 208  561.1139
 209  578.289
 210  570.3651
 211  490.8466
 212  543.2961
 213  441.5148
 214  423.8537
 215  464.0577
 216  451.4788
 217  455.7303
 218  439.0251
 219  427.4434
 220  527.3756
 221  494.3673
 222  395.3001
 223  467.8114
 224  576.678
 225  609.3668
 226  562.0338
 227  525.4457
 228  508.464
 229  495.9458
 230  591.3644
 231  483.3713
 232  455.7921
 233  506.6052
 234  444.2681
 235  397.1367
 236  580.1194
 237  594.8961
 238  483.6731
 239  488.845
 240  572.76
 241  433.0223
 242  353.209
 243  341.893
 244  417.3846
 245  463.8704
 246  491.6021
 247  347.3055
 248  483.1802
 249  467.5982
 250  490.4153
 251  450.7993
 252  376.8282
 253  434.9952
 254  564.4335
 255  435.643
 256  446.3138
 257  490.5889
 258  494.1451
 259  427.6375
 260  484.8396
 261  539.2201
 262  487.8584
 263  496.7461
 264  463.6383
 265  418.7612
 266  409.6344
 267  480.1548
 268  521.8468
 269  470.0139
 270  414.5307
 271  409.932
 272  486.2099
 273  498.864
 274  470.0844
 275  343.3733
 276  303.1039
 277  379.1307
 278  421.4668
 279  541.2234
 280  534.1157
 281  384.7796
 282  371.4544
 283  482.1392
 284  596.2722
 285  662.5707
 286  531.5965
 287  442.2034
 288  395.2315
 289  427.8498
 290  500.1947
 291  503.1087
 292  517.2457
 293  424.6066
 294  416.3693
 295  493.4743
 296  581.6668
 297  598.6396
 298  536.2619
 299  519.3002
 300  553.2187
 301  512.7101
 302  424.432
 303  342.061
 304  365.7189
 305  512.7621
 306  500.7982
 307  479.3405
 308  534.4227
 309  514.278
 310  476.3377
 311  473.805
 312  521.683
 313  569.0433
 314  491.9795
 315  454.3241
 316  548.34
 317  576.4059
 318  492.9977
 319  523.0184
 320  560.6716
 321  575.9407
 322  471.7056
 323  357.5501
 324  483.291
 325  530.7698
 326  447.4955
 327  437.3276
 328  471.3213
 329  407.7447
 330  462.6074
 331  481.2986
 332  402.232
 333  517.5222
 334  476.4477
 335  472.982
 336  588.1687
 337  559.0367
 338  539.8696
 339  523.1298
 340  527.9431
 341  582.8229
 342  536.5335
 343  431.3623
 344  463.9297
 345  393.7667
 346  436.315
 347  463.574
 348  443.0093
 349  389.2831
 350  458.817
 351  558.1854
 352  532.6238
 353  505.1004
 354  502.1878
 355  511.3403
 356  480.4857
 357  628.0429
 358  539.6245
 359  541.7153
 360  644.5938
 361  577.0977
 362  497.0023
 363  505.2597
 364  477.2078
 365  552.9514
 366  566.9465
 367  603.3231
 368  436.7383
 369  449.1505
 370  547.44
 371  384.4618
 372  428.8825
 373  503.0074
 374  453.0157
 375  523.8911
 376  471.7318
 377  444.7159
 378  372.9956
 379  467.5434
 380  552.1839
 381  482.7334
 382  457.9299
 383  484.8988
 384  327.6234
 385  387.4402
 386  510.336
 387  412.8365
 388  287.3266
 389  336.2335
 390  343.3514
 391  430.1694
 392  529.2419
 393  457.3388
 394  377.4629
 395  442.7094
 396  516.8709
 397  534.137
 398  459.0303
 399  438.1803
 400  427.8023
 401  492.4865
 402  482.1586
 403  371.0669
 404  334.5992
 405  412.4239
 406  293.845
 407  412.8578
 408  429.9263
 409  402.7554
 410  394.9973
 411  416.9315
 412  435.2806
 413  444.4913
 414  395.7137
 415  347.9192
 416  256.6326
 417  391.9229
 418  436.0425
 419  481.7917
 420  473.2303
 421  505.1142
 422  439.9327
 423  455.3333
 424  465.2502
 425  437.8949
 426  379.6893
 427  410.9685
 428  451.6603
 429  350.002
 430  285.9416
 431  389.8754
 432  339.5561
 433  326.7487
 434  291.343
 435  277.1731
 436  247.4866
 437  365.6469
 438  409.169
 439  419.1156
 440  320.5652
 441  366.21
 442  286.5827
 443  357.4258
 444  413.9124
 445  310.0865
 446  379.6427
 447  387.6086
 448  359.4961
 449  311.7534
 450  295.604
 451  374.0414
 452  312.5779
 453  360.6934
 454  469.41
 455  354.4682
 456  249.0131
 457  187.4343
 458  238.5949
 459  379.2149
 460  403.4659
 461  314.2687
 462  340.7132
 463  461.3955
 464  339.287
 465  308.0704
 466  344.4325
 467  327.2339
 468  286.0465
 469  262.4812
 470  200.6998
 471  355.5796
 472  344.8594
 473  270.4341
 474  376.7361
 475  341.4293
 476  275.2988
 477  251.4914
 478  335.9924
 479  439.1383
 480  447.6122
 481  340.0856
 482  334.9874
 483  352.6152
 484  330.988
 485  326.8485
 486  266.257
 487  318.1082
 488  306.2227
 489  223.9879
 490  214.4243
 491  206.2421
 492  192.2892
 493  377.7171
 494  403.3825
 495  462.1222
 496  370.6066
 497  284.3655
 498  247.4134
 499  337.0095
 500  431.2601
 501  381.8346
 502  344.6039
 503  434.1772
 504  410.2297
 505  402.8299
 506  448.747
 507  483.4203
 508  465.538
 509  677.9504
 510  849.5653
 511  839.5347
