# Input file       =  1204979731.107805_cleaned.dat
# Candidate        =  PSR_0332+5434
# Telescope        =  AR
# Epoch_topo       =  58190.524457266263
# Epoch_bary       =  N/A
# T_sample         =  0.002
# Data Folded      =  7340032
# Data Avg         =  0.0117338566912195
# Data StdDev      =  1.00026062207023 
# Profile Bins     =  512
# Profile Avg      =  168.226152339754 
# Profile StdDev   =  119.764241448582 
# Reduced chi-sqr  =  0.753
# Prob(Noise)      <  1   (~0.0 sigma)
# P_topo (ms)      =  714.578063721764  +/- 0.00112
# P'_topo (s/s)    =  -0                +/- 5.91e-10
# P''_topo (s/s^2) =  0                 +/- 2.61e-13
# P_bary (ms)      =  N/A
# P'_bary (s/s)    =  N/A
# P''_bary (s/s^2) =  N/A
# P_orb (s)        =  N/A
# asin(i)/c (s)    =  N/A
# eccentricity     =  N/A
# w (rad)          =  N/A
# T_peri           =  N/A
######################################################
   0  510.3048
   1  470.3794
   2  367.4861
   3  335.6464
   4  207.5662
   5  215.8022
   6  145.6412
   7  72.80455
   8  114.0841
   9  155.507
  10  152.8548
  11  148.7892
  12  180.6252
  13  215.3376
  14  244.2425
  15  182.0076
  16  192.8796
  17  152.2965
  18  83.61877
  19  115.8091
  20  166.0922
  21  161.3174
  22  119.0372
  23  160.713
  24  214.2963
  25  60.40053
  26  36.767
  27  108.1475
  28  70.86847
  29  180.3802
  30  227.1583
  31  230.5302
  32  182.7895
  33  204.0713
  34  172.8615
  35  169.1448
  36  159.346
  37  101.8109
  38  153.0957
  39  115.0011
  40  108.2859
  41  133.2544
  42  93.96876
  43  87.70846
  44  132.0518
  45  158.1028
  46  102.8387
  47  83.75536
  48  139.5874
  49  179.6039
  50  150.8668
  51  102.6601
  52  103.6243
  53  56.91048
  54  249.0594
  55  255.3846
  56  256.5368
  57  173.657
  58  176.8451
  59  146.1287
  60  184.298
  61  160.1208
  62  217.5578
  63  207.1474
  64  128.223
  65  128.9284
  66  165.6263
  67  133.9697
  68  198.7392
  69  233.1725
  70  193.7782
  71  166.988
  72  159.5223
  73  116.964
  74  178.0383
  75  223.5806
  76  249.3983
  77  208.5625
  78  165.6017
  79  207.6624
  80  218.5578
  81  107.9336
  82  111.5291
  83  82.84648
  84  137.9035
  85  177.3056
  86  145.91
  87  196.5901
  88  167.5159
  89  119.4041
  90  154.0208
  91  119.8015
  92  192.6958
  93  173.7236
  94  164.8526
  95  162.8558
  96  132.2371
  97  153.3805
  98  182.5916
  99  188.2251
 100  177.1287
 101  149.167
 102  134.3124
 103  109.7109
 104  140.8187
 105  116.1393
 106  148.0794
 107  172.2148
 108  150.6004
 109  153.2755
 110  204.2591
 111  280.4935
 112  198.9599
 113  162.1755
 114  176.9487
 115  198.6833
 116  240.2626
 117  237.397
 118  160.0914
 119  32.45796
 120  -29.05234
 121  163.3118
 122  168.7575
 123  137.143
 124  131.0237
 125  165.3717
 126  169.2498
 127  138.223
 128  167.0716
 129  209.0463
 130  249.3564
 131  158.1452
 132  129.6516
 133  96.74706
 134  61.28469
 135  71.43233
 136  166.7669
 137  202.4865
 138  198.2347
 139  162.7908
 140  114.1753
 141  194.5524
 142  138.5264
 143  203.0154
 144  184.8053
 145  216.3249
 146  238.7399
 147  154.0753
 148  149.6523
 149  265.1267
 150  262.9774
 151  227.0376
 152  200.4413
 153  277.6624
 154  146.8221
 155  139.0367
 156  209.6714
 157  237.4619
 158  176.518
 159  210.675
 160  296.3176
 161  301.8645
 162  243.9763
 163  302.771
 164  313.8176
 165  277.3863
 166  300.7324
 167  253.3308
 168  204.1232
 169  317.8778
 170  295.3283
 171  200.6359
 172  319.0863
 173  230.2219
 174  224.428
 175  177.5407
 176  207.3902
 177  181.313
 178  203.2688
 179  217.1779
 180  222.2534
 181  210.1052
 182  239.0597
 183  199.1361
 184  223.7966
 185  245.2515
 186  185.8866
 187  183.6017
 188  208.7487
 189  208.5863
 190  175.1671
 191  147.9086
 192  185.3403
 193  197.6118
 194  103.6667
 195  91.56792
 196  199.1252
 197  179.1979
 198  171.3796
 199  118.6084
 200  156.972
 201  122.8407
 202  200.7581
 203  226.0738
 204  272.4062
 205  299.5307
 206  266.2119
 207  277.6514
 208  304.3479
 209  263.1631
 210  241.7327
 211  279.5668
 212  300.1857
 213  208.7396
 214  143.4527
 215  171.183
 216  269.2416
 217  342.9911
 218  258.6867
 219  215.5129
 220  240.5142
 221  233.146
 222  145.9661
 223  155.9691
 224  179.6096
 225  225.7218
 226  242.5634
 227  140.3788
 228  90.12266
 229  105.2572
 230  79.68034
 231  89.19529
 232  108.0934
 233  139.7475
 234  120.8388
 235  42.09159
 236  99.57302
 237  69.59767
 238  169.6477
 239  176.2746
 240  198.6915
 241  219.8004
 242  168.9398
 243  204.2469
 244  178.1383
 245  163.0386
 246  171.6478
 247  141.618
 248  99.71225
 249  215.7025
 250  245.1865
 251  183.6134
 252  209.0288
 253  194.9841
 254  230.3767
 255  253.6521
 256  278.7951
 257  171.9861
 258  218.3019
 259  282.6467
 260  305.9
 261  156.5717
 262  156.5814
 263  142.1663
 264  198.8228
 265  274.8264
 266  228.7923
 267  197.9249
 268  201.1263
 269  138.3047
 270  125.2552
 271  186.7204
 272  295.3502
 273  219.9166
 274  220.5217
 275  187.8937
 276  168.4478
 277  208.2716
 278  279.3427
 279  332.7164
 280  199.641
 281  205.8068
 282  216.8286
 283  198.9116
 284  257.4871
 285  275.6886
 286  276.3618
 287  295.8266
 288  276.7021
 289  245.3498
 290  220.0365
 291  269.8442
 292  206.8866
 293  202.0226
 294  217.1429
 295  198.2237
 296  297.3412
 297  317.7046
 298  264.5267
 299  220.0882
 300  273.5335
 301  275.283
 302  192.8787
 303  159.9504
 304  221.4993
 305  266.8274
 306  252.525
 307  282.8409
 308  173.6015
 309  191.0859
 310  151.2024
 311  163.7804
 312  147.0857
 313  212.6224
 314  216.7393
 315  183.4753
 316  213.2628
 317  220.493
 318  204.998
 319  281.1765
 320  302.639
 321  218.4048
 322  108.5926
 323  182.3314
 324  141.7811
 325  176.9091
 326  245.2462
 327  211.1042
 328  130.4668
 329  151.3443
 330  232.3597
 331  212.8618
 332  175.6995
 333  281.2885
 334  228.9597
 335  135.1423
 336  216.2231
 337  109.8532
 338  141.1506
 339  211.8706
 340  226.599
 341  181.2606
 342  184.747
 343  186.512
 344  228.9755
 345  245.2023
 346  210.9488
 347  209.9622
 348  161.2456
 349  175.5192
 350  178.9869
 351  178.5202
 352  167.2849
 353  140.8435
 354  186.4206
 355  162.1822
 356  154.0681
 357  106.0017
 358  91.90254
 359  139.957
 360  143.7983
 361  91.37637
 362  154.9226
 363  164.0905
 364  129.4658
 365  42.86873
 366  57.0409
 367  3.166805
 368  123.2797
 369  84.33017
 370  33.50057
 371  46.12764
 372  19.9423
 373  75.99751
 374  111.9847
 375  87.50518
 376  -7.487138
 377  90.92073
 378  95.32391
 379  72.77916
 380  86.73334
 381  67.58939
 382  36.77781
 383  64.07303
 384  145.7149
 385  120.3433
 386  37.02692
 387  76.71567
 388  73.50281
 389  79.19623
 390  3.105227
 391  7.843713
 392  20.98057
 393  80.44244
 394  61.3113
 395  112.8602
 396  117.3742
 397  90.62788
 398  159.5649
 399  112.902
 400  86.08397
 401  148.8444
 402  151.0956
 403  162.4382
 404  219.0086
 405  238.0978
 406  142.4825
 407  149.2162
 408  207.1463
 409  258.8471
 410  102.7175
 411  175.0006
 412  174.2877
 413  110.5829
 414  93.21021
 415  113.0428
 416  122.5466
 417  117.2375
 418  136.93
 419  119.0969
 420  83.08682
 421  115.5185
 422  150.9527
 423  159.7696
 424  119.7787
 425  29.77616
 426  34.04338
 427  14.43588
 428  144.7411
 429  71.46185
 430  79.20264
 431  37.99171
 432  76.95779
 433  118.7612
 434  171.2028
 435  191.4802
 436  80.72738
 437  88.00738
 438  103.8849
 439  40.87476
 440  103.5301
 441  158.5585
 442  106.983
 443  7.195984
 444  74.9899
 445  57.26808
 446  35.72991
 447  124.8168
 448  207.3847
 449  142.5786
 450  56.67102
 451  61.9295
 452  65.8868
 453  53.19209
 454  23.45338
 455  72.44443
 456  42.09408
 457  -22.01117
 458  114.6924
 459  138.4774
 460  66.76615
 461  -21.13597
 462  -56.40287
 463  81.22556
 464  136.4535
 465  196.1601
 466  255.2037
 467  163.1214
 468  129.962
 469  143.8755
 470  118.4155
 471  97.00911
 472  86.9116
 473  129.5596
 474  99.41161
 475  151.4076
 476  105.7533
 477  88.52885
 478  124.4586
 479  289.5054
 480  205.4112
 481  142.0872
 482  127.554
 483  120.5338
 484  51.29893
 485  88.57374
 486  84.58765
 487  145.6993
 488  282.9137
 489  261.3441
 490  153.0908
 491  51.78505
 492  129.3128
 493  156.4496
 494  133.0334
 495  87.69617
 496  83.51195
 497  71.63682
 498  108.8904
 499  170.8021
 500  248.934
 501  252.4395
 502  215.4089
 503  207.4852
 504  152.9114
 505  176.3153
 506  193.893
 507  272.1983
 508  233.2658
 509  261.299
 510  431.5407
 511  453.9852
