# Input file       =  1204792879.116628_cleaned.dat
# Candidate        =  PSR_0332+5434
# Telescope        =  AR
# Epoch_topo       =  58188.361818479490
# Epoch_bary       =  N/A
# T_sample         =  0.002
# Data Folded      =  7405568
# Data Avg         =  0.0158932759636548
# Data StdDev      =  1.00010476673917 
# Profile Bins     =  512
# Profile Avg      =  229.866949926176 
# Profile StdDev   =  120.278970942508 
# Reduced chi-sqr  =  2.070
# Prob(Noise)      <  2.47e-40   (~13.2 sigma)
# P_topo (ms)      =  714.578668563979  +/- 4.54e-05
# P'_topo (s/s)    =  -0                +/- 2.37e-11
# P''_topo (s/s^2) =  0                 +/- 1.04e-14
# P_bary (ms)      =  N/A
# P'_bary (s/s)    =  N/A
# P''_bary (s/s^2) =  N/A
# P_orb (s)        =  N/A
# asin(i)/c (s)    =  N/A
# eccentricity     =  N/A
# w (rad)          =  N/A
# T_peri           =  N/A
######################################################
   0  993.2839
   1  958.0484
   2  713.8994
   3  563.9591
   4  326.207
   5  167.3243
   6  148.0495
   7  139.7833
   8  153.1705
   9  293.8216
  10  277.7052
  11  177.5045
  12  -3.974184
  13  64.27164
  14  233.6691
  15  199.9517
  16  212.49
  17  348.4201
  18  471.1258
  19  443.2521
  20  294.1115
  21  291.1469
  22  37.4457
  23  65.71343
  24  39.24796
  25  110.5008
  26  221.7805
  27  215.001
  28  96.87309
  29  7.235907
  30  -83.27283
  31  101.7883
  32  159.6182
  33  217.4943
  34  398.0438
  35  335.2534
  36  322.4349
  37  273.4176
  38  217.0424
  39  145.7866
  40  107.6832
  41  191.3436
  42  139.6249
  43  106.9192
  44  141.5863
  45  76.39522
  46  -49.99634
  47  102.0524
  48  55.98106
  49  63.47546
  50  204.8951
  51  361.9006
  52  379.2371
  53  242.6961
  54  62.76928
  55  91.28873
  56  203.6838
  57  172.6504
  58  181.5025
  59  192.4198
  60  176.3328
  61  148.2651
  62  208.8045
  63  254.9458
  64  274.5456
  65  180.118
  66  199.4598
  67  343.9007
  68  338.7388
  69  369.6198
  70  329.7118
  71  251.3474
  72  167.9014
  73  107.3996
  74  107.0191
  75  178.3414
  76  239.2621
  77  290.2304
  78  182.667
  79  175.7733
  80  309.4794
  81  293.9517
  82  189.5197
  83  330.9447
  84  412.9427
  85  269.2832
  86  368.0612
  87  317.1232
  88  288.724
  89  286.0955
  90  111.1462
  91  126.5886
  92  151.526
  93  259.1294
  94  184.4023
  95  201.7019
  96  236.8754
  97  219.607
  98  151.0596
  99  270.6519
 100  367.7311
 101  537.4071
 102  572.5479
 103  453.1615
 104  255.0422
 105  328.1512
 106  247.9753
 107  207.656
 108  254.6044
 109  313.5368
 110  304.8741
 111  187.7571
 112  57.8405
 113  79.28511
 114  34.56789
 115  308.2071
 116  501.5501
 117  467.9894
 118  395.7823
 119  287.1641
 120  168.6182
 121  127.1172
 122  126.4797
 123  314.9383
 124  356.2977
 125  154.5836
 126  258.4246
 127  180.51
 128  136.9424
 129  153.6913
 130  147.9645
 131  194.1033
 132  257.2083
 133  233.9574
 134  393.8691
 135  239.9107
 136  208.948
 137  196.8848
 138  208.8215
 139  219.8401
 140  116.4407
 141  104.2364
 142  245.7199
 143  199.5231
 144  178.0791
 145  106.6142
 146  102.8588
 147  201.9089
 148  165.317
 149  319.242
 150  335.1188
 151  253.0327
 152  326.9271
 153  293.1351
 154  242.6908
 155  190.0651
 156  213.2643
 157  120.6086
 158  148.053
 159  266.8441
 160  126.4923
 161  152.5537
 162  224.8195
 163  252.0892
 164  226.9513
 165  301.0976
 166  478.2418
 167  463.0161
 168  406.5467
 169  204.6512
 170  140.2838
 171  148.4487
 172  139.9585
 173  184.9642
 174  306.1894
 175  327.4212
 176  270.5371
 177  147.1558
 178  185.0642
 179  121.4661
 180  121.1117
 181  243.8502
 182  314.943
 183  331.8239
 184  383.5502
 185  226.6912
 186  173.8091
 187  185.9782
 188  287.1466
 189  179.5763
 190  182.7702
 191  211.8326
 192  290.3165
 193  194.6454
 194  30.9747
 195  122.5451
 196  299.8775
 197  231.6466
 198  239.151
 199  298.1303
 200  351.9807
 201  252.786
 202  258.4456
 203  242.8881
 204  256.2374
 205  178.6454
 206  29.88255
 207  103.8935
 208  292.8915
 209  292.5441
 210  208.9667
 211  174.475
 212  223.0764
 213  46.2714
 214  89.73438
 215  227.5851
 216  358.1334
 217  364.4834
 218  227.0741
 219  229.632
 220  378.9129
 221  305.6936
 222  180.8053
 223  114.8087
 224  292.9748
 225  288.4112
 226  233.7453
 227  221.2583
 228  127.823
 229  219.1945
 230  336.8696
 231  450.351
 232  403.6303
 233  266.2783
 234  298.957
 235  340.6654
 236  270.6315
 237  269.2198
 238  318.7384
 239  208.7638
 240  156.8534
 241  208.5096
 242  241.8288
 243  191.7926
 244  76.74287
 245  65.98691
 246  207.4194
 247  245.454
 248  245.9237
 249  392.7551
 250  400.1764
 251  422.3361
 252  208.0415
 253  181.0686
 254  190.9457
 255  47.81134
 256  -9.640909
 257  129.4994
 258  253.0325
 259  240.6993
 260  136.1898
 261  150.3091
 262  188.6151
 263  244.1448
 264  224.2099
 265  226.7931
 266  412.6552
 267  368.0313
 268  325.9445
 269  318.8574
 270  298.432
 271  252.6452
 272  181.4433
 273  192.7751
 274  281.6511
 275  323.6108
 276  304.4034
 277  203.151
 278  248.3881
 279  237.0034
 280  229.5592
 281  384.976
 282  467.195
 283  439.1601
 284  369.5092
 285  336.9688
 286  357.8537
 287  276.7684
 288  230.0352
 289  257.0374
 290  345.9737
 291  269.6334
 292  178.2422
 293  137.1418
 294  139.4803
 295  233.8584
 296  209.4292
 297  260.3213
 298  287.324
 299  472.1664
 300  393.7537
 301  349.777
 302  279.111
 303  174.8725
 304  189.7456
 305  135.6474
 306  45.35136
 307  164.2658
 308  299.6229
 309  267.9929
 310  188.6063
 311  287.9516
 312  278.6972
 313  163.4592
 314  355.8935
 315  452.6199
 316  368.914
 317  321.7312
 318  253.286
 319  137.0482
 320  277.2841
 321  210.837
 322  25.40897
 323  159.8127
 324  237.983
 325  183.2124
 326  101.4973
 327  127.5449
 328  142.1523
 329  216.2942
 330  218.8733
 331  308.5086
 332  384.3954
 333  417.5656
 334  212.494
 335  195.1486
 336  259.2711
 337  135.3292
 338  190.743
 339  338.2857
 340  263.0981
 341  345.2335
 342  462.817
 343  280.3681
 344  165.3292
 345  213.0898
 346  200.991
 347  358.1692
 348  487.3429
 349  466.5229
 350  442.2612
 351  315.4409
 352  278.3798
 353  139.8196
 354  147.4133
 355  90.7448
 356  151.2012
 357  233.3938
 358  113.9974
 359  101.292
 360  149.7048
 361  54.76617
 362  121.3298
 363  300.0979
 364  444.1573
 365  385.7462
 366  456.5296
 367  425.3438
 368  232.2233
 369  105.3446
 370  130.6924
 371  170.7192
 372  215.4369
 373  317.2062
 374  320.7775
 375  199.0453
 376  129.2285
 377  76.73578
 378  56.67212
 379  189.2907
 380  225.896
 381  302.7837
 382  457.5853
 383  322.0536
 384  182.5157
 385  108.1249
 386  91.64932
 387  133.4834
 388  181.013
 389  273.8841
 390  249.8714
 391  313.1152
 392  162.6175
 393  70.39269
 394  100.1541
 395  159.2464
 396  140.5327
 397  165.4481
 398  418.8057
 399  443.4926
 400  167.1041
 401  38.89831
 402  118.8649
 403  237.8487
 404  196.3766
 405  150.9594
 406  246.5289
 407  229.256
 408  162.2578
 409  198.7552
 410  256.9257
 411  213.8924
 412  149.4645
 413  203.8196
 414  371.9505
 415  337.0485
 416  363.019
 417  361.5212
 418  148.7501
 419  66.68157
 420  174.8852
 421  139.6753
 422  226.5484
 423  191.9531
 424  164.3215
 425  294.9657
 426  89.04742
 427  105.1982
 428  210.4494
 429  253.2075
 430  284.9648
 431  442.407
 432  365.1578
 433  336.132
 434  278.1627
 435  301.2938
 436  205.2702
 437  200.1445
 438  222.0014
 439  143.8627
 440  194.1337
 441  184.3636
 442  222.696
 443  118.7039
 444  122.2604
 445  151.916
 446  242.7855
 447  407.6552
 448  430.3022
 449  265.4744
 450  110.4096
 451  222.8989
 452  144.6221
 453  102.6383
 454  104.4428
 455  39.70502
 456  107.5527
 457  176.3889
 458  130.837
 459  34.38753
 460  85.52113
 461  158.0854
 462  84.08088
 463  185.0152
 464  292.731
 465  288.5009
 466  217.7333
 467  48.11745
 468  126.5572
 469  117.9967
 470  -27.62188
 471  -48.06556
 472  80.43625
 473  140.2922
 474  37.33284
 475  -39.24525
 476  27.04297
 477  119.8438
 478  106.3199
 479  178.0866
 480  148.5577
 481  303.7157
 482  244.4758
 483  222.2749
 484  250.5346
 485  182.8009
 486  15.13112
 487  -38.48018
 488  71.83356
 489  147.316
 490  156.0436
 491  247.5383
 492  348.5821
 493  254.1043
 494  192.4615
 495  253.674
 496  212.9641
 497  175.096
 498  189.724
 499  146.8124
 500  114.8682
 501  197.55
 502  227.4519
 503  188.8731
 504  124.1754
 505  272.2941
 506  211.305
 507  245.0761
 508  220.5827
 509  517.0958
 510  695.2347
 511  871.7413
