# Input file       =  1204908475.111136_cleaned.dat
# Candidate        =  PSR_0332+5434
# Telescope        =  AR
# Epoch_topo       =  58189.699735082591
# Epoch_bary       =  N/A
# T_sample         =  0.002
# Data Folded      =  7340032
# Data Avg         =  0.0240719600286529
# Data StdDev      =  1.00007010658    
# Profile Bins     =  512
# Profile Avg      =  345.175070322389 
# Profile StdDev   =  119.74143045046  
# Reduced chi-sqr  =  1.174
# Prob(Noise)      <  0.00393   (~2.7 sigma)
# P_topo (ms)      =  714.578640909873  +/- 0.000469
# P'_topo (s/s)    =  -0                +/- 2.48e-10
# P''_topo (s/s^2) =  0                 +/- 1.09e-13
# P_bary (ms)      =  N/A
# P'_bary (s/s)    =  N/A
# P''_bary (s/s^2) =  N/A
# P_orb (s)        =  N/A
# asin(i)/c (s)    =  N/A
# eccentricity     =  N/A
# w (rad)          =  N/A
# T_peri           =  N/A
######################################################
   0  1030.592
   1  987.1871
   2  810.0385
   3  591.0306
   4  431.9568
   5  432.6184
   6  450.7938
   7  447.7306
   8  475.7395
   9  370.1942
  10  317.747
  11  306.8582
  12  462.8055
  13  496.7229
  14  464.7231
  15  544.499
  16  616.9353
  17  460.3291
  18  421.7012
  19  420.4678
  20  383.2094
  21  341.4696
  22  419.9768
  23  360.1473
  24  398.8993
  25  433.7464
  26  431.3344
  27  353.9864
  28  336.0479
  29  320.5985
  30  262.6429
  31  241.645
  32  250.9537
  33  374.4853
  34  392.7683
  35  396.388
  36  411.4964
  37  433.743
  38  380.769
  39  395.5939
  40  361.1806
  41  332.9361
  42  331.1046
  43  279.8354
  44  359.4544
  45  413.4354
  46  338.4542
  47  203.5938
  48  232.9407
  49  421.1403
  50  411.6502
  51  431.6417
  52  371.6493
  53  370.6806
  54  322.4404
  55  278.657
  56  403.8726
  57  369.5588
  58  405.1861
  59  375.9282
  60  402.8614
  61  277.9485
  62  418.7813
  63  391.4741
  64  187.4149
  65  237.1956
  66  341.3806
  67  434.1003
  68  357.3705
  69  385.9754
  70  306.831
  71  296.9915
  72  417.9843
  73  249.5636
  74  66.07584
  75  284.3727
  76  197.4423
  77  225.84
  78  237.4647
  79  208.5499
  80  288.5405
  81  305.0231
  82  242.6927
  83  219.8259
  84  273.2981
  85  281.526
  86  221.3506
  87  265.7833
  88  319.631
  89  304.4988
  90  304.7204
  91  247.0371
  92  262.2109
  93  195.8878
  94  274.3817
  95  321.4355
  96  232.2555
  97  321.8609
  98  326.5132
  99  189.8176
 100  199.0289
 101  340.6347
 102  297.0714
 103  275.3209
 104  297.1161
 105  371.756
 106  357.1493
 107  260.9851
 108  222.245
 109  337.8037
 110  323.3136
 111  234.3361
 112  290.3764
 113  333.9746
 114  347.1042
 115  352.3463
 116  335.4244
 117  353.222
 118  390.8416
 119  271.0475
 120  370.7974
 121  315.8633
 122  211.4588
 123  234.9754
 124  246.7211
 125  303.1236
 126  334.4861
 127  361.9212
 128  396.9109
 129  340.9301
 130  339.1594
 131  267.4602
 132  170.0775
 133  305.4985
 134  245.7831
 135  288.3896
 136  418.5629
 137  372.6201
 138  407.3182
 139  427.3203
 140  259.1718
 141  286.268
 142  258.697
 143  269.1852
 144  331.495
 145  363.4054
 146  347.1912
 147  335.7777
 148  343.6325
 149  408.1541
 150  397.6376
 151  395.9436
 152  380.4039
 153  386.7758
 154  445.5312
 155  315.6166
 156  278.2417
 157  347.9344
 158  391.941
 159  361.5955
 160  402.4619
 161  391.1682
 162  437.3667
 163  500.0149
 164  366.3036
 165  319.6424
 166  436.4861
 167  442.6116
 168  333.5982
 169  392.7209
 170  445.8575
 171  406.6902
 172  413.3566
 173  342.4182
 174  339.1078
 175  442.7065
 176  438.2695
 177  388.1007
 178  400.8661
 179  392.5038
 180  384.3965
 181  311.9194
 182  266.8037
 183  363.135
 184  394.1572
 185  286.7837
 186  280.9399
 187  421.109
 188  369.9557
 189  410.9134
 190  371.9193
 191  289.3889
 192  257.4574
 193  343.0918
 194  404.6407
 195  353.5212
 196  323.3205
 197  332.4315
 198  293.3168
 199  359.3774
 200  381.6131
 201  257.7343
 202  254.9574
 203  355.3257
 204  375.4783
 205  366.6503
 206  325.5982
 207  423.2246
 208  418.7997
 209  489.0615
 210  352.4029
 211  345.6667
 212  339.993
 213  392.7148
 214  381.3511
 215  283.6348
 216  204.7331
 217  282.3885
 218  365.5816
 219  387.1992
 220  481.7634
 221  453.793
 222  437.4605
 223  361.9049
 224  269.3596
 225  316.6346
 226  324.843
 227  358.3887
 228  409.4361
 229  352.7243
 230  423.0218
 231  425.6294
 232  502.9446
 233  356.3682
 234  348.7425
 235  483.0294
 236  436.1106
 237  345.7752
 238  422.1888
 239  390.9584
 240  327.3965
 241  361.0414
 242  484.885
 243  438.5974
 244  304.3159
 245  314.0241
 246  250.598
 247  273.8902
 248  417.8836
 249  316.9184
 250  312.9577
 251  367.496
 252  235.6196
 253  374.6956
 254  320.4987
 255  231.4612
 256  205.538
 257  218.5433
 258  303.2684
 259  493.3769
 260  373.6313
 261  325.6797
 262  284.4058
 263  317.0837
 264  403.8556
 265  336.9644
 266  142.2132
 267  223.9364
 268  279.8735
 269  296.7896
 270  220.7802
 271  202.9324
 272  227.7195
 273  229.1671
 274  307.4835
 275  440.8509
 276  355.2888
 277  331.6385
 278  320.7146
 279  231.4576
 280  231.5549
 281  282.267
 282  252.8419
 283  293.1899
 284  235.6775
 285  188.0862
 286  209.6786
 287  239.8375
 288  224.7067
 289  403.7912
 290  317.021
 291  336.1758
 292  266.5753
 293  171.9278
 294  178.1829
 295  218.923
 296  279.616
 297  200.6158
 298  235.1492
 299  288.5785
 300  306.359
 301  387.3497
 302  455.6553
 303  296.9342
 304  260.8626
 305  251.3367
 306  196.7609
 307  226.6542
 308  394.8076
 309  462.7332
 310  333.6558
 311  260.5416
 312  166.5578
 313  281.5931
 314  383.0751
 315  347.4272
 316  275.0959
 317  306.4639
 318  240.2089
 319  276.9386
 320  247.4397
 321  291.5611
 322  402.2342
 323  397.0194
 324  220.9674
 325  260.0256
 326  268.9844
 327  259.48
 328  348.1776
 329  340.082
 330  391.7866
 331  381.4362
 332  375.8306
 333  395.3386
 334  270.2451
 335  263.386
 336  410.472
 337  344.6539
 338  360.9428
 339  335.2247
 340  254.8076
 341  252.9363
 342  327.1487
 343  360.1314
 344  398.1807
 345  360.3922
 346  285.0051
 347  366.5843
 348  443.6411
 349  425.9033
 350  352.7264
 351  346.4879
 352  348.2442
 353  290.515
 354  207.8864
 355  244.7249
 356  285.2505
 357  359.1623
 358  376.3929
 359  324.9723
 360  367.7504
 361  312.5975
 362  238.6482
 363  355.8283
 364  438.8593
 365  364.6039
 366  341.7199
 367  281.994
 368  389.9305
 369  456.5009
 370  300.2738
 371  369.2801
 372  349.6994
 373  381.2183
 374  446.0415
 375  426.7517
 376  374.0059
 377  347.5476
 378  372.2031
 379  384.3296
 380  511.7505
 381  475.732
 382  476.8043
 383  457.6436
 384  212.9102
 385  429.8211
 386  430.6697
 387  387.4556
 388  351.6929
 389  302.3598
 390  378.8472
 391  333.964
 392  327.351
 393  209.5325
 394  218.0799
 395  210.0733
 396  330.6477
 397  315.7798
 398  280.1678
 399  276.6702
 400  259.6143
 401  251.5993
 402  387.3137
 403  311.8588
 404  276.7145
 405  332.6194
 406  328.5828
 407  309.1628
 408  295.5539
 409  391.7977
 410  397.9765
 411  363.5685
 412  325.0775
 413  231.2906
 414  293.7838
 415  294.6685
 416  369.0841
 417  313.6049
 418  355.2668
 419  233.19
 420  277.6671
 421  261.4863
 422  326.8572
 423  385.179
 424  255.0461
 425  257.0255
 426  226.0069
 427  232.0025
 428  238.9579
 429  312.5239
 430  249.0646
 431  327.6973
 432  469.863
 433  442.9362
 434  318.3555
 435  384.9264
 436  389.4415
 437  275.8194
 438  367.3996
 439  462.9498
 440  411.5962
 441  410.1542
 442  384.9693
 443  354.5207
 444  315.3191
 445  260.1284
 446  291.3511
 447  274.002
 448  338.3795
 449  397.5126
 450  344.2148
 451  309.2372
 452  379.6276
 453  360.8207
 454  319.3719
 455  257.0995
 456  410.0912
 457  305.9842
 458  296.7449
 459  316.0053
 460  296.8911
 461  319.8735
 462  364.1198
 463  368.9643
 464  382.8388
 465  409.4717
 466  374.4518
 467  343.5748
 468  401.8845
 469  247.8095
 470  332.8067
 471  327.6365
 472  323.5854
 473  457.4482
 474  375.5602
 475  280.3467
 476  374.8125
 477  444.0455
 478  350.0586
 479  391.684
 480  434.6291
 481  328.5377
 482  296.1089
 483  367.9807
 484  430.5294
 485  382.0334
 486  375.3567
 487  397.2511
 488  442.4399
 489  372.2908
 490  507.3107
 491  461.3059
 492  410.3514
 493  405.2315
 494  388.6026
 495  360.8785
 496  358.053
 497  359.0834
 498  351.7758
 499  388.4064
 500  340.0099
 501  387.8098
 502  269.2742
 503  284.4914
 504  360.3697
 505  449.4434
 506  602.5582
 507  575.902
 508  621.8085
 509  499.9041
 510  640.8749
 511  834.5936
