# Input file       =  1204118180.101071_cleaned.dat
# Candidate        =  PSR_0332+5434
# Telescope        =  AR
# Epoch_topo       =  58180.552802095728
# Epoch_bary       =  N/A
# T_sample         =  0.002
# Data Folded      =  7340032
# Data Avg         =  0.0826634076481115
# Data StdDev      =  1.00009418338594 
# Profile Bins     =  512
# Profile Avg      =  1184.93785818722 
# Profile StdDev   =  119.744313239541 
# Reduced chi-sqr  =  1.334
# Prob(Noise)      <  5.81e-07   (~4.9 sigma)
# P_topo (ms)      =  714.580222416047  +/- 0.00104
# P'_topo (s/s)    =  -0                +/- 5.48e-10
# P''_topo (s/s^2) =  0                 +/- 2.42e-13
# P_bary (ms)      =  N/A
# P'_bary (s/s)    =  N/A
# P''_bary (s/s^2) =  N/A
# P_orb (s)        =  N/A
# asin(i)/c (s)    =  N/A
# eccentricity     =  N/A
# w (rad)          =  N/A
# T_peri           =  N/A
######################################################
   0  1536.954
   1  1443.705
   2  1369.7
   3  1283.504
   4  1313.959
   5  1213.606
   6  1228.434
   7  1188.057
   8  1197.531
   9  1175.184
  10  1139.208
  11  1141.377
  12  1193.24
  13  1120.644
  14  1196.433
  15  1217.551
  16  1147.897
  17  1129.69
  18  1175.88
  19  1148.746
  20  1145.323
  21  1117.329
  22  1120.737
  23  1093.697
  24  1092.751
  25  1113.153
  26  1151.849
  27  1072.223
  28  1052.012
  29  1064.978
  30  1129.159
  31  1115.317
  32  1012.118
  33  1086.752
  34  1012.954
  35  1084.705
  36  1098.511
  37  1099.211
  38  1074.105
  39  1088.285
  40  1112.109
  41  1130.162
  42  1153.68
  43  1029.643
  44  1073.925
  45  1110.911
  46  1144.876
  47  1164.066
  48  1186.459
  49  1173.134
  50  1163.885
  51  1137.79
  52  1090.669
  53  1124.811
  54  1175.804
  55  1181.869
  56  1185.241
  57  1107.957
  58  1096.558
  59  1120.52
  60  1066.858
  61  1087.717
  62  1157.681
  63  1175.111
  64  1149.797
  65  1182.924
  66  1145.811
  67  1096.598
  68  1076.128
  69  1088.524
  70  1078.198
  71  1131.996
  72  1177.227
  73  1108.705
  74  1090.531
  75  1106.193
  76  1102.224
  77  1106.417
  78  1148.066
  79  1140.525
  80  1124.58
  81  1160.053
  82  1175.77
  83  1210.847
  84  1129.588
  85  1095.061
  86  1075.95
  87  1085.151
  88  1120.468
  89  1129.958
  90  1145.524
  91  1122.124
  92  1129.704
  93  1188.993
  94  1166.908
  95  1123.996
  96  1062.135
  97  1091.138
  98  1085.41
  99  1014.624
 100  1028.012
 101  1005.733
 102  999.4977
 103  1064.592
 104  1147.903
 105  1021.538
 106  1003.374
 107  1090.897
 108  1123.466
 109  990.2641
 110  997.1276
 111  1008.268
 112  1019.393
 113  1002.878
 114  1062.533
 115  1052.715
 116  1035.714
 117  1061.511
 118  1080.818
 119  963.9646
 120  971.3496
 121  1007.393
 122  1043.115
 123  1085.108
 124  1079.229
 125  1019.539
 126  1036.89
 127  999.8702
 128  1051.679
 129  1058.047
 130  1085.168
 131  1048.165
 132  1025.447
 133  1057.966
 134  1052.085
 135  1029.784
 136  1034.443
 137  1065.237
 138  1066.59
 139  1052.938
 140  1072.746
 141  1051.395
 142  1106.447
 143  1149.521
 144  1094.803
 145  1124.721
 146  1138.177
 147  1185.87
 148  1136.187
 149  1088.065
 150  1105.835
 151  1108.293
 152  1133.72
 153  1171.449
 154  1130.063
 155  1087.617
 156  1080.913
 157  1031.852
 158  995.92
 159  1123.173
 160  1160.287
 161  1202.945
 162  1161.114
 163  1152.532
 164  1130.18
 165  1186.509
 166  1159.4
 167  1124.224
 168  1140.556
 169  1128.401
 170  1163.582
 171  1170.069
 172  1233.629
 173  1142.282
 174  1109.703
 175  1151.024
 176  1081.662
 177  1056.06
 178  1067.216
 179  1100.021
 180  1116.575
 181  1167.753
 182  1122.256
 183  1160.683
 184  1066.002
 185  1006.216
 186  1117.132
 187  1154.11
 188  1110.298
 189  1088.749
 190  1124.501
 191  1123.578
 192  1110.951
 193  1085.245
 194  1045.281
 195  1118.208
 196  1153.87
 197  1074.498
 198  1025.464
 199  1041.715
 200  1085.314
 201  1067.542
 202  1058.077
 203  1102.916
 204  1066.447
 205  1070.344
 206  1091.808
 207  1072.564
 208  1058.425
 209  1033.233
 210  1097.671
 211  1105.878
 212  1087.836
 213  1145.941
 214  1150.23
 215  1143.235
 216  1068.865
 217  1054.001
 218  1070.641
 219  1033.091
 220  1161.651
 221  1199.587
 222  1113.943
 223  1180.02
 224  1116.1
 225  1070.66
 226  1080.002
 227  1149.786
 228  1067.779
 229  1086.365
 230  1145.771
 231  1125.914
 232  1112.978
 233  1153.421
 234  1121.734
 235  1114.332
 236  1161.862
 237  1154.835
 238  1158.353
 239  1175.076
 240  1173.259
 241  1140.101
 242  1175.695
 243  1137.689
 244  1078.271
 245  1178.861
 246  1278.408
 247  1249.526
 248  1187.484
 249  1094.105
 250  1166.745
 251  1190.826
 252  1142.856
 253  1219.572
 254  1247.47
 255  1200.716
 256  1201.839
 257  1238.39
 258  1288.263
 259  1215.692
 260  1272.416
 261  1221.375
 262  1304.381
 263  1400.568
 264  1347.738
 265  1234.619
 266  1227.209
 267  1296.874
 268  1242.688
 269  1284.979
 270  1298.56
 271  1286.094
 272  1255.712
 273  1280.055
 274  1230.057
 275  1194.237
 276  1239.351
 277  1141.285
 278  1156.718
 279  1216.326
 280  1292.512
 281  1257.368
 282  1203.685
 283  1165.303
 284  1197.981
 285  1143.904
 286  1135.865
 287  1123.959
 288  1147.857
 289  1175.038
 290  1114.164
 291  1111.128
 292  1082.672
 293  1159.582
 294  1135.146
 295  1152.989
 296  1199.616
 297  1083.382
 298  1088.392
 299  1129.599
 300  1219.858
 301  1264.544
 302  1248.221
 303  1326.83
 304  1220.68
 305  1158.019
 306  1219.593
 307  1198.19
 308  1148.744
 309  1143.628
 310  1171.994
 311  1182.704
 312  1207.772
 313  1169.193
 314  1190.598
 315  1197.52
 316  1203.459
 317  1176.596
 318  1130.137
 319  1116.825
 320  1191.476
 321  1105.925
 322  1134.259
 323  1137.41
 324  1124.672
 325  1123.207
 326  1039.007
 327  1146.361
 328  1172.054
 329  1183.049
 330  1259.536
 331  1187.974
 332  1190.513
 333  1222.33
 334  1229.733
 335  1243.201
 336  1323.006
 337  1286.37
 338  1293.094
 339  1227.768
 340  1286.331
 341  1300.349
 342  1233.79
 343  1293.847
 344  1338.779
 345  1386.522
 346  1383.021
 347  1315.952
 348  1322.276
 349  1267.089
 350  1269.394
 351  1286.134
 352  1304.835
 353  1324.992
 354  1354.068
 355  1295.252
 356  1342.856
 357  1324.568
 358  1298.13
 359  1209.66
 360  1216.039
 361  1227.928
 362  1261.67
 363  1256.589
 364  1267.366
 365  1226.458
 366  1227.052
 367  1249.057
 368  1210.231
 369  1197.671
 370  1266.368
 371  1276.934
 372  1290.878
 373  1251.376
 374  1236.655
 375  1185.144
 376  1240.402
 377  1369.437
 378  1404.249
 379  1412.919
 380  1400.992
 381  1284.227
 382  1310.134
 383  1347.041
 384  1365.638
 385  1376.401
 386  1338.695
 387  1345.602
 388  1416.812
 389  1453.821
 390  1369.258
 391  1341.453
 392  1254.923
 393  1341.309
 394  1270.131
 395  1247.481
 396  1266.986
 397  1223.494
 398  1329.073
 399  1318.439
 400  1276.309
 401  1210.025
 402  1280.826
 403  1256.478
 404  1276.823
 405  1340.765
 406  1351.795
 407  1267.081
 408  1236.738
 409  1210.909
 410  1211.741
 411  1272.732
 412  1288.558
 413  1327.541
 414  1306.344
 415  1314.141
 416  1327.488
 417  1369.079
 418  1243.24
 419  1186.628
 420  1246.426
 421  1273.195
 422  1242.018
 423  1332.431
 424  1391.922
 425  1293.752
 426  1212.924
 427  1205.412
 428  1266.344
 429  1292.518
 430  1327.728
 431  1374.454
 432  1399.881
 433  1342.548
 434  1295.01
 435  1379.585
 436  1365.635
 437  1296.934
 438  1280.369
 439  1252.979
 440  1187.728
 441  1296.333
 442  1294.897
 443  1327.508
 444  1306.045
 445  1249.95
 446  1315.513
 447  1318.92
 448  1294.457
 449  1314.38
 450  1333.195
 451  1333.132
 452  1407.076
 453  1382.461
 454  1372.995
 455  1371.106
 456  1339.802
 457  1282.074
 458  1271.069
 459  1216.576
 460  1257.338
 461  1286.267
 462  1222.504
 463  1296.4
 464  1328.56
 465  1288.524
 466  1302.265
 467  1320.097
 468  1231.9
 469  1246.825
 470  1249.984
 471  1270.578
 472  1252.703
 473  1231.716
 474  1279.209
 475  1192.127
 476  1282.098
 477  1221.098
 478  1264.2
 479  1257.858
 480  1198.869
 481  1193.837
 482  1181.107
 483  1256.511
 484  1272.225
 485  1207.646
 486  1236.267
 487  1259.295
 488  1251.476
 489  1224.646
 490  1295.345
 491  1306.467
 492  1209.766
 493  1140.218
 494  1217.063
 495  1247.25
 496  1126.392
 497  1155.266
 498  1198.696
 499  1190.982
 500  1136.208
 501  1203.438
 502  1166.8
 503  1150.53
 504  1145.489
 505  1158.692
 506  1133.655
 507  1168.494
 508  1233.974
 509  1239.813
 510  1404.288
 511  1483.859
