# Input file       =  1205942611.123983_cleaned.dat
# Candidate        =  PSR_0332+5434
# Telescope        =  AR
# Epoch_topo       =  58201.668901897952
# Epoch_bary       =  N/A
# T_sample         =  0.002
# Data Folded      =  7340032
# Data Avg         =  0.0313065080543868
# Data StdDev      =  1.00006982809393 
# Profile Bins     =  512
# Profile Avg      =  448.847184272265 
# Profile StdDev   =  119.741397106476 
# Reduced chi-sqr  =  1.359
# Prob(Noise)      <  1.05e-07   (~5.2 sigma)
# P_topo (ms)      =  714.573947439282  +/- 0.000269
# P'_topo (s/s)    =  -0                +/- 1.42e-10
# P''_topo (s/s^2) =  0                 +/- 6.27e-14
# P_bary (ms)      =  N/A
# P'_bary (s/s)    =  N/A
# P''_bary (s/s^2) =  N/A
# P_orb (s)        =  N/A
# asin(i)/c (s)    =  N/A
# eccentricity     =  N/A
# w (rad)          =  N/A
# T_peri           =  N/A
######################################################
   0  1064.995
   1  1178.697
   2  1063.744
   3  763.6729
   4  521.2907
   5  522.397
   6  518.2181
   7  489.9023
   8  578.7556
   9  542.5902
  10  452.3716
  11  439.7862
  12  579.6529
  13  517.8181
  14  474.6912
  15  477.6705
  16  426.8259
  17  456.571
  18  510.0833
  19  482.1622
  20  555.9797
  21  512.0569
  22  527.3269
  23  587.6636
  24  598.2994
  25  497.5966
  26  575.6436
  27  590.4564
  28  635.7575
  29  625.4799
  30  564.0734
  31  551.2366
  32  529.7471
  33  642.0399
  34  642.6202
  35  605.8229
  36  582.5917
  37  574.1483
  38  541.3458
  39  559.2149
  40  481.8411
  41  400.9268
  42  453.8872
  43  574.0406
  44  549.4966
  45  605.3352
  46  541.3732
  47  488.0292
  48  543.5135
  49  445.0295
  50  458.7711
  51  395.4551
  52  450.7969
  53  441.5005
  54  612.5672
  55  564.0488
  56  472.3116
  57  557.559
  58  677.5499
  59  567.1157
  60  514.9135
  61  359.435
  62  325.9691
  63  483.2279
  64  553.2128
  65  489.4106
  66  469.5522
  67  512.5045
  68  450.0599
  69  364.915
  70  450.792
  71  449.084
  72  404.4189
  73  408.5451
  74  480.5851
  75  522.0024
  76  485.8958
  77  561.4483
  78  524.8955
  79  447.9152
  80  357.2712
  81  331.5347
  82  359.5918
  83  452.7935
  84  506.7576
  85  470.2627
  86  540.3647
  87  495.4422
  88  579.6347
  89  608.4501
  90  479.8973
  91  403.5508
  92  403.3299
  93  367.2858
  94  325.5519
  95  297.8922
  96  380.3268
  97  481.7159
  98  641.6483
  99  519.5117
 100  451.6861
 101  526.449
 102  397.369
 103  387.2781
 104  506.6563
 105  506.9503
 106  397.427
 107  345.791
 108  395.9104
 109  292.9007
 110  362.6444
 111  491.9306
 112  596.437
 113  402.3018
 114  461.7303
 115  513.422
 116  478.3923
 117  547.3364
 118  561.9275
 119  461.5645
 120  342.4614
 121  343.7787
 122  423.9244
 123  487.4895
 124  445.145
 125  434.0559
 126  405.3005
 127  326.1441
 128  469.5678
 129  412.1317
 130  466.4
 131  338.2231
 132  336.8994
 133  446.7151
 134  434.4014
 135  329.6408
 136  415.9749
 137  461.8145
 138  385.4755
 139  284.0175
 140  293.3044
 141  314.7034
 142  355.2826
 143  382.6931
 144  409.1167
 145  365.6288
 146  455.468
 147  511.4812
 148  453.2339
 149  417.9186
 150  391.9955
 151  367.4637
 152  377.0375
 153  244.2874
 154  356.7637
 155  341.216
 156  391.2249
 157  432.5782
 158  338.6848
 159  232.3824
 160  291.0702
 161  391.4779
 162  392.5422
 163  397.066
 164  401.228
 165  364.8589
 166  354.6056
 167  432.6782
 168  471.3923
 169  511.252
 170  532.9261
 171  504.369
 172  467.7802
 173  351.3123
 174  466.3438
 175  442.8436
 176  442.0386
 177  410.0949
 178  485.6103
 179  368.7806
 180  410.4549
 181  359.1698
 182  401.0393
 183  508.126
 184  507.7551
 185  559.9769
 186  473.1873
 187  359.6672
 188  376.7577
 189  458.0666
 190  514.9002
 191  523.9179
 192  464.8703
 193  483.1323
 194  538.2481
 195  524.5444
 196  582.7097
 197  532.6381
 198  474.8242
 199  385.1277
 200  396.2352
 201  526.4294
 202  530.1379
 203  494.2626
 204  519.8523
 205  529.3522
 206  514.7119
 207  445.3377
 208  384.8994
 209  428.8842
 210  424.2939
 211  420.8529
 212  335.1789
 213  412.2904
 214  506.3865
 215  424.7925
 216  475.3274
 217  467.2371
 218  379.7489
 219  375.2846
 220  422.3568
 221  405.779
 222  310.0133
 223  343.1347
 224  362.917
 225  368.0235
 226  408.6439
 227  526.2516
 228  482.0499
 229  321.3954
 230  337.9626
 231  382.0882
 232  391.7998
 233  511.6407
 234  557.506
 235  514.4585
 236  563.8014
 237  413.9269
 238  294.0398
 239  255.8763
 240  363.8655
 241  385.2079
 242  426.7542
 243  377.8123
 244  417.2205
 245  411.8308
 246  347.7448
 247  400.4852
 248  266.6256
 249  398.8066
 250  384.3155
 251  342.2881
 252  412.7602
 253  430.6172
 254  484.2065
 255  368.0339
 256  491.7906
 257  598.8626
 258  518.4626
 259  447.4328
 260  408.0213
 261  513.5485
 262  465.645
 263  509.5902
 264  497.3201
 265  331.3536
 266  310.4629
 267  383.9622
 268  354.421
 269  416.2615
 270  410.6092
 271  396.9599
 272  401.2049
 273  413.9587
 274  490.5631
 275  434.8304
 276  351.6045
 277  310.306
 278  273.6972
 279  500.3138
 280  557.7476
 281  446.7415
 282  410.3081
 283  514.2997
 284  469.331
 285  423.7767
 286  517.1992
 287  461.6122
 288  403.9551
 289  416.8709
 290  481.8956
 291  421.0227
 292  454.9653
 293  544.1628
 294  465.3649
 295  378.8885
 296  418.7898
 297  401.434
 298  413.4252
 299  412.2377
 300  443.424
 301  488.4637
 302  386.7674
 303  298.4102
 304  306.5296
 305  298.401
 306  384.1928
 307  401.3042
 308  457.6397
 309  498.7884
 310  285.4139
 311  415.3568
 312  605.4232
 313  471.8338
 314  426.9681
 315  361.1504
 316  450.7446
 317  462.6977
 318  515.4602
 319  523.4222
 320  405.6849
 321  378.2114
 322  454.6676
 323  439.1729
 324  560.9268
 325  520.4855
 326  358.9625
 327  505.6827
 328  561.8082
 329  542.3914
 330  509.4711
 331  500.5657
 332  505.7679
 333  441.0594
 334  591.1079
 335  527.0086
 336  516.2157
 337  586.6146
 338  553.1081
 339  497.6853
 340  540.3622
 341  598.9579
 342  503.7204
 343  478.2333
 344  376.0867
 345  491.4914
 346  470.6015
 347  355.7816
 348  518.8023
 349  516.4029
 350  448.5837
 351  469.2807
 352  439.3597
 353  467.168
 354  477.2426
 355  474.3985
 356  448.0818
 357  461.4077
 358  450.0008
 359  364.7458
 360  379.4743
 361  316.9945
 362  428.8265
 363  540.7538
 364  459.3289
 365  432.6214
 366  372.0311
 367  445.5005
 368  402.1949
 369  481.3327
 370  453.194
 371  401.1532
 372  451.8193
 373  407.7864
 374  403.2762
 375  372.2759
 376  408.9484
 377  446.7601
 378  528.5427
 379  429.4397
 380  326.1609
 381  546.6547
 382  542.3773
 383  405.0446
 384  364.7133
 385  432.9489
 386  386.7285
 387  403.7705
 388  384.855
 389  358.6401
 390  304.1841
 391  350.8324
 392  421.0176
 393  451.6174
 394  330.4445
 395  331.5665
 396  399.84
 397  412.5857
 398  424.7523
 399  438.0765
 400  446.3848
 401  393.3184
 402  430.8753
 403  409.1196
 404  344.5221
 405  426.0215
 406  453.8833
 407  420.013
 408  431.0056
 409  480.387
 410  342.5412
 411  383.673
 412  527.7417
 413  488.3273
 414  383.7731
 415  402.2272
 416  229.1335
 417  264.1876
 418  329.1035
 419  347.1839
 420  268.572
 421  240.4542
 422  259.8121
 423  290.2095
 424  337.7707
 425  399.1279
 426  342.8785
 427  363.5095
 428  426.3857
 429  470.1438
 430  503.1154
 431  468.6188
 432  458.2546
 433  465.1428
 434  375.3353
 435  363.3726
 436  375.3075
 437  363.5428
 438  387.5745
 439  425.8987
 440  262.9896
 441  266.2276
 442  326.6591
 443  436.8775
 444  412.1102
 445  324.3346
 446  419.4401
 447  408.4076
 448  410.1541
 449  437.8478
 450  434.8999
 451  307.6971
 452  278.0843
 453  379.9705
 454  446.2945
 455  388.2596
 456  312.1311
 457  426.0444
 458  484.8912
 459  399.563
 460  442.2802
 461  464.9474
 462  507.3788
 463  430.531
 464  342.1139
 465  381.3456
 466  505.2915
 467  423.7453
 468  430.1722
 469  409.063
 470  469.5722
 471  485.2187
 472  425.1238
 473  384.8756
 474  454.7683
 475  450.269
 476  517.4431
 477  537.3158
 478  533.3633
 479  555.106
 480  407.3018
 481  473.0209
 482  488.037
 483  580.1896
 484  396.7927
 485  384.6296
 486  571.4504
 487  447.5564
 488  492.749
 489  610.3958
 490  467.439
 491  382.3036
 492  558.3144
 493  546.458
 494  470.8933
 495  519.436
 496  569.1165
 497  611.3739
 498  453.9941
 499  434.8713
 500  453.6458
 501  411.7748
 502  395.6349
 503  432.117
 504  446.9839
 505  416.3802
 506  280.0658
 507  412.3536
 508  476.5087
 509  588.8646
 510  869.434
 511  999.4454
