# Input file       =  1205513153.125172_cleaned.dat
# Candidate        =  PSR_0332+5434
# Telescope        =  AR
# Epoch_topo       =  58196.698323208009
# Epoch_bary       =  N/A
# T_sample         =  0.002
# Data Folded      =  7340032
# Data Avg         =  0.0275008620977669
# Data StdDev      =  1.00005645992507 
# Profile Bins     =  512
# Profile Avg      =  394.242315033273 
# Profile StdDev   =  119.739796495028 
# Reduced chi-sqr  =  1.436
# Prob(Noise)      <  3.34e-10   (~6.2 sigma)
# P_topo (ms)      =  714.576227194016  +/- 0.000336
# P'_topo (s/s)    =  -0                +/- 1.77e-10
# P''_topo (s/s^2) =  0                 +/- 7.82e-14
# P_bary (ms)      =  N/A
# P'_bary (s/s)    =  N/A
# P''_bary (s/s^2) =  N/A
# P_orb (s)        =  N/A
# asin(i)/c (s)    =  N/A
# eccentricity     =  N/A
# w (rad)          =  N/A
# T_peri           =  N/A
######################################################
   0  899.3307
   1  923.3314
   2  799.6456
   3  659.3802
   4  605.1647
   5  487.5616
   6  521.2961
   7  487.8746
   8  497.4241
   9  481.0479
  10  491.485
  11  443.0892
  12  420.4024
  13  498.2525
  14  511.7819
  15  432.3919
  16  387.3886
  17  382.8143
  18  315.2047
  19  250.9272
  20  213.5882
  21  306.9042
  22  265.4661
  23  278.2597
  24  289.0195
  25  197.7258
  26  208.6203
  27  279.2922
  28  267.6567
  29  333.4794
  30  389.2579
  31  224.6358
  32  222.421
  33  284.5206
  34  266.3633
  35  314.3799
  36  249.5144
  37  264.5436
  38  164.8965
  39  101.8273
  40  161.0565
  41  311.3629
  42  405.0995
  43  257.5903
  44  317.4442
  45  317.9335
  46  292.0405
  47  248.0881
  48  350.4456
  49  311.3964
  50  289.9224
  51  238.95
  52  261.6424
  53  305.6581
  54  348.9386
  55  327.757
  56  470.1696
  57  438.0558
  58  343.9655
  59  399.4131
  60  376.5776
  61  323.5128
  62  415.6641
  63  328.653
  64  270.4824
  65  351.1555
  66  373.6399
  67  376.3555
  68  450.6954
  69  389.8854
  70  256.3967
  71  293.9692
  72  232.9421
  73  388.8112
  74  406.037
  75  377.4707
  76  371.4802
  77  348.1895
  78  356.0853
  79  400.1498
  80  306.6562
  81  401.1676
  82  395.607
  83  329.9778
  84  284.4937
  85  377.9403
  86  425.0727
  87  428.6311
  88  381.9202
  89  442.0699
  90  486.4402
  91  421.3539
  92  343.8802
  93  329.3001
  94  307.2402
  95  261.3398
  96  352.7298
  97  318.2005
  98  346.4546
  99  363.6743
 100  243.1862
 101  156.8971
 102  219.3277
 103  229.6851
 104  282.7795
 105  395.5886
 106  278.3866
 107  293.1725
 108  294.3156
 109  331.9275
 110  313.9225
 111  339.9166
 112  414.9392
 113  363.9458
 114  347.8325
 115  248.9329
 116  212.0653
 117  338.3711
 118  271.2575
 119  383.6908
 120  310.1852
 121  216.9787
 122  237.8585
 123  243.7192
 124  341.1623
 125  161.2883
 126  145.6303
 127  316.2536
 128  361.1404
 129  319.5508
 130  245.7444
 131  247.0954
 132  281.6573
 133  267.5039
 134  362.8271
 135  314.2995
 136  203.3339
 137  239.8368
 138  327.1451
 139  417.1398
 140  282.6437
 141  300.2179
 142  382.009
 143  381.5576
 144  367.8273
 145  473.8763
 146  560.9962
 147  496.5229
 148  422.8095
 149  480.1783
 150  474.6497
 151  375.3136
 152  497.1946
 153  472.8779
 154  434.3916
 155  272.9871
 156  393.6258
 157  536.3143
 158  511.0138
 159  519.5529
 160  491.2929
 161  425.1691
 162  382.027
 163  387.8061
 164  535.9136
 165  464.5896
 166  433.7684
 167  387.0326
 168  278.6166
 169  340.2239
 170  362.2269
 171  368.542
 172  344.1995
 173  406.045
 174  352.2508
 175  303.8076
 176  349.9
 177  375.0469
 178  221.6955
 179  221.1162
 180  377.6868
 181  388.8252
 182  173.3244
 183  167.0722
 184  349.5883
 185  423.8257
 186  329.8887
 187  217.9353
 188  271.9476
 189  387.2596
 190  405.0829
 191  301.635
 192  336.1129
 193  348.2942
 194  299.1458
 195  339.8693
 196  335.4494
 197  278.5045
 198  349.5164
 199  462.6111
 200  368.7563
 201  299.0104
 202  338.8944
 203  277.1933
 204  373.8745
 205  360.7754
 206  306.2164
 207  395.7339
 208  413.2515
 209  359.466
 210  310.6144
 211  321.9563
 212  374.472
 213  421.6356
 214  534.3239
 215  574.0773
 216  506.9805
 217  500.5614
 218  504.5493
 219  397.5683
 220  381.3593
 221  526.5978
 222  453.0636
 223  525.9876
 224  515.7662
 225  478.6326
 226  569.5509
 227  522.775
 228  500.3367
 229  409.6162
 230  475.0123
 231  597.1199
 232  526.8381
 233  482.3308
 234  423.4659
 235  437.0174
 236  448.7554
 237  446.6032
 238  458.9153
 239  449.4025
 240  476.1814
 241  510.6407
 242  523.5357
 243  468.3616
 244  475.9263
 245  550.947
 246  591.6393
 247  546.2048
 248  491.5199
 249  585.7668
 250  498.9056
 251  417.4781
 252  436.3665
 253  537.6082
 254  431.8382
 255  422.5312
 256  457.3582
 257  381.7524
 258  461.1592
 259  472.5874
 260  383.2169
 261  462.417
 262  438.1736
 263  392.3089
 264  355.3957
 265  376.1296
 266  463.9171
 267  325.44
 268  283.719
 269  271.7141
 270  324.7929
 271  301.5317
 272  333.8487
 273  369.8003
 274  426.5775
 275  367.0359
 276  342.8026
 277  352.0822
 278  327.2686
 279  424.5149
 280  304.8559
 281  328.5732
 282  399.7638
 283  372.3887
 284  380.4841
 285  503.5675
 286  508.9977
 287  469.7157
 288  454.7802
 289  430.0813
 290  543.3175
 291  490.6808
 292  406.5347
 293  413.8346
 294  448.4162
 295  554.3705
 296  516.6017
 297  540.0063
 298  562.5037
 299  553.3484
 300  555.2205
 301  548.5892
 302  527.939
 303  511.6201
 304  498.0309
 305  467.8316
 306  503.9991
 307  499.6595
 308  572.6511
 309  675.963
 310  598.4514
 311  368.2899
 312  441.8712
 313  407.5267
 314  444.3849
 315  428.659
 316  475.8062
 317  458.0601
 318  405.6714
 319  364.4229
 320  387.815
 321  372.4269
 322  419.7643
 323  346.1117
 324  271.2137
 325  311.0815
 326  297.6687
 327  382.1943
 328  342.0599
 329  316.086
 330  406.0707
 331  353.6831
 332  262.8467
 333  236.0639
 334  368.9643
 335  377.0525
 336  325.8261
 337  403.085
 338  495.9196
 339  464.4461
 340  407.5143
 341  332.5116
 342  328.1558
 343  385.6001
 344  463.36
 345  416.7447
 346  436.2787
 347  412.7249
 348  350.8635
 349  417.1297
 350  484.9947
 351  347.0372
 352  419.0982
 353  561.3262
 354  544.2426
 355  488.145
 356  505.8868
 357  429.7405
 358  443.5925
 359  474.0381
 360  499.7724
 361  467.6789
 362  427.6016
 363  554.1652
 364  472.9799
 365  501.6404
 366  499.6048
 367  345.336
 368  366.9152
 369  496.0897
 370  529.4142
 371  408.7606
 372  391.0807
 373  373.7641
 374  451.7862
 375  330.5943
 376  362.0291
 377  397.767
 378  442.163
 379  428.5941
 380  378.5663
 381  470.4916
 382  427.6581
 383  402.8326
 384  297.2767
 385  459.1948
 386  445.028
 387  387.0692
 388  408.6442
 389  366.8015
 390  407.8982
 391  428.5185
 392  384.7934
 393  378.0273
 394  358.2577
 395  389.3117
 396  428.6166
 397  314.3416
 398  415.8274
 399  324.0253
 400  365.2648
 401  287.879
 402  239.5511
 403  425.5257
 404  409.4874
 405  413.1025
 406  396.6644
 407  373.6463
 408  387.7873
 409  424.8954
 410  403.3771
 411  387.8525
 412  429.1208
 413  334.2903
 414  308.8952
 415  289.3764
 416  372.0981
 417  443.054
 418  486.6736
 419  407.112
 420  435.702
 421  400.9885
 422  374.3673
 423  431.6648
 424  490.0075
 425  539.3268
 426  458.2443
 427  540.4431
 428  417.1115
 429  437.9451
 430  451.8846
 431  325.8749
 432  335.7073
 433  355.7596
 434  307.9979
 435  475.6745
 436  349.5322
 437  273.4686
 438  412.1202
 439  393.5855
 440  489.2187
 441  394.0476
 442  454.2518
 443  495.6412
 444  488.9742
 445  404.0841
 446  375.0036
 447  376.8402
 448  408.8405
 449  460.0431
 450  374.2319
 451  385.1954
 452  453.6634
 453  424.5715
 454  427.8762
 455  341.5
 456  242.0899
 457  303.6922
 458  386.8676
 459  368.0225
 460  415.7224
 461  452.1031
 462  419.3886
 463  419.4585
 464  456.6516
 465  357.9248
 466  301.9927
 467  348.7365
 468  275.8889
 469  197.0593
 470  224.6765
 471  232.2459
 472  278.2302
 473  255.6823
 474  334.7869
 475  455.3565
 476  411.8057
 477  267.8268
 478  385.2527
 479  343.0985
 480  283.0075
 481  331.7289
 482  410.7452
 483  320.8246
 484  302.1577
 485  330.0426
 486  272.918
 487  351.7003
 488  378.3515
 489  403.3209
 490  419.9798
 491  391.9056
 492  538.4059
 493  570.3188
 494  615.8969
 495  502.7029
 496  489.4212
 497  582.294
 498  524.1476
 499  470.3415
 500  390.4543
 501  407.0625
 502  387.6974
 503  390.3437
 504  401.6392
 505  365.044
 506  443.9654
 507  509.6019
 508  596.4408
 509  634.6182
 510  751.0792
 511  885.2004
