# Input file       =  1205740786.108979_cleaned.dat
# Candidate        =  PSR_0332+5434
# Telescope        =  AR
# Epoch_topo       =  58199.332964224297
# Epoch_bary       =  N/A
# T_sample         =  0.002
# Data Folded      =  7143424
# Data Avg         =  0.0160635826392576
# Data StdDev      =  1.00002373209845 
# Profile Bins     =  512
# Profile Avg      =  224.036813842415 
# Profile StdDev   =  118.121387683743 
# Reduced chi-sqr  =  2.592
# Prob(Noise)      <  1.6e-73   (~18.1 sigma)
# P_topo (ms)      =  714.574701731316  +/- 2.45e-05
# P'_topo (s/s)    =  -0                +/- 1.33e-11
# P''_topo (s/s^2) =  0                 +/- 6.03e-15
# P_bary (ms)      =  N/A
# P'_bary (s/s)    =  N/A
# P''_bary (s/s^2) =  N/A
# P_orb (s)        =  N/A
# asin(i)/c (s)    =  N/A
# eccentricity     =  N/A
# w (rad)          =  N/A
# T_peri           =  N/A
######################################################
   0  784.3198
   1  834.4087
   2  667.2211
   3  326.0298
   4  180.0623
   5  240.5884
   6  108.6932
   7  96.8003
   8  157.3258
   9  229.5556
  10  291.7494
  11  421.7045
  12  316.8788
  13  204.1883
  14  171.0352
  15  213.3976
  16  194.6687
  17  239.3861
  18  310.9317
  19  259.7014
  20  147.4337
  21  70.40376
  22  143.3943
  23  151.4496
  24  109.4749
  25  224.2913
  26  258.6924
  27  298.2467
  28  225.9982
  29  315.1869
  30  215.3443
  31  112.0603
  32  163.2917
  33  339.1875
  34  394.2226
  35  358.7878
  36  362.0702
  37  132.981
  38  106.9196
  39  183.2484
  40  274.1051
  41  366.4265
  42  398.2539
  43  303.8311
  44  189.3217
  45  88.86623
  46  163.1449
  47  192.5803
  48  165.0085
  49  175.8451
  50  129.7988
  51  177.7757
  52  232.2375
  53  114.5454
  54  -3.777044
  55  -35.13798
  56  256.7163
  57  280.3514
  58  370.3827
  59  489.9873
  60  314.1585
  61  219.9492
  62  150.6771
  63  197.1952
  64  78.69456
  65  113.1257
  66  64.97594
  67  124.5265
  68  159.0683
  69  167.3114
  70  27.04455
  71  -24.73668
  72  75.79016
  73  247.374
  74  330.5536
  75  329.6678
  76  338.32
  77  322.9294
  78  277.0196
  79  230.0579
  80  124.2046
  81  150.3312
  82  186.8923
  83  185.4247
  84  295.428
  85  421.0139
  86  207.2063
  87  249.6484
  88  192.3897
  89  111.3351
  90  217.7627
  91  388.9685
  92  494.9543
  93  378.5968
  94  305.2177
  95  322.0919
  96  196.6107
  97  121.1599
  98  179.3407
  99  215.6328
 100  337.5163
 101  398.1591
 102  326.9315
 103  156.8889
 104  150.5251
 105  238.5098
 106  288.6056
 107  316.3254
 108  369.6356
 109  577.6254
 110  498.0838
 111  358.3057
 112  245.2065
 113  193.0425
 114  124.4723
 115  179.375
 116  334.5884
 117  279.5509
 118  291.0993
 119  321.5702
 120  338.1577
 121  289.3848
 122  213.2355
 123  214.3048
 124  341.2236
 125  373.5637
 126  414.0459
 127  361.5721
 128  234.0121
 129  182.75
 130  99.14136
 131  76.15546
 132  232.8209
 133  257.0986
 134  280.2006
 135  240.8457
 136  110.6917
 137  198.1121
 138  103.86
 139  108.8323
 140  304.7607
 141  357.1112
 142  383.8711
 143  351.2875
 144  138.9594
 145  165.9566
 146  168.9653
 147  89.62072
 148  162.2275
 149  275.9959
 150  395.7043
 151  284.2505
 152  193.4949
 153  168.5299
 154  190.5868
 155  190.8922
 156  277.5568
 157  359.6599
 158  450.5416
 159  476.1181
 160  397.6307
 161  227.8636
 162  118.8636
 163  18.10478
 164  179.2047
 165  320.6966
 166  373.8238
 167  432.5592
 168  199.4151
 169  76.09952
 170  136.8347
 171  109.9226
 172  152.9562
 173  397.0096
 174  418.5892
 175  452.8488
 176  433.8629
 177  376.9951
 178  149.845
 179  177.2032
 180  124.3995
 181  214.8166
 182  266.1797
 183  288.7816
 184  415.8808
 185  233.1691
 186  92.29518
 187  70.39711
 188  247.8912
 189  279.4628
 190  296.2503
 191  478.8623
 192  502.9109
 193  200.7661
 194  257.0429
 195  202.5368
 196  65.80975
 197  34.90524
 198  186.6534
 199  282.2129
 200  310.0244
 201  267.9793
 202  143.0785
 203  112.0721
 204  165.2451
 205  179.9495
 206  202.6299
 207  309.7813
 208  429.8908
 209  449.1727
 210  409.8945
 211  355.5276
 212  302.4658
 213  237.3513
 214  414.8876
 215  389.9577
 216  356.9661
 217  313.7448
 218  205.6112
 219  110.5056
 220  139.4756
 221  209.1506
 222  338.7491
 223  426.4837
 224  580.6439
 225  566.9176
 226  465.9811
 227  331.0079
 228  474.8893
 229  419.1781
 230  217.536
 231  199.7307
 232  235.4034
 233  316.0893
 234  291.4042
 235  242.8048
 236  230.8692
 237  239.0405
 238  260.9227
 239  265.7522
 240  332.1936
 241  440.5519
 242  441.5245
 243  326.112
 244  188.8637
 245  103.7365
 246  159.7706
 247  267.7944
 248  322.5374
 249  407.1095
 250  354.6909
 251  294.2613
 252  211.162
 253  55.65409
 254  94.70422
 255  158.193
 256  354.0354
 257  596.68
 258  524.1585
 259  312.5161
 260  209.5681
 261  111.1807
 262  121.192
 263  174.9131
 264  173.1223
 265  89.50416
 266  212.5138
 267  210.8925
 268  239.7835
 269  264.4245
 270  239.7753
 271  149.1137
 272  150.3823
 273  383.2391
 274  352.7111
 275  334.3557
 276  325.6959
 277  209.6688
 278  187.8611
 279  55.77031
 280  104.7858
 281  183.7069
 282  316.1741
 283  107.2722
 284  184.5933
 285  230.4025
 286  216.9122
 287  204.7511
 288  107.6299
 289  250.4328
 290  286.6127
 291  349.8663
 292  410.8862
 293  327.1555
 294  211.4704
 295  83.67566
 296  136.2783
 297  32.7872
 298  212.9974
 299  399.9073
 300  284.2296
 301  239.4801
 302  152.0117
 303  189.7044
 304  184.4806
 305  252.6374
 306  418.1221
 307  445.1248
 308  374.4103
 309  395.6967
 310  304.1931
 311  179.9367
 312  175.1076
 313  212.3645
 314  344.4489
 315  321.3457
 316  225.1316
 317  223.0713
 318  134.2921
 319  161.7561
 320  148.5359
 321  142.9525
 322  301.1658
 323  590.7352
 324  633.8322
 325  255.1154
 326  143.8838
 327  232.2499
 328  234.691
 329  95.96383
 330  61.17303
 331  166.3318
 332  331.5817
 333  255.3787
 334  192.1017
 335  128.4846
 336  153.5464
 337  182.357
 338  214.0949
 339  392.898
 340  414.0342
 341  295.3262
 342  200.7033
 343  180.1104
 344  159.0071
 345  128.8407
 346  110.9948
 347  156.3398
 348  252.7578
 349  345.4496
 350  300.1823
 351  239.0398
 352  171.1132
 353  181.9978
 354  235.8233
 355  261.486
 356  333.8709
 357  415.6458
 358  340.5979
 359  278.6493
 360  227.7476
 361  184.844
 362  115.3195
 363  154.9354
 364  240.7186
 365  182.5209
 366  186.2474
 367  112.9068
 368  136.787
 369  148.5436
 370  185.9332
 371  218.9231
 372  214.8478
 373  307.6143
 374  359.2579
 375  293.4989
 376  157.1632
 377  149.949
 378  110.0392
 379  35.85322
 380  283.7391
 381  254.7072
 382  264.2763
 383  102.1157
 384  156.9108
 385  167.5806
 386  7.939023
 387  27.57009
 388  116.6528
 389  335.9003
 390  402.5188
 391  268.9121
 392  86.38994
 393  -38.60374
 394  -50.09023
 395  121.5491
 396  184.8275
 397  201.0161
 398  187.8423
 399  167.7141
 400  106.0531
 401  160.7008
 402  30.36348
 403  82.7027
 404  187.2183
 405  145.5167
 406  267.0422
 407  330.1047
 408  234.7391
 409  155.9314
 410  60.89774
 411  -24.59554
 412  -36.76788
 413  115.5253
 414  112.2971
 415  143.8261
 416  143.2051
 417  -11.08588
 418  72.12026
 419  149.1692
 420  -24.19724
 421  47.14476
 422  246.5602
 423  369.3758
 424  301.0725
 425  162.039
 426  166.4018
 427  100.9293
 428  -15.26961
 429  122.384
 430  189.0857
 431  85.14091
 432  46.91233
 433  -81.18836
 434  -1.387727
 435  27.07883
 436  47.87204
 437  86.24983
 438  206.3276
 439  281.9447
 440  258.0896
 441  37.39725
 442  -57.65656
 443  6.760153
 444  79.43693
 445  136.1852
 446  142.2489
 447  131.271
 448  119.0235
 449  266.7935
 450  192.8961
 451  52.20134
 452  -31.70266
 453  25.89345
 454  170.4617
 455  260.9557
 456  256.8727
 457  205.7668
 458  6.70852
 459  -67.42056
 460  -111.9399
 461  15.88624
 462  137.8204
 463  174.3476
 464  278.1468
 465  137.4985
 466  60.65301
 467  -63.61396
 468  27.81222
 469  36.59066
 470  248.223
 471  372.7893
 472  342.306
 473  258.6724
 474  183.6332
 475  73.73133
 476  -84.67995
 477  -97.79765
 478  131.7761
 479  193.8382
 480  101.7552
 481  109.6854
 482  105.7823
 483  -97.56904
 484  -10.80534
 485  26.40551
 486  137.851
 487  389.3819
 488  392.9233
 489  262.9053
 490  179.6527
 491  173.5252
 492  223.0281
 493  232.8211
 494  70.68107
 495  -39.20319
 496  125.6319
 497  185.1419
 498  235.6809
 499  41.69641
 500  73.80053
 501  157.3911
 502  2.14891
 503  159.8336
 504  262.7413
 505  389.1793
 506  534.8777
 507  515.0386
 508  455.4021
 509  424.9514
 510  612.121
 511  793.2079
