# Input file       =  1205841527.112188_cleaned.dat
# Candidate        =  PSR_0332+5434
# Telescope        =  AR
# Epoch_topo       =  58200.498948057735
# Epoch_bary       =  N/A
# T_sample         =  0.002
# Data Folded      =  7340032
# Data Avg         =  0.00934536163566429
# Data StdDev      =  1.00036361699617 
# Profile Bins     =  512
# Profile Avg      =  134.01441627536  
# Profile StdDev   =  119.776573343796 
# Reduced chi-sqr  =  1.428
# Prob(Noise)      <  6.17e-10   (~6.1 sigma)
# P_topo (ms)      =  714.574175399373  +/- 0.000483
# P'_topo (s/s)    =  -0                +/- 2.55e-10
# P''_topo (s/s^2) =  0                 +/- 1.13e-13
# P_bary (ms)      =  N/A
# P'_bary (s/s)    =  N/A
# P''_bary (s/s^2) =  N/A
# P_orb (s)        =  N/A
# asin(i)/c (s)    =  N/A
# eccentricity     =  N/A
# w (rad)          =  N/A
# T_peri           =  N/A
######################################################
   0  710.1935
   1  713.1742
   2  651.019
   3  441.4592
   4  248.8807
   5  168.646
   6  122.0587
   7  201.655
   8  193.5002
   9  160.5904
  10  264.5504
  11  256.7162
  12  213.7828
  13  281.3931
  14  341.873
  15  289.0241
  16  349.5154
  17  271.6387
  18  283.1253
  19  275.269
  20  243.4389
  21  201.5254
  22  182.5641
  23  153.0338
  24  146.8737
  25  146.092
  26  137.0325
  27  133.0852
  28  159.0321
  29  45.8245
  30  86.08849
  31  82.52011
  32  91.84054
  33  160.5201
  34  145.8391
  35  94.2908
  36  17.08146
  37  98.76269
  38  114.7762
  39  75.90989
  40  119.5467
  41  75.02223
  42  11.14137
  43  9.102762
  44  96.80363
  45  129.6808
  46  35.33301
  47  70.8416
  48  149.0283
  49  184.8878
  50  30.80533
  51  17.57011
  52  23.50311
  53  138.2083
  54  84.70618
  55  68.39643
  56  25.29926
  57  60.19363
  58  -1.171691
  59  -24.36639
  60  52.83223
  61  108.5045
  62  168.675
  63  105.2813
  64  137.0667
  65  195.8951
  66  135.7979
  67  206.7107
  68  214.0656
  69  164.6181
  70  167.3758
  71  152.7264
  72  156.8068
  73  113.0399
  74  124.5635
  75  169.4331
  76  173.9591
  77  244.3752
  78  168.2425
  79  152.9158
  80  173.0766
  81  119.4834
  82  117.7352
  83  91.19692
  84  82.30885
  85  142.9525
  86  223.5733
  87  215.6219
  88  190.6589
  89  163.4895
  90  107.5613
  91  52.52599
  92  77.93576
  93  135.679
  94  123.6805
  95  145.3744
  96  132.0792
  97  220.8705
  98  245.0281
  99  95.27781
 100  95.46085
 101  180.9803
 102  175.1004
 103  153.5444
 104  215.7734
 105  143.1474
 106  204.4133
 107  213.514
 108  168.3129
 109  87.44178
 110  142.3532
 111  192.832
 112  92.63808
 113  151.9253
 114  138.8385
 115  134.2987
 116  186.6227
 117  131.9203
 118  164.4051
 119  73.49959
 120  53.74292
 121  120.461
 122  197.3448
 123  124.1887
 124  75.12646
 125  156.2081
 126  198.3557
 127  140.3517
 128  192.0639
 129  250.6126
 130  154.075
 131  108.5806
 132  123.6115
 133  214.4831
 134  114.8254
 135  115.7436
 136  105.2151
 137  80.83576
 138  165.7212
 139  174.1156
 140  198.9826
 141  102.3113
 142  115.2627
 143  175.7795
 144  107.5888
 145  101.0797
 146  188.1251
 147  194.1635
 148  106.6125
 149  113.1092
 150  261.1732
 151  150.158
 152  121.2812
 153  149.1318
 154  163.4544
 155  108.7592
 156  68.39239
 157  55.64511
 158  59.3156
 159  145.2893
 160  94.20407
 161  50.08694
 162  106.8635
 163  101.3611
 164  82.99802
 165  28.39928
 166  24.52202
 167  43.4571
 168  72.92532
 169  85.55542
 170  88.10692
 171  46.17184
 172  94.45113
 173  65.20363
 174  84.63175
 175  136.0016
 176  64.4673
 177  3.393232
 178  -8.884153
 179  15.66286
 180  82.59797
 181  87.23997
 182  70.79687
 183  58.92583
 184  2.60116
 185  19.43818
 186  79.75591
 187  122.3836
 188  168.3577
 189  205.4414
 190  185.5922
 191  85.76575
 192  87.13905
 193  85.30731
 194  59.93443
 195  47.69793
 196  51.66394
 197  62.85407
 198  32.90713
 199  37.60018
 200  116.5656
 201  147.3098
 202  58.51651
 203  2.266076
 204  -27.67653
 205  -36.67862
 206  -15.77115
 207  42.94896
 208  191.4803
 209  154.2346
 210  149.3062
 211  109.408
 212  -8.234372
 213  107.7961
 214  115.8751
 215  99.64048
 216  31.42632
 217  8.643338
 218  47.87622
 219  48.85424
 220  88.92432
 221  61.75992
 222  69.26769
 223  100.4801
 224  45.55701
 225  87.56451
 226  80.03188
 227  44.66093
 228  28.12886
 229  107.9743
 230  39.6425
 231  39.80472
 232  42.34401
 233  69.49187
 234  -9.76435
 235  -38.15416
 236  -2.305972
 237  89.63756
 238  197.7354
 239  163.995
 240  127.4075
 241  38.42234
 242  70.00134
 243  90.68139
 244  49.32841
 245  45.60792
 246  21.10655
 247  23.81257
 248  153.767
 249  100.7517
 250  106.046
 251  91.44742
 252  139.522
 253  131.6568
 254  133.8338
 255  61.95667
 256  36.53149
 257  116.2803
 258  56.84237
 259  78.3269
 260  106.3577
 261  161.5802
 262  124.2749
 263  20.58718
 264  -50.44527
 265  -12.97521
 266  90.80185
 267  69.53696
 268  8.631548
 269  -2.032655
 270  -22.25
 271  24.20799
 272  94.58796
 273  71.4329
 274  91.82646
 275  137.3802
 276  126.6871
 277  98.98672
 278  146.3882
 279  188.8423
 280  203.1504
 281  76.62263
 282  83.94587
 283  151.6042
 284  238.0284
 285  243.7752
 286  120.4824
 287  188.2661
 288  212.2012
 289  139.5396
 290  194.1228
 291  183.8438
 292  145.85
 293  137.8484
 294  83.45663
 295  191.8805
 296  203.2153
 297  118.5603
 298  106.7656
 299  117.4693
 300  76.1606
 301  68.8224
 302  118.6956
 303  111.7431
 304  155.9901
 305  148.3388
 306  103.2801
 307  141.6538
 308  123.6938
 309  133.9699
 310  99.72913
 311  163.1714
 312  289.6294
 313  130.0626
 314  82.28655
 315  64.52892
 316  129.5556
 317  127.492
 318  128.9558
 319  172.3748
 320  167.0739
 321  132.3913
 322  163.7367
 323  147.9732
 324  110.1235
 325  151.7655
 326  192.1411
 327  137.8795
 328  102.4739
 329  147.988
 330  96.91216
 331  150.8338
 332  248.8655
 333  215.8829
 334  256.4544
 335  261.024
 336  232.8379
 337  187.5129
 338  176.0192
 339  99.21686
 340  164.6356
 341  189.4151
 342  204.1768
 343  126.7198
 344  72.30592
 345  94.09244
 346  80.70566
 347  196.8613
 348  178.9436
 349  153.1984
 350  212.4466
 351  195.7056
 352  165.3374
 353  260.3881
 354  352.7161
 355  367.0593
 356  337.2525
 357  310.4307
 358  265.0558
 359  256.1817
 360  271.8657
 361  305.1198
 362  382.5728
 363  229.6628
 364  262.3485
 365  337.0555
 366  304.5007
 367  248.4024
 368  296.7978
 369  304.8028
 370  269.7089
 371  309.587
 372  274.8783
 373  211.5932
 374  204.5789
 375  242.1309
 376  165.3669
 377  208.9677
 378  180.5782
 379  179.8375
 380  200.0629
 381  235.9382
 382  247.247
 383  214.5055
 384  267.8805
 385  211.6191
 386  222.7039
 387  194.0753
 388  189.1525
 389  278.9276
 390  250.4136
 391  175.5319
 392  212.8967
 393  290.4325
 394  312.7245
 395  370.7847
 396  333.9348
 397  367.4376
 398  321.3418
 399  354.007
 400  288.3464
 401  167.4933
 402  175.0163
 403  254.8242
 404  312.8829
 405  274.4276
 406  217.5028
 407  180.0429
 408  180.215
 409  103.4715
 410  94.2936
 411  141.4056
 412  145.3382
 413  131.9327
 414  109.2293
 415  129.0839
 416  137.177
 417  69.88086
 418  -19.01584
 419  69.73724
 420  84.3466
 421  135.6758
 422  106.2357
 423  144.1675
 424  115.0744
 425  129.6173
 426  116.1215
 427  96.52974
 428  172.6209
 429  207.4027
 430  154.9528
 431  222.1781
 432  192.2187
 433  163.5144
 434  203.7911
 435  182.2208
 436  147.8192
 437  147.9694
 438  136.1609
 439  55.88799
 440  139.7537
 441  101.5322
 442  146.1919
 443  169.5841
 444  212.8421
 445  153.6167
 446  167.0112
 447  164.0899
 448  177.0408
 449  100.1678
 450  21.11573
 451  109.6327
 452  130.8915
 453  76.52106
 454  28.78003
 455  80.43153
 456  55.2929
 457  42.79341
 458  -61.5432
 459  -156.3437
 460  -61.60972
 461  22.34152
 462  -44.05767
 463  8.901397
 464  62.9692
 465  69.94429
 466  12.34697
 467  -73.48679
 468  -1.320596
 469  9.345129
 470  -67.23762
 471  -53.53197
 472  -50.89863
 473  27.93774
 474  3.291589
 475  89.98947
 476  30.38608
 477  -15.70753
 478  -42.14136
 479  50.07819
 480  -24.58287
 481  40.35911
 482  9.194521
 483  -49.99174
 484  -71.71307
 485  -145.0773
 486  -129.618
 487  -65.19498
 488  63.93266
 489  61.09609
 490  -52.58583
 491  28.44678
 492  51.56754
 493  -6.63237
 494  6.591199
 495  59.21517
 496  27.7781
 497  61.78533
 498  87.68434
 499  117.2939
 500  138.5959
 501  100.1041
 502  177.3401
 503  162.3675
 504  228.0788
 505  206.9781
 506  247.0836
 507  251.6398
 508  264.8817
 509  371.4135
 510  586.3911
 511  642.8502
