# Input file       =  1205080843.115398_cleaned.dat
# Candidate        =  PSR_0332+5434
# Telescope        =  AR
# Epoch_topo       =  58191.694735131918
# Epoch_bary       =  N/A
# T_sample         =  0.002
# Data Folded      =  7340032
# Data Avg         =  0.0308709098847577
# Data StdDev      =  1.00006285134942 
# Profile Bins     =  512
# Profile Avg      =  442.568940494342 
# Profile StdDev   =  119.740561759672 
# Reduced chi-sqr  =  1.739
# Prob(Noise)      <  8.59e-23   (~9.8 sigma)
# P_topo (ms)      =  714.578030231915  +/- 0.00048
# P'_topo (s/s)    =  -0                +/- 2.53e-10
# P''_topo (s/s^2) =  0                 +/- 1.12e-13
# P_bary (ms)      =  N/A
# P'_bary (s/s)    =  N/A
# P''_bary (s/s^2) =  N/A
# P_orb (s)        =  N/A
# asin(i)/c (s)    =  N/A
# eccentricity     =  N/A
# w (rad)          =  N/A
# T_peri           =  N/A
######################################################
   0  1178.456
   1  1222.793
   2  967.0785
   3  854.5408
   4  638.6965
   5  573.1324
   6  467.8138
   7  374.0822
   8  443.2164
   9  419.2077
  10  634.4823
  11  630.4101
  12  609.2607
  13  601.9029
  14  593.6462
  15  549.2652
  16  513.8903
  17  427.2904
  18  384.2811
  19  395.7976
  20  387.7408
  21  550.8475
  22  613.6116
  23  435.939
  24  515.0627
  25  531.0327
  26  524.8411
  27  545.2085
  28  517.6757
  29  393.0813
  30  309.2099
  31  377.0844
  32  398.9834
  33  422.1047
  34  488.1251
  35  499.9471
  36  543.1467
  37  336.3992
  38  395.1566
  39  390.8064
  40  483.5613
  41  496.3295
  42  527.1025
  43  473.0255
  44  528.084
  45  464.8748
  46  454.0317
  47  450.2188
  48  484.3974
  49  475.3748
  50  426.3091
  51  390.9113
  52  464.2683
  53  591.0292
  54  539.4836
  55  484.5026
  56  534.9227
  57  471.1898
  58  549.082
  59  566.2661
  60  529.8937
  61  551.0472
  62  475.5865
  63  578.1063
  64  512.5891
  65  529.7987
  66  528.4653
  67  529.6544
  68  547.4776
  69  661.3377
  70  576.5443
  71  491.1631
  72  517.7646
  73  477.6891
  74  477.343
  75  545.8143
  76  544.1929
  77  561.3774
  78  452.3363
  79  468.9167
  80  457.4083
  81  429.8578
  82  519.702
  83  573.6924
  84  519.4919
  85  457.3633
  86  543.3997
  87  575.7307
  88  478.8616
  89  541.8483
  90  502.3837
  91  438.4084
  92  466.4352
  93  471.3859
  94  438.2969
  95  465.7745
  96  471.7755
  97  512.8557
  98  480.3626
  99  464.1966
 100  452.2146
 101  408.0093
 102  442.476
 103  479.3833
 104  424.8875
 105  498.9905
 106  516.6429
 107  531.8949
 108  453.7871
 109  487.6799
 110  434.2347
 111  454.5018
 112  575.1893
 113  498.0259
 114  423.478
 115  439.0699
 116  452.2504
 117  452.8455
 118  481.31
 119  408.3217
 120  446.0903
 121  533.5981
 122  473.9592
 123  400.8055
 124  465.1726
 125  528.7421
 126  518.2465
 127  496.3431
 128  449.2651
 129  419.8379
 130  369.2698
 131  429.8514
 132  428.2489
 133  455.7198
 134  470.8521
 135  507.202
 136  436.5709
 137  349.3066
 138  290.8865
 139  345.218
 140  325.6031
 141  348.2278
 142  377.535
 143  465.0673
 144  554.6149
 145  620.7934
 146  448.1393
 147  388.7091
 148  303.1955
 149  384.6002
 150  406.8245
 151  504.7079
 152  514.6384
 153  397.9272
 154  441.2165
 155  450.2436
 156  468.9925
 157  359.7904
 158  379.4209
 159  372.7436
 160  464.7299
 161  502.071
 162  459.1544
 163  392.1418
 164  500.5778
 165  355.2514
 166  413.942
 167  435.7828
 168  481.7265
 169  552.941
 170  532.3884
 171  592.1708
 172  495.8368
 173  577.7703
 174  703.3383
 175  600.8068
 176  542.1048
 177  543.82
 178  517.827
 179  399.9789
 180  415.2576
 181  559.8741
 182  543.9428
 183  498.9944
 184  351.556
 185  387.0015
 186  280.6915
 187  311.4233
 188  354.9777
 189  457.0135
 190  452.3071
 191  458.2648
 192  387.1354
 193  363.3036
 194  527.6028
 195  613.5704
 196  467.7043
 197  451.4898
 198  529.8428
 199  536.7769
 200  537.2222
 201  455.4219
 202  474.1596
 203  494.1121
 204  521.3116
 205  506.4464
 206  487.541
 207  491.6221
 208  519.6854
 209  466.7104
 210  463.1198
 211  529.162
 212  513.3041
 213  422.5578
 214  339.6212
 215  421.2106
 216  440.763
 217  427.9088
 218  287.332
 219  358.2887
 220  485.1313
 221  401.5694
 222  383.1692
 223  375.7237
 224  336.886
 225  468.8527
 226  464.5784
 227  272.44
 228  238.9337
 229  249.0648
 230  382.9462
 231  415.0464
 232  439.0294
 233  458.8065
 234  435.9961
 235  404.9924
 236  433.1913
 237  501.0759
 238  515.7109
 239  446.8193
 240  439.9588
 241  494.2779
 242  533.9563
 243  418.4598
 244  379.6011
 245  429.9924
 246  493.343
 247  466.8862
 248  513.7476
 249  458.9863
 250  510.9673
 251  538.2092
 252  435.6366
 253  324.767
 254  336.2015
 255  410.8529
 256  356.8966
 257  494.7836
 258  511.4815
 259  384.153
 260  497.7752
 261  472.8586
 262  480.2748
 263  479.6789
 264  420.5072
 265  359.2354
 266  309.2733
 267  363.344
 268  339.2544
 269  370.5782
 270  452.7945
 271  467.0018
 272  294.9106
 273  442.7018
 274  384.3679
 275  362.5222
 276  409.5273
 277  413.5945
 278  392.9943
 279  406.6416
 280  358.296
 281  265.4345
 282  302.2251
 283  290.6753
 284  419.9315
 285  372.9151
 286  368.5887
 287  418.2286
 288  411.0183
 289  468.4559
 290  406.7399
 291  379.9441
 292  355.5977
 293  357.6824
 294  346.1846
 295  343.7257
 296  367.9066
 297  364.9375
 298  328.8232
 299  398.884
 300  382.452
 301  354.3402
 302  381.3595
 303  367.1853
 304  355.6688
 305  327.4746
 306  310.5964
 307  248.2109
 308  263.4111
 309  197.8512
 310  217.7941
 311  347.0883
 312  497.9977
 313  389.505
 314  303.8374
 315  280.9832
 316  257.4663
 317  175.3653
 318  339.5586
 319  340.278
 320  414.969
 321  443.2098
 322  334.8659
 323  328.5479
 324  455.692
 325  425.6112
 326  368.9759
 327  330.3113
 328  473.9044
 329  500.0634
 330  350.4184
 331  437.5512
 332  399.4868
 333  359.5217
 334  372.8667
 335  271.3544
 336  494.9169
 337  452.3288
 338  306.8789
 339  384.183
 340  378.5644
 341  243.9925
 342  340.6687
 343  413.9205
 344  406.7419
 345  348.2828
 346  395.9742
 347  513.4374
 348  476.9908
 349  450.8608
 350  421.7601
 351  475.9675
 352  459.4983
 353  443.2329
 354  373.0139
 355  449.8518
 356  466.9016
 357  408.9698
 358  415.5382
 359  322.8349
 360  306.1774
 361  420.6471
 362  359.2727
 363  350.1106
 364  360.8727
 365  327.7632
 366  398.3337
 367  386.1761
 368  315.7749
 369  362.7711
 370  352.4971
 371  369.4196
 372  475.9558
 373  397.1527
 374  233.153
 375  231.4317
 376  252.5011
 377  443.7216
 378  408.2457
 379  293.0259
 380  190.6927
 381  346.281
 382  311.28
 383  279.4763
 384  355.818
 385  449.5049
 386  459.7782
 387  446.126
 388  351.5829
 389  277.9831
 390  354.6447
 391  334.1686
 392  352.1527
 393  368.4977
 394  430.5717
 395  383.4403
 396  399.6574
 397  347.66
 398  330.6601
 399  384.2608
 400  428.6689
 401  333.647
 402  405.7483
 403  464.2192
 404  398.6944
 405  293.0181
 406  281.4998
 407  273.813
 408  294.2181
 409  352.6575
 410  274.4842
 411  288.0757
 412  263.3782
 413  381.7857
 414  373.5141
 415  277.8993
 416  272.6802
 417  224.0404
 418  242.1928
 419  357.7945
 420  463.4207
 421  418.1808
 422  352.179
 423  342.749
 424  356.7234
 425  359.7982
 426  375.909
 427  371.8661
 428  452.0441
 429  375.7083
 430  463.0355
 431  460.3344
 432  418.8273
 433  409.9026
 434  384.8362
 435  308.3336
 436  402.3658
 437  390.7324
 438  320.1335
 439  318.2901
 440  373.3236
 441  304.8756
 442  416.9338
 443  465.5834
 444  423.153
 445  368.9957
 446  327.2301
 447  353.221
 448  285.772
 449  259.5467
 450  503.5239
 451  510.8047
 452  573.4348
 453  486.5866
 454  482.0288
 455  364.8102
 456  373.3943
 457  455.9501
 458  452.5365
 459  483.5717
 460  492.0717
 461  593.396
 462  522.465
 463  476.2042
 464  440.8339
 465  449.0531
 466  473.8947
 467  545.8716
 468  507.6952
 469  459.4099
 470  465.2801
 471  515.298
 472  483.4075
 473  482.8804
 474  457.5053
 475  531.7774
 476  538.7084
 477  577.5884
 478  587.6718
 479  526.4596
 480  405.5606
 481  452.5492
 482  534.5284
 483  399.281
 484  399.3516
 485  560.0706
 486  538.2123
 487  496.7119
 488  522.4659
 489  584.0867
 490  524.6594
 491  544.9478
 492  486.4572
 493  485.0913
 494  573.7963
 495  544.6864
 496  481.8924
 497  444.2781
 498  475.6864
 499  534.3237
 500  496.9269
 501  425.3027
 502  415.4997
 503  459.4445
 504  631.7048
 505  650.7566
 506  595.1982
 507  764.777
 508  749.5778
 509  794.7257
 510  1064.453
 511  1108.161
