# Input file       =  1205841527.112188_cleaned.dat
# Candidate        =  PSR_0332+5434
# Telescope        =  AR
# Epoch_topo       =  58200.498948057735
# Epoch_bary       =  N/A
# T_sample         =  0.002
# Data Folded      =  7340032
# Data Avg         =  0.00934536163566429
# Data StdDev      =  1.00036361699617 
# Profile Bins     =  512
# Profile Avg      =  134.014416266549 
# Profile StdDev   =  119.776573343796 
# Reduced chi-sqr  =  1.425
# Prob(Noise)      <  7.81e-10   (~6.0 sigma)
# P_topo (ms)      =  714.574175402694  +/- 0.000485
# P'_topo (s/s)    =  -0                +/- 2.56e-10
# P''_topo (s/s^2) =  0                 +/- 1.13e-13
# P_bary (ms)      =  N/A
# P'_bary (s/s)    =  N/A
# P''_bary (s/s^2) =  N/A
# P_orb (s)        =  N/A
# asin(i)/c (s)    =  N/A
# eccentricity     =  N/A
# w (rad)          =  N/A
# T_peri           =  N/A
######################################################
   0  725.6786
   1  693.4017
   2  541.9014
   3  316.9311
   4  207.8069
   5  121.7353
   6  164.5885
   7  216.9058
   8  158.0394
   9  207.9904
  10  276.0175
  11  230.442
  12  222.1051
  13  350.6453
  14  295.6787
  15  334.4727
  16  311.0396
  17  265.5879
  18  291.4492
  19  248.7142
  20  228.305
  21  183.6074
  22  164.9902
  23  149.7184
  24  146.8794
  25  153.4324
  26  120.8046
  27  174.8365
  28  72.02213
  29  62.42157
  30  91.17844
  31  67.72388
  32  138.1344
  33  163.1559
  34  132.7162
  35  28.81136
  36  55.53371
  37  113.7889
  38  101.8426
  39  86.85779
  40  129.1819
  41  21.97044
  42  1.947359
  43  47.24698
  44  136.6465
  45  69.89232
  46  47.02471
  47  113.9303
  48  195.2475
  49  99.86178
  50  0.9700391
  51  18.33778
  52  93.44817
  53  119.0914
  54  66.53554
  55  40.51025
  56  40.49733
  57  34.38845
  58  -20.8096
  59  12.92495
  60  93.90807
  61  143.3059
  62  133.8459
  63  116.011
  64  181.1324
  65  165.6242
  66  148.5045
  67  246.3226
  68  160.7556
  69  186.8229
  70  140.2451
  71  170.5699
  72  127.8245
  73  112.1985
  74  147.3931
  75  178.9225
  76  207.6849
  77  220.6513
  78  139.2328
  79  174.1292
  80  137.5634
  81  123.9451
  82  107.732
  83  67.06311
  84  106.6291
  85  194.5481
  86  228.5379
  87  198.1064
  88  196.9927
  89  117.2295
  90  91.22217
  91  34.9777
  92  134.0699
  93  116.8913
  94  147.0283
  95  125.0871
  96  176.8012
  97  260.8914
  98  166.6259
  99  65.27251
 100  156.7211
 101  181.5282
 102  150.6474
 103  195.2437
 104  177.8337
 105  160.0994
 106  228.0657
 107  190.3455
 108  135.693
 109  83.16765
 110  215.1361
 111  111.9802
 112  117.7652
 113  152.7206
 114  124.8013
 115  168.2483
 116  165.9368
 117  141.7319
 118  130.0281
 119  40.89547
 120  79.92161
 121  182.5081
 122  164.7368
 123  87.87518
 124  105.1328
 125  204.1671
 126  163.8606
 127  155.1175
 128  237.3368
 129  204.5252
 130  120.288
 131  105.1204
 132  181.4653
 133  167.294
 134  100.7911
 135  125.4177
 136  68.54308
 137  147.1561
 138  155.5859
 139  206.5717
 140  141.3972
 141  86.52502
 142  171.9527
 143  145.2855
 144  81.35014
 145  158.1137
 146  194.2008
 147  157.0806
 148  73.90625
 149  207.2086
 150  227.7004
 151  104.8742
 152  138.9784
 153  171.3615
 154  126.9629
 155  92.72676
 156  55.31694
 157  60.07837
 158  89.57436
 159  153.5983
 160  36.37772
 161  92.3718
 162  98.76074
 163  100.5345
 164  49.28564
 165  29.89576
 166  24.66287
 167  66.26991
 168  70.38636
 169  106.853
 170  59.12707
 171  75.69961
 172  84.31616
 173  58.12394
 174  118.5036
 175  113.017
 176  13.83385
 177  -0.1086619
 178  -5.219927
 179  61.66912
 180  86.87442
 181  77.95502
 182  61.2425
 183  24.62813
 184  0.7143857
 185  67.16598
 186  91.66474
 187  164.3951
 188  168.0077
 189  227.2623
 190  121.7887
 191  79.46349
 192  87.43749
 193  76.98954
 194  47.81783
 195  48.81932
 196  59.3797
 197  51.81606
 198  23.61644
 199  74.82147
 200  152.1413
 201  106.7642
 202  16.67453
 203  -10.26706
 204  -52.15964
 205  -23.34619
 206  4.416765
 207  140.8547
 208  184.4003
 209  136.9663
 210  142.093
 211  25.77714
 212  42.88201
 213  134.1227
 214  97.78507
 215  78.70708
 216  2.526021
 217  48.6134
 218  31.52232
 219  81.04607
 220  63.9289
 221  62.68117
 222  99.26295
 223  62.12426
 224  71.39371
 225  73.86349
 226  84.48323
 227  15.98512
 228  85.58265
 229  70.00968
 230  32.40261
 231  29.60499
 232  68.74065
 233  33.86713
 234  -24.91683
 235  -32.46839
 236  42.25543
 237  153.1563
 238  193.204
 239  145.5408
 240  81.70326
 241  33.68889
 242  104.6346
 243  54.70649
 244  49.23139
 245  36.47686
 246  6.884029
 247  98.73787
 248  143.0802
 249  86.24041
 250  99.88588
 251  113.5282
 252  149.3882
 253  122.919
 254  112.4565
 255  23.49426
 256  93.42599
 257  100.0006
 258  42.97478
 259  95.00802
 260  134.2527
 261  163.6763
 262  68.0172
 263  -32.95701
 264  -47.21717
 265  56.53543
 266  92.11095
 267  18.87514
 268  6.490408
 269  -9.431969
 270  -3.53347
 271  77.77768
 272  73.28275
 273  70.0769
 274  125.5939
 275  146.7517
 276  97.43517
 277  125.877
 278  162.9475
 279  215.2027
 280  139.9213
 281  54.10008
 282  128.1259
 283  189.9795
 284  274.9544
 285  162.0287
 286  140.2177
 287  217.2088
 288  173.9676
 289  158.7913
 290  216.4664
 291  150.4457
 292  143.2165
 293  91.2353
 294  142.8411
 295  210.8981
 296  163.9347
 297  94.49267
 298  123.5953
 299  91.77065
 300  64.77047
 301  94.11882
 302  128.062
 303  118.819
 304  176.8145
 305  104.7474
 306  132.7845
 307  133.8656
 308  123.7624
 309  112.8018
 310  109.8644
 311  259.8935
 312  213.3709
 313  90.59599
 314  68.89042
 315  100.0057
 316  134.9551
 317  118.7387
 318  157.1316
 319  178.2946
 320  148.0284
 321  141.3008
 322  159.4454
 323  122.0918
 324  115.741
 325  188.0824
 326  178.692
 327  100.4691
 328  142.1865
 329  121.9439
 330  97.03007
 331  222.1873
 332  230.1712
 333  233.229
 334  270.5989
 335  245.2887
 336  202.4819
 337  181.8022
 338  139.093
 339  120.5346
 340  192.3451
 341  194.7073
 342  178.6911
 343  81.32824
 344  80.42157
 345  84.99084
 346  137.6934
 347  213.0419
 348  140.8958
 349  189.2688
 350  208.2729
 351  172.1446
 352  218.8163
 353  311.7054
 354  372.5862
 355  332.9661
 356  342.6475
 357  274.4406
 358  266.6622
 359  261.5912
 360  286.3993
 361  358.2116
 362  311.4307
 363  205.292
 364  325.0197
 365  320.5111
 366  274.5333
 367  249.1278
 368  331.79
 369  268.4501
 370  301.3234
 371  295.966
 372  246.6206
 373  184.608
 374  243.7915
 375  204.8704
 376  174.2372
 377  202.0657
 378  165.0736
 379  194.7757
 380  220.1131
 381  253.1061
 382  228.5983
 383  230.6237
 384  265.4085
 385  191.2317
 386  227.859
 387  177.2741
 388  232.0229
 389  281.6521
 390  191.3015
 391  193.771
 392  259.3238
 393  312.3106
 394  345.6566
 395  344.418
 396  372.7263
 397  330.3108
 398  330.6668
 399  336.1271
 400  212.6569
 401  154.0861
 402  217.1408
 403  298.3802
 404  302.5017
 405  234.8169
 406  191.5385
 407  184.5532
 408  149.3483
 409  83.9088
 410  117.6794
 411  142.2157
 412  146.4419
 413  116.0874
 414  114.4466
 415  138.8529
 416  121.4643
 417  -7.136878
 418  29.16953
 419  78.81959
 420  117.3729
 421  121.7797
 422  122.8533
 423  131.5023
 424  127.7755
 425  120.6606
 426  105.5133
 427  119.4118
 428  212.5782
 429  167.4782
 430  191.1329
 431  225.7984
 432  148.6458
 433  198.0004
 434  184.453
 435  173.0583
 436  138.1637
 437  156.8407
 438  93.61565
 439  91.93311
 440  133.1873
 441  109.2377
 442  155.9515
 443  204.7678
 444  178.2571
 445  159.4982
 446  158.6485
 447  174.5232
 448  143.6332
 449  49.95776
 450  55.84389
 451  141.3255
 452  104.5527
 453  41.28181
 454  57.46056
 455  71.07424
 456  47.74097
 457  -6.530999
 458  -127.3094
 459  -118.7086
 460  4.915527
 461  -21.79345
 462  -30.98485
 463  49.03204
 464  77.38906
 465  36.02254
 466  -40.69184
 467  -59.93267
 468  48.68401
 469  -53.63424
 470  -45.42147
 471  -74.38542
 472  5.474408
 473  10.29282
 474  50.42316
 475  68.76075
 476  0.8466808
 477  -37.42641
 478  9.082694
 479  17.16935
 480  -6.416099
 481  54.8596
 482  -34.05679
 483  -47.1018
 484  -124.562
 485  -140.7912
 486  -120.1938
 487  15.1783
 488  77.96466
 489  3.338188
 490  -38.15799
 491  75.21484
 492  10.06687
 493  -5.313808
 494  41.61281
 495  36.9381
 496  41.40389
 497  78.3526
 498  104.8327
 499  148.8422
 500  95.43805
 501  145.5403
 502  172.2847
 503  193.9224
 504  227.775
 505  227.2767
 506  250.152
 507  250.625
 508  306.7587
 509  490.3034
 510  644.2927
 511  672.6478
