# Input file       =  1205598593.103592_cleaned.dat
# Candidate        =  PSR_0332+5434
# Telescope        =  AR
# Epoch_topo       =  58197.687211847129
# Epoch_bary       =  N/A
# T_sample         =  0.002
# Data Folded      =  7340032
# Data Avg         =  0.0315738313771276
# Data StdDev      =  1.00008881790958 
# Profile Bins     =  512
# Profile Avg      =  452.641297897628 
# Profile StdDev   =  119.743670814765 
# Reduced chi-sqr  =  1.111
# Prob(Noise)      <  0.0411   (~1.7 sigma)
# P_topo (ms)      =  714.575793578219  +/- 0.000253
# P'_topo (s/s)    =  -0                +/- 1.33e-10
# P''_topo (s/s^2) =  0                 +/- 5.89e-14
# P_bary (ms)      =  N/A
# P'_bary (s/s)    =  N/A
# P''_bary (s/s^2) =  N/A
# P_orb (s)        =  N/A
# asin(i)/c (s)    =  N/A
# eccentricity     =  N/A
# w (rad)          =  N/A
# T_peri           =  N/A
######################################################
   0  839.377
   1  887.3104
   2  723.804
   3  580.3113
   4  438.1235
   5  456.4431
   6  497.0898
   7  452.2349
   8  434.6749
   9  458.7194
  10  535.3752
  11  551.3804
  12  468.905
  13  440.3852
  14  482.382
  15  392.5651
  16  356.8985
  17  331.8246
  18  274.1497
  19  376.7646
  20  426.0604
  21  458.7102
  22  395.7908
  23  271.5834
  24  259.2658
  25  360.3578
  26  273.7219
  27  358.3133
  28  451.1039
  29  436.3633
  30  387.3747
  31  347.4751
  32  474.4619
  33  388.0322
  34  408.4849
  35  439.3122
  36  435.1022
  37  468.0353
  38  473.3859
  39  446.7109
  40  442.7391
  41  441.5237
  42  573.6879
  43  524.8445
  44  451.9396
  45  523.9331
  46  521.9791
  47  461.9335
  48  398.5458
  49  443.0455
  50  549.1026
  51  425.8286
  52  338.5387
  53  391.9524
  54  406.0587
  55  448.3735
  56  414.1127
  57  369.5557
  58  327.3735
  59  373.4707
  60  394.7092
  61  500.6301
  62  520.3726
  63  400.3902
  64  484.956
  65  425.9648
  66  407.8852
  67  428.1404
  68  470.6377
  69  580.9429
  70  410.5498
  71  493.0862
  72  603.9037
  73  449.1249
  74  406.8846
  75  457.2854
  76  375.1247
  77  492.4897
  78  331.565
  79  314.8557
  80  400.2401
  81  477.8541
  82  535.7274
  83  405.577
  84  453.7095
  85  467.4513
  86  315.2021
  87  451.0912
  88  360.8401
  89  396.8471
  90  469.4621
  91  459.546
  92  435.5674
  93  419.3326
  94  368.3656
  95  389.4844
  96  461.5632
  97  505.3981
  98  372.1242
  99  573.2954
 100  480.036
 101  264.96
 102  326.0317
 103  491.1149
 104  395.1324
 105  435.537
 106  437.3864
 107  486.1497
 108  380.9565
 109  276.4653
 110  374.5474
 111  421.5241
 112  448.196
 113  456.7832
 114  392.2413
 115  379.2603
 116  371.4954
 117  228.6633
 118  343.7926
 119  488.2291
 120  589.6429
 121  444.4546
 122  387.7742
 123  366.9185
 124  408.8965
 125  463.3705
 126  445.937
 127  352.4973
 128  329.1444
 129  355.9195
 130  323.2524
 131  420.0939
 132  490.6383
 133  440.3523
 134  474.3828
 135  436.8212
 136  418.8871
 137  323.2092
 138  456.7404
 139  547.7478
 140  549.6339
 141  535.1371
 142  489.2855
 143  460.4667
 144  418.3958
 145  346.9543
 146  301.1854
 147  329.617
 148  359.6537
 149  356.3228
 150  300.5526
 151  256.5989
 152  466.2008
 153  433.7757
 154  409.5669
 155  467.4918
 156  329.1002
 157  364.1648
 158  364.033
 159  427.2167
 160  517.9739
 161  521.2916
 162  555.9188
 163  497.8715
 164  534.4131
 165  583.4344
 166  508.3698
 167  492.1796
 168  500.6811
 169  611.8044
 170  533.9416
 171  520.3702
 172  581.6584
 173  668.5469
 174  533.9984
 175  520.5481
 176  476.2236
 177  357.0658
 178  375.5559
 179  462.7874
 180  387.8548
 181  451.614
 182  478.3281
 183  477.6501
 184  442.506
 185  554.1255
 186  419.0646
 187  467.3488
 188  497.3667
 189  365.5247
 190  444.6217
 191  582.1346
 192  570.1329
 193  468.1188
 194  417.6234
 195  476.0586
 196  486.3822
 197  421.2264
 198  462.6059
 199  500.597
 200  599.3519
 201  486.1713
 202  532.7251
 203  495.9386
 204  402.7678
 205  453.3489
 206  451.682
 207  473.9981
 208  525.6006
 209  401.8416
 210  388.1998
 211  542.4811
 212  462.9598
 213  348.2732
 214  437.2944
 215  495.5608
 216  445.0926
 217  426.3228
 218  430.1129
 219  412.4496
 220  554.704
 221  520.3953
 222  477.0857
 223  542.5289
 224  437.6549
 225  440.4534
 226  515.5512
 227  472.1595
 228  386.4424
 229  442.9846
 230  439.9199
 231  402.1229
 232  398.0856
 233  457.1055
 234  477.4461
 235  429.8913
 236  370.9445
 237  433.7043
 238  371.6378
 239  401.9954
 240  511.7135
 241  489.5656
 242  369.8835
 243  424.5914
 244  391.0663
 245  373.2263
 246  384.9203
 247  419.3262
 248  404.6476
 249  351.5463
 250  406.6457
 251  494.2037
 252  411.157
 253  395.9932
 254  377.2184
 255  444.5201
 256  460.3349
 257  459.2302
 258  420.2477
 259  532.2474
 260  514.0674
 261  433.5245
 262  375.1912
 263  427.2301
 264  588.5931
 265  508.1788
 266  337.1091
 267  291.7802
 268  399.9305
 269  467.2255
 270  320.6483
 271  386.8294
 272  501.2693
 273  520.813
 274  499.573
 275  529.7021
 276  453.9095
 277  473.843
 278  534.2726
 279  547.5895
 280  658.8759
 281  696.7439
 282  594.3252
 283  454.492
 284  594.7732
 285  497.7503
 286  457.017
 287  575.9851
 288  596.6641
 289  538.7113
 290  459.8437
 291  507.8813
 292  476.719
 293  483.7103
 294  605.6876
 295  541.8553
 296  512.5046
 297  504.0315
 298  532.8541
 299  451.1577
 300  483.0462
 301  522.5541
 302  512.2276
 303  549.4604
 304  552.6454
 305  482.3137
 306  477.3629
 307  462.0351
 308  428.7137
 309  495.5246
 310  464.3063
 311  426.1914
 312  390.4684
 313  275.8494
 314  255.2838
 315  246.845
 316  420.5465
 317  418.7048
 318  439.2134
 319  416.8376
 320  395.3673
 321  468.4098
 322  405.5102
 323  350.3622
 324  424.1898
 325  426.3532
 326  391.117
 327  297.5803
 328  240.8973
 329  365.7925
 330  460.778
 331  492.2742
 332  385.5848
 333  268.4214
 334  421.3467
 335  359.223
 336  259.5568
 337  409.8355
 338  526.8205
 339  589.1054
 340  542.387
 341  557.9098
 342  584.1926
 343  484.6374
 344  416.4827
 345  383.0382
 346  454.9537
 347  356.8383
 348  416.5139
 349  438.6877
 350  459.2574
 351  467.2583
 352  434.1454
 353  371.0217
 354  408.4123
 355  363.8018
 356  388.3604
 357  415.9163
 358  425.9804
 359  310.8616
 360  371.671
 361  407.8928
 362  282.1649
 363  215.0822
 364  249.0847
 365  355.0305
 366  471.8181
 367  472.4084
 368  410.9141
 369  402.1555
 370  570.0572
 371  619.6293
 372  571.4767
 373  479.5712
 374  445.4707
 375  430.8995
 376  509.2506
 377  552.1926
 378  582.8122
 379  643.0309
 380  648.1031
 381  520.6412
 382  455.6136
 383  618.0496
 384  510.491
 385  412.0023
 386  433.2558
 387  507.8733
 388  537.1434
 389  397.0359
 390  361.573
 391  412.7242
 392  518.5499
 393  543.8738
 394  569.725
 395  486.3369
 396  442.2504
 397  429.4072
 398  401.8568
 399  458.2813
 400  476.5819
 401  484.0654
 402  383.4838
 403  371.0466
 404  444.106
 405  429.7313
 406  420.7064
 407  546.6453
 408  498.2961
 409  370.5931
 410  392.447
 411  453.2308
 412  446.8351
 413  501.877
 414  413.3402
 415  480.4485
 416  550.9796
 417  560.2989
 418  429.6701
 419  331.2837
 420  455.5264
 421  571.4009
 422  460.3006
 423  478.3292
 424  389.0718
 425  525.5646
 426  492.2819
 427  485.0377
 428  488.5116
 429  436.7859
 430  490.5155
 431  537.3372
 432  558.1603
 433  437.1327
 434  372.1477
 435  348.2541
 436  526.6142
 437  448.6293
 438  402.8127
 439  518.0413
 440  570.1851
 441  410.6496
 442  447.675
 443  555.9668
 444  502.1901
 445  320.601
 446  313.1003
 447  263.2797
 448  352.2458
 449  339.8037
 450  335.6617
 451  294.2439
 452  278.6264
 453  350.1228
 454  420.6624
 455  398.637
 456  475.5347
 457  405.6485
 458  371.1858
 459  427.1236
 460  409.2404
 461  468.4172
 462  596.1061
 463  463.9892
 464  324.964
 465  435.6045
 466  508.913
 467  417.65
 468  559.5771
 469  573.3
 470  554.1868
 471  547.728
 472  352.2134
 473  353.0016
 474  447.2473
 475  391.1392
 476  360.2877
 477  476.5147
 478  490.5479
 479  467.4337
 480  415.2839
 481  399.5764
 482  314.3817
 483  377.9057
 484  417.0271
 485  514.476
 486  513.6599
 487  545.3189
 488  455.773
 489  405.2737
 490  356.4595
 491  429.3026
 492  549.7183
 493  553.2213
 494  599.6833
 495  540.881
 496  619.9907
 497  584.5852
 498  600.6918
 499  534.9574
 500  501.4793
 501  418.8295
 502  504.8529
 503  620.0329
 504  633.4811
 505  585.9052
 506  542.1006
 507  583.4109
 508  630.4963
 509  736.586
 510  864.7476
 511  874.9403
