# Input file       =  1205396186.107609_cleaned.dat
# Candidate        =  PSR_0332+5434
# Telescope        =  AR
# Epoch_topo       =  58195.344538282508
# Epoch_bary       =  N/A
# T_sample         =  0.002
# Data Folded      =  7405568
# Data Avg         =  0.0263714259554643
# Data StdDev      =  1.00004976690968 
# Profile Bins     =  512
# Profile Avg      =  381.382467614747 
# Profile StdDev   =  120.272356312608 
# Reduced chi-sqr  =  1.846
# Prob(Noise)      <  4.06e-28   (~10.9 sigma)
# P_topo (ms)      =  714.576383335132  +/- 8.67e-05
# P'_topo (s/s)    =  -0                +/- 4.53e-11
# P''_topo (s/s^2) =  0                 +/- 1.98e-14
# P_bary (ms)      =  N/A
# P'_bary (s/s)    =  N/A
# P''_bary (s/s^2) =  N/A
# P_orb (s)        =  N/A
# asin(i)/c (s)    =  N/A
# eccentricity     =  N/A
# w (rad)          =  N/A
# T_peri           =  N/A
######################################################
   0  1141.988
   1  1066.154
   2  813.2304
   3  594.9506
   4  535.6193
   5  499.2395
   6  499.3238
   7  589.2077
   8  506.7192
   9  468.1072
  10  571.1243
  11  476.2726
  12  378.8209
  13  455.4019
  14  558.1868
  15  488.6514
  16  486.932
  17  413.6679
  18  352.404
  19  514.1404
  20  497.4515
  21  419.1926
  22  363.4149
  23  519.0238
  24  561.4849
  25  415.6984
  26  325.3665
  27  270.084
  28  165.1697
  29  220.5393
  30  276.7795
  31  316.2893
  32  349.1778
  33  373.3781
  34  284.5828
  35  421.8501
  36  387.0496
  37  352.939
  38  343.8372
  39  366.8361
  40  388.3452
  41  317.1172
  42  356.2341
  43  314.8934
  44  231.2228
  45  279.7399
  46  342.5564
  47  287.3245
  48  296.0994
  49  266.5477
  50  188.9708
  51  292.0077
  52  369.7307
  53  397.9144
  54  446.5124
  55  521.5198
  56  531.414
  57  413.9069
  58  338.2571
  59  278.9065
  60  357.0039
  61  287.7522
  62  283.9236
  63  275.0676
  64  298.797
  65  363.3597
  66  326.2129
  67  336.4807
  68  253.1219
  69  211.6359
  70  276.4886
  71  358.2617
  72  331.5376
  73  320.9576
  74  311.3416
  75  310.6618
  76  266.1663
  77  185.891
  78  308.0298
  79  372.2819
  80  202.8175
  81  274.9737
  82  393.5928
  83  256.1253
  84  281.8344
  85  263.6439
  86  240.0123
  87  386.7193
  88  438.7992
  89  474.527
  90  368.7683
  91  297.9716
  92  369.0838
  93  382.7611
  94  359.1332
  95  310.6345
  96  324.3997
  97  478.6558
  98  481.8021
  99  415.3644
 100  308.4402
 101  287.1696
 102  412.0312
 103  400.8176
 104  512.3481
 105  508.1618
 106  514.928
 107  312.3881
 108  239.8754
 109  220.5326
 110  215.81
 111  351.5742
 112  361.0601
 113  285.9454
 114  300.0512
 115  345.7263
 116  224.3202
 117  201.6002
 118  361.0011
 119  355.8797
 120  276.4647
 121  318.4099
 122  530.2227
 123  511.9024
 124  337.1035
 125  248.2178
 126  310.3359
 127  489.8127
 128  534.9296
 129  393.2226
 130  357.1471
 131  426.642
 132  364.6754
 133  387.8191
 134  305.4008
 135  329.9096
 136  478.9262
 137  490.2158
 138  518.4606
 139  466.3027
 140  449.054
 141  426.5572
 142  403.4065
 143  426.515
 144  403.6837
 145  456.0716
 146  503.5926
 147  342.7751
 148  279.6066
 149  238.4058
 150  313.3494
 151  397.799
 152  314.3607
 153  378.7745
 154  422.4369
 155  484.3454
 156  384.5131
 157  252.4892
 158  337.2126
 159  279.5542
 160  346.5951
 161  303.7788
 162  356.1434
 163  562.13
 164  522.3885
 165  403.2045
 166  297.3833
 167  218.9641
 168  324.2556
 169  451.123
 170  457.7931
 171  483.9665
 172  463.3262
 173  406.8638
 174  401.339
 175  504.7332
 176  383.6616
 177  435.7657
 178  157.8194
 179  189.8429
 180  377.0113
 181  342.7197
 182  262.27
 183  323.9409
 184  355.0849
 185  421.1062
 186  340.0849
 187  438.1252
 188  408.0681
 189  336.6533
 190  208.1691
 191  187.4949
 192  241.5819
 193  268.7719
 194  335.8854
 195  203.8987
 196  425.9064
 197  368.7704
 198  286.4422
 199  329.0149
 200  362.3275
 201  306.7889
 202  326.2787
 203  357.1168
 204  415.6187
 205  565.5442
 206  539.3796
 207  247.1553
 208  294.4261
 209  365.6859
 210  258.5835
 211  283.4965
 212  292.9606
 213  309.0963
 214  247.1203
 215  260.8405
 216  362.0848
 217  375.3968
 218  458.9105
 219  444.3771
 220  481.3394
 221  581.1204
 222  456.0413
 223  278.4977
 224  167.7183
 225  248.9314
 226  336.6757
 227  464.292
 228  362.071
 229  462.5876
 230  444.5494
 231  391.2551
 232  295.574
 233  275.8944
 234  247.3003
 235  185.5706
 236  274.1373
 237  399.3326
 238  408.2636
 239  413.9728
 240  344.6227
 241  225.8296
 242  223.4189
 243  335.9154
 244  398.1957
 245  327.4745
 246  335.4869
 247  346.9378
 248  268.2433
 249  291.9286
 250  237.789
 251  437.2292
 252  579.2097
 253  457.4854
 254  330.3775
 255  439.1948
 256  445.6714
 257  344.8413
 258  386.4761
 259  441.5776
 260  401.2944
 261  410.0717
 262  515.0884
 263  593.5806
 264  441.8926
 265  383.0098
 266  331.4042
 267  458.5479
 268  443.9464
 269  585.2519
 270  635.9258
 271  372.8588
 272  315.3057
 273  444.7313
 274  389.6949
 275  357.3951
 276  460.612
 277  395.5398
 278  444.1289
 279  440.0055
 280  368.7635
 281  335.353
 282  355.3633
 283  411.342
 284  416.978
 285  474.5305
 286  489.0863
 287  505.8468
 288  526.1726
 289  427.1169
 290  448.0016
 291  465.9073
 292  385.6519
 293  346.581
 294  338.4657
 295  470.3586
 296  525.2495
 297  431.7578
 298  457.9807
 299  344.1835
 300  438.1913
 301  589.4719
 302  537.5632
 303  481.6974
 304  540.1859
 305  480.5946
 306  383.4552
 307  287.3834
 308  290.9144
 309  295.3963
 310  272.4282
 311  363.8668
 312  379.4436
 313  427.6005
 314  307.0367
 315  242.016
 316  221.8598
 317  283.8661
 318  342.0459
 319  335.9886
 320  347.6928
 321  339.0904
 322  319.7729
 323  351.1843
 324  330.1071
 325  259.4143
 326  229.5104
 327  278.771
 328  362.788
 329  371.7273
 330  358.2945
 331  331.2815
 332  348.1624
 333  321.9558
 334  331.1605
 335  421.5899
 336  425.2865
 337  439.152
 338  287.8967
 339  282.4761
 340  287.3781
 341  348.5929
 342  296.9774
 343  271.6574
 344  379.8117
 345  324.5742
 346  255.4895
 347  278.7942
 348  277.1663
 349  287.6063
 350  253.3407
 351  335.7664
 352  384.9388
 353  400.0439
 354  460.5523
 355  457.3066
 356  287.7642
 357  199.3217
 358  198.0929
 359  279.2661
 360  263.6092
 361  253.8792
 362  361.3226
 363  421.1157
 364  370.1171
 365  456.5749
 366  414.2115
 367  353.8691
 368  420.2046
 369  526.1606
 370  440.2932
 371  394.4512
 372  380.3692
 373  354.0848
 374  441.9249
 375  374.207
 376  301.8052
 377  260.6648
 378  340.8851
 379  458.7947
 380  355.2111
 381  274.8495
 382  420.2144
 383  366.9552
 384  374.683
 385  397.4687
 386  474.8838
 387  400.3252
 388  306.4705
 389  315.2955
 390  368.2829
 391  489.5485
 392  436.5399
 393  377.1133
 394  510.731
 395  598.814
 396  388.4282
 397  342.5713
 398  380.9944
 399  424.1776
 400  442.1998
 401  473.8166
 402  474.3363
 403  334.5617
 404  302.1356
 405  381.9019
 406  424.691
 407  493.7104
 408  491.2742
 409  460.7813
 410  348.9378
 411  346.9682
 412  542.8153
 413  392.6902
 414  347.857
 415  357.4382
 416  509.2144
 417  495.6539
 418  479.9723
 419  368.5016
 420  336.7843
 421  331.1124
 422  330.4565
 423  342.9318
 424  272.741
 425  349.6658
 426  353.7353
 427  455.2066
 428  425.3843
 429  276.7172
 430  255.1698
 431  414.5025
 432  389.3098
 433  333.2415
 434  397.4412
 435  462.0065
 436  414.9347
 437  264.0971
 438  295.3236
 439  321.3422
 440  263.7256
 441  321.1637
 442  329.2552
 443  211.5226
 444  331.7246
 445  292.0316
 446  60.68536
 447  186.1222
 448  283.4844
 449  277.1295
 450  352.9102
 451  381.3276
 452  446.1245
 453  484.8591
 454  560.211
 455  415.2418
 456  323.6867
 457  302.6288
 458  458.2031
 459  331.8762
 460  266.0503
 461  294.0832
 462  208.3942
 463  362.1546
 464  508.0754
 465  461.1027
 466  323.2939
 467  154.4194
 468  315.7594
 469  415.3814
 470  399.7791
 471  409.1895
 472  356.4677
 473  306.6087
 474  354.2312
 475  393.1178
 476  357.3343
 477  403.4734
 478  478.7356
 479  431.941
 480  316.9692
 481  373.794
 482  329.5014
 483  276.8148
 484  398.225
 485  535.7148
 486  486.4944
 487  405.7696
 488  330.6519
 489  302.1508
 490  300.528
 491  446.4263
 492  521.9914
 493  488.0399
 494  530.2547
 495  537.3337
 496  459.2034
 497  477.9474
 498  347.8416
 499  345.8793
 500  484.725
 501  607.7639
 502  583.008
 503  366.315
 504  369.8845
 505  469.2335
 506  559.0439
 507  693.1824
 508  673.8436
 509  847.2906
 510  1066.78
 511  1185.629
