# Input file       =  1205223715.118029_cleaned.dat
# Candidate        =  PSR_0332+5434
# Telescope        =  AR
# Epoch_topo       =  58193.348346273488
# Epoch_bary       =  N/A
# T_sample         =  0.002
# Data Folded      =  7471104
# Data Avg         =  0.022352773089408
# Data StdDev      =  1.00006705490377 
# Profile Bins     =  512
# Profile Avg      =  326.198474474585 
# Profile StdDev   =  120.805451019077 
# Reduced chi-sqr  =  1.918
# Prob(Noise)      <  7.23e-32   (~11.7 sigma)
# P_topo (ms)      =  714.577125365673  +/- 4.05e-05
# P'_topo (s/s)    =  -0                +/- 2.1e-11
# P''_topo (s/s^2) =  0                 +/- 9.11e-15
# P_bary (ms)      =  N/A
# P'_bary (s/s)    =  N/A
# P''_bary (s/s^2) =  N/A
# P_orb (s)        =  N/A
# asin(i)/c (s)    =  N/A
# eccentricity     =  N/A
# w (rad)          =  N/A
# T_peri           =  N/A
######################################################
   0  1077.661
   1  930.8097
   2  707.7445
   3  615.1316
   4  369.2353
   5  218.4258
   6  282.4466
   7  489.1146
   8  367.9326
   9  228.765
  10  325.1857
  11  314.4544
  12  307.9744
  13  438.8788
  14  434.4067
  15  379.6043
  16  150.5819
  17  198.4543
  18  330.5626
  19  395.1924
  20  365.972
  21  374.5678
  22  337.1417
  23  314.0913
  24  318.8183
  25  204.4306
  26  297.3768
  27  395.0805
  28  392.6035
  29  466.2577
  30  384.5321
  31  210.1536
  32  191.3499
  33  164.7534
  34  224.4876
  35  296.6111
  36  503.5538
  37  504.1282
  38  442.1005
  39  432.2196
  40  283.1923
  41  150.262
  42  200.1873
  43  188.0832
  44  299.9169
  45  307.963
  46  296.3709
  47  304.4887
  48  248.3805
  49  214.3673
  50  122.4107
  51  256.1231
  52  267.1744
  53  322.0351
  54  404.7166
  55  320.7857
  56  261.2815
  57  223.8256
  58  158.9374
  59  374.8554
  60  362.0883
  61  246.8475
  62  250.0457
  63  278.3027
  64  310.7709
  65  291.0525
  66  319.5063
  67  412.6416
  68  316.0788
  69  190.7987
  70  299.5736
  71  477.0768
  72  428.3165
  73  210.0728
  74  245.6946
  75  212.8605
  76  267.1135
  77  230.5793
  78  323.0855
  79  311.2841
  80  240.0786
  81  220.7291
  82  236.099
  83  177.6154
  84  131.4592
  85  313.786
  86  486.4872
  87  407.9823
  88  357.8367
  89  432.36
  90  410.4589
  91  264.8235
  92  217.663
  93  324.3984
  94  660.2444
  95  390.0091
  96  161.7179
  97  182.5942
  98  210.0713
  99  185.384
 100  143.6263
 101  94.28909
 102  208.1722
 103  334.8898
 104  464.1794
 105  444.4645
 106  437.4696
 107  425.413
 108  251.0096
 109  342.7819
 110  410.7458
 111  277.5394
 112  312.1953
 113  417.2452
 114  409.8566
 115  256.2368
 116  130.5983
 117  170.374
 118  362.6114
 119  434.3816
 120  365.7227
 121  397.9416
 122  266.8307
 123  186.8626
 124  101.1083
 125  346.7371
 126  496.8365
 127  444.6711
 128  406.6235
 129  227.2387
 130  180.5674
 131  216.5157
 132  195.5805
 133  172.9372
 134  329.6183
 135  432.4761
 136  446.7212
 137  378.0919
 138  266.9707
 139  224.331
 140  274.4478
 141  224.6556
 142  212.1284
 143  233.2296
 144  209.1764
 145  381.914
 146  395.5071
 147  292.9049
 148  180.346
 149  21.77386
 150  145.241
 151  242.5956
 152  339.3627
 153  496.1896
 154  359.9395
 155  381.7469
 156  542.5324
 157  440.9855
 158  367.9905
 159  329.9603
 160  266.3641
 161  308.2468
 162  447.5231
 163  548.4903
 164  373.0818
 165  232.6683
 166  251.4811
 167  282.0473
 168  347.7985
 169  355.1286
 170  399.844
 171  449.2158
 172  292.4997
 173  324.5645
 174  259.1596
 175  311.5706
 176  275.2027
 177  350.5046
 178  372.0137
 179  293.727
 180  334.6788
 181  350.6104
 182  148.6971
 183  180.5676
 184  311.9525
 185  427.932
 186  481.8374
 187  441.1136
 188  434.2642
 189  360.7726
 190  284.3104
 191  273.623
 192  334.5426
 193  398.7102
 194  449.6825
 195  418.9879
 196  307.3894
 197  264.5026
 198  186.2597
 199  201.2433
 200  186.9301
 201  238.019
 202  323.8395
 203  322.1527
 204  273.6766
 205  258.279
 206  162.2786
 207  143.6052
 208  222.5449
 209  261.9945
 210  205.0847
 211  169.4149
 212  282.3813
 213  276.7773
 214  211.3468
 215  189.0611
 216  232.4202
 217  320.7259
 218  439.9458
 219  440.8979
 220  408.7194
 221  261.5167
 222  233.5462
 223  173.9436
 224  252.7193
 225  299.7768
 226  308.9363
 227  288.2346
 228  196.0641
 229  204.6501
 230  206.559
 231  281.6987
 232  279.5554
 233  213.9708
 234  172.5806
 235  288.8597
 236  297.8885
 237  280.7084
 238  213.3738
 239  353.9864
 240  455.5994
 241  392.6341
 242  282.8378
 243  380.3454
 244  453.1581
 245  306.8784
 246  219.1926
 247  219.2829
 248  264.8481
 249  211.1192
 250  311.2256
 251  333.1168
 252  366.1092
 253  444.0677
 254  324.3319
 255  279.9741
 256  346.4263
 257  410.8389
 258  333.4648
 259  401.0445
 260  437.9565
 261  382.2349
 262  445.1874
 263  443.6835
 264  384.0597
 265  248.4371
 266  259.327
 267  307.1069
 268  208.4437
 269  448.9341
 270  363.7601
 271  188.2972
 272  194.6875
 273  152.2589
 274  271.348
 275  430.8675
 276  366.8658
 277  353.7667
 278  324.097
 279  265.631
 280  315.6514
 281  265.3288
 282  237.0443
 283  287.2409
 284  194.935
 285  338.3217
 286  513.2825
 287  473.8795
 288  246.6557
 289  88.45185
 290  154.734
 291  320.5608
 292  399.6867
 293  412.725
 294  426.4173
 295  286.3442
 296  333.9454
 297  403.5065
 298  301.844
 299  283.6172
 300  272.1267
 301  266.0089
 302  295.0216
 303  260.338
 304  254.1501
 305  236.9996
 306  221.7381
 307  175.6595
 308  269.8324
 309  262.3481
 310  449.3354
 311  266.3143
 312  283.1164
 313  429.4077
 314  349.2256
 315  292.6457
 316  231.7817
 317  274.1003
 318  391.7156
 319  388.8196
 320  323.3784
 321  245.1773
 322  281.8572
 323  408.8349
 324  329.847
 325  246.4594
 326  409.0433
 327  283.3697
 328  280.7957
 329  340.8044
 330  273.8408
 331  254.4283
 332  259.7603
 333  342.3579
 334  398.0594
 335  396.5981
 336  375.7641
 337  341.2827
 338  267.2964
 339  358.122
 340  362.9381
 341  271.3686
 342  417.1024
 343  362.0781
 344  293.509
 345  270.1637
 346  287.8959
 347  255.7796
 348  192.1536
 349  279.2013
 350  205.0174
 351  391.946
 352  434.6223
 353  414.9301
 354  239.9667
 355  78.4836
 356  240.5246
 357  311.2681
 358  348.5608
 359  311.2682
 360  349.9902
 361  368.7353
 362  341.2282
 363  239.6064
 364  133.2905
 365  249.7544
 366  328.3746
 367  506.2471
 368  516.5202
 369  431.1952
 370  284.9511
 371  247.4443
 372  236.6567
 373  194.9354
 374  263.9696
 375  335.8442
 376  294.9786
 377  356.1567
 378  396.6563
 379  178.863
 380  129.5176
 381  326.0749
 382  403.5357
 383  324.6349
 384  360.8595
 385  344.2238
 386  349.154
 387  243.3172
 388  222.4021
 389  274.4381
 390  234.3413
 391  247.6915
 392  474.4504
 393  555.1031
 394  433.532
 395  186.2386
 396  241.9457
 397  249.9942
 398  273.9492
 399  447.2159
 400  550.0493
 401  555.1273
 402  431.3891
 403  349.3434
 404  220.9695
 405  139.7327
 406  227.7406
 407  381.1539
 408  460.8633
 409  362.1241
 410  309.2512
 411  393.9886
 412  343.4124
 413  261.1096
 414  255.728
 415  337.1965
 416  330.5705
 417  449.5409
 418  430.7651
 419  396.4545
 420  413.8629
 421  324.5331
 422  313.7989
 423  299.4982
 424  427.7237
 425  451.4256
 426  430.811
 427  443.6074
 428  427.9986
 429  256.6297
 430  253.8065
 431  201.0533
 432  367.9667
 433  360.5197
 434  384.0158
 435  468.7474
 436  349.3573
 437  204.367
 438  284.8439
 439  279.0309
 440  281.3451
 441  439.8582
 442  441.1198
 443  430.5486
 444  379.9533
 445  323.0482
 446  219.311
 447  124.8064
 448  91.2299
 449  106.8416
 450  214.3062
 451  306.8346
 452  302.7405
 453  401.698
 454  434.1143
 455  410.0088
 456  327.6753
 457  400.1141
 458  320.5632
 459  438.1154
 460  437.6118
 461  433.0449
 462  416.8211
 463  280.7011
 464  231.1143
 465  383.8016
 466  443.8554
 467  564.7645
 468  474.4959
 469  368.3328
 470  206.3066
 471  146.7881
 472  228.141
 473  141.0492
 474  318.6043
 475  471.9845
 476  519.4873
 477  367.3525
 478  364.007
 479  165.1588
 480  243.4704
 481  308.9026
 482  376.2782
 483  524.0206
 484  451.8825
 485  286.671
 486  265.104
 487  319.3922
 488  381.0371
 489  365.4463
 490  280.4734
 491  402.2764
 492  431.1888
 493  433.8802
 494  417.6932
 495  325.1944
 496  279.0317
 497  365.3645
 498  410.0597
 499  486.9786
 500  497.1431
 501  365.4238
 502  305.7442
 503  373.5564
 504  472.809
 505  403.0623
 506  497.1101
 507  563.7836
 508  707.4418
 509  774.7162
 510  958.5649
 511  1139.674
