# Input file       =  1205238896.100999_cleaned.dat
# Candidate        =  PSR_0332+5434
# Telescope        =  AR
# Epoch_topo       =  58193.524052094894
# Epoch_bary       =  N/A
# T_sample         =  0.002
# Data Folded      =  7340032
# Data Avg         =  0.0242525778495022
# Data StdDev      =  1.00005645617428 
# Profile Bins     =  512
# Profile Avg      =  347.63624181548  
# Profile StdDev   =  119.739796045934 
# Reduced chi-sqr  =  1.223
# Prob(Noise)      <  0.000397   (~3.4 sigma)
# P_topo (ms)      =  714.577083550615  +/- 0.00062
# P'_topo (s/s)    =  -0                +/- 3.27e-10
# P''_topo (s/s^2) =  0                 +/- 1.44e-13
# P_bary (ms)      =  N/A
# P'_bary (s/s)    =  N/A
# P''_bary (s/s^2) =  N/A
# P_orb (s)        =  N/A
# asin(i)/c (s)    =  N/A
# eccentricity     =  N/A
# w (rad)          =  N/A
# T_peri           =  N/A
######################################################
   0  882.2941
   1  869.0762
   2  798.0688
   3  549.5519
   4  289.3545
   5  305.549
   6  358.9035
   7  353.0552
   8  354.0719
   9  369.3456
  10  325.434
  11  348.0675
  12  346.7314
  13  330.6515
  14  285.0256
  15  327.9209
  16  377.8868
  17  335.9109
  18  244.3338
  19  350.0443
  20  333.1477
  21  234.727
  22  208.4466
  23  362.4831
  24  301.7005
  25  233.8272
  26  247.086
  27  276.8714
  28  457.8117
  29  353.3087
  30  246.0869
  31  296.3413
  32  273.5744
  33  316.3535
  34  319.7644
  35  445.9592
  36  389.2549
  37  388.593
  38  434.1819
  39  378.1872
  40  281.6256
  41  337.4391
  42  441.1241
  43  406.7292
  44  367.2128
  45  453.865
  46  376.9026
  47  263.6986
  48  290.2396
  49  431.3271
  50  498.9081
  51  454.8699
  52  328.5018
  53  379.4417
  54  467.9153
  55  341.9614
  56  431.7221
  57  482.3284
  58  474.4659
  59  495.1751
  60  454.0623
  61  399.0245
  62  426.0885
  63  425.61
  64  429.0229
  65  458.1558
  66  473.1169
  67  433.7266
  68  416.703
  69  437.6675
  70  391.963
  71  485.8869
  72  492.4839
  73  364.54
  74  370.4918
  75  412.2257
  76  529.7432
  77  402.5495
  78  439.8761
  79  366.4548
  80  424.5757
  81  458.6651
  82  380.9041
  83  315.5782
  84  317.2819
  85  369.124
  86  498.0233
  87  412.1682
  88  304.9018
  89  386.0875
  90  357.6293
  91  307.8176
  92  279.3461
  93  233.0353
  94  263.9776
  95  432.0271
  96  360.524
  97  282.3098
  98  365.2579
  99  364.4802
 100  329.1447
 101  356.2719
 102  351.132
 103  420.0877
 104  478.6529
 105  333.6767
 106  187.9336
 107  195.6145
 108  93.29543
 109  288.5476
 110  410.2601
 111  262.8632
 112  205.8281
 113  236.983
 114  363.6392
 115  326.4476
 116  430.1872
 117  357.1652
 118  200.3102
 119  315.3037
 120  315.8078
 121  362.367
 122  283.1414
 123  308.8415
 124  264.4237
 125  192.9544
 126  300.2833
 127  352.7524
 128  342.8138
 129  217.1263
 130  220.6422
 131  291.4896
 132  254.3954
 133  207.3951
 134  391.746
 135  413.4055
 136  414.7726
 137  325.9552
 138  375.9508
 139  454.7339
 140  372.6582
 141  349.9867
 142  414.8472
 143  408.382
 144  335.7422
 145  442.5004
 146  345.0091
 147  292.3036
 148  297.6612
 149  345.1364
 150  389.563
 151  322.2501
 152  227.0109
 153  283.3596
 154  438.4987
 155  326.7538
 156  253.976
 157  261.193
 158  278.6499
 159  294.7409
 160  375.2138
 161  340.0649
 162  226.6594
 163  325.3547
 164  308.2787
 165  275.6141
 166  388.9211
 167  372.0932
 168  312.1973
 169  306.207
 170  404.5978
 171  320.4254
 172  399.0372
 173  497.9093
 174  387.9181
 175  269.1472
 176  334.5952
 177  437.1933
 178  409.9262
 179  316.8443
 180  347.6711
 181  395.1359
 182  339.7377
 183  346.288
 184  302.9275
 185  294.1437
 186  224.108
 187  253.7077
 188  253.002
 189  291.0632
 190  279.2114
 191  276.1264
 192  309.7421
 193  271.7486
 194  329.9603
 195  326.9263
 196  292.3633
 197  365.4375
 198  369.9487
 199  310.217
 200  370.9024
 201  384.7646
 202  333.301
 203  333.8147
 204  455.9747
 205  434.2382
 206  516.8497
 207  524.3842
 208  416.4776
 209  400.4315
 210  362.6022
 211  205.9833
 212  370.2858
 213  382.8544
 214  393.4606
 215  381.7396
 216  387.2671
 217  401.234
 218  419.6194
 219  377.2213
 220  303.3929
 221  317.9638
 222  407.1011
 223  422.5859
 224  423.8004
 225  492.2175
 226  437.0176
 227  356.1786
 228  414.1903
 229  350.7081
 230  357.6501
 231  312.5682
 232  313.2534
 233  353.9324
 234  332.4813
 235  314.9251
 236  275.7842
 237  268.5211
 238  356.9712
 239  416.6995
 240  459.4744
 241  493.7798
 242  500.1587
 243  539.0488
 244  370.5955
 245  451.84
 246  403.0381
 247  378.1194
 248  373.9783
 249  382.8086
 250  332.5202
 251  334.3232
 252  367.0406
 253  397.3418
 254  430.7023
 255  396.8395
 256  452.8202
 257  306.7827
 258  405.3713
 259  458.1096
 260  309.2555
 261  436.5743
 262  454.8763
 263  513.5077
 264  457.9241
 265  393.0096
 266  309.8989
 267  439.844
 268  458.9651
 269  407.2161
 270  457.9994
 271  390.2853
 272  395.3653
 273  344.1645
 274  321.1046
 275  360.5513
 276  281.0572
 277  342.8173
 278  386.3229
 279  291.3712
 280  244.7905
 281  372.6464
 282  390.5305
 283  261.6345
 284  205.2485
 285  254.9956
 286  371.7485
 287  325.8086
 288  313.6501
 289  361.6373
 290  338.1185
 291  369.8113
 292  495.1452
 293  424.7133
 294  369.7528
 295  384.0009
 296  271.5073
 297  316.4851
 298  405.3339
 299  381.9159
 300  254.4745
 301  329.9803
 302  241.4883
 303  265.6439
 304  268.2743
 305  259.2492
 306  324.7503
 307  304.1756
 308  335.1232
 309  295.4352
 310  226.3192
 311  308.9228
 312  304.5058
 313  296.1076
 314  285.9302
 315  246.5461
 316  247.3294
 317  173.4858
 318  186.9118
 319  254.5635
 320  257.5057
 321  245.1832
 322  310.8828
 323  234.6894
 324  147.7138
 325  233.0693
 326  316.1676
 327  201.1732
 328  146.6217
 329  262.6359
 330  312.3593
 331  253.5615
 332  243.8579
 333  165.538
 334  106.5925
 335  165.6728
 336  235.7723
 337  271.3243
 338  375.2684
 339  307.4018
 340  270.3182
 341  325.518
 342  330.2177
 343  173.7335
 344  256.3144
 345  382.3907
 346  457.3199
 347  341.8005
 348  242.1702
 349  247.5584
 350  247.0925
 351  395.0984
 352  438.2848
 353  358.3883
 354  303.0675
 355  382.4108
 356  369.3341
 357  409.2478
 358  312.9798
 359  198.0722
 360  270.5523
 361  336.223
 362  312.4156
 363  246.7825
 364  307.07
 365  326.7946
 366  370.4431
 367  321.4951
 368  308.1194
 369  367.1794
 370  336.9587
 371  279.7376
 372  310.8582
 373  475.5139
 374  361.4158
 375  288.5471
 376  325.5488
 377  350.727
 378  160.3187
 379  116.9859
 380  186.4066
 381  303.3178
 382  380.1337
 383  378.4987
 384  401.0737
 385  454.7486
 386  459.4103
 387  272.2242
 388  329.2659
 389  328.6187
 390  368.2262
 391  453.0229
 392  491.3317
 393  462.1674
 394  336.5088
 395  349.3091
 396  385.9146
 397  372.2193
 398  333.0546
 399  381.6735
 400  317.5532
 401  376.5941
 402  356.8161
 403  302.1326
 404  387.5764
 405  412.7693
 406  374.8705
 407  361.3533
 408  377.8308
 409  339.6694
 410  312.3245
 411  346.086
 412  299.7064
 413  325.7027
 414  131.0035
 415  228.1812
 416  258.837
 417  347.6896
 418  320.2493
 419  245.5716
 420  297.1626
 421  394.466
 422  339.4581
 423  325.5999
 424  290.6585
 425  274.7799
 426  294.3681
 427  241.7276
 428  282.346
 429  372.8993
 430  372.8988
 431  351.657
 432  255.15
 433  309.2245
 434  299.9304
 435  278.8277
 436  435.9229
 437  436.3911
 438  392.5193
 439  340.9276
 440  371.51
 441  342.9995
 442  271.2342
 443  363.713
 444  390.7843
 445  274.7077
 446  181.6557
 447  172.7418
 448  305.6553
 449  355.7915
 450  366.0084
 451  358.7054
 452  313.6885
 453  222.8195
 454  386.5165
 455  442.1121
 456  334.617
 457  386.3694
 458  280.9884
 459  106.928
 460  214.165
 461  360.8423
 462  355.5493
 463  269.359
 464  194.0656
 465  230.7876
 466  276.4187
 467  247.8931
 468  299.0035
 469  271.3933
 470  300.4605
 471  302.4997
 472  297.4192
 473  266.6258
 474  246.764
 475  280.5927
 476  305.5613
 477  340.0988
 478  359.4253
 479  448.6138
 480  453.0773
 481  364.3824
 482  375.1283
 483  362.5787
 484  353.1952
 485  304.9379
 486  314.0714
 487  393.4806
 488  288.9958
 489  252.7361
 490  369.6251
 491  261.5504
 492  309.9024
 493  237.4713
 494  248.5849
 495  311.4108
 496  359.2057
 497  364.2209
 498  362.3845
 499  417.1573
 500  458.68
 501  525.3841
 502  602.8032
 503  537.1514
 504  408.1217
 505  490.7675
 506  523.3478
 507  536.8977
 508  681.5877
 509  707.1749
 510  766.9431
 511  838.54
