# Input file       =  1205238896.100999_cleaned.dat
# Candidate        =  PSR_0332+5434
# Telescope        =  AR
# Epoch_topo       =  58193.524052094894
# Epoch_bary       =  N/A
# T_sample         =  0.002
# Data Folded      =  7340032
# Data Avg         =  0.0242525778495022
# Data StdDev      =  1.00005645617428 
# Profile Bins     =  512
# Profile Avg      =  347.636241815357 
# Profile StdDev   =  119.739796045934 
# Reduced chi-sqr  =  1.221
# Prob(Noise)      <  0.000455   (~3.3 sigma)
# P_topo (ms)      =  714.577083549128  +/- 0.000621
# P'_topo (s/s)    =  -0                +/- 3.27e-10
# P''_topo (s/s^2) =  0                 +/- 1.45e-13
# P_bary (ms)      =  N/A
# P'_bary (s/s)    =  N/A
# P''_bary (s/s^2) =  N/A
# P_orb (s)        =  N/A
# asin(i)/c (s)    =  N/A
# eccentricity     =  N/A
# w (rad)          =  N/A
# T_peri           =  N/A
######################################################
   0  898.7339
   1  826.8313
   2  687.4012
   3  373.8764
   4  275.1433
   5  357.2701
   6  353.4282
   7  351.1198
   8  358.1824
   9  342.2264
  10  334.8119
  11  356.3937
  12  336.8592
  13  298.2198
  14  293.164
  15  357.7228
  16  382.3164
  17  266.4423
  18  291.7856
  19  361.2701
  20  276.8756
  21  201.3078
  22  302.8367
  23  369.7154
  24  222.6577
  25  261.509
  26  223.6543
  27  400.9846
  28  413.428
  29  279.8488
  30  273.547
  31  286.6848
  32  301.2176
  33  301.7567
  34  408.3668
  35  426.8015
  36  365.7768
  37  413.6672
  38  414.557
  39  325.7526
  40  291.0532
  41  419.5929
  42  425.1383
  43  372.1336
  44  404.1751
  45  453.4269
  46  287.5059
  47  269.7181
  48  356.3651
  49  483.6187
  50  485.2903
  51  394.0722
  52  331.6935
  53  437.767
  54  407.8456
  55  346.0563
  56  502.5315
  57  459.7386
  58  495.394
  59  478.8517
  60  419.5593
  61  411.1033
  62  429.5485
  63  424.1379
  64  434.2765
  65  475.9215
  66  452.2915
  67  426.4331
  68  438.6447
  69  403.2511
  70  433.1724
  71  519.4127
  72  415.4432
  73  353.0338
  74  372.0431
  75  512.1242
  76  460.3017
  77  417.3874
  78  397.2136
  79  376.8077
  80  456.851
  81  434.9575
  82  335.4893
  83  307.156
  84  327.3082
  85  444.2956
  86  485.4045
  87  322.5742
  88  341.772
  89  388.7532
  90  325.9031
  91  308.8297
  92  250.4966
  93  228.0832
  94  347.5442
  95  435.8035
  96  293.6625
  97  330.9792
  98  370.6911
  99  340.7602
 100  338.0775
 101  363.7744
 102  369.3759
 103  489.4029
 104  405.0656
 105  237.8536
 106  176.2786
 107  145.9943
 108  151.3895
 109  412.549
 110  320.8203
 111  236.5128
 112  196.6064
 113  325.843
 114  337.0213
 115  367.3038
 116  437.7729
 117  232.7662
 118  270.5828
 119  316.9936
 120  346.9473
 121  312.3692
 122  302.8687
 123  298.3792
 124  207.3015
 125  242.8839
 126  348.8597
 127  346.3864
 128  286.7595
 129  184.0072
 130  273.1664
 131  287.7988
 132  204.8383
 133  296.7362
 134  446.8586
 135  398.5427
 136  376.33
 137  313.4181
 138  441.882
 139  413.8485
 140  345.934
 141  378.7188
 142  437.4899
 143  355.283
 144  399.918
 145  407.8147
 146  304.9762
 147  289.6616
 148  320.8666
 149  364.3075
 150  375.2492
 151  262.5004
 152  228.6753
 153  383.9279
 154  390.7755
 155  262.7387
 156  266.5499
 157  265.9866
 158  305.6896
 159  313.6859
 160  401.705
 161  244.131
 162  278.3038
 163  329.8248
 164  274.5139
 165  336.1754
 166  403.0583
 167  325.4895
 168  287.5771
 169  374.4828
 170  382.8239
 171  321.0204
 172  493.9704
 173  457.1656
 174  287.1552
 175  288.9039
 176  383.5042
 177  457.2848
 178  341.2215
 179  330.6173
 180  385.196
 181  373.457
 182  341.2662
 183  311.6871
 184  301.0209
 185  255.304
 186  230.5355
 187  264.3474
 188  261.1982
 189  288.993
 190  271.7389
 191  303.5095
 192  292.7827
 193  292.8091
 194  338.9054
 195  303.6358
 196  319.3423
 197  409.5076
 198  309.1741
 199  358.4121
 200  374.8743
 201  372.6265
 202  294.6079
 203  413.2036
 204  457.4151
 205  449.9226
 206  555.0604
 207  449.8535
 208  405.8549
 209  403.3329
 210  250.9484
 211  272.7287
 212  416.6636
 213  370.4011
 214  399.2711
 215  378.2267
 216  401.797
 217  407.1561
 218  417.7798
 219  309.4318
 220  305.5318
 221  356.4882
 222  441.7464
 223  403.8893
 224  474.4453
 225  475.0844
 226  369.9491
 227  398.1906
 228  375.0565
 229  353.2082
 230  340.4232
 231  292.6475
 232  355.0336
 233  336.6457
 234  331.2406
 235  285.8951
 236  265.0936
 237  321.8098
 238  394.1084
 239  431.7921
 240  480.3611
 241  490.4049
 242  551.7155
 243  442.6744
 244  391.9521
 245  449.5802
 246  376.5856
 247  367.5203
 248  386.4868
 249  364.159
 250  322.3784
 251  368.464
 252  362.24
 253  432.3864
 254  389.831
 255  438.6036
 256  384.9283
 257  312.2251
 258  501.3115
 259  354.0342
 260  367.2513
 261  460.9831
 262  478.2575
 263  486.7388
 264  437.987
 265  313.7866
 266  387.222
 267  475.2648
 268  414.95
 269  437.77
 270  425.8594
 271  376.3539
 272  388.336
 273  303.3591
 274  365.6377
 275  310.2781
 276  295.8624
 277  389.6915
 278  343.7152
 279  238.2544
 280  308.3776
 281  407.4643
 282  321.2162
 283  231.2168
 284  212.9044
 285  342.1805
 286  344.2993
 287  305.4227
 288  335.4034
 289  367.5375
 290  327.6555
 291  459.7611
 292  482.9135
 293  372.6351
 294  385.6171
 295  317.1345
 296  269.6496
 297  376.8965
 298  417.2392
 299  297.8315
 300  286.9099
 301  299.5662
 302  233.32
 303  288.5457
 304  239.5377
 305  299.7379
 306  310.7798
 307  315.3143
 308  325.3436
 309  253.1091
 310  257.0676
 311  328.8538
 312  286.8838
 313  306.7982
 314  263.1685
 315  236.6789
 316  223.5721
 317  145.0624
 318  242.0259
 319  262.1962
 320  242.3924
 321  289.8478
 322  287.8102
 323  177.8958
 324  171.8121
 325  299.1339
 326  264.5154
 327  148.7159
 328  198.8761
 329  317.0897
 330  260.7585
 331  261.4626
 332  195.6377
 333  127.4749
 334  118.145
 335  235.9794
 336  235.3456
 337  344.8802
 338  344.5653
 339  270.9911
 340  294.8899
 341  354.897
 342  239.5688
 343  178.8508
 344  344.6135
 345  430.9709
 346  422.626
 347  267.2982
 348  235.8669
 349  249.7488
 350  303.7444
 351  450.4915
 352  402.3592
 353  305.6552
 354  355.147
 355  369.0867
 356  396.6286
 357  383.2968
 358  225.1239
 359  236.9342
 360  292.6094
 361  355.0603
 362  237.4989
 363  298.7788
 364  314.784
 365  355.5255
 366  353.0045
 367  295.9557
 368  347.3255
 369  356.2188
 370  300.6039
 371  281.3276
 372  413.5256
 373  441.4728
 374  304.4231
 375  294.3719
 376  365.9048
 377  241.3957
 378  111.9854
 379  142.1823
 380  259.0809
 381  349.4936
 382  387.8257
 383  387.5094
 384  418.7509
 385  492.0982
 386  342.3025
 387  288.0537
 388  346.026
 389  336.3663
 390  422.1255
 391  481.8443
 392  485.8856
 393  391.6465
 394  337.6419
 395  364.8067
 396  400.1259
 397  320.4847
 398  373.9753
 399  337.1459
 400  339.2971
 401  396.5041
 402  297.4908
 403  353.0882
 404  409.4117
 405  400.4049
 406  356.7573
 407  376.732
 408  366.6679
 409  310.9875
 410  338.6867
 411  307.3122
 412  335.5661
 413  204.5691
 414  169.8924
 415  246.5639
 416  304.0816
 417  348.6837
 418  266.3515
 419  268.4237
 420  371.0894
 421  363.1479
 422  323.753
 423  311.2418
 424  272.4047
 425  298.8437
 426  266.1321
 427  235.6227
 428  349.6366
 429  370.8161
 430  378.5207
 431  294.5274
 432  278.9297
 433  310.6811
 434  269.0897
 435  359.3362
 436  464.0646
 437  423.6833
 438  332.2789
 439  376.0875
 440  357.7935
 441  297.8786
 442  296.088
 443  408.5654
 444  330.1126
 445  216.3576
 446  162.0186
 447  240.7778
 448  350.9507
 449  364.3565
 450  346.0266
 451  360.0692
 452  246.8413
 453  281.9051
 454  471.927
 455  352.9553
 456  371.4176
 457  349.4672
 458  170.295
 459  133.9532
 460  315.1024
 461  356.9132
 462  327.3787
 463  206.8471
 464  214.6686
 465  265.5703
 466  266.5342
 467  262.7097
 468  294.9752
 469  265.1363
 470  313.8604
 471  297.1169
 472  286.3669
 473  256.9074
 474  258.4474
 475  297.4702
 476  308.5247
 477  367.3315
 478  402.5071
 479  478.9807
 480  382.8967
 481  377.2455
 482  369.8139
 483  361.085
 484  313.5851
 485  301.8855
 486  357.4092
 487  373.481
 488  215.213
 489  349.1932
 490  310.8937
 491  286.9772
 492  277.2125
 493  218.2626
 494  302.0777
 495  320.2041
 496  380.0041
 497  336.3115
 498  415.9916
 499  433.3245
 500  501.282
 501  567.9601
 502  584.5143
 503  458.7501
 504  421.9702
 505  550.2419
 506  499.6695
 507  628.4395
 508  712.9175
 509  705.694
 510  832.9641
 511  850.6801
