# Input file       =  1205669230.121051_cleaned.dat
# Candidate        =  PSR_0332+5434
# Telescope        =  AR
# Epoch_topo       =  58198.504769919571
# Epoch_bary       =  N/A
# T_sample         =  0.002
# Data Folded      =  7340032
# Data Avg         =  0.0315074006182596
# Data StdDev      =  0.99998412889417 
# Profile Bins     =  512
# Profile Avg      =  451.609086833502 
# Profile StdDev   =  119.731136081074 
# Reduced chi-sqr  =  1.428
# Prob(Noise)      <  6.43e-10   (~6.1 sigma)
# P_topo (ms)      =  714.575087150395  +/- 0.000495
# P'_topo (s/s)    =  -0                +/- 2.61e-10
# P''_topo (s/s^2) =  0                 +/- 1.15e-13
# P_bary (ms)      =  N/A
# P'_bary (s/s)    =  N/A
# P''_bary (s/s^2) =  N/A
# P_orb (s)        =  N/A
# asin(i)/c (s)    =  N/A
# eccentricity     =  N/A
# w (rad)          =  N/A
# T_peri           =  N/A
######################################################
   0  1006.918
   1  905.5786
   2  909.3328
   3  728.973
   4  481.0147
   5  423.0906
   6  481.0086
   7  453.3001
   8  471.7474
   9  460.1843
  10  475.9067
  11  483.7863
  12  498.2197
  13  554.9757
  14  508.2514
  15  427.0821
  16  437.1216
  17  379.1275
  18  368.0221
  19  444.6906
  20  404.1195
  21  392.3585
  22  403.2561
  23  423.7468
  24  302.9804
  25  321.8409
  26  400.9207
  27  447.1321
  28  506.445
  29  548.0847
  30  494.92
  31  495.6385
  32  419.3328
  33  382.5468
  34  441.5734
  35  614.9558
  36  555.4523
  37  503.0471
  38  528.0749
  39  465.1612
  40  406.2341
  41  490.1837
  42  431.106
  43  385.9326
  44  446.729
  45  503.3622
  46  450.972
  47  444.1928
  48  469.5932
  49  465.335
  50  516.3307
  51  436.4731
  52  351.1446
  53  432.7842
  54  483.9625
  55  291.7605
  56  339.452
  57  448.5074
  58  486.2554
  59  463.9879
  60  490.0947
  61  470.9719
  62  501.0181
  63  377.9849
  64  388.2823
  65  401.1319
  66  440.3998
  67  489.7998
  68  340.6171
  69  423.8911
  70  443.899
  71  435.2149
  72  296.4217
  73  273.237
  74  334.542
  75  345.9172
  76  257.827
  77  276.3731
  78  333.5645
  79  250.972
  80  226.0687
  81  288.0128
  82  301.8449
  83  330.8287
  84  373.3955
  85  286.7569
  86  333.8208
  87  351.6501
  88  306.9754
  89  321.8469
  90  376.4504
  91  428.1691
  92  410.6456
  93  370.9826
  94  449.2261
  95  470.924
  96  493.3956
  97  384.064
  98  408.6971
  99  448.9968
 100  487.9702
 101  391.4377
 102  368.1669
 103  447.2704
 104  504.8553
 105  445.209
 106  487.0809
 107  481.1053
 108  483.9159
 109  523.2955
 110  582.5958
 111  579.8085
 112  548.1361
 113  626.3976
 114  525.0728
 115  496.4157
 116  335.615
 117  405.1207
 118  482.0074
 119  538.1636
 120  579.2109
 121  549.2427
 122  490.6014
 123  542.8719
 124  520.0742
 125  531.788
 126  550.3949
 127  606.6045
 128  585.0597
 129  591.7491
 130  594.4985
 131  547.3546
 132  548.9542
 133  549.5267
 134  570.0435
 135  526.7083
 136  470.7328
 137  431.2762
 138  488.1021
 139  440.8527
 140  367.2159
 141  372.726
 142  440.0355
 143  547.9102
 144  448.1571
 145  389.2454
 146  376.4767
 147  353.8076
 148  313.7228
 149  320.3272
 150  412.0734
 151  337.7695
 152  274.8987
 153  301.1252
 154  290.6528
 155  326.6931
 156  361.0381
 157  335.412
 158  440.8541
 159  488.1005
 160  455.3127
 161  330.9507
 162  276.8963
 163  338.4437
 164  355.2725
 165  407.2422
 166  462.1566
 167  463.1465
 168  379.5567
 169  337.0245
 170  352.9714
 171  322.3798
 172  386.3683
 173  406.2121
 174  417.7993
 175  435.0232
 176  377.254
 177  508.0001
 178  416.1083
 179  425.3112
 180  481.476
 181  555.4959
 182  602.181
 183  582.1039
 184  520.9334
 185  528.4517
 186  560.0498
 187  571.9667
 188  609.7686
 189  557.8588
 190  523.475
 191  500.1894
 192  514.8671
 193  448.689
 194  460.9172
 195  477.081
 196  584.0326
 197  550.7892
 198  557.41
 199  645.451
 200  588.201
 201  572.2844
 202  673.5328
 203  615.6716
 204  554.3139
 205  623.0537
 206  660.02
 207  610.9174
 208  582.5617
 209  508.3747
 210  509.0604
 211  564.6733
 212  532.1039
 213  456.1753
 214  478.2403
 215  473.3021
 216  459.3943
 217  516.0284
 218  517.8931
 219  489.056
 220  458.5951
 221  483.9907
 222  424.1351
 223  465.5387
 224  471.1013
 225  342.0423
 226  407.6088
 227  401.5676
 228  423.4614
 229  403.3361
 230  403.2917
 231  403.0645
 232  444.0049
 233  507.1953
 234  505.4973
 235  479.2989
 236  470.5435
 237  479.3356
 238  533.4371
 239  623.039
 240  632.8705
 241  615.0654
 242  575.2019
 243  590.2401
 244  466.563
 245  435.0348
 246  460.5099
 247  560.6851
 248  565.8835
 249  479.9246
 250  522.6941
 251  604.8832
 252  640.1483
 253  547.8243
 254  598.7297
 255  596.4058
 256  504.3824
 257  499.5298
 258  658.3569
 259  691.5338
 260  558.3659
 261  575.368
 262  583.7751
 263  491.8031
 264  407.4548
 265  486.8087
 266  586.9478
 267  552.2733
 268  554.8343
 269  471.4063
 270  519.8173
 271  486.9973
 272  583.0751
 273  593.7679
 274  579.4001
 275  567.9902
 276  493.9645
 277  647.6564
 278  549.6588
 279  487.8703
 280  524.5961
 281  483.6583
 282  419.1221
 283  335.6791
 284  401.9623
 285  551.3892
 286  600.3527
 287  445.3072
 288  417.8383
 289  384.8465
 290  381.1623
 291  428.1003
 292  503.8811
 293  506.2779
 294  469.8961
 295  470.1476
 296  471.5111
 297  436.1729
 298  404.0626
 299  353.6684
 300  400.9891
 301  485.8839
 302  379.1129
 303  293.3992
 304  313.1311
 305  345.7794
 306  295.5969
 307  390.4813
 308  337.2945
 309  343.7759
 310  370.7554
 311  366.5347
 312  390.8221
 313  337.8597
 314  428.4338
 315  431.3194
 316  386.0785
 317  442.0743
 318  364.9333
 319  305.3142
 320  423.2845
 321  420.9828
 322  469.8065
 323  406.3486
 324  398.1236
 325  401.8073
 326  390.2949
 327  410.9232
 328  386.813
 329  416.6363
 330  394.6686
 331  272.7581
 332  388.3582
 333  423.9958
 334  436.4903
 335  466.4401
 336  377.4823
 337  384.3465
 338  416.1567
 339  424.7727
 340  369.277
 341  365.6722
 342  488.187
 343  439.9679
 344  472.1017
 345  551.8078
 346  515.6101
 347  423.7958
 348  430.7319
 349  541.5477
 350  419.127
 351  413.3964
 352  410.6203
 353  352.1347
 354  385.1241
 355  436.1685
 356  530.0107
 357  463.8799
 358  362.6702
 359  343.9271
 360  232.8067
 361  117.2379
 362  291.8837
 363  354.607
 364  202.9473
 365  211.4044
 366  267.4433
 367  400.378
 368  339.1885
 369  293.7413
 370  258.6861
 371  215.3544
 372  311.9797
 373  320.9809
 374  257.7274
 375  292.8074
 376  306.1096
 377  259.8454
 378  268.676
 379  338.409
 380  388.7864
 381  382.0351
 382  279.6717
 383  329.9951
 384  309.7517
 385  309.4075
 386  331.651
 387  354.1372
 388  331.3342
 389  407.8286
 390  410.3977
 391  378.9108
 392  324.982
 393  248.4511
 394  369.5157
 395  337.4055
 396  319.1535
 397  296.2445
 398  323.6756
 399  407.0233
 400  375.8212
 401  322.822
 402  374.5407
 403  426.1777
 404  332.346
 405  290.9442
 406  293.9275
 407  431.5567
 408  560.887
 409  526.7119
 410  444.2842
 411  408.2767
 412  453.9924
 413  414.7465
 414  510.4776
 415  581.359
 416  508.0907
 417  620.5631
 418  474.1509
 419  367.5758
 420  453.3392
 421  505.1574
 422  493.0405
 423  487.8844
 424  514.8847
 425  517.7194
 426  463.5668
 427  414.5551
 428  466.2148
 429  466.8843
 430  470.833
 431  555.5746
 432  490.2213
 433  557.1492
 434  474.9106
 435  377.5647
 436  478.7216
 437  470.0439
 438  441.5878
 439  467.6245
 440  444.3084
 441  407.528
 442  448.2949
 443  444.0626
 444  423.5067
 445  444.123
 446  521.1752
 447  547.3553
 448  526.756
 449  562.699
 450  472.4943
 451  457.5858
 452  445.8486
 453  522.4327
 454  454.4017
 455  454.9847
 456  450.5854
 457  463.522
 458  454.4398
 459  332.135
 460  356.5046
 461  458.7223
 462  458.2558
 463  401.0423
 464  412.176
 465  522.2385
 466  572.7903
 467  521.5941
 468  454.9601
 469  469.1003
 470  507.1583
 471  432.8639
 472  451.5278
 473  452.5959
 474  457.482
 475  559.3376
 476  486.739
 477  420.9683
 478  409.485
 479  356.817
 480  366.1381
 481  428.8474
 482  451.1631
 483  471.731
 484  484.4756
 485  442.9119
 486  480.7025
 487  518.7534
 488  455.9424
 489  414.6859
 490  419.8325
 491  500.1051
 492  590.0866
 493  558.2139
 494  486.3832
 495  489.7763
 496  509.5559
 497  439.4667
 498  492.7461
 499  461.5304
 500  466.0723
 501  473.4872
 502  496.1741
 503  490.233
 504  514.2001
 505  520.4099
 506  482.4081
 507  568.5353
 508  558.1607
 509  617.1447
 510  839.8693
 511  988.8392
