# Input file       =  1205669230.121051_cleaned.dat
# Candidate        =  PSR_0332+5434
# Telescope        =  AR
# Epoch_topo       =  58198.504769919571
# Epoch_bary       =  N/A
# T_sample         =  0.002
# Data Folded      =  7340032
# Data Avg         =  0.0315074006182596
# Data StdDev      =  0.99998412889417 
# Profile Bins     =  512
# Profile Avg      =  451.609086843548 
# Profile StdDev   =  119.731136081074 
# Reduced chi-sqr  =  1.432
# Prob(Noise)      <  4.59e-10   (~6.1 sigma)
# P_topo (ms)      =  714.575087144432  +/- 0.000497
# P'_topo (s/s)    =  -0                +/- 2.62e-10
# P''_topo (s/s^2) =  0                 +/- 1.16e-13
# P_bary (ms)      =  N/A
# P'_bary (s/s)    =  N/A
# P''_bary (s/s^2) =  N/A
# P_orb (s)        =  N/A
# asin(i)/c (s)    =  N/A
# eccentricity     =  N/A
# w (rad)          =  N/A
# T_peri           =  N/A
######################################################
   0  945.2943
   1  905.2438
   2  849.1003
   3  555.1246
   4  436.9934
   5  448.1661
   6  482.5375
   7  450.8929
   8  482.4229
   9  454.8937
  10  491.3408
  11  476.7891
  12  534.5938
  13  552.9205
  14  449.0836
  15  433.083
  16  404.8535
  17  368.0876
  18  405.7333
  19  436.9223
  20  387.1492
  21  382.1579
  22  438.063
  23  357.7244
  24  292.2295
  25  364.6472
  26  425.2221
  27  489.3507
  28  536.3367
  29  521.972
  30  491.5289
  31  460.2851
  32  386.47
  33  390.4455
  34  560.9235
  35  605.165
  36  509.6582
  37  522.4776
  38  504.2116
  39  408.899
  40  458.058
  41  470.2199
  42  396.8744
  43  401.0394
  44  499.2826
  45  480.1742
  46  437.7726
  47  466.1077
  48  453.6208
  49  496.7598
  50  501.2301
  51  371.8835
  52  380.1208
  53  477.1216
  54  389.7661
  55  274.8328
  56  417.7922
  57  474.9728
  58  474.5263
  59  476.114
  60  470.7693
  61  507.5727
  62  426.0442
  63  378.6417
  64  403.0457
  65  401.9251
  66  499.5998
  67  388.4969
  68  373.2857
  69  448.2052
  70  454.2706
  71  366.5747
  72  246.3536
  73  321.3581
  74  338.5777
  75  314.8758
  76  232.2316
  77  340.2751
  78  282.8762
  79  216.988
  80  264.2336
  81  300.4685
  82  322.3867
  83  366.1042
  84  323.3174
  85  274.5354
  86  383.6737
  87  297.0601
  88  341.0526
  89  321.79
  90  437.5508
  91  414.9081
  92  375.6281
  93  419.5398
  94  451.5618
  95  510.7018
  96  423.9516
  97  385.2386
  98  431.9257
  99  474.3697
 100  448.4706
 101  351.2575
 102  414.4059
 103  490.5893
 104  482.1326
 105  456.3254
 106  490.9626
 107  477.2495
 108  505.7746
 109  550.1201
 110  602.4328
 111  533.1799
 112  611.0786
 113  565.9678
 114  519.5942
 115  409.5392
 116  344.698
 117  470.2377
 118  500.2185
 119  567.9841
 120  572.2504
 121  498.7903
 122  520.2953
 123  532.5886
 124  530.998
 125  547.0718
 126  579.6797
 127  599.8656
 128  581.9626
 129  595.6916
 130  564.2905
 131  544.2548
 132  553.5504
 133  566.5012
 134  537.3664
 135  514.1846
 136  402.8787
 137  502.8075
 138  458.8143
 139  416.1935
 140  334.4073
 141  415.174
 142  500.0357
 143  528.2006
 144  386.9559
 145  391.8208
 146  352.4588
 147  329.4048
 148  300.818
 149  378.5872
 150  397.0079
 151  280.6981
 152  298.4482
 153  295.9312
 154  299.4026
 155  360.4702
 156  331.306
 157  390.8958
 158  485.5802
 159  477.0071
 160  383.5894
 161  283.3408
 162  309.0454
 163  351.1892
 164  385.7833
 165  443.8059
 166  477.0498
 167  410.7719
 168  348.6634
 169  356.8951
 170  322.0344
 171  354.1536
 172  397.0331
 173  415.3252
 174  430.5378
 175  399.3415
 176  438.2169
 177  488.0919
 178  385.4937
 179  462.9101
 180  523.3932
 181  590.9044
 182  608.577
 183  543.5308
 184  513.1854
 185  542.9274
 186  570.091
 187  589.1235
 188  594.4128
 189  534.7675
 190  503.805
 191  520.9938
 192  476.7231
 193  450.6612
 194  464.7227
 195  528.5333
 196  599.1726
 197  507.1623
 198  647.8685
 199  600.1641
 200  579.5991
 201  607.544
 202  671.4687
 203  559.8589
 204  584.5051
 205  653.1826
 206  641.2377
 207  592.3387
 208  552.5739
 209  491.7419
 210  542.4392
 211  564.1297
 212  476.8659
 213  466.2434
 214  475.4704
 215  458.0031
 216  494.9265
 217  523.5301
 218  506.8867
 219  456.6431
 220  490.0976
 221  440.4095
 222  438.4967
 223  490.7126
 224  406.3698
 225  340.7207
 226  430.9712
 227  399.6586
 228  421.5747
 229  398.4678
 230  405.8621
 231  418.6617
 232  484.4831
 233  509.2979
 234  495.3368
 235  469.0348
 236  476.4381
 237  496.38
 238  593.237
 239  632.0098
 240  624.7499
 241  578.3222
 242  608.8683
 243  516.686
 244  444.4056
 245  431.1422
 246  520.1812
 247  582.2092
 248  514.1658
 249  487.0947
 250  562.8938
 251  654.0769
 252  570.4429
 253  579.0331
 254  604.5991
 255  558.9787
 256  466.2195
 257  593.5383
 258  700.3512
 259  623.5561
 260  531.9645
 261  611.2968
 262  514.097
 263  460.6415
 264  401.708
 265  572.9815
 266  562.8393
 267  579.2473
 268  499.9746
 269  501.3239
 270  486.6786
 271  541.0602
 272  591.7487
 273  595.8234
 274  578.5001
 275  506.8765
 276  587.1536
 277  609.8043
 278  490.6941
 279  508.313
 280  513.5964
 281  453.1485
 282  357.2005
 283  360.5826
 284  479.6886
 285  622.2917
 286  504.7178
 287  419.1547
 288  396.0524
 289  379.7639
 290  407.207
 291  473.8994
 292  500.8844
 293  503.5126
 294  448.5493
 295  498.4959
 296  443.9835
 297  417.0151
 298  392.8835
 299  346.303
 300  471.1313
 301  427.7199
 302  316.264
 303  308.6748
 304  334.2602
 305  331.2312
 306  317.6392
 307  402.7075
 308  284.9055
 309  408.6608
 310  330.9718
 311  417.7025
 312  319.6947
 313  395.362
 314  445.147
 315  407.4881
 316  404.7307
 317  420.8485
 318  293.2643
 319  382.0185
 320  436.6924
 321  452.4988
 322  436.1858
 323  391.4731
 324  404.9656
 325  401.3467
 326  382.6414
 327  412.502
 328  378.4414
 329  436.6099
 330  312.4961
 331  327.5355
 332  418.7787
 333  426.7782
 334  461.2356
 335  425.2574
 336  357.02
 337  418.3567
 338  420.7637
 339  398.9211
 340  353.7274
 341  433.7538
 342  484.9984
 343  416.94
 344  547.8192
 345  537.8795
 346  466.2526
 347  391.5194
 348  523.1224
 349  474.515
 350  403.6163
 351  414.7895
 352  384.031
 353  354.8164
 354  419.1472
 355  492.849
 356  507.8348
 357  394.9948
 358  350.8748
 359  301.0693
 360  146.494
 361  176.8774
 362  386.6898
 363  243.7634
 364  204.6068
 365  235.2254
 366  337.7619
 367  407.5324
 368  286.3232
 369  298.7906
 370  216.3868
 371  256.2221
 372  336.5705
 373  269.5221
 374  277.1843
 375  310.5764
 376  275.7986
 377  266.2198
 378  287.4436
 379  387.3863
 380  389.3622
 381  327.8598
 382  289.1358
 383  341.0508
 384  293.2846
 385  321.6129
 386  353.7103
 387  338.575
 388  369.2976
 389  429.146
 390  379.3069
 391  365.07
 392  254.3416
 393  316.6179
 394  366.9783
 395  319.9108
 396  314.5964
 397  287.6963
 398  381.7711
 399  393.4755
 400  342.6513
 401  343.8902
 402  419.3122
 403  381.2001
 404  295.3607
 405  285.3856
 406  359.9868
 407  524.23
 408  562.3129
 409  468.398
 410  415.3424
 411  439.6285
 412  437.9749
 413  435.7495
 414  581.3214
 415  516.6381
 416  584.5688
 417  561.8029
 418  396.1576
 419  380.2067
 420  527.6628
 421  478.5038
 422  500.2788
 423  492.3638
 424  518.1465
 425  497.4871
 426  424.6345
 427  448.3278
 428  470.8899
 429  461.89
 430  516.7977
 431  538.4479
 432  508.3376
 433  551.4358
 434  378.8015
 435  431.6301
 436  489.3774
 437  446.2732
 438  461.5369
 439  456.2564
 440  414.1261
 441  423.8
 442  462.5527
 443  425.7682
 444  436.4353
 445  475.3022
 446  551.083
 447  528.85
 448  554.2486
 449  521.7421
 450  447.1702
 451  442.0924
 452  500.3115
 453  482.7993
 454  458.2917
 455  450.8409
 456  462.0826
 457  467.4485
 458  383.039
 459  320.0703
 460  420.3433
 461  475.7844
 462  426.5571
 463  383.3343
 464  476.6209
 465  562.7822
 466  554.5726
 467  478.0021
 468  446.0848
 469  515.4402
 470  457.982
 471  428.3362
 472  474.2975
 473  427.6691
 474  538.227
 475  517.9103
 476  446.0314
 477  413.9757
 478  383.3823
 479  355.8588
 480  391.8751
 481  445.6638
 482  461.5325
 483  486.892
 484  453.912
 485  469.1538
 486  493.8755
 487  512.5005
 488  413.0692
 489  426.1264
 490  434.0938
 491  563.1619
 492  584.3032
 493  516.8381
 494  475.1781
 495  522.2114
 496  457.5919
 497  465.4184
 498  479.2553
 499  461.5475
 500  468.0433
 501  499.3176
 502  476.6809
 503  511.3027
 504  515.1078
 505  513.6788
 506  503.9003
 507  587.9443
 508  562.5089
 509  741.4421
 510  938.2233
 511  1012.74
