# Input file       =  1205598593.103592_cleaned.dat
# Candidate        =  PSR_0332+5434
# Telescope        =  AR
# Epoch_topo       =  58197.687211847129
# Epoch_bary       =  N/A
# T_sample         =  0.002
# Data Folded      =  7340032
# Data Avg         =  0.0315738313771276
# Data StdDev      =  1.00008881790958 
# Profile Bins     =  512
# Profile Avg      =  452.641298033227 
# Profile StdDev   =  119.743670814765 
# Reduced chi-sqr  =  1.106
# Prob(Noise)      <  0.0491   (~1.7 sigma)
# P_topo (ms)      =  714.575793474065  +/- 0.000263
# P'_topo (s/s)    =  -0                +/- 1.39e-10
# P''_topo (s/s^2) =  0                 +/- 6.12e-14
# P_bary (ms)      =  N/A
# P'_bary (s/s)    =  N/A
# P''_bary (s/s^2) =  N/A
# P_orb (s)        =  N/A
# asin(i)/c (s)    =  N/A
# eccentricity     =  N/A
# w (rad)          =  N/A
# T_peri           =  N/A
######################################################
   0  825.225
   1  879.8511
   2  819.9574
   3  658.7426
   4  509.4775
   5  434.8002
   6  477.0054
   7  490.8522
   8  430.9704
   9  448.9012
  10  493.2327
  11  546.7441
  12  531.2747
  13  416.8307
  14  486.3817
  15  425.9069
  16  382.4843
  17  351.2931
  18  310.7038
  19  291.8081
  20  414.1904
  21  434.378
  22  462.1122
  23  323.6463
  24  255.6862
  25  294.1462
  26  358.3968
  27  256.6383
  28  444.1233
  29  422.6447
  30  434.572
  31  343.3792
  32  418.8224
  33  454.8308
  34  378.1026
  35  424.507
  36  441.8389
  37  451.4282
  38  472.8477
  39  469.7375
  40  429.4921
  41  450.6686
  42  472.9925
  43  596.9603
  44  468.1503
  45  478.5264
  46  539.8571
  47  482.6028
  48  452.373
  49  386.0145
  50  517.8032
  51  499.5481
  52  372.3972
  53  355.354
  54  411.0856
  55  411.4287
  56  441.5792
  57  396.6048
  58  334.9056
  59  356.4664
  60  387.5104
  61  435.1594
  62  530.1361
  63  457.5859
  64  420.7032
  65  498.1497
  66  380.4415
  67  433.7166
  68  415.9669
  69  551.2117
  70  512.4913
  71  402.4132
  72  570.6705
  73  551.2536
  74  395.2373
  75  459.5268
  76  398.5977
  77  450.8386
  78  430.5209
  79  301.2708
  80  331.2586
  81  452.7239
  82  516.6373
  83  474.325
  84  409.4453
  85  493.7852
  86  388.714
  87  370.3476
  88  434.1418
  89  335.0648
  90  444.4559
  91  458.9672
  92  465.5815
  93  417.3386
  94  402.7695
  95  366.9133
  96  406.2358
  97  516.3548
  98  422.931
  99  445.1785
 100  588.1943
 101  361.6055
 102  255.4875
 103  417.1576
 104  459.8882
 105  386.6517
 106  454.6503
 107  448.1832
 108  467.4568
 109  322.6681
 110  293.9922
 111  428.1612
 112  412.6931
 113  468.8157
 114  434.0561
 115  370.1398
 116  400.4044
 117  290.6631
 118  259.5633
 119  406.5675
 120  553.1699
 121  549.2709
 122  392.1534
 123  393.6223
 124  359.8722
 125  449.8769
 126  452.817
 127  419.6226
 128  312.3568
 129  369.4182
 130  315.5046
 131  369.9391
 132  465.2679
 133  464.8344
 134  461.4275
 135  450.6333
 136  443.3989
 137  363.7672
 138  355.9734
 139  520.5608
 140  548.7628
 141  559.517
 142  503.743
 143  482.4575
 144  440.5095
 145  389.1997
 146  317.9616
 147  296.4118
 148  375.266
 149  331.5913
 150  368.9089
 151  223.0142
 152  373.1112
 153  467.6198
 154  411.4985
 155  442.1767
 156  422.4553
 157  314.8919
 158  383.2316
 159  364.1574
 160  473.2098
 161  528.3455
 162  534.0254
 163  544.8269
 164  494.5106
 165  578.7581
 166  544.8487
 167  512.0291
 168  450.9916
 169  579.4944
 170  564.3447
 171  545.4229
 172  528.0683
 173  647.229
 174  610.701
 175  510.7447
 176  518.8849
 177  418.8739
 178  338.442
 179  438.7815
 180  412.4984
 181  425.3889
 182  458.3929
 183  502.7247
 184  430.2568
 185  511.5728
 186  502.4328
 187  403.7208
 188  508.2071
 189  432.7732
 190  378.5579
 191  515.0634
 192  605.7322
 193  523.3907
 194  421.5423
 195  433.7412
 196  514.0142
 197  440.402
 198  455.839
 199  444.6203
 200  564.2238
 201  541.7183
 202  503.5614
 203  545.5032
 204  454.5239
 205  389.8829
 206  479.9523
 207  433.9513
 208  531.043
 209  475.1017
 210  359.3629
 211  446.9533
 212  547.5229
 213  398.5314
 214  371.3299
 215  478.553
 216  479.369
 217  424.3915
 218  433.9362
 219  411.2506
 220  468.8209
 221  569.3962
 222  478.4141
 223  518.2291
 224  510.2792
 225  398.4471
 226  490.7338
 227  494.7707
 228  453.9582
 229  389.3567
 230  475.4889
 231  385.4546
 232  416.6935
 233  401.9469
 234  487.8483
 235  457.2097
 236  396.3551
 237  404.3606
 238  421.1643
 239  343.5526
 240  470.0193
 241  521.7781
 242  441.9198
 243  370.2171
 244  434.824
 245  362.3483
 246  374.8716
 247  399.7914
 248  411.083
 249  399.3425
 250  350.476
 251  466.1618
 252  453.7364
 253  395.3076
 254  383.0669
 255  408.9088
 256  455.8323
 257  464.455
 258  428.1805
 259  467.7358
 260  552.1246
 261  484.7043
 262  389.8659
 263  381.0251
 264  488.0819
 265  601.6526
 266  418.6602
 267  314.0703
 268  319.7243
 269  450.8683
 270  404.9913
 271  315.9731
 272  459.8279
 273  516.4838
 274  513.388
 275  510.3556
 276  506.7733
 277  434.7593
 278  509.2779
 279  539.7967
 280  594.6215
 281  686.0581
 282  672.1866
 283  498.6476
 284  515.5012
 285  593.3018
 286  434.7349
 287  521.4429
 288  593.2654
 289  585.6842
 290  487.5063
 291  476.2487
 292  498.4424
 293  470.1051
 294  534.1218
 295  602.5486
 296  524.8342
 297  494.4712
 298  517.5771
 299  494.5379
 300  448.5655
 301  536.8145
 302  498.5063
 303  533.7947
 304  546.9533
 305  531.1307
 306  471.7027
 307  481.4602
 308  443.5224
 309  441.5981
 310  505.4951
 311  441.6968
 312  411.9236
 313  347.7643
 314  250.4868
 315  242.7138
 316  307.5966
 317  445.9706
 318  414.998
 319  462.8781
 320  387.416
 321  413.389
 322  465.9603
 323  358.0899
 324  387.7525
 325  439.3798
 326  412.2264
 327  357.6034
 328  255.9789
 329  276.6498
 330  425.1513
 331  479.5225
 332  467.3231
 333  306.1936
 334  311.5476
 335  433.6852
 336  293.6018
 337  308.8248
 338  489.4251
 339  538.9741
 340  596.7183
 341  521.5944
 342  594.0637
 343  536.8694
 344  448.7125
 345  391.7569
 346  425.6137
 347  412.5681
 348  371.6906
 349  430.0384
 350  464.2096
 351  443.0757
 352  471.4559
 353  380.4799
 354  410.3141
 355  388.9988
 356  367.1945
 357  395.4344
 358  431.2951
 359  375.1304
 360  303.2807
 361  423.51
 362  350.6655
 363  255.3603
 364  213.7231
 365  280.4172
 366  417.3506
 367  473.1334
 368  467.7668
 369  374.7361
 370  477.2701
 371  611.4529
 372  605.2542
 373  521.5605
 374  454.0207
 375  436.8228
 376  453.0959
 377  554.8906
 378  551.2747
 379  618.3893
 380  650.0859
 381  616.7221
 382  438.4045
 383  542.2516
 384  609.2844
 385  446.0241
 386  411.5284
 387  451.4324
 388  551.5889
 389  480.412
 390  367.743
 391  366.971
 392  471.2553
 393  527.8151
 394  561.9779
 395  544.0833
 396  442.7831
 397  455.3078
 398  392.7956
 399  428.774
 400  474.9173
 401  494.139
 402  444.8036
 403  357.8058
 404  398.0616
 405  455.6838
 406  406.2925
 407  485.0669
 408  553.6317
 409  437.0577
 410  344.4919
 411  450.2613
 412  422.9146
 413  496.517
 414  451.291
 415  434.2096
 416  508.7194
 417  567.4031
 418  527.0222
 419  366.9194
 420  371.0722
 421  527.1304
 422  519.9293
 423  453.0055
 424  445.8236
 425  431.0091
 426  547.7614
 427  468.6192
 428  495.5522
 429  450.8972
 430  455.3219
 431  525.4725
 432  553.7075
 433  509.2256
 434  404.406
 435  334.6093
 436  441.5051
 437  514.5981
 438  400.398
 439  446.955
 440  569.9355
 441  501.2126
 442  398.1953
 443  496.9512
 444  576.2832
 445  401.0363
 446  318.0799
 447  268.6289
 448  308.7009
 449  360.0651
 450  333.8454
 451  325.7691
 452  274.1718
 453  300.7105
 454  394.1883
 455  401.6242
 456  433.124
 457  466.8937
 458  363.2294
 459  403.3011
 460  426.4297
 461  397.1362
 462  550.4431
 463  561.952
 464  381.0894
 465  333.4833
 466  515.6846
 467  456.254
 468  482.9545
 469  595.785
 470  541.4211
 471  586.7925
 472  441.9484
 473  323.1672
 474  399.2137
 475  446.2788
 476  357.5125
 477  410.6785
 478  495.3997
 479  476.41
 480  432.2687
 481  420.3563
 482  361.7678
 483  326.1072
 484  397.0485
 485  464.5608
 486  516.5916
 487  546.6317
 488  493.3713
 489  443.1633
 490  365.7529
 491  382.0253
 492  492.5638
 493  564.121
 494  570.746
 495  566.4811
 496  576.2177
 497  606.5983
 498  596.6285
 499  563.9001
 500  522.7232
 501  471.8477
 502  424.9998
 503  580.1655
 504  615.585
 505  643.3795
 506  530.4283
 507  576.7097
 508  579.9656
 509  705.0798
 510  777.9113
 511  902.089
