# Input file       =  1205826898.111558_cleaned.dat
# Candidate        =  PSR_0332+5434
# Telescope        =  AR
# Epoch_topo       =  58200.329630920809
# Epoch_bary       =  N/A
# T_sample         =  0.002
# Data Folded      =  7143424
# Data Avg         =  0.014758395889413
# Data StdDev      =  1.00000998866765 
# Profile Bins     =  512
# Profile Avg      =  205.865953546638 
# Profile StdDev   =  118.119764329151 
# Reduced chi-sqr  =  1.904
# Prob(Noise)      <  3.74e-31   (~11.5 sigma)
# P_topo (ms)      =  714.57424182374   +/- 6.27e-05
# P'_topo (s/s)    =  -0                +/- 3.4e-11
# P''_topo (s/s^2) =  0                 +/- 1.54e-14
# P_bary (ms)      =  N/A
# P'_bary (s/s)    =  N/A
# P''_bary (s/s^2) =  N/A
# P_orb (s)        =  N/A
# asin(i)/c (s)    =  N/A
# eccentricity     =  N/A
# w (rad)          =  N/A
# T_peri           =  N/A
######################################################
   0  930.0249
   1  942.9852
   2  839.0709
   3  580.9341
   4  263.0315
   5  94.73506
   6  -45.71021
   7  74.30527
   8  238.8682
   9  293.8788
  10  176.2506
  11  185.3912
  12  349.1276
  13  298.0874
  14  209.6733
  15  156.8452
  16  158.268
  17  67.48531
  18  75.37177
  19  204.1288
  20  283.7659
  21  214.7866
  22  59.03723
  23  119.5815
  24  222.4893
  25  201.1674
  26  247.1826
  27  407.6799
  28  303.5419
  29  82.64127
  30  105.2653
  31  53.41616
  32  68.01963
  33  65.99128
  34  12.59212
  35  -11.79374
  36  155.7063
  37  331.0948
  38  202.9866
  39  58.59205
  40  100.9966
  41  93.80008
  42  175.1482
  43  290.4901
  44  321.9916
  45  375.8174
  46  272.3302
  47  183.5449
  48  113.9879
  49  154.0373
  50  10.63856
  51  54.72211
  52  141.671
  53  216.4494
  54  118.0293
  55  122.091
  56  222.5574
  57  243.664
  58  215.8099
  59  271.6923
  60  330.2986
  61  300.0143
  62  190.1168
  63  179.5416
  64  166.385
  65  152.2675
  66  292.903
  67  155.054
  68  92.09776
  69  118.4227
  70  84.37035
  71  163.9913
  72  242.4421
  73  215.2908
  74  217.6771
  75  244.886
  76  278.0734
  77  262.1616
  78  265.45
  79  343.8035
  80  146.7067
  81  76.27179
  82  154.4683
  83  176.2066
  84  300.0652
  85  278.0749
  86  219.5701
  87  161.2239
  88  132.2581
  89  269.5236
  90  67.78555
  91  68.16718
  92  157.4301
  93  276.2916
  94  253.094
  95  181.8026
  96  223.4659
  97  210.5466
  98  50.13414
  99  110.3616
 100  228.4643
 101  243.6845
 102  275.3921
 103  149.2611
 104  230.8269
 105  261.3495
 106  241.1448
 107  238.9888
 108  204.4852
 109  309.438
 110  343.9785
 111  397.1715
 112  343.3884
 113  125.4184
 114  102.2831
 115  15.16602
 116  107.4659
 117  169.0409
 118  281.4181
 119  213.3171
 120  127.6989
 121  206.0558
 122  170.0339
 123  227.0853
 124  200.9375
 125  203.4457
 126  342.4795
 127  242.8755
 128  274.3259
 129  220.646
 130  229.5894
 131  168.6043
 132  112.5115
 133  91.76639
 134  -73.40252
 135  36.30406
 136  297.0113
 137  237.7264
 138  130.0912
 139  136.464
 140  237.3663
 141  326.8535
 142  347.7689
 143  321.6382
 144  271.0511
 145  239.0393
 146  183.2446
 147  224.501
 148  233.6021
 149  70.44706
 150  130.6547
 151  146.5955
 152  204.0721
 153  214.6388
 154  60.98392
 155  -55.75248
 156  111.1943
 157  191.274
 158  295.0184
 159  169.7941
 160  103.5324
 161  205.6939
 162  200.5143
 163  125.4539
 164  66.83714
 165  87.15008
 166  181.3232
 167  217.5089
 168  239.7726
 169  190.4901
 170  241.7737
 171  176.8472
 172  80.96703
 173  289.5161
 174  316.5948
 175  271.1343
 176  265.1404
 177  258.6794
 178  130.6801
 179  118.5082
 180  106.4433
 181  124.2352
 182  107.1068
 183  165.9131
 184  220.0712
 185  371.2613
 186  258.2853
 187  127.8514
 188  198.1742
 189  107.9951
 190  134.9724
 191  212.6378
 192  270.8248
 193  236.4074
 194  126.0101
 195  109.3202
 196  188.7417
 197  191.8033
 198  132.174
 199  96.19101
 200  86.22588
 201  177.2149
 202  62.6139
 203  52.37011
 204  112.9006
 205  131.3098
 206  66.68319
 207  198.1257
 208  201.4571
 209  175.0389
 210  215.981
 211  312.4071
 212  228.4778
 213  196.8722
 214  279.1694
 215  277.281
 216  165.0591
 217  153.2019
 218  290.3512
 219  246.3078
 220  53.6579
 221  52.47746
 222  122.6654
 223  124.2417
 224  198.6066
 225  299.0269
 226  391.8149
 227  236.6282
 228  164.1397
 229  143.0117
 230  91.89418
 231  68.86002
 232  137.194
 233  172.1617
 234  177.2732
 235  142.9585
 236  73.00864
 237  -11.62644
 238  -14.8731
 239  -2.052482
 240  206.5735
 241  240.6327
 242  320.473
 243  360.6985
 244  249.8158
 245  167.3658
 246  102.7088
 247  129.0772
 248  223.8553
 249  278.5716
 250  324.1732
 251  277.4602
 252  207.3273
 253  139.6096
 254  37.19757
 255  39.18708
 256  70.62072
 257  188.6731
 258  236.2516
 259  336.6328
 260  369.3474
 261  495.806
 262  271.1603
 263  178.7012
 264  227.664
 265  202.134
 266  155.8167
 267  261.125
 268  128.6055
 269  38.05253
 270  4.58626
 271  87.35351
 272  193.7254
 273  259.7178
 274  317.4559
 275  270.3483
 276  217.2049
 277  280.432
 278  246.518
 279  153.8598
 280  159.4955
 281  343.8397
 282  262.1547
 283  237.7523
 284  261.5314
 285  216.179
 286  247.8798
 287  261.3247
 288  259.3441
 289  249.0516
 290  306.6902
 291  403.2361
 292  236.2467
 293  345.9228
 294  275.9421
 295  230.581
 296  215.1319
 297  59.38678
 298  135.7368
 299  231.3051
 300  395.5649
 301  192.3147
 302  193.9364
 303  174.7216
 304  221.994
 305  233.2011
 306  191.9439
 307  396.4341
 308  369.2915
 309  458.8434
 310  305.1634
 311  161.1812
 312  114.0262
 313  152.6432
 314  268.626
 315  171.2352
 316  128.7102
 317  140.6724
 318  169.4781
 319  72.47556
 320  186.3108
 321  153.7149
 322  122.0502
 323  270.3252
 324  443.1166
 325  425.2617
 326  263.0169
 327  113.233
 328  99.71342
 329  151.1991
 330  146.1127
 331  160.1499
 332  246.9374
 333  212.4006
 334  207.9318
 335  185.2847
 336  191.8466
 337  184.9829
 338  76.38119
 339  146.3937
 340  121.9072
 341  169.1657
 342  209.425
 343  365.0457
 344  292.4677
 345  168.2724
 346  161.366
 347  285.4057
 348  144.0335
 349  39.60785
 350  110.4825
 351  126.7652
 352  81.40051
 353  237.9658
 354  184.7089
 355  201.0827
 356  234.112
 357  346.3626
 358  445.8725
 359  421.0574
 360  259.9441
 361  242.9401
 362  271.5712
 363  305.9114
 364  213.2419
 365  221.0835
 366  348.5431
 367  253.873
 368  156.8047
 369  87.88548
 370  113.0715
 371  192.9703
 372  293.8379
 373  416.974
 374  429.3644
 375  363.2924
 376  165.8019
 377  111.3587
 378  167.0002
 379  91.51445
 380  137.8351
 381  190.8938
 382  250.4855
 383  225.9341
 384  179.306
 385  47.24298
 386  112.5939
 387  141.312
 388  157.1019
 389  208.3327
 390  311.9612
 391  372.9859
 392  410.4221
 393  408.8353
 394  318.7886
 395  316.5865
 396  417.5481
 397  306.778
 398  261.0457
 399  237.5528
 400  186.4628
 401  225.7129
 402  165.6192
 403  127.4375
 404  184.8198
 405  275.6133
 406  264.978
 407  260.0564
 408  275.0175
 409  306.9812
 410  228.2538
 411  111.0984
 412  124.89
 413  164.0361
 414  152.0505
 415  318.8488
 416  228.4667
 417  156.1641
 418  179.932
 419  42.73904
 420  37.49738
 421  103.2112
 422  153.511
 423  234.7829
 424  205.8829
 425  297.7921
 426  221.3777
 427  90.47464
 428  206.1047
 429  139.3658
 430  180.6372
 431  159.0638
 432  222.981
 433  219.3954
 434  216.6614
 435  209.5908
 436  196.6448
 437  157.7946
 438  232.4741
 439  309.7345
 440  290.2617
 441  323.4595
 442  237.7678
 443  149.5063
 444  36.77774
 445  59.81802
 446  192.567
 447  169.7887
 448  143.7677
 449  120.3098
 450  298.2695
 451  235.3267
 452  96.87247
 453  131.9336
 454  140.5839
 455  223.5246
 456  235.8442
 457  268.8447
 458  269.5511
 459  273.2339
 460  117.0883
 461  15.11259
 462  136.6092
 463  219.2625
 464  149.2765
 465  172.6098
 466  129.8387
 467  146.7422
 468  141.3194
 469  41.62172
 470  93.23237
 471  209.2456
 472  223.9508
 473  135.5985
 474  358.6906
 475  387.7063
 476  253.0173
 477  102.7778
 478  174.188
 479  63.30342
 480  205.7101
 481  149.5372
 482  228.0547
 483  272.6705
 484  200.6724
 485  202.9443
 486  85.43504
 487  188.3429
 488  227.8491
 489  203.5229
 490  250.5232
 491  232.148
 492  149.781
 493  184.4213
 494  118.884
 495  223.5478
 496  147.4564
 497  -13.05525
 498  111.3332
 499  156.5893
 500  154.3814
 501  -38.13943
 502  47.18267
 503  217.7238
 504  284.2053
 505  466.3687
 506  522.3194
 507  450.9649
 508  410.9612
 509  537.4188
 510  716.4561
 511  885.4603
