# Input file       =  1205425822.113558_cleaned.dat
# Candidate        =  PSR_0332+5434
# Telescope        =  AR
# Epoch_topo       =  58195.687547610629
# Epoch_bary       =  N/A
# T_sample         =  0.002
# Data Folded      =  7340032
# Data Avg         =  0.030542800691856
# Data StdDev      =  1.0000777577348  
# Profile Bins     =  512
# Profile Avg      =  437.810087342649 
# Profile StdDev   =  119.742346546456 
# Reduced chi-sqr  =  1.335
# Prob(Noise)      <  5.36e-07   (~4.9 sigma)
# P_topo (ms)      =  714.576604059664  +/- 0.000252
# P'_topo (s/s)    =  -0                +/- 1.33e-10
# P''_topo (s/s^2) =  0                 +/- 5.88e-14
# P_bary (ms)      =  N/A
# P'_bary (s/s)    =  N/A
# P''_bary (s/s^2) =  N/A
# P_orb (s)        =  N/A
# asin(i)/c (s)    =  N/A
# eccentricity     =  N/A
# w (rad)          =  N/A
# T_peri           =  N/A
######################################################
   0  1074.518
   1  1106.606
   2  935.5912
   3  779.1078
   4  510.545
   5  379.3058
   6  397.1645
   7  383.79
   8  401.4614
   9  355.1732
  10  245.0176
  11  392.2613
  12  456.1878
  13  438.8314
  14  583.6473
  15  602.5028
  16  542.7352
  17  432.921
  18  213.504
  19  304.8992
  20  326.7553
  21  360.587
  22  518.2743
  23  442.7957
  24  445.4083
  25  507.7527
  26  463.6058
  27  464.4846
  28  372.0978
  29  371.0042
  30  446.5069
  31  581.8514
  32  599.4688
  33  478.7715
  34  397.6074
  35  498.3476
  36  582.6562
  37  573.7736
  38  413.1557
  39  426.4935
  40  507.1869
  41  543.4145
  42  499.7047
  43  493.5519
  44  660.1074
  45  532.6467
  46  329.8772
  47  318.9243
  48  437.6404
  49  459.9043
  50  333.7763
  51  408.2508
  52  410.7687
  53  458.1563
  54  440.3555
  55  546.3226
  56  516.6542
  57  509.3621
  58  555.3505
  59  503.9116
  60  668.7668
  61  623.442
  62  558.8273
  63  489.2418
  64  525.5258
  65  440.2038
  66  416.5403
  67  487.9928
  68  489.9804
  69  479.0156
  70  494.7574
  71  371.8961
  72  541.9059
  73  527.47
  74  515.6871
  75  514.4694
  76  420.4205
  77  447.3601
  78  457.2281
  79  406.3536
  80  318.9318
  81  382.6871
  82  374.7342
  83  264.6283
  84  260.2548
  85  312.8086
  86  352.5855
  87  360.4411
  88  335.2347
  89  302.8744
  90  404.4239
  91  435.6508
  92  445.7688
  93  514.6061
  94  416.6484
  95  255.0146
  96  302.6764
  97  393.3438
  98  329.1374
  99  270.9478
 100  277.6981
 101  304.9253
 102  504.9694
 103  536.8209
 104  459.5323
 105  398.3743
 106  424.659
 107  420.9274
 108  337.2026
 109  396.0943
 110  466.8307
 111  420.4572
 112  361.6509
 113  364.941
 114  395.207
 115  525.1123
 116  448.4827
 117  373.0604
 118  449.6334
 119  431.7507
 120  338.5521
 121  414.6276
 122  385.1832
 123  414.2666
 124  441.0548
 125  392.1521
 126  481.1416
 127  394.2487
 128  341.5521
 129  410.3487
 130  384.2144
 131  486.3072
 132  498.8224
 133  406.1335
 134  467.1174
 135  505.6735
 136  460.7742
 137  427.0854
 138  319.4247
 139  416.2747
 140  583.248
 141  628.3966
 142  460.5919
 143  481.6989
 144  457.5949
 145  467.1471
 146  461.6088
 147  441.8478
 148  530.6154
 149  459.3365
 150  499.282
 151  489.4333
 152  470.586
 153  444.1747
 154  502.8088
 155  534.9146
 156  544.1603
 157  474.7831
 158  497.5662
 159  513.6641
 160  460.3911
 161  458.1641
 162  402.5995
 163  401.2819
 164  408.3577
 165  491.5771
 166  414.4951
 167  285.2183
 168  430.8136
 169  460.4327
 170  468.8393
 171  510.2187
 172  471.092
 173  548.7587
 174  542.2424
 175  512.3085
 176  584.278
 177  512.4866
 178  513.2004
 179  468.8244
 180  476.8705
 181  539.4504
 182  500.2234
 183  546.7477
 184  538.1721
 185  458.7469
 186  430.0186
 187  397.2127
 188  438.1067
 189  464.7632
 190  510.0365
 191  525.5134
 192  496.0683
 193  523.0385
 194  448.7862
 195  465.0689
 196  408.8041
 197  451.3129
 198  450.0801
 199  426.7322
 200  404.5952
 201  403.2542
 202  374.332
 203  372.2143
 204  424.2452
 205  401.5593
 206  521.7612
 207  563.7264
 208  461.6866
 209  458.9047
 210  499.095
 211  532.382
 212  465.3861
 213  389.5492
 214  422.7733
 215  284.7165
 216  365.8282
 217  492.5851
 218  430.1657
 219  490.2863
 220  498.1169
 221  396.6515
 222  483.6789
 223  473.3222
 224  427.5121
 225  355.8799
 226  349.3648
 227  492.6985
 228  542.7184
 229  573.4011
 230  415.3302
 231  402.2779
 232  397.8924
 233  451.016
 234  440.6895
 235  395.5044
 236  331.7876
 237  357.8495
 238  433.2247
 239  388.7364
 240  342.0433
 241  373.2469
 242  416.4782
 243  366.2064
 244  372.5938
 245  486.677
 246  485.5581
 247  459.4726
 248  432.903
 249  407.0521
 250  489.9417
 251  418.7974
 252  473.3527
 253  531.1486
 254  514.3665
 255  508.3251
 256  467.1053
 257  365.9374
 258  295.3086
 259  419.1422
 260  489.5794
 261  473.1697
 262  437.8529
 263  466.1161
 264  490.7321
 265  345.2657
 266  477.3366
 267  535.078
 268  534.5955
 269  516.7439
 270  484.4642
 271  628.5786
 272  463.8531
 273  451.2673
 274  441.7645
 275  544.5422
 276  607.4102
 277  621.8729
 278  640.2889
 279  724.2741
 280  588.1706
 281  468.5388
 282  484.6107
 283  564.0272
 284  563.1703
 285  512.973
 286  420.1827
 287  449.0752
 288  537.2838
 289  514.6966
 290  663.3599
 291  454.3641
 292  324.1173
 293  341.1101
 294  389.278
 295  525.9102
 296  502.0906
 297  465.0258
 298  453.7715
 299  471.662
 300  409.1025
 301  387.2242
 302  462.5628
 303  434.1981
 304  463.6984
 305  481.5251
 306  521.6133
 307  488.0586
 308  527.8053
 309  404.7771
 310  453.7311
 311  415.7368
 312  477.0009
 313  470.5689
 314  456.9458
 315  431.1055
 316  421.9128
 317  376.8619
 318  337.0276
 319  300.776
 320  319.2749
 321  451.5499
 322  451.0448
 323  397.8792
 324  344.9503
 325  281.0802
 326  431.0737
 327  393.201
 328  440.7066
 329  411.9305
 330  444.0186
 331  444.2246
 332  536.8156
 333  506.6657
 334  489.5147
 335  393.6766
 336  403.8548
 337  419.5544
 338  357.959
 339  314.4472
 340  228.6872
 341  295.0461
 342  412.3345
 343  424.9301
 344  434.7781
 345  545.3275
 346  500.0257
 347  487.5011
 348  405.427
 349  389.5756
 350  377.7135
 351  406.1363
 352  565.2316
 353  464.5094
 354  402.6501
 355  351.1682
 356  391.6249
 357  413.4713
 358  485.1975
 359  492.5758
 360  452.9802
 361  480.2124
 362  503.4963
 363  453.8447
 364  378.3351
 365  370.7924
 366  377.2177
 367  511.9053
 368  507.2121
 369  437.5233
 370  362.8543
 371  304.0711
 372  366.369
 373  376.0618
 374  465.4968
 375  419.1092
 376  356.0024
 377  344.3882
 378  338.9555
 379  397.4825
 380  281.2761
 381  203.0449
 382  377.9021
 383  423.3972
 384  354.3096
 385  343.0665
 386  428.6647
 387  431.9005
 388  437.1839
 389  490.1022
 390  504.1168
 391  467.5287
 392  437.2976
 393  445.9346
 394  425.7915
 395  247.239
 396  387.582
 397  347.8855
 398  283.021
 399  349.1702
 400  328.945
 401  319.4854
 402  291.8966
 403  354.2601
 404  393.1913
 405  309.1945
 406  301.3699
 407  369.4145
 408  327.237
 409  403.197
 410  392.0392
 411  392.7119
 412  573.385
 413  451.4937
 414  363.7679
 415  257.5244
 416  282.4659
 417  331.3881
 418  414.2419
 419  417.9797
 420  280.7189
 421  370.9824
 422  373.2202
 423  431.0987
 424  479.8501
 425  400.2007
 426  384.022
 427  388.0647
 428  396.6134
 429  472.0893
 430  365.3096
 431  351.1295
 432  413.2934
 433  327.4512
 434  300.8866
 435  388.6982
 436  491.737
 437  478.7277
 438  379.2001
 439  527.3395
 440  536.0009
 441  527.54
 442  513.356
 443  504.4306
 444  399.37
 445  366.1003
 446  256.4242
 447  313.0437
 448  397.9439
 449  403.2032
 450  466.5833
 451  486.0935
 452  387.925
 453  346.0646
 454  420.9868
 455  409.2346
 456  331.026
 457  315.9256
 458  375.3631
 459  440.1282
 460  521.0062
 461  416.0378
 462  443.5574
 463  371.1024
 464  238.4273
 465  283.6257
 466  468.2263
 467  370.8101
 468  250.1975
 469  257.3089
 470  400.579
 471  458.538
 472  273.5915
 473  286.4924
 474  425.523
 475  369.6288
 476  368.0845
 477  347.6091
 478  360.5768
 479  317.8757
 480  279.5273
 481  362.1052
 482  413.7365
 483  361.6163
 484  369.8242
 485  353.7413
 486  382.0275
 487  321.1856
 488  339.9519
 489  326.8828
 490  458.6038
 491  532.2831
 492  454.6357
 493  406.2981
 494  390.8456
 495  446.7685
 496  457.1136
 497  446.3384
 498  442.6972
 499  464.4553
 500  383.1606
 501  282.8347
 502  381.7568
 503  464.94
 504  432.4078
 505  403.6169
 506  502.1438
 507  514.4306
 508  513.7038
 509  685.6918
 510  859.1489
 511  1010.479
