# Input file       =  1205740786.108979_cleaned.dat
# Candidate        =  PSR_0332+5434
# Telescope        =  AR
# Epoch_topo       =  58199.332964224297
# Epoch_bary       =  N/A
# T_sample         =  0.002
# Data Folded      =  7143424
# Data Avg         =  0.0160635826392576
# Data StdDev      =  1.00002373209845 
# Profile Bins     =  512
# Profile Avg      =  224.036813831446 
# Profile StdDev   =  118.121387683743 
# Reduced chi-sqr  =  2.595
# Prob(Noise)      <  1.07e-73   (~18.1 sigma)
# P_topo (ms)      =  714.57470185925   +/- 2.45e-05
# P'_topo (s/s)    =  -0                +/- 1.33e-11
# P''_topo (s/s^2) =  0                 +/- 6.02e-15
# P_bary (ms)      =  N/A
# P'_bary (s/s)    =  N/A
# P''_bary (s/s^2) =  N/A
# P_orb (s)        =  N/A
# asin(i)/c (s)    =  N/A
# eccentricity     =  N/A
# w (rad)          =  N/A
# T_peri           =  N/A
######################################################
   0  793.1201
   1  809.2419
   2  794.6359
   3  530.4534
   4  213.2362
   5  221.7985
   6  182.7706
   7  81.96005
   8  122.9853
   9  202.1268
  10  250.7879
  11  362.8514
  12  395.1336
  13  234.2485
  14  185.5528
  15  185.8573
  16  230.9052
  17  177.9128
  18  291.8575
  19  290.7211
  20  231.0982
  21  91.54285
  22  71.05531
  23  193.4827
  24  102.1652
  25  183.6578
  26  205.647
  27  307.1249
  28  251.6648
  29  271.0168
  30  295.2335
  31  141.9494
  32  112.3623
  33  249.6281
  34  404.4908
  35  369.9433
  36  376.3034
  37  252.0456
  38  87.99666
  39  138.6214
  40  214.3853
  41  336.4626
  42  370.1817
  43  398.5502
  44  246.8796
  45  144.1019
  46  81.91634
  47  199.6702
  48  160.3314
  49  188.3557
  50  156.4753
  51  127.97
  52  219.1156
  53  192.6582
  54  60.73182
  55  -44.85723
  56  70.80551
  57  324.6283
  58  272.5359
  59  473.29
  60  399.5973
  61  280.1886
  62  170.6655
  63  189.295
  64  137.6244
  65  67.22655
  66  104.3032
  67  80.39484
  68  146.8467
  69  186.288
  70  109.1188
  71  -18.53245
  72  10.41585
  73  157.7837
  74  274.6795
  75  362.3255
  76  295.3643
  77  370.7469
  78  275.3077
  79  277.5884
  80  186.674
  81  103.5363
  82  187.3832
  83  183.6058
  84  221.0494
  85  379.1175
  86  327.2062
  87  185.9292
  88  270.4506
  89  142.9044
  90  135.7379
  91  298.533
  92  445.3588
  93  471.5283
  94  311.0986
  95  321.1188
  96  297.143
  97  123.8708
  98  150.4685
  99  188.987
 100  260.1472
 101  389.4556
 102  373.385
 103  254.6456
 104  129.4349
 105  189.8514
 106  265.582
 107  300.1412
 108  318.5681
 109  476.049
 110  585.8438
 111  420.4456
 112  309.7547
 113  207.2995
 114  172.3896
 115  123.8395
 116  245.4681
 117  335.8835
 118  258.3222
 119  318.3528
 120  341.5504
 121  322.5001
 122  245.3962
 123  195.7215
 124  272.136
 125  362.7592
 126  394.5968
 127  407.4235
 128  299.1849
 129  210.748
 130  154.6179
 131  80.15889
 132  127.0449
 133  266.8885
 134  239.0637
 135  303.0517
 136  156.2856
 137  143.0972
 138  176.9186
 139  65.69174
 140  216.2728
 141  336.7321
 142  360.3968
 143  395.3771
 144  252.7756
 145  119.8189
 146  201.7361
 147  106.4487
 148  128.7353
 149  182.1833
 150  358.8474
 151  352.5936
 152  226.9868
 153  198.2905
 154  180.1625
 155  185.8816
 156  219.3449
 157  297.4177
 158  417.3466
 159  461.9287
 160  483.2851
 161  294.0104
 162  205.4203
 163  36.08151
 164  74.96639
 165  256.8566
 166  342.9367
 167  425.7058
 168  357.1174
 169  100.3628
 170  102.8713
 171  128.7358
 172  99.67065
 173  269.2326
 174  429.4553
 175  439.3109
 176  428.3124
 177  440.3072
 178  256.9858
 179  167.3982
 180  144.1196
 181  150.9697
 182  248.1422
 183  250.2732
 184  372.9018
 185  354.6727
 186  172.9386
 187  42.2605
 188  152.3461
 189  270.9256
 190  276.4367
 191  362.6129
 192  547.855
 193  372.7214
 194  162.2608
 195  302.184
 196  102.5663
 197  61.8511
 198  48.11504
 199  285.9846
 200  256.7752
 201  339.9087
 202  200.5386
 203  125.3319
 204  116.4844
 205  176.5896
 206  181.9708
 207  240.9177
 208  379.0341
 209  451.3646
 210  452.424
 211  366.6926
 212  345.0637
 213  249.4156
 214  310.3057
 215  442.7782
 216  338.2821
 217  357.1453
 218  266.0615
 219  164.7111
 220  106.0413
 221  175.9141
 222  238.369
 223  390.2519
 224  493.5535
 225  589.9315
 226  541.1186
 227  373.5524
 228  395.0591
 229  498.1673
 230  305.7726
 231  196.8204
 232  194.9257
 233  290.2435
 234  310.9742
 235  280.7578
 236  230.4524
 237  221.5121
 238  262.3792
 239  242.2247
 240  303.0782
 241  382.488
 242  463.7691
 243  391.3661
 244  264.0645
 245  151.2513
 246  83.21978
 247  233.7406
 248  280.1902
 249  353.374
 250  423.4061
 251  296.561
 252  295.1196
 253  122.2845
 254  50.47552
 255  135.3444
 256  219.3557
 257  478.4558
 258  610.9494
 259  406.7821
 260  263.4303
 261  159.2159
 262  107.1107
 263  149.518
 264  186.5884
 265  130.4893
 266  114.0973
 267  249.6104
 268  188.0845
 269  296.8727
 270  232.4821
 271  237.9956
 272  87.32922
 273  263.3222
 274  396.6731
 275  329.5977
 276  345.1451
 277  262.592
 278  202.9752
 279  125.0571
 280  64.23935
 281  134.1484
 282  267.5865
 283  238.394
 284  112.5587
 285  223.7503
 286  210.3836
 287  224.9566
 288  147.9127
 289  158.6453
 290  291.3032
 291  292.5731
 292  397.5937
 293  382.7183
 294  282.3568
 295  137.3615
 296  104.027
 297  91.52615
 298  72.04546
 299  333.1136
 300  355.404
 301  266.5888
 302  186.3784
 303  189.0665
 304  176.1783
 305  201.8679
 306  306.8312
 307  468.0731
 308  406.0635
 309  382.6352
 310  383.5882
 311  227.4594
 312  169.3676
 313  169.9353
 314  283.7848
 315  352.32
 316  275.3841
 317  213.5461
 318  203.1441
 319  124.0745
 320  181.3761
 321  125.4677
 322  195.7629
 323  422.681
 324  664.3294
 325  486.8779
 326  167.9062
 327  167.4899
 328  255.9872
 329  159.1448
 330  84.65331
 331  82.44257
 332  254.893
 333  313.2556
 334  221.5544
 335  155.8893
 336  136.0727
 337  162.0391
 338  197.4063
 339  270.0624
 340  446.8858
 341  364.9227
 342  250.1807
 343  187.0072
 344  164.1567
 345  148.0117
 346  113.3026
 347  125.9259
 348  200.1348
 349  289.4514
 350  351.9027
 351  251.87
 352  230.369
 353  152.8996
 354  217.3636
 355  235.4378
 356  283.6527
 357  384.2668
 358  397.3224
 359  309.1749
 360  254.9621
 361  211.4576
 362  146.9108
 363  123.9601
 364  190.7242
 365  232.6257
 366  177.0197
 367  161.5849
 368  114.0157
 369  151.2456
 370  152.96
 371  216.8088
 372  200.9899
 373  252.1462
 374  330.2962
 375  360.4839
 376  232.0789
 377  119.492
 378  166.6555
 379  35.88881
 380  166.2059
 381  280.0403
 382  263.5913
 383  206.3464
 384  84.95607
 385  203.4178
 386  61.87828
 387  15.21112
 388  53.30991
 389  210.2225
 390  386.4789
 391  364.2218
 392  183.9707
 393  42.85051
 394  -90.96959
 395  43.79123
 396  150.8476
 397  213.5791
 398  183.8808
 399  186.6143
 400  122.1353
 401  131.8598
 402  131.0349
 403  -1.586191
 404  154.1536
 405  168.7824
 406  178.1673
 407  334.8062
 408  296.8505
 409  173.1681
 410  140.8035
 411  -1.575855
 412  -25.24228
 413  11.79471
 414  141.9703
 415  93.4173
 416  168.3572
 417  76.7195
 418  3.748611
 419  145.8409
 420  74.05736
 421  -38.0499
 422  136.1729
 423  310.6284
 424  362.9807
 425  233.7427
 426  144.1441
 427  169.8143
 428  26.56664
 429  32.80102
 430  178.8332
 431  136.1129
 432  83.00672
 433  -20.72718
 434  -82.35851
 435  37.33588
 436  8.466211
 437  78.83764
 438  141.0064
 439  242.7703
 440  308.7925
 441  149.1759
 442  -17.76567
 443  -29.69199
 444  25.20634
 445  123.2137
 446  133.9329
 447  154.3699
 448  88.84184
 449  193.5145
 450  249.7916
 451  135.4137
 452  7.532442
 453  -38.20394
 454  104.3846
 455  218.3591
 456  280.188
 457  252.4762
 458  116.1563
 459  -44.59997
 460  -110.9493
 461  -76.86871
 462  86.49878
 463  156.7977
 464  234.2961
 465  220.4965
 466  113.0251
 467  -17.36302
 468  -16.4911
 469  18.68896
 470  122.9576
 471  323.8249
 472  371.0497
 473  301.2558
 474  206.7342
 475  166.9716
 476  -9.192067
 477  -113.2136
 478  -19.57315
 479  200.9752
 480  155.7991
 481  93.44053
 482  141.8513
 483  12.91039
 484  -105.2009
 485  11.42036
 486  52.00175
 487  250.7941
 488  445.4203
 489  315.445
 490  227.6607
 491  161.1623
 492  216.6563
 493  232.6286
 494  205.2227
 495  -23.6319
 496  19.52688
 497  148.392
 498  225.4077
 499  161.0905
 500  4.964202
 501  157.35
 502  72.14155
 503  45.07153
 504  225.9275
 505  299.0082
 506  486.0591
 507  519.3465
 508  510.2682
 509  397.1657
 510  508.7424
 511  707.5645
