# Input file       =  1205411064.114981_cleaned.dat
# Candidate        =  PSR_0332+5434
# Telescope        =  AR
# Epoch_topo       =  58195.516737441911
# Epoch_bary       =  N/A
# T_sample         =  0.002
# Data Folded      =  7340032
# Data Avg         =  0.00176790855384276
# Data StdDev      =  1.00033602399083 
# Profile Bins     =  512
# Profile Avg      =  25.2777807136307 
# Profile StdDev   =  119.773269549483 
# Reduced chi-sqr  =  1.426
# Prob(Noise)      <  7.03e-10   (~6.1 sigma)
# P_topo (ms)      =  714.576336172987  +/- 0.000448
# P'_topo (s/s)    =  -0                +/- 2.36e-10
# P''_topo (s/s^2) =  0                 +/- 1.04e-13
# P_bary (ms)      =  N/A
# P'_bary (s/s)    =  N/A
# P''_bary (s/s^2) =  N/A
# P_orb (s)        =  N/A
# asin(i)/c (s)    =  N/A
# eccentricity     =  N/A
# w (rad)          =  N/A
# T_peri           =  N/A
######################################################
   0  445.4104
   1  470.8726
   2  411.221
   3  163.7539
   4  -10.55402
   5  -20.6389
   6  0.7224569
   7  40.97136
   8  50.71589
   9  -35.9947
  10  -59.10686
  11  18.48568
  12  16.13121
  13  -50.75888
  14  -55.11702
  15  2.135288
  16  22.4204
  17  14.00041
  18  -38.1095
  19  -4.060165
  20  -89.80774
  21  -80.61118
  22  36.27261
  23  61.99399
  24  13.39075
  25  45.56053
  26  -66.54725
  27  -30.28969
  28  -9.508152
  29  -51.54236
  30  14.5965
  31  30.74301
  32  27.24126
  33  50.76873
  34  -2.60209
  35  113.9484
  36  100.3836
  37  17.19337
  38  -63.34776
  39  12.65419
  40  97.42487
  41  27.26576
  42  -22.65916
  43  38.19607
  44  17.83675
  45  63.73709
  46  80.99522
  47  28.67996
  48  41.16999
  49  66.54792
  50  27.47238
  51  -28.31538
  52  -29.7462
  53  5.194603
  54  -7.542913
  55  -116.7655
  56  8.104395
  57  42.98004
  58  67.77588
  59  79.24795
  60  62.72622
  61  50.05801
  62  -17.79901
  63  -66.8483
  64  -103.5896
  65  -4.954369
  66  49.49428
  67  -25.46707
  68  -12.36016
  69  53.94442
  70  21.01859
  71  4.37028
  72  -34.19137
  73  -0.169071
  74  2.883023
  75  6.169287
  76  149.5082
  77  90.23412
  78  -73.23228
  79  -64.76726
  80  -29.35228
  81  16.73395
  82  78.43652
  83  166.2147
  84  94.55486
  85  33.32392
  86  13.60269
  87  61.46234
  88  128.7296
  89  128.1116
  90  116.3079
  91  123.3306
  92  118.0318
  93  125.756
  94  142.3371
  95  240.2352
  96  276.8712
  97  202.2781
  98  211.954
  99  220.6686
 100  188.1485
 101  189.6264
 102  196.4174
 103  210.2825
 104  182.8122
 105  234.8454
 106  220.1127
 107  186.8547
 108  74.12273
 109  125.3525
 110  177.0301
 111  136.7615
 112  130.9526
 113  218.923
 114  229.7105
 115  144.4881
 116  196.3024
 117  210.1899
 118  259.5284
 119  173.7712
 120  115.6345
 121  173.0621
 122  151.5628
 123  104.9534
 124  119.951
 125  65.51379
 126  99.46542
 127  101.823
 128  -10.55418
 129  70.07909
 130  80.42635
 131  -9.976688
 132  21.42923
 133  84.0108
 134  49.44999
 135  -13.1467
 136  -67.06282
 137  -8.997821
 138  -20.80352
 139  6.55455
 140  -27.46905
 141  -51.11555
 142  -53.26854
 143  -64.54726
 144  -123.5685
 145  -94.58875
 146  -101.8655
 147  -116.9781
 148  -166.6051
 149  -156.9545
 150  -126.515
 151  -150.6715
 152  -150.6442
 153  -66.38586
 154  9.594085
 155  -48.08407
 156  -99.26176
 157  -61.51029
 158  7.898302
 159  -95.58672
 160  -100.6121
 161  -85.21072
 162  -22.80191
 163  41.41223
 164  120.6284
 165  160.1758
 166  108.4946
 167  29.52593
 168  28.04469
 169  99.33953
 170  88.20499
 171  74.49165
 172  62.78999
 173  108.0648
 174  89.05527
 175  95.12247
 176  172.205
 177  171.4392
 178  113.2931
 179  91.45177
 180  64.99209
 181  51.44537
 182  52.06219
 183  56.9285
 184  56.38534
 185  -9.065394
 186  49.65494
 187  90.34341
 188  16.32124
 189  42.08049
 190  25.89061
 191  16.50642
 192  30.31603
 193  95.38835
 194  40.45884
 195  -21.22964
 196  11.7064
 197  -33.68615
 198  -100.3931
 199  -29.10253
 200  0.5531939
 201  -7.481281
 202  -17.18605
 203  -7.938993
 204  -35.93752
 205  -43.24801
 206  24.88998
 207  35.77051
 208  -27.03081
 209  -83.83005
 210  -49.04088
 211  -34.64262
 212  -60.31309
 213  -1.054069
 214  3.169571
 215  -3.967548
 216  -40.98103
 217  -34.14745
 218  -63.86565
 219  -24.0602
 220  -102.5256
 221  43.59106
 222  65.93931
 223  33.9395
 224  -53.86377
 225  -95.81047
 226  -80.87733
 227  -12.23955
 228  -12.48473
 229  23.86886
 230  69.88052
 231  6.594287
 232  18.22093
 233  47.02612
 234  27.27572
 235  89.35189
 236  162.144
 237  63.22876
 238  17.02404
 239  -6.031469
 240  21.78175
 241  79.65141
 242  70.29965
 243  -27.71336
 244  29.89809
 245  21.03573
 246  -28.54399
 247  74.70747
 248  53.44801
 249  101.2865
 250  171.4318
 251  45.55531
 252  -75.42107
 253  -74.60899
 254  -2.523364
 255  52.64997
 256  113.1728
 257  140.8855
 258  120.9169
 259  -25.46507
 260  62.37057
 261  69.00245
 262  -8.049333
 263  -61.35738
 264  -42.34382
 265  -0.7930602
 266  22.28258
 267  33.33094
 268  -3.362768
 269  28.89813
 270  56.75996
 271  57.94748
 272  -1.590419
 273  -43.29487
 274  62.33124
 275  -18.81199
 276  -107.6386
 277  -143.772
 278  -65.71612
 279  -87.10727
 280  -45.89201
 281  -29.91849
 282  -62.87761
 283  -97.64956
 284  -78.79158
 285  -30.62125
 286  -109.5567
 287  -166.8087
 288  -139.8164
 289  -109.7591
 290  -100.6207
 291  -87.93732
 292  -85.92618
 293  -44.37367
 294  -126.8781
 295  -150.8269
 296  -107.371
 297  -76.67397
 298  -63.84412
 299  -118.5667
 300  -116.2283
 301  -87.64716
 302  -174.2153
 303  -279.8116
 304  -140.3343
 305  -113.3416
 306  -174.5985
 307  -126.9153
 308  -82.38334
 309  -95.0334
 310  -75.11968
 311  -80.45615
 312  -25.75332
 313  34.08766
 314  42.17356
 315  34.53281
 316  0.8642227
 317  26.16955
 318  -25.92038
 319  64.4679
 320  18.67121
 321  36.67203
 322  69.93436
 323  26.54612
 324  62.00394
 325  71.35254
 326  102.564
 327  13.98492
 328  36.73967
 329  -1.451742
 330  5.138765
 331  -3.657096
 332  65.04604
 333  58.75381
 334  -1.438894
 335  16.83447
 336  104.5412
 337  141.1257
 338  164.259
 339  72.82038
 340  156.8114
 341  47.02985
 342  6.836885
 343  122.0342
 344  165.4128
 345  136.2597
 346  120.1565
 347  61.92409
 348  12.73299
 349  25.58356
 350  -72.43455
 351  -127.9092
 352  -37.24175
 353  5.206095
 354  -123.486
 355  -176.9589
 356  -144.0849
 357  -190.6767
 358  -199.2044
 359  -139.3495
 360  -216.5942
 361  -168.111
 362  -81.44266
 363  -154.3033
 364  -90.40649
 365  -98.83454
 366  -32.3741
 367  -117.3741
 368  -140.5026
 369  -163.5475
 370  -168.7565
 371  -199.3943
 372  -225.1525
 373  -165.6713
 374  -101.7533
 375  -85.97157
 376  -100.4663
 377  -177.4656
 378  -112.8808
 379  -147.0395
 380  -118.7999
 381  -58.42133
 382  -195.3778
 383  -190.3484
 384  -157.5779
 385  -115.3473
 386  -15.33079
 387  -9.396426
 388  6.837476
 389  -38.71505
 390  -87.46758
 391  -96.1207
 392  -89.0885
 393  -64.15562
 394  16.26059
 395  18.11738
 396  -7.335589
 397  -47.79745
 398  -34.30288
 399  55.01855
 400  -17.34642
 401  -60.3637
 402  1.720762
 403  21.89323
 404  -33.46236
 405  15.29714
 406  55.05901
 407  108.5149
 408  17.46675
 409  60.90873
 410  154.711
 411  29.81004
 412  14.33084
 413  46.04281
 414  108.1026
 415  98.60476
 416  102.018
 417  86.36473
 418  -10.25822
 419  -11.15893
 420  17.06345
 421  -49.72741
 422  -6.06568
 423  -67.76317
 424  -7.835959
 425  -25.84524
 426  44.81931
 427  79.62508
 428  -17.92377
 429  16.18512
 430  -21.85294
 431  -38.25538
 432  -64.99797
 433  -3.446032
 434  22.55671
 435  158.5738
 436  143.8169
 437  58.82003
 438  31.09166
 439  64.37502
 440  125.2663
 441  63.74106
 442  88.78359
 443  152.4306
 444  117.4914
 445  90.06619
 446  171.2117
 447  64.67722
 448  79.21409
 449  30.62753
 450  39.16533
 451  75.64581
 452  50.3001
 453  24.89839
 454  50.52798
 455  -40.62335
 456  43.80981
 457  59.67747
 458  80.01245
 459  92.36566
 460  115.3124
 461  117.3732
 462  125.8726
 463  169.4965
 464  214.7607
 465  130.8886
 466  33.61767
 467  152.5577
 468  90.80699
 469  122.2497
 470  128.7407
 471  127.4615
 472  77.26981
 473  123.4862
 474  109.5837
 475  73.09967
 476  74.16661
 477  69.20261
 478  67.83373
 479  34.71502
 480  146.4548
 481  149.1741
 482  157.7226
 483  147.3351
 484  96.53086
 485  175.531
 486  236.7894
 487  216.2173
 488  181.5856
 489  179.5839
 490  243.1669
 491  280.1119
 492  302.9265
 493  247.0847
 494  130.2296
 495  160.8364
 496  142.8433
 497  89.15421
 498  10.17617
 499  -53.80861
 500  -12.05578
 501  12.46048
 502  34.71021
 503  89.08022
 504  79.6353
 505  107.2686
 506  90.60241
 507  73.56806
 508  144.7914
 509  105.5362
 510  240.7829
 511  419.1798
