# Input file       =  1205051296.112978_cleaned.dat
# Candidate        =  PSR_0332+5434
# Telescope        =  AR
# Epoch_topo       =  58191.352755937245
# Epoch_bary       =  N/A
# T_sample         =  0.002
# Data Folded      =  7208960
# Data Avg         =  -0.0175396874266747
# Data StdDev      =  1.0000807890251  
# Profile Bins     =  512
# Profile Avg      =  -246.980611794164
# Profile StdDev   =  118.668762152662 
# Reduced chi-sqr  =  1.398
# Prob(Noise)      <  6.09e-09   (~5.7 sigma)
# P_topo (ms)      =  714.577796805163  +/- 0.000227
# P'_topo (s/s)    =  -0                +/- 1.22e-10
# P''_topo (s/s^2) =  0                 +/- 5.49e-14
# P_bary (ms)      =  N/A
# P'_bary (s/s)    =  N/A
# P''_bary (s/s^2) =  N/A
# P_orb (s)        =  N/A
# asin(i)/c (s)    =  N/A
# eccentricity     =  N/A
# w (rad)          =  N/A
# T_peri           =  N/A
######################################################
   0  227.2308
   1  130.0248
   2  -16.02697
   3  -237.7977
   4  -177.5046
   5  -164.6788
   6  -216.9719
   7  -270.6292
   8  -93.25748
   9  -110.6061
  10  -170.8948
  11  -214.0965
  12  -186.2995
  13  -66.54527
  14  -45.76278
  15  -130.4125
  16  -197.3074
  17  -219.8438
  18  -215.0701
  19  -237.6465
  20  -177.6981
  21  -101.6754
  22  -81.53522
  23  -154.232
  24  -295.9388
  25  -222.2043
  26  -212.6398
  27  -149.1725
  28  -130.0238
  29  -215.3337
  30  -223.7974
  31  -247.3185
  32  -210.4106
  33  -240.1973
  34  -222.3324
  35  -186.1947
  36  -149.1581
  37  -157.4624
  38  -154.1675
  39  -133.8766
  40  -157.9033
  41  -104.3399
  42  -96.41839
  43  -108.3506
  44  -137.6345
  45  -243.3945
  46  -353.0742
  47  -272.1411
  48  -173.0895
  49  -209.9348
  50  -242.0055
  51  -242.8259
  52  -216.9869
  53  -250.5899
  54  -241.5306
  55  -157.182
  56  -153.4928
  57  -153.1637
  58  -155.0698
  59  -169.2589
  60  -143.1929
  61  -196.9991
  62  -123.9294
  63  -140.9835
  64  -108.4194
  65  -125.7931
  66  -169.2617
  67  -281.5245
  68  -217.9548
  69  -148.8046
  70  -142.8881
  71  -212.7816
  72  -216.6689
  73  -236.4196
  74  -325.1671
  75  -268.364
  76  -172.5304
  77  -211.1634
  78  -156.5182
  79  -234.1586
  80  -266.4946
  81  -225.1252
  82  -253.4051
  83  -220.6361
  84  -312.3821
  85  -331.6205
  86  -223.1217
  87  -248.9859
  88  -284.6495
  89  -175.8754
  90  -97.01099
  91  -223.1908
  92  -236.2504
  93  -208.7234
  94  -204.0874
  95  -196.4119
  96  -193.9826
  97  -133.7446
  98  -121.2898
  99  -104.5155
 100  -167.8914
 101  -248.5074
 102  -282.9992
 103  -285.2014
 104  -219.7635
 105  -158.4032
 106  -127.7104
 107  -150.1572
 108  -163.408
 109  -105.3034
 110  -153.3665
 111  -173.8326
 112  -157.7457
 113  -119.6196
 114  -93.78585
 115  -186.1442
 116  -130.4772
 117  -166.446
 118  -249.0657
 119  -298.9338
 120  -293.2932
 121  -234.2336
 122  -276.236
 123  -309.3923
 124  -209.8146
 125  -239.7939
 126  -224.9244
 127  -242.2348
 128  -289.1248
 129  -314.4485
 130  -407.8045
 131  -417.9924
 132  -257.0952
 133  -339.261
 134  -366.2576
 135  -346.9574
 136  -315.774
 137  -240.6499
 138  -325.2703
 139  -268.5644
 140  -393.2972
 141  -366.0991
 142  -350.4668
 143  -334.6255
 144  -310.3419
 145  -205.4253
 146  -209.2483
 147  -279.7208
 148  -369.7878
 149  -364.7546
 150  -352.8416
 151  -339.7997
 152  -227.0446
 153  -167.3373
 154  -171.1892
 155  -155.8262
 156  -254.4587
 157  -319.3648
 158  -318.5649
 159  -268.3206
 160  -162.8717
 161  -191.3392
 162  -151.0407
 163  -177.0876
 164  -202.7832
 165  -369.04
 166  -340.6895
 167  -358.8757
 168  -359.0784
 169  -350.3136
 170  -356.6719
 171  -192.3792
 172  -128.165
 173  -268.5487
 174  -326.9573
 175  -279.0499
 176  -269.7425
 177  -273.9576
 178  -286.7687
 179  -197.9279
 180  -239.9197
 181  -268.5554
 182  -257.1726
 183  -354.5974
 184  -218.0807
 185  -181.8083
 186  -233.2429
 187  -270.268
 188  -265.3543
 189  -261.0093
 190  -285.345
 191  -288.1999
 192  -316.6039
 193  -297.97
 194  -335.7252
 195  -371.8427
 196  -350.8766
 197  -363.1798
 198  -343.8198
 199  -415.44
 200  -363.4171
 201  -281.7266
 202  -288.5643
 203  -347.7324
 204  -250.2569
 205  -347.1281
 206  -336.5887
 207  -258.8071
 208  -298.8794
 209  -328.7168
 210  -284.0729
 211  -356.4191
 212  -330.9265
 213  -312.9289
 214  -347.2495
 215  -370.825
 216  -430.509
 217  -398.9895
 218  -293.1651
 219  -201.2256
 220  -275.6313
 221  -265.8224
 222  -386.891
 223  -536.2039
 224  -466.8398
 225  -345.5108
 226  -247.1526
 227  -271.0692
 228  -271.5769
 229  -371.8718
 230  -418.1219
 231  -276.7171
 232  -334.5888
 233  -308.0407
 234  -333.6516
 235  -350.5476
 236  -317.4605
 237  -299.4788
 238  -325.886
 239  -396.7527
 240  -456.7055
 241  -299.7097
 242  -265.2371
 243  -299.4258
 244  -364.1435
 245  -353.984
 246  -377.409
 247  -365.9359
 248  -232.8895
 249  -256.4943
 250  -355.4289
 251  -363.9016
 252  -354.0926
 253  -348.7871
 254  -259.2322
 255  -293.4113
 256  -392.567
 257  -381.5965
 258  -406.6851
 259  -350.8708
 260  -300.157
 261  -333.9283
 262  -330.9254
 263  -380.5619
 264  -418.3337
 265  -377.7175
 266  -427.9122
 267  -417.4913
 268  -467.8715
 269  -463.5186
 270  -442.8663
 271  -362.1122
 272  -313.7612
 273  -412.8402
 274  -421.89
 275  -401.116
 276  -447.1442
 277  -354.9349
 278  -321.2188
 279  -377.802
 280  -379.1314
 281  -317.027
 282  -429.5261
 283  -383.8411
 284  -347.9974
 285  -422.5852
 286  -444.5591
 287  -387.4272
 288  -302.398
 289  -301.2112
 290  -366.2645
 291  -345.6027
 292  -286.5779
 293  -368.0984
 294  -389.6597
 295  -348.0343
 296  -323.2864
 297  -372.9704
 298  -441.5685
 299  -377.7453
 300  -337.9869
 301  -336.5486
 302  -345.8396
 303  -370.2743
 304  -354.6624
 305  -331.0125
 306  -292.5755
 307  -275.8292
 308  -293.7809
 309  -263.1965
 310  -249.1257
 311  -330.26
 312  -314.4301
 313  -280.6158
 314  -334.2114
 315  -331.5735
 316  -399.4908
 317  -290.6671
 318  -240.3026
 319  -262.1318
 320  -290.0038
 321  -400.8332
 322  -336.7371
 323  -313.3374
 324  -267.5235
 325  -164.1392
 326  -171.6772
 327  -194.7912
 328  -267.1049
 329  -309.3914
 330  -231.0652
 331  -221.8988
 332  -247.0001
 333  -281.2698
 334  -147.5964
 335  -225.2686
 336  -301.1865
 337  -248.9539
 338  -149.5658
 339  -203.8135
 340  -248.5628
 341  -166.7878
 342  -166.2749
 343  -118.0739
 344  -121.7225
 345  -209.2689
 346  -164.3301
 347  -243.274
 348  -312.4581
 349  -277.0528
 350  -217.3508
 351  -139.7029
 352  -200.3864
 353  -128.6924
 354  -253.5739
 355  -318.5886
 356  -295.2234
 357  -259.0602
 358  -228.5239
 359  -364.0419
 360  -263.0966
 361  -191.9196
 362  -209.9758
 363  -195.7192
 364  -266.154
 365  -268.0923
 366  -201.3427
 367  -209.5524
 368  -311.8075
 369  -282.5178
 370  -283.7261
 371  -286.1526
 372  -274.5212
 373  -246.455
 374  -168.8616
 375  -184.1656
 376  -209.5081
 377  -331.067
 378  -377.6665
 379  -308.5109
 380  -232.754
 381  -266.0248
 382  -205.0542
 383  -212.6525
 384  -271.8544
 385  -316.897
 386  -322.2546
 387  -238.9731
 388  -218.3527
 389  -237.4174
 390  -239.8563
 391  -285.8914
 392  -316.0134
 393  -267.2045
 394  -295.0036
 395  -338.4601
 396  -348.3684
 397  -282.4823
 398  -262.2537
 399  -225.3828
 400  -272.3697
 401  -274.9845
 402  -268.6976
 403  -282.8555
 404  -252.0459
 405  -300.2881
 406  -295.3271
 407  -258.6866
 408  -215.2661
 409  -329.0178
 410  -302.5293
 411  -225.3838
 412  -333.3189
 413  -432.0634
 414  -359.4803
 415  -361.2549
 416  -328.1031
 417  -186.9622
 418  -191.2332
 419  -316.7826
 420  -279.1399
 421  -274.8198
 422  -268.5446
 423  -235.4269
 424  -295.4193
 425  -291.3193
 426  -290.3565
 427  -248.5583
 428  -199.1331
 429  -181.8667
 430  -201.4477
 431  -269.6973
 432  -267.6965
 433  -275.5252
 434  -266.0746
 435  -148.5325
 436  -90.32572
 437  -89.70477
 438  -23.48341
 439  -104.665
 440  -173.0565
 441  -258.3496
 442  -254.7675
 443  -303.762
 444  -181.5597
 445  -181.7018
 446  -239.8949
 447  -306.8482
 448  -217.3594
 449  -319.2058
 450  -264.1847
 451  -107.2783
 452  -122.8846
 453  -55.95075
 454  -143.3626
 455  -89.34224
 456  -169.1708
 457  -116.0713
 458  -100.1569
 459  -162.7604
 460  -201.5196
 461  -138.0302
 462  -113.13
 463  -87.82638
 464  -292.838
 465  -177.1129
 466  -96.27602
 467  -46.62313
 468  -73.09457
 469  -153.8658
 470  -187.743
 471  -229.5654
 472  -132.6244
 473  25.5054
 474  -21.72144
 475  -70.27646
 476  -154.8391
 477  -168.9559
 478  -227.9895
 479  -247.2032
 480  -132.1927
 481  -177.8704
 482  -166.146
 483  -128.6564
 484  -166.375
 485  -205.2366
 486  -202.5519
 487  -139.5278
 488  -207.6185
 489  -97.01565
 490  -171.1871
 491  -162.6702
 492  -96.86126
 493  -128.5235
 494  -135.0468
 495  -156.1909
 496  -189.2431
 497  -269.3358
 498  -217.9884
 499  -195.661
 500  -204.0852
 501  -145.9454
 502  -130.7993
 503  -141.8762
 504  -121.7902
 505  -111.4596
 506  -102.0154
 507  -43.73025
 508  -112.4689
 509  -9.616902
 510  228.2455
 511  341.3839
