# Input file       =  1205324951.116461_cleaned.dat
# Candidate        =  PSR_0332+5434
# Telescope        =  AR
# Epoch_topo       =  58194.520059218296
# Epoch_bary       =  N/A
# T_sample         =  0.002
# Data Folded      =  7340032
# Data Avg         =  0.115049420866177
# Data StdDev      =  1.00019692582733 
# Profile Bins     =  512
# Profile Avg      =  1649.40202875669 
# Profile StdDev   =  119.756614904013 
# Reduced chi-sqr  =  1.231
# Prob(Noise)      <  0.000275   (~3.5 sigma)
# P_topo (ms)      =  714.576718268442  +/- 0.000603
# P'_topo (s/s)    =  -0                +/- 3.18e-10
# P''_topo (s/s^2) =  0                 +/- 1.4e-13
# P_bary (ms)      =  N/A
# P'_bary (s/s)    =  N/A
# P''_bary (s/s^2) =  N/A
# P_orb (s)        =  N/A
# asin(i)/c (s)    =  N/A
# eccentricity     =  N/A
# w (rad)          =  N/A
# T_peri           =  N/A
######################################################
   0  2116.565
   1  2126.564
   2  2084.1
   3  2030.671
   4  1912.575
   5  1801.569
   6  1730.076
   7  1715.303
   8  1675.777
   9  1639.135
  10  1702.344
  11  1738.581
  12  1643.463
  13  1647.687
  14  1651.834
  15  1667.157
  16  1640.328
  17  1688.271
  18  1642.098
  19  1720.973
  20  1715.04
  21  1741.865
  22  1769.535
  23  1670.37
  24  1654.504
  25  1650.39
  26  1665.976
  27  1589.853
  28  1587.773
  29  1508.817
  30  1517.356
  31  1604.388
  32  1628.946
  33  1574.23
  34  1475.953
  35  1577.711
  36  1584.464
  37  1576.641
  38  1569.031
  39  1544.863
  40  1453.61
  41  1436.617
  42  1572.087
  43  1534.475
  44  1570.407
  45  1575.743
  46  1553.687
  47  1522.938
  48  1520.664
  49  1467.636
  50  1497.973
  51  1539.639
  52  1532.321
  53  1482.459
  54  1512.4
  55  1514.382
  56  1521.028
  57  1541.046
  58  1577.71
  59  1516.248
  60  1484.97
  61  1468.275
  62  1533.765
  63  1540.754
  64  1517.735
  65  1486.477
  66  1598.91
  67  1664.149
  68  1632.857
  69  1518.241
  70  1442.366
  71  1584.752
  72  1501.435
  73  1532.909
  74  1565.304
  75  1581.501
  76  1638.599
  77  1549.537
  78  1635.63
  79  1613.15
  80  1486.433
  81  1511.225
  82  1635.496
  83  1588.017
  84  1523.517
  85  1585.716
  86  1556.768
  87  1584.064
  88  1565.567
  89  1615.642
  90  1670.079
  91  1684.384
  92  1678.273
  93  1544.757
  94  1583.415
  95  1574.99
  96  1635.053
  97  1686.093
  98  1728.103
  99  1730.995
 100  1664.642
 101  1643.298
 102  1607.339
 103  1620.812
 104  1669.291
 105  1680.355
 106  1631.78
 107  1670.241
 108  1577.651
 109  1482.04
 110  1584.644
 111  1666.665
 112  1577.101
 113  1530.82
 114  1581.935
 115  1549.88
 116  1535.46
 117  1608.09
 118  1521.495
 119  1524.424
 120  1568.103
 121  1596.922
 122  1492.195
 123  1488.806
 124  1510.528
 125  1526.911
 126  1613.295
 127  1577.97
 128  1595.963
 129  1553.68
 130  1529.685
 131  1568.517
 132  1556.954
 133  1477.854
 134  1486.905
 135  1559.994
 136  1632.546
 137  1623.079
 138  1597.598
 139  1667.875
 140  1718.75
 141  1650.948
 142  1631.477
 143  1603.139
 144  1746.926
 145  1742.186
 146  1644.709
 147  1637.161
 148  1659.159
 149  1776.776
 150  1755.846
 151  1688.487
 152  1664.472
 153  1645
 154  1678.673
 155  1688.059
 156  1710.052
 157  1754.85
 158  1651.713
 159  1622.177
 160  1578.581
 161  1642.229
 162  1685.453
 163  1689.221
 164  1699.354
 165  1691.48
 166  1638.368
 167  1672.254
 168  1712.137
 169  1646.151
 170  1588.549
 171  1660.712
 172  1772.463
 173  1739.729
 174  1746.56
 175  1731.89
 176  1647.83
 177  1722.344
 178  1791.333
 179  1743.574
 180  1774.29
 181  1830.3
 182  1773.566
 183  1681.794
 184  1740.356
 185  1684.992
 186  1698.574
 187  1715.53
 188  1672.187
 189  1752.173
 190  1811.606
 191  1771.451
 192  1631.385
 193  1668.207
 194  1697.802
 195  1774.188
 196  1698.628
 197  1742.995
 198  1738.149
 199  1638.811
 200  1658.181
 201  1653.853
 202  1670.097
 203  1665.185
 204  1606.921
 205  1571.821
 206  1577.49
 207  1588.367
 208  1594.793
 209  1668.641
 210  1623.96
 211  1564.068
 212  1491.216
 213  1454.171
 214  1564.219
 215  1626.713
 216  1556.959
 217  1598.169
 218  1625.388
 219  1615.117
 220  1552.672
 221  1603.327
 222  1620.229
 223  1590.239
 224  1630.774
 225  1549.1
 226  1608.147
 227  1636.197
 228  1626.559
 229  1686.652
 230  1653.706
 231  1582.867
 232  1527.186
 233  1557.649
 234  1657.75
 235  1694.021
 236  1701.456
 237  1582.669
 238  1573.245
 239  1563.438
 240  1535.866
 241  1525.606
 242  1600.81
 243  1533.828
 244  1497.85
 245  1572.375
 246  1603.028
 247  1617.282
 248  1544.254
 249  1482.522
 250  1540.191
 251  1570.403
 252  1503.132
 253  1502.645
 254  1531.879
 255  1570.445
 256  1517.279
 257  1511.588
 258  1516.192
 259  1516.284
 260  1465.3
 261  1549.347
 262  1565.665
 263  1548.207
 264  1595.15
 265  1582.651
 266  1539.226
 267  1575.274
 268  1624.019
 269  1658.277
 270  1696.347
 271  1707.816
 272  1735.736
 273  1703.444
 274  1717.224
 275  1709.906
 276  1763.848
 277  1764.609
 278  1745.354
 279  1752.576
 280  1734.703
 281  1683.019
 282  1724.78
 283  1646.015
 284  1645.179
 285  1723.981
 286  1662.083
 287  1649.604
 288  1710.726
 289  1648.995
 290  1574.942
 291  1632.301
 292  1569.31
 293  1568.92
 294  1604.981
 295  1644.176
 296  1696.451
 297  1710.699
 298  1724.983
 299  1719.729
 300  1718.001
 301  1659.226
 302  1757.327
 303  1811.987
 304  1804.28
 305  1832.092
 306  1790.542
 307  1735.753
 308  1737.758
 309  1766.23
 310  1804.013
 311  1872.919
 312  1885
 313  1814.539
 314  1820.876
 315  1787.173
 316  1697.894
 317  1724.059
 318  1692.672
 319  1720.66
 320  1773.939
 321  1711.734
 322  1709.159
 323  1794.154
 324  1728.581
 325  1709.347
 326  1672.043
 327  1662.339
 328  1546.727
 329  1515.314
 330  1625.164
 331  1710.872
 332  1623.714
 333  1596.002
 334  1677.838
 335  1653.337
 336  1688.6
 337  1683.613
 338  1702.772
 339  1681.74
 340  1722.015
 341  1799.207
 342  1735.023
 343  1599.15
 344  1658.226
 345  1671.877
 346  1684.823
 347  1757.655
 348  1706.097
 349  1629.272
 350  1670.921
 351  1694.195
 352  1694.349
 353  1662.807
 354  1764.151
 355  1775.763
 356  1752.557
 357  1790.693
 358  1789.597
 359  1730.567
 360  1786.124
 361  1798.43
 362  1700.125
 363  1810.139
 364  1854.351
 365  1774.467
 366  1763.795
 367  1784.864
 368  1743.414
 369  1730.782
 370  1732.723
 371  1673.565
 372  1736.611
 373  1796.364
 374  1809.409
 375  1670.426
 376  1644.327
 377  1686.62
 378  1684.516
 379  1686.383
 380  1663.302
 381  1629.436
 382  1702.089
 383  1736.681
 384  1680.129
 385  1645.321
 386  1668.164
 387  1719.134
 388  1718.466
 389  1655.373
 390  1671.642
 391  1739.891
 392  1756.223
 393  1662.895
 394  1569.486
 395  1649.91
 396  1652.072
 397  1675.308
 398  1668.385
 399  1583.441
 400  1560.072
 401  1611.24
 402  1571.686
 403  1554.163
 404  1583.635
 405  1587.777
 406  1657.806
 407  1600.783
 408  1593.748
 409  1604.432
 410  1603.205
 411  1638.735
 412  1612.545
 413  1592.422
 414  1580.706
 415  1539.511
 416  1535.662
 417  1591.637
 418  1569
 419  1527.134
 420  1598.958
 421  1656.23
 422  1601.572
 423  1618.597
 424  1675.919
 425  1587.033
 426  1621.552
 427  1655.383
 428  1589.116
 429  1580.723
 430  1638.08
 431  1612.211
 432  1586.889
 433  1629.16
 434  1621.694
 435  1658.436
 436  1657.222
 437  1631.38
 438  1589.61
 439  1574.727
 440  1624.575
 441  1565.036
 442  1555.894
 443  1582.064
 444  1607.224
 445  1547.84
 446  1539.741
 447  1553.023
 448  1574.394
 449  1613.928
 450  1619.616
 451  1607.249
 452  1611.84
 453  1612.862
 454  1655.09
 455  1664.164
 456  1665.374
 457  1612.378
 458  1651.571
 459  1652.401
 460  1618.24
 461  1656.58
 462  1647.668
 463  1610.224
 464  1654.447
 465  1613.388
 466  1722.218
 467  1736.499
 468  1789.167
 469  1733.382
 470  1728.911
 471  1659.432
 472  1662.64
 473  1720.544
 474  1607.729
 475  1578.6
 476  1647.643
 477  1764.328
 478  1774.041
 479  1735.458
 480  1729.823
 481  1721.559
 482  1678.574
 483  1726.336
 484  1709.199
 485  1744.358
 486  1706.27
 487  1733.672
 488  1757.234
 489  1689.945
 490  1701.298
 491  1659.378
 492  1622.823
 493  1678.59
 494  1758.626
 495  1772.424
 496  1712.406
 497  1728.106
 498  1740.417
 499  1623.124
 500  1635.366
 501  1631.316
 502  1587.438
 503  1679.722
 504  1715.755
 505  1742.306
 506  1723.247
 507  1713.167
 508  1775.942
 509  1900.116
 510  1912.308
 511  2052.416
