# Input file       =  1205513153.125172_cleaned.dat
# Candidate        =  PSR_0332+5434
# Telescope        =  AR
# Epoch_topo       =  58196.698323208009
# Epoch_bary       =  N/A
# T_sample         =  0.002
# Data Folded      =  7340032
# Data Avg         =  0.0275008620977669
# Data StdDev      =  1.00005645992507 
# Profile Bins     =  512
# Profile Avg      =  394.242315067118 
# Profile StdDev   =  119.739796495028 
# Reduced chi-sqr  =  1.437
# Prob(Noise)      <  3.1e-10   (~6.2 sigma)
# P_topo (ms)      =  714.576227223238  +/- 0.000329
# P'_topo (s/s)    =  -0                +/- 1.73e-10
# P''_topo (s/s^2) =  0                 +/- 7.66e-14
# P_bary (ms)      =  N/A
# P'_bary (s/s)    =  N/A
# P''_bary (s/s^2) =  N/A
# P_orb (s)        =  N/A
# asin(i)/c (s)    =  N/A
# eccentricity     =  N/A
# w (rad)          =  N/A
# T_peri           =  N/A
######################################################
   0  916.6024
   1  870.9224
   2  704.5024
   3  632.2158
   4  536.1545
   5  494.7147
   6  510.015
   7  474.8843
   8  492.3432
   9  492.7881
  10  464.0075
  11  434.5465
  12  439.7162
  13  550.8557
  14  452.4322
  15  403.0633
  16  377.5497
  17  362.1244
  18  270.5607
  19  227.9406
  20  262.3455
  21  298.2868
  22  258.6392
  23  284.4601
  24  239.4317
  25  192.0455
  26  243.7041
  27  303.3762
  28  259.8372
  29  416.1399
  30  272.1828
  31  220.9162
  32  256.3267
  33  287.9553
  34  291.9018
  35  279.9779
  36  253.7401
  37  230.2115
  38  98.64705
  39  144.7624
  40  214.6863
  41  412.1649
  42  306.9533
  43  273.5327
  44  328.3008
  45  308.6685
  46  257.8559
  47  312.8125
  48  323.8583
  49  301.1949
  50  253.495
  51  248.5677
  52  290.9973
  53  334.5872
  54  332.5513
  55  395.6424
  56  488.3623
  57  376.369
  58  363.9932
  59  414.4928
  60  311.2776
  61  380.2201
  62  385.4115
  63  279.0559
  64  311.7357
  65  380.5075
  66  360.0306
  67  434.3157
  68  430.7264
  69  309.6824
  70  255.2291
  71  275.9772
  72  284.6759
  73  442.8625
  74  367.8961
  75  380.2058
  76  356.6059
  77  343.0735
  78  385.6406
  79  339.5968
  80  337.6897
  81  428.6858
  82  367.0874
  83  292.5297
  84  329.1718
  85  411.397
  86  430.9198
  87  395.4769
  88  413.1614
  89  468.1132
  90  479.3677
  91  358.4587
  92  346.2794
  93  306.0549
  94  280.617
  95  290.1898
  96  369.7466
  97  312.4113
  98  366.9464
  99  316.4193
 100  157.4595
 101  203.6101
 102  228.4263
 103  233.1244
 104  385.5867
 105  322.8813
 106  281.5966
 107  276.9347
 108  327.5679
 109  323.3093
 110  314.3084
 111  407.1144
 112  383.2961
 113  362.7248
 114  287.0499
 115  208.5321
 116  295.0737
 117  300.6046
 118  329.8196
 119  364.9992
 120  249.8755
 121  214.9324
 122  241.4652
 123  301.2665
 124  270.0759
 125  91.3754
 126  259.5033
 127  346.6682
 128  351.4326
 129  272.3676
 130  239.0229
 131  283.8327
 132  248.2356
 133  336.1746
 134  349.2396
 135  255.4002
 136  184.7764
 137  289.8664
 138  406.6753
 139  348.0211
 140  280.1631
 141  330.6291
 142  400.6944
 143  360.0354
 144  413.5138
 145  532.5051
 146  543.3597
 147  447.7443
 148  447.0048
 149  501.7845
 150  400.8894
 151  436.3371
 152  501.283
 153  443.8671
 154  355.8921
 155  291.9427
 156  527.1733
 157  503.7847
 158  517.5712
 159  514.316
 160  447.6862
 161  409.4924
 162  352.9419
 163  478.9414
 164  525.7261
 165  416.6336
 166  444.645
 167  289.5596
 168  321.1946
 169  344.4512
 170  378.4631
 171  348.1217
 172  392.1245
 173  376.3541
 174  320.0972
 175  319.9784
 176  393.327
 177  296.5058
 178  182.7496
 179  297.9052
 180  427.7618
 181  262.8983
 182  130.8555
 183  268.864
 184  413.2338
 185  382.1776
 186  246.8365
 187  244.2015
 188  326.412
 189  435.7765
 190  321.6349
 191  300.7388
 192  378.428
 193  301.4464
 194  336.8785
 195  330.6913
 196  305.4174
 197  288.2979
 198  436.0683
 199  432.2833
 200  302.0346
 201  348.8706
 202  291.1364
 203  326.6235
 204  384.3795
 205  300.241
 206  376.007
 207  402.2162
 208  407.4375
 209  308.6869
 210  313.3728
 211  348.128
 212  397.1356
 213  482.5609
 214  575.6713
 215  552.1573
 216  474.7934
 217  522.5616
 218  447.5437
 219  356.5936
 220  480.8842
 221  481.0151
 222  484.9641
 223  535.1593
 224  481.2134
 225  532.006
 226  562.548
 227  512.2972
 228  452.5581
 229  414.8779
 230  553.9665
 231  569.1072
 232  492.2787
 233  458.5521
 234  416.268
 235  457.4567
 236  436.1327
 237  452.8699
 238  451.4197
 239  476.3507
 240  493.2472
 241  516.1642
 242  495.2159
 243  458.2378
 244  514.2984
 245  583.1949
 246  579.1371
 247  492.0561
 248  558.6804
 249  544.9391
 250  453.0778
 251  394.1041
 252  527.4347
 253  483.0583
 254  412.6478
 255  436.8871
 256  418.2885
 257  407.7197
 258  499.4813
 259  425.2432
 260  398.3663
 261  490.4161
 262  395.7033
 263  381.1938
 264  338.6805
 265  438.8468
 266  399.9213
 267  282.1969
 268  273.3412
 269  305.9716
 270  312.8748
 271  314.4071
 272  366.0164
 273  406.7958
 274  409.5876
 275  318.3302
 276  375.0948
 277  309.5302
 278  393.5692
 279  365.6052
 280  284.0665
 281  400.9445
 282  380.6739
 283  367.7675
 284  428.6138
 285  540.7683
 286  470.8727
 287  477.8426
 288  423.1582
 289  492.0084
 290  540.2193
 291  426.3959
 292  411.1277
 293  428.1446
 294  505.6976
 295  557.3293
 296  501.0085
 297  563.4653
 298  560.0358
 299  548.1686
 300  555.858
 301  530.7836
 302  519.0687
 303  517.4267
 304  467.3225
 305  492.0874
 306  494.301
 307  531.2738
 308  633.9532
 309  671.2145
 310  454.5469
 311  399.2341
 312  434.3191
 313  412.4111
 314  434.7796
 315  456.1808
 316  474.0804
 317  437.1236
 318  366.8097
 319  382.5891
 320  376.2844
 321  407.45
 322  384.2167
 323  298.8868
 324  287.2364
 325  305.6208
 326  335.623
 327  383.7461
 328  301.7211
 329  381.5249
 330  385.3721
 331  300.9444
 332  234.732
 333  296.6348
 334  407.6564
 335  326.5807
 336  363.3003
 337  448.7739
 338  494.3009
 339  434.6983
 340  365.0681
 341  328.7429
 342  331.0284
 343  454.0806
 344  433.691
 345  412.5606
 346  448.2549
 347  365.7314
 348  390.4656
 349  462.7225
 350  415.5648
 351  344.8808
 352  532.7101
 353  569.6437
 354  493.6853
 355  490.5579
 356  481.0266
 357  412.4152
 358  482.8705
 359  460.4977
 360  524.4756
 361  392.564
 362  535.2083
 363  502.9905
 364  490.0964
 365  510.2282
 366  406.7256
 367  338.0149
 368  422.9725
 369  572.942
 370  443.8016
 371  415.7768
 372  349.815
 373  436.3513
 374  373.257
 375  337.2881
 376  379.5401
 377  425.0766
 378  438.9142
 379  400.821
 380  422.6079
 381  469.6305
 382  406.2666
 383  338.1383
 384  367.9229
 385  481.3035
 386  402.814
 387  397.9929
 388  400.3673
 389  369.4214
 390  428.8932
 391  415.7694
 392  367.647
 393  379.5897
 394  349.4333
 395  438.0795
 396  351.4034
 397  364.281
 398  392.3334
 399  325.2625
 400  344.7794
 401  223.4434
 402  330.8768
 403  454.6561
 404  395.472
 405  411.3352
 406  375.2971
 407  376.495
 408  431.8766
 409  401.7697
 410  403.72
 411  400.528
 412  402.8651
 413  293.3414
 414  291.7546
 415  320.261
 416  424.3071
 417  473.9733
 418  445.0147
 419  410.5073
 420  435.3318
 421  373.5317
 422  397.5611
 423  475.125
 424  519.0504
 425  500.9925
 426  493.5674
 427  486.0097
 428  399.2143
 429  462.2673
 430  401.1957
 431  298.5286
 432  387.7535
 433  298.979
 434  409.2502
 435  436.4853
 436  260.2941
 437  355.6946
 438  403.3215
 439  462.3768
 440  438.6602
 441  422.025
 442  468.5306
 443  511.245
 444  421.0808
 445  395.1342
 446  372.9839
 447  393.1208
 448  445.6412
 449  432.9531
 450  352.2279
 451  431.4427
 452  419.1015
 453  440.437
 454  375.5904
 455  302.7031
 456  234.3124
 457  398.4623
 458  348.1656
 459  403.1627
 460  413.5878
 461  465.8252
 462  391.0683
 463  471.3484
 464  409.5681
 465  313.2456
 466  323.7116
 467  326.893
 468  207.3314
 469  211.3727
 470  218.9042
 471  276.5444
 472  261.7148
 473  293.0673
 474  393.2231
 475  476.0198
 476  299.2227
 477  325.149
 478  397.5894
 479  269.1523
 480  306.0042
 481  380.5398
 482  393.3884
 483  290.6034
 484  331.4872
 485  293.4498
 486  301.8578
 487  393.1419
 488  352.1685
 489  448.7966
 490  372.9628
 491  488.2611
 492  551.8968
 493  604.6484
 494  575.7419
 495  471.5706
 496  550.2753
 497  553.2778
 498  486.4467
 499  429.3636
 500  381.0521
 501  422.8027
 502  370.224
 503  410.4438
 504  370.9445
 505  394.5767
 506  474.836
 507  554.1325
 508  618.679
 509  698.8197
 510  843.2388
 511  905.3922
