# Input file       =  1205167077.107159_cleaned.dat
# Candidate        =  PSR_0332+5434
# Telescope        =  AR
# Epoch_topo       =  58192.692813740265
# Epoch_bary       =  N/A
# T_sample         =  0.002
# Data Folded      =  7340032
# Data Avg         =  0.0101858316653304
# Data StdDev      =  1.00003992992974 
# Profile Bins     =  512
# Profile Avg      =  145.997055025962 
# Profile StdDev   =  119.737817308496 
# Reduced chi-sqr  =  1.413
# Prob(Noise)      <  1.93e-09   (~5.9 sigma)
# P_topo (ms)      =  714.577699606527  +/- 0.000289
# P'_topo (s/s)    =  -0                +/- 1.53e-10
# P''_topo (s/s^2) =  0                 +/- 6.74e-14
# P_bary (ms)      =  N/A
# P'_bary (s/s)    =  N/A
# P''_bary (s/s^2) =  N/A
# P_orb (s)        =  N/A
# asin(i)/c (s)    =  N/A
# eccentricity     =  N/A
# w (rad)          =  N/A
# T_peri           =  N/A
######################################################
   0  814.4041
   1  785.744
   2  608.5829
   3  383.3481
   4  260.3349
   5  156.355
   6  126.3255
   7  109.6209
   8  68.87199
   9  184.3079
  10  181.769
  11  107.8808
  12  77.48109
  13  157.2236
  14  154.7609
  15  64.33406
  16  13.34149
  17  74.45187
  18  52.46618
  19  15.57853
  20  32.31758
  21  -6.396224
  22  75.55458
  23  107.8453
  24  108.5323
  25  73.03462
  26  -47.81423
  27  -9.553692
  28  54.29963
  29  54.93144
  30  97.27356
  31  120.7924
  32  129.5399
  33  190.8258
  34  206.0762
  35  201.8093
  36  203.745
  37  305.4209
  38  95.21441
  39  -20.12777
  40  120.6305
  41  202.2355
  42  153.4796
  43  88.83931
  44  73.45573
  45  160.912
  46  69.46141
  47  92.63902
  48  142.2542
  49  207.32
  50  26.24536
  51  83.56829
  52  101.8536
  53  170.0138
  54  120.8085
  55  49.24982
  56  141.554
  57  310.0055
  58  285.5029
  59  177.2456
  60  189.5888
  61  224.4562
  62  196.6156
  63  266.9842
  64  242.786
  65  130.351
  66  142.3959
  67  152.4168
  68  -4.77944
  69  -9.899297
  70  -52.56647
  71  2.419679
  72  153.0886
  73  201.2468
  74  32.2016
  75  -32.7725
  76  65.33573
  77  74.77012
  78  142.0095
  79  166.7625
  80  122.5625
  81  89.50738
  82  101.2038
  83  68.9146
  84  148.3711
  85  97.85993
  86  -20.81118
  87  -31.36236
  88  70.04947
  89  80.52586
  90  45.71885
  91  135.3847
  92  150.7856
  93  22.33167
  94  -9.789394
  95  -25.57031
  96  37.30861
  97  110.0355
  98  174.0993
  99  41.10717
 100  35.50313
 101  17.93001
 102  235.0851
 103  134.2941
 104  131.0587
 105  144.5588
 106  135.2297
 107  199.9103
 108  171.3617
 109  226.785
 110  99.17648
 111  15.68758
 112  231.6841
 113  126.9172
 114  118.9171
 115  119.0234
 116  116.0481
 117  75.13334
 118  10.25707
 119  161.8827
 120  233.7316
 121  119.9622
 122  67.86361
 123  223.0405
 124  172.7431
 125  233.8464
 126  62.2268
 127  -31.81141
 128  210.0765
 129  224.8918
 130  267.4672
 131  129.1854
 132  118.2166
 133  168.5406
 134  132.3818
 135  48.72329
 136  102.6396
 137  98.49203
 138  170.9815
 139  172.0843
 140  84.36786
 141  96.02567
 142  153.6371
 143  140.211
 144  149.0931
 145  113.4196
 146  131.3284
 147  135.9126
 148  116.5629
 149  25.93445
 150  94.35415
 151  127.4402
 152  30.71684
 153  147.3643
 154  145.0536
 155  275.8586
 156  242.4228
 157  178.6326
 158  102.7815
 159  138.3869
 160  121.42
 161  140.847
 162  246.9451
 163  172.8914
 164  179.9791
 165  171.2135
 166  156.0158
 167  -13.44411
 168  30.59797
 169  137.0643
 170  167.6467
 171  80.17402
 172  91.8608
 173  221.996
 174  246.9307
 175  155.7655
 176  161.8188
 177  130.5037
 178  150.1258
 179  87.25375
 180  89.83183
 181  148.3169
 182  156.3074
 183  160.3321
 184  90.17987
 185  212.9257
 186  216.72
 187  102.959
 188  66.32883
 189  47.06693
 190  162.4271
 191  308.0968
 192  147.7307
 193  152.4285
 194  -4.473473
 195  111.9405
 196  54.63803
 197  85.09411
 198  176.2615
 199  28.26909
 200  82.14874
 201  144.2881
 202  126.9928
 203  219.0277
 204  93.22696
 205  33.72759
 206  109.0375
 207  346.0552
 208  299.2208
 209  145.9548
 210  85.61549
 211  132.8483
 212  37.17673
 213  39.63061
 214  91.79002
 215  154.4164
 216  45.94183
 217  -17.54838
 218  62.70267
 219  135.1009
 220  156.7754
 221  171.2913
 222  195.8391
 223  245.0817
 224  223.4485
 225  179.5126
 226  30.14319
 227  -5.366899
 228  102.0922
 229  188.0587
 230  172.2646
 231  191.1392
 232  293.7477
 233  247.3737
 234  169.1426
 235  63.2546
 236  131.9591
 237  170.6942
 238  -25.99343
 239  -8.633577
 240  -32.39375
 241  -16.67487
 242  125.9691
 243  121.3717
 244  81.54735
 245  213.3542
 246  209.6616
 247  65.61425
 248  66.68935
 249  142.303
 250  142.9285
 251  136.6983
 252  -15.27888
 253  87.82182
 254  114.1118
 255  186.6322
 256  230.9799
 257  108.4427
 258  239.6145
 259  238.8138
 260  114.069
 261  -72.38236
 262  72.72811
 263  291.3686
 264  210.7372
 265  100.0562
 266  126.1746
 267  194.5005
 268  259.3457
 269  379.9761
 270  194.833
 271  182.6122
 272  79.51803
 273  205.3845
 274  271.3943
 275  229.9725
 276  220.9428
 277  167.2042
 278  71.04932
 279  214.7442
 280  240.731
 281  256.6169
 282  251.0868
 283  120.8991
 284  28.0904
 285  -76.98705
 286  -31.60518
 287  72.21657
 288  138.2306
 289  201.4074
 290  112.9189
 291  115.7634
 292  180.2542
 293  236.4142
 294  123.7088
 295  122.2629
 296  149.7589
 297  287.3293
 298  248.3418
 299  156.4538
 300  157.9197
 301  169.6197
 302  55.66953
 303  19.76861
 304  86.83659
 305  124.3316
 306  194.8017
 307  244.1805
 308  211.9381
 309  175.6807
 310  114.8632
 311  194.5366
 312  217.3195
 313  62.0707
 314  76.99589
 315  136.7703
 316  177.2557
 317  96.09252
 318  51.36841
 319  64.88256
 320  97.19008
 321  154.5564
 322  182.774
 323  129.0006
 324  147.8343
 325  219.2884
 326  133.0338
 327  160.1913
 328  20.78449
 329  152.0806
 330  216.3561
 331  136.0853
 332  317.5751
 333  353.0288
 334  159.9141
 335  29.35626
 336  87.06644
 337  177.4043
 338  275.8841
 339  229.2846
 340  219.1081
 341  206.593
 342  80.97537
 343  60.46722
 344  139.0125
 345  48.79925
 346  84.12747
 347  175.2535
 348  253.6921
 349  192.0854
 350  224.13
 351  260.3616
 352  264.4805
 353  192.4312
 354  189.7821
 355  200.4184
 356  119.0422
 357  143.4964
 358  118.465
 359  203.4046
 360  249.5367
 361  138.4559
 362  151.7363
 363  196.5317
 364  228.2012
 365  137.5052
 366  97.73367
 367  0.5597063
 368  1.255433
 369  108.9302
 370  31.43697
 371  19.72029
 372  30.5073
 373  -16.17771
 374  25.14487
 375  105.1795
 376  52.04272
 377  9.286596
 378  -8.001253
 379  76.19936
 380  133.7826
 381  69.96299
 382  176.8734
 383  185.2422
 384  195.4778
 385  258.2594
 386  216.4531
 387  238.3876
 388  242.2144
 389  265.2268
 390  194.7858
 391  158.5563
 392  149.045
 393  56.07693
 394  113.7525
 395  184.2464
 396  170.7154
 397  176.322
 398  95.72827
 399  110.4054
 400  123.6544
 401  116.1359
 402  49.93135
 403  119.591
 404  127.3398
 405  209.4282
 406  47.17263
 407  160.1602
 408  248.1214
 409  173.7382
 410  109.5063
 411  109.6827
 412  103.1892
 413  30.58847
 414  43.90324
 415  83.52053
 416  44.37318
 417  80.39073
 418  301.9563
 419  215.1182
 420  124.5449
 421  145.6391
 422  199.2454
 423  148.6927
 424  189.1612
 425  315.8477
 426  383.4552
 427  351.4175
 428  234.4274
 429  136.9391
 430  166.3095
 431  155.1771
 432  189.1514
 433  222.0853
 434  269.1346
 435  164.0958
 436  75.84788
 437  123.2524
 438  139.9277
 439  154.6989
 440  166.9834
 441  198.0429
 442  180.8269
 443  180.8721
 444  249.0753
 445  101.7984
 446  278.7034
 447  360.1329
 448  151.5299
 449  107.8343
 450  252.3677
 451  250.7958
 452  205.1024
 453  264.8318
 454  167.4245
 455  138.0479
 456  219.7596
 457  221.4837
 458  192.7251
 459  23.15357
 460  43.12516
 461  121.4256
 462  257.0583
 463  116.3211
 464  -4.466245
 465  34.09356
 466  10.67695
 467  -48.23
 468  137.5802
 469  110.3233
 470  33.42927
 471  58.59906
 472  59.12783
 473  157.3387
 474  216.7641
 475  191.8085
 476  159.7329
 477  93.78587
 478  -29.81638
 479  115.1076
 480  141.8383
 481  236.2509
 482  249.6446
 483  219.0541
 484  218.4049
 485  196.4849
 486  280.6577
 487  317.6554
 488  156.6781
 489  149.2463
 490  134.1091
 491  206.2597
 492  181.0017
 493  81.15773
 494  227.0115
 495  216.5972
 496  261.8943
 497  47.82233
 498  29.06884
 499  26.76439
 500  160.2667
 501  261.9843
 502  294.9515
 503  262.4103
 504  205.3965
 505  242.9413
 506  218.046
 507  304.2789
 508  380.2288
 509  460.961
 510  658.6282
 511  768.8027
