# Input file       =  1205080843.115398_cleaned.dat
# Candidate        =  PSR_0332+5434
# Telescope        =  AR
# Epoch_topo       =  58191.694735131918
# Epoch_bary       =  N/A
# T_sample         =  0.002
# Data Folded      =  7340032
# Data Avg         =  0.0308709098847577
# Data StdDev      =  1.00006285134942 
# Profile Bins     =  512
# Profile Avg      =  442.568940397345 
# Profile StdDev   =  119.740561759672 
# Reduced chi-sqr  =  1.742
# Prob(Noise)      <  5.75e-23   (~9.8 sigma)
# P_topo (ms)      =  714.578030216412  +/- 0.000475
# P'_topo (s/s)    =  -0                +/- 2.5e-10
# P''_topo (s/s^2) =  0                 +/- 1.11e-13
# P_bary (ms)      =  N/A
# P'_bary (s/s)    =  N/A
# P''_bary (s/s^2) =  N/A
# P_orb (s)        =  N/A
# asin(i)/c (s)    =  N/A
# eccentricity     =  N/A
# w (rad)          =  N/A
# T_peri           =  N/A
######################################################
   0  1259.018
   1  1080.915
   2  895.0943
   3  734.3771
   4  584.7672
   5  525.3156
   6  404.8186
   7  405.1287
   8  423.7277
   9  516.1887
  10  682.6349
  11  588.166
  12  608.451
  13  603.9379
  14  568.1886
  15  548.9473
  16  455.5166
  17  397.8922
  18  385.371
  19  389.1968
  20  448.9861
  21  647.5592
  22  495.4885
  23  454.3034
  24  547.5784
  25  509.092
  26  545.577
  27  545.9249
  28  456.7312
  29  321.1574
  30  344.2785
  31  414.8091
  32  386.3006
  33  477.4538
  34  457.9591
  35  573.8326
  36  413.7431
  37  347.7995
  38  398.1574
  39  435.2317
  40  508.235
  41  513.2493
  42  500.0096
  43  501.978
  44  490.3602
  45  452.5359
  46  452.025
  47  472.0903
  48  492.6989
  49  456.1714
  50  390.2397
  51  415.67
  52  545.1909
  53  575.2164
  54  493.268
  55  523.3344
  56  499.3747
  57  496.58
  58  586.6063
  59  520.9343
  60  558.6993
  61  495.0554
  62  528.3409
  63  569.7302
  64  499.8393
  65  532.02
  66  528.6309
  67  520.0192
  68  630.3444
  69  632.7047
  70  513.1634
  71  523.3669
  72  480.0477
  73  470.7101
  74  505.525
  75  551.2857
  76  569.6754
  77  494.0859
  78  470.551
  79  454.0442
  80  448.459
  81  451.7052
  82  567.2855
  83  545.0154
  84  478.2599
  85  503.348
  86  589.8392
  87  507.7896
  88  507.4203
  89  536.5117
  90  448.1183
  91  453.9897
  92  484.8833
  93  445.3245
  94  443.7437
  95  463.9525
  96  491.5649
  97  517.9534
  98  458.4072
  99  470.5504
 100  420.6869
 101  414.4299
 102  476.4247
 103  436.8901
 104  463.3679
 105  523.27
 106  527.3882
 107  482.5165
 108  467.9581
 109  474.3902
 110  435.0815
 111  511.4919
 112  574.3153
 113  418.6915
 114  440.5298
 115  453.2164
 116  437.3783
 117  492.0398
 118  437.2404
 119  406.1451
 120  511.4723
 121  501.9515
 122  421.4831
 123  413.8327
 124  528.8126
 125  530.2202
 126  513.0981
 127  453.7261
 128  432.569
 129  374.7393
 130  409.1001
 131  431.7953
 132  441.8289
 133  464.7758
 134  490.1723
 135  488.5181
 136  382.1774
 137  317.0361
 138  302.9583
 139  352.8066
 140  318.8362
 141  372.8562
 142  418.1798
 143  506.3288
 144  620.9062
 145  518.4876
 146  424.6229
 147  320.5569
 148  353.5356
 149  391.5572
 150  446.0884
 151  542.6414
 152  446.4026
 153  409.473
 154  458.9331
 155  465.8409
 156  401.0763
 157  361.2339
 158  375.4619
 159  423.4723
 160  489.6072
 161  495.4609
 162  389.1845
 163  479.8976
 164  420.0461
 165  355.5093
 166  452.8142
 167  432.2367
 168  559.2269
 169  520.4556
 170  577.8063
 171  545.3182
 172  496.125
 173  680.8804
 174  650.7412
 175  580.0186
 176  519.6363
 177  562.5005
 178  423.8746
 179  406.3073
 180  497.9363
 181  551.0791
 182  552.8092
 183  380.084
 184  396.0498
 185  309.8999
 186  302.2433
 187  312.3697
 188  437.8853
 189  445.3976
 190  461.7844
 191  415.0916
 192  358.3805
 193  434.6249
 194  629.24
 195  528.2807
 196  448.2036
 197  480.1187
 198  543.4417
 199  532.53
 200  497.3217
 201  453.2173
 202  499.4233
 203  502.9226
 204  525.4979
 205  481.7076
 206  495.3678
 207  503.4628
 208  512.1044
 209  443.5276
 210  509.3381
 211  519.9457
 212  486.318
 213  348.2686
 214  394.2854
 215  426.4659
 216  443.7045
 217  355.7878
 218  279.1198
 219  465.122
 220  441.2307
 221  370.0209
 222  399.3318
 223  331.5145
 224  417.2275
 225  487.3718
 226  370.6913
 227  212.0646
 228  272.7961
 229  278.881
 230  444.262
 231  399.6498
 232  461.8847
 233  454.1648
 234  416.9444
 235  429.2129
 236  445.1202
 237  531.0026
 238  472.9832
 239  451.2497
 240  457.3943
 241  529.7153
 242  460.4681
 243  389.6184
 244  391.4021
 245  492.9213
 246  457.888
 247  501.3223
 248  471.3281
 249  493.6185
 250  537.6003
 251  503.4168
 252  360.5719
 253  314.8434
 254  388.1581
 255  382.992
 256  412.0986
 257  536.4652
 258  439.5846
 259  414.4538
 260  523.3001
 261  448.9404
 262  487.8524
 263  453.7405
 264  378.8229
 265  341.6886
 266  322.8357
 267  367.7021
 268  336.5167
 269  407.3786
 270  506.6702
 271  329.9262
 272  367.4703
 273  433.1204
 274  354.0006
 275  407.3888
 276  417.4542
 277  391.3128
 278  402.4908
 279  386.6581
 280  314.8862
 281  267.7912
 282  291.8287
 283  347.3357
 284  424.6004
 285  355.7709
 286  407.3925
 287  413.9369
 288  440.9867
 289  446.2837
 290  384.3825
 291  353.2739
 292  367.7151
 293  345.1426
 294  359.9671
 295  345.0585
 296  375.7866
 297  332.6846
 298  364.2281
 299  399.438
 300  370.7154
 301  358.3682
 302  391.575
 303  344.5881
 304  344.2607
 305  318.7814
 306  259.9901
 307  269.6269
 308  220.7743
 309  208.2934
 310  273.8705
 311  452.6009
 312  453.7759
 313  328.0385
 314  294.531
 315  280.2626
 316  204.2212
 317  224.8311
 318  387.6257
 319  345.3378
 320  468.8582
 321  381.1791
 322  294.5381
 323  415.0693
 324  457.0616
 325  401.2811
 326  326.4424
 327  390.0263
 328  530.1928
 329  405.4826
 330  376.9059
 331  460.5868
 332  334.8824
 333  399.2855
 334  279.6724
 335  390.159
 336  516.173
 337  366.949
 338  300.2302
 339  439.8329
 340  271.591
 341  291.6004
 342  386.1432
 343  409.804
 344  372.0412
 345  367.4779
 346  472.8059
 347  511.9345
 348  446.7072
 349  440.4062
 350  450.3898
 351  467.7603
 352  446.3742
 353  406.9718
 354  387.5782
 355  507.5094
 356  416.3362
 357  420.8404
 358  358.4734
 359  296.1387
 360  371.5937
 361  406.2513
 362  327.3698
 363  360.6191
 364  356.6422
 365  341.3556
 366  438.0299
 367  316.799
 368  336.2325
 369  371.3375
 370  335.5019
 371  441.5369
 372  463.9539
 373  297.4626
 374  212.7444
 375  238.4012
 376  358.1224
 377  451.6242
 378  342.1411
 379  209.7964
 380  265.4845
 381  374.1697
 382  250.3057
 383  345.454
 384  395.7808
 385  488.3591
 386  427.5182
 387  427.0524
 388  269.5995
 389  329.8056
 390  333.2307
 391  352.0977
 392  345.8149
 393  417.1025
 394  389.5183
 395  412.1248
 396  370.3987
 397  349.5242
 398  327.7672
 399  446.0858
 400  361.6131
 401  353.384
 402  454.1084
 403  434.4755
 404  339.4272
 405  264.9792
 406  290.9968
 407  263.3845
 408  351.4846
 409  313.0381
 410  280.5697
 411  270.5214
 412  311.957
 413  417.2245
 414  288.6073
 415  294.6908
 416  235.9521
 417  233.0868
 418  286.4686
 419  447.9034
 420  429.0324
 421  383.0999
 422  328.1436
 423  362.651
 424  358.4733
 425  372.3875
 426  351.9981
 427  439.0945
 428  407.0758
 429  409.1104
 430  489.2859
 431  417.3615
 432  424.2531
 433  399.1106
 434  351.6956
 435  335.2593
 436  427.1474
 437  331.8647
 438  325.3642
 439  331.5377
 440  370.5723
 441  315.2105
 442  494.8666
 443  416.3806
 444  408.7163
 445  336.7656
 446  334.9393
 447  350.3192
 448  211.7205
 449  423.5475
 450  497.3668
 451  575.5565
 452  495.3335
 453  500.1518
 454  417.875
 455  351.0104
 456  431.2126
 457  444.2508
 458  481.9891
 459  475.285
 460  549.2114
 461  569.4859
 462  483.63
 463  467.5453
 464  425.5446
 465  477.9148
 466  500.8458
 467  556.327
 468  454.585
 469  466.0569
 470  491.2673
 471  512.3369
 472  472.4982
 473  466.303
 474  502.8329
 475  530.4406
 476  564.4818
 477  580.4301
 478  570.5828
 479  462.0862
 480  396.7307
 481  521.7751
 482  473.0515
 483  374.8215
 484  484.9296
 485  579.0363
 486  498.2038
 487  497.0982
 488  576.3679
 489  539.4518
 490  538.2225
 491  528.8073
 492  460.5741
 493  546.7784
 494  565.0074
 495  513.455
 496  444.6001
 497  461.419
 498  505.6177
 499  534.8397
 500  428.3957
 501  435.8288
 502  405.7331
 503  579.4114
 504  659.5427
 505  601.5292
 506  666.3741
 507  802.2677
 508  728.105
 509  959.2249
 510  1118.971
 511  1107.764
