# Input file       =  1205051296.112978_cleaned.dat
# Candidate        =  PSR_0332+5434
# Telescope        =  AR
# Epoch_topo       =  58191.352755937245
# Epoch_bary       =  N/A
# T_sample         =  0.002
# Data Folded      =  7208960
# Data Avg         =  -0.0175396874266747
# Data StdDev      =  1.0000807890251  
# Profile Bins     =  512
# Profile Avg      =  -246.980611725123
# Profile StdDev   =  118.668762152662 
# Reduced chi-sqr  =  1.392
# Prob(Noise)      <  1e-08   (~5.6 sigma)
# P_topo (ms)      =  714.577796679276  +/- 0.000222
# P'_topo (s/s)    =  -0                +/- 1.19e-10
# P''_topo (s/s^2) =  0                 +/- 5.36e-14
# P_bary (ms)      =  N/A
# P'_bary (s/s)    =  N/A
# P''_bary (s/s^2) =  N/A
# P_orb (s)        =  N/A
# asin(i)/c (s)    =  N/A
# eccentricity     =  N/A
# w (rad)          =  N/A
# T_peri           =  N/A
######################################################
   0  299.3631
   1  181.0837
   2  88.66552
   3  -133.3791
   4  -229.6155
   5  -163.5296
   6  -184.4367
   7  -257.3578
   8  -215.0359
   9  -54.60033
  10  -154.4877
  11  -173.9099
  12  -237.8384
  13  -112.735
  14  -56.84324
  15  -69.2492
  16  -163.638
  17  -217.618
  18  -213.8959
  19  -230.3747
  20  -215.8873
  21  -149.8697
  22  -74.55566
  23  -104.1523
  24  -218.5904
  25  -282.2363
  26  -201.3314
  27  -202.1653
  28  -116.2227
  29  -174.8551
  30  -216.6614
  31  -243.5257
  32  -222.4035
  33  -237.5933
  34  -225.1233
  35  -213.4871
  36  -155.7059
  37  -168.4256
  38  -156.6156
  39  -146.0444
  40  -139.1767
  41  -129.944
  42  -103.003
  43  -102.0142
  44  -113.1446
  45  -173.2487
  46  -306.7841
  47  -339.6026
  48  -222.7319
  49  -168.5751
  50  -232.8144
  51  -243.4816
  52  -227.1609
  53  -230.3752
  54  -255.8748
  55  -204.3153
  56  -144.1054
  57  -158.9886
  58  -157.4846
  59  -156.1486
  60  -160.1741
  61  -159.8557
  62  -183.7123
  63  -115.7006
  64  -132.875
  65  -98.38306
  66  -150.3262
  67  -210.7042
  68  -288.3569
  69  -170.3866
  70  -148.1868
  71  -166.4296
  72  -227.8014
  73  -205.9173
  74  -281.6223
  75  -317.3674
  76  -203.0776
  77  -199.7045
  78  -187.3355
  79  -177.3358
  80  -269.3817
  81  -247.966
  82  -229.4119
  83  -248.6499
  84  -230.2494
  85  -361.6602
  86  -264.2416
  87  -235.6139
  88  -266.5053
  89  -266.825
  90  -90.53734
  91  -162.9497
  92  -223.0655
  93  -238.7799
  94  -202.5955
  95  -194.6951
  96  -208.4379
  97  -166.7936
  98  -131.1965
  99  -114.5559
 100  -110.7956
 101  -218.548
 102  -260.8905
 103  -300.4202
 104  -239.3272
 105  -216.4077
 106  -107.7759
 107  -159.2008
 108  -155.0835
 109  -146.9293
 110  -112.1737
 111  -175.6361
 112  -163.8156
 113  -148.1511
 114  -79.81128
 115  -145.8884
 116  -172.5069
 117  -118.793
 118  -211.8597
 119  -268.5741
 120  -323.3217
 121  -259.0046
 122  -236.5143
 123  -300.9158
 124  -278.5424
 125  -192.1554
 126  -251.6225
 127  -220.502
 128  -268.2718
 129  -300.8676
 130  -338.4038
 131  -449.0262
 132  -333.9548
 133  -287.2607
 134  -356.2615
 135  -356.7207
 136  -350.5056
 137  -253.2215
 138  -292.0522
 139  -286.3556
 140  -313.2347
 141  -403.368
 142  -356.2528
 143  -338.4708
 144  -332.5782
 145  -264.1879
 146  -201.7789
 147  -229.5871
 148  -331.0507
 149  -373.5005
 150  -352.012
 151  -365.9807
 152  -287.8667
 153  -200.2082
 154  -155.6854
 155  -169.4966
 156  -179.0435
 157  -310.7895
 158  -309.2065
 159  -311.3261
 160  -212.9741
 161  -170.4712
 162  -176.3648
 163  -160.0661
 164  -176.4762
 165  -277.2359
 166  -372.576
 167  -339.8734
 168  -356.9321
 169  -360.4469
 170  -349.6544
 171  -320.2251
 172  -123.6231
 173  -176.0016
 174  -308.3569
 175  -308.7539
 176  -289.2419
 177  -257.4059
 178  -295.4331
 179  -236.8202
 180  -195.3681
 181  -272.9046
 182  -242.7082
 183  -318.7435
 184  -303.4025
 185  -192.0889
 186  -190.7166
 187  -272.8866
 188  -261.274
 189  -267.1663
 190  -268.9036
 191  -281.0165
 192  -306.345
 193  -298.131
 194  -313.1076
 195  -358.3532
 196  -368.3664
 197  -362.9156
 198  -348.8573
 199  -355.7924
 200  -420.4804
 201  -305.2513
 202  -288.4059
 203  -330.3367
 204  -297.532
 205  -272.7241
 206  -375.3611
 207  -289.4977
 208  -267.5034
 209  -311.4206
 210  -310.7875
 211  -309.4862
 212  -374.0594
 213  -281.5509
 214  -355.3318
 215  -337.3657
 216  -421.5909
 217  -417.1271
 218  -362.0981
 219  -238.7323
 220  -229.5721
 221  -285.5068
 222  -280.1779
 223  -477.1837
 224  -523.2128
 225  -412.9767
 226  -292.0763
 227  -252.6178
 228  -264.9923
 229  -298.9032
 230  -435.3398
 231  -341.502
 232  -300.9637
 233  -319.2491
 234  -320.8016
 235  -335.8728
 236  -352.9724
 237  -291.6454
 238  -314.74
 239  -341.2164
 240  -446.6676
 241  -400.8982
 242  -271.1299
 243  -279.9116
 244  -313.8865
 245  -377.8392
 246  -342.4399
 247  -402.3934
 248  -300.8927
 249  -222.3915
 250  -296.4395
 251  -373.4061
 252  -357.2279
 253  -369.3553
 254  -311.7737
 255  -237.7116
 256  -350.4724
 257  -387.7012
 258  -395.6169
 259  -385.5447
 260  -334.19
 261  -297.592
 262  -340.4167
 263  -337.8351
 264  -415.5148
 265  -390.6716
 266  -403.9828
 267  -415.9893
 268  -447.0577
 269  -470.4945
 270  -461.6161
 271  -413.6966
 272  -331.054
 273  -331.6125
 274  -443.8796
 275  -394.8173
 276  -431.5633
 277  -423.9181
 278  -319.0305
 279  -344.8538
 280  -401.1978
 281  -329.2232
 282  -369.4133
 283  -419.3562
 284  -352.6397
 285  -391.5411
 286  -428.2007
 287  -449.5781
 288  -330.9635
 289  -298.1624
 290  -328.5849
 291  -363.877
 292  -302.2001
 293  -311.2333
 294  -395.5303
 295  -376.2006
 296  -338.4086
 297  -331.8727
 298  -404.604
 299  -434.5353
 300  -347.2511
 301  -337.8617
 302  -330.2371
 303  -357.9477
 304  -376.4947
 305  -353.4395
 306  -312.0909
 307  -271.9236
 308  -275.8799
 309  -289.3538
 310  -252.0471
 311  -286.8275
 312  -336.89
 313  -282.539
 314  -298.7458
 315  -341.3434
 316  -361.09
 317  -362.4304
 318  -247.997
 319  -247.0531
 320  -276.7913
 321  -340.9761
 322  -392.272
 323  -312.9182
 324  -315.8623
 325  -210.1718
 326  -154.8123
 327  -183.8348
 328  -207.2684
 329  -325.5957
 330  -258.3087
 331  -236.4373
 332  -212.3942
 333  -298.7206
 334  -205.6505
 335  -166.6881
 336  -268.049
 337  -290.0245
 338  -208.1488
 339  -134.5983
 340  -260.5364
 341  -203.0971
 342  -153.2204
 343  -159.298
 344  -97.76142
 345  -181.2214
 346  -184.3366
 347  -181.5912
 348  -292.7346
 349  -285.419
 350  -275.272
 351  -153.5704
 352  -182.0795
 353  -153.3733
 354  -177.8906
 355  -293.6368
 356  -329.6193
 357  -264.4885
 358  -233.608
 359  -286.452
 360  -363.7393
 361  -205.8305
 362  -208.7695
 363  -191.9977
 364  -218.8131
 365  -276.4549
 366  -243.3467
 367  -189.833
 368  -256.8119
 369  -318.6508
 370  -255.8108
 371  -308.2472
 372  -263.3123
 373  -291.0711
 374  -198.1
 375  -175.6027
 376  -180.9205
 377  -256.5309
 378  -365.847
 379  -359.9962
 380  -254.3651
 381  -255.3691
 382  -244.9292
 383  -203.2908
 384  -233.8437
 385  -298.6279
 386  -323.5079
 387  -280.0894
 388  -217.6031
 389  -238.2686
 390  -240.1667
 391  -267.4575
 392  -285.3574
 393  -309.6662
 394  -257.2909
 395  -325.673
 396  -343.4348
 397  -323.0694
 398  -273.9304
 399  -240.5939
 400  -244.2051
 401  -267.9737
 402  -270.8059
 403  -281.7404
 404  -275.3014
 405  -264.4606
 406  -314.2738
 407  -271.4772
 408  -230.6828
 409  -254.1921
 410  -349.998
 411  -253.5262
 412  -257.1407
 413  -390.4868
 414  -411.2851
 415  -352.533
 416  -359.571
 417  -269.6362
 418  -161.8672
 419  -249.0257
 420  -325.6366
 421  -248.6837
 422  -289.3263
 423  -238.0854
 424  -268.7875
 425  -298.1852
 426  -293.4885
 427  -272.8416
 428  -223.8896
 429  -187.1803
 430  -187.2516
 431  -237.9199
 432  -265.6887
 433  -263.8315
 434  -284.5119
 435  -219.3233
 436  -113.0588
 437  -88.47928
 438  -62.52892
 439  -46.53226
 440  -147.8517
 441  -196.8442
 442  -271.2108
 443  -264.4762
 444  -272.8436
 445  -168.9985
 446  -196.6951
 447  -288.5992
 448  -254.497
 449  -244.6034
 450  -339.4788
 451  -169.6461
 452  -106.1797
 453  -96.24237
 454  -83.25375
 455  -145.412
 456  -98.76717
 457  -175.5952
 458  -83.50986
 459  -133.6735
 460  -193.521
 461  -168.4783
 462  -139.6037
 463  -68.2318
 464  -192.5214
 465  -270.2629
 466  -123.3712
 467  -73.40814
 468  -40.5705
 469  -115.5982
 470  -176.8741
 471  -204.6807
 472  -219.859
 473  -41.20956
 474  16.53374
 475  -37.42495
 476  -106.8231
 477  -167.3605
 478  -177.0778
 479  -262.2784
 480  -181.0369
 481  -158.8573
 482  -183.9043
 483  -148.5103
 484  -135.269
 485  -189.5508
 486  -202.422
 487  -174.8681
 488  -158.7184
 489  -175.4532
 490  -102.4401
 491  -192.0251
 492  -124.0105
 493  -116.6761
 494  -127.7907
 495  -145.9389
 496  -160.9807
 497  -230.8385
 498  -258.0405
 499  -202.5818
 500  -204.1787
 501  -170.6464
 502  -134.0969
 503  -138.2415
 504  -145.0234
 505  -105.3486
 506  -121.2142
 507  -63.60605
 508  -82.64052
 509  -88.01954
 510  91.09473
 511  312.4417
