# Input file       =  1206201210.122017_cleaned.dat
# Candidate        =  PSR_0332+5434
# Telescope        =  AR
# Epoch_topo       =  58204.661945856678
# Epoch_bary       =  N/A
# T_sample         =  0.002
# Data Folded      =  7340032
# Data Avg         =  0.0282046564489668
# Data StdDev      =  1.00008742218944 
# Profile Bins     =  512
# Profile Avg      =  404.31824551845  
# Profile StdDev   =  119.743503700955 
# Reduced chi-sqr  =  1.317
# Prob(Noise)      <  1.78e-06   (~4.6 sigma)
# P_topo (ms)      =  714.572421341777  +/- 0.00037
# P'_topo (s/s)    =  -0                +/- 1.95e-10
# P''_topo (s/s^2) =  0                 +/- 8.62e-14
# P_bary (ms)      =  N/A
# P'_bary (s/s)    =  N/A
# P''_bary (s/s^2) =  N/A
# P_orb (s)        =  N/A
# asin(i)/c (s)    =  N/A
# eccentricity     =  N/A
# w (rad)          =  N/A
# T_peri           =  N/A
######################################################
   0  1140.059
   1  914.1982
   2  742.2941
   3  556.0936
   4  443.7639
   5  392.9117
   6  289.274
   7  347.2643
   8  549.5526
   9  544.7544
  10  434.8908
  11  394.5904
  12  411.9469
  13  499.372
  14  510.6354
  15  559.1261
  16  498.2962
  17  330.8857
  18  392.3897
  19  426.1432
  20  409.5642
  21  361.5349
  22  420.8775
  23  512.2837
  24  504.3987
  25  437.6103
  26  444.0547
  27  529.9166
  28  518.7451
  29  457.2994
  30  395.9426
  31  471.0648
  32  453.0206
  33  441.0298
  34  343.8116
  35  541.2067
  36  521.7206
  37  395.2411
  38  411.9053
  39  463.492
  40  369.6213
  41  401.3258
  42  394.7407
  43  374.5812
  44  434.9429
  45  298.9094
  46  361.1061
  47  368.0728
  48  456.3929
  49  406.9431
  50  407.786
  51  416.5111
  52  460.0386
  53  444.7799
  54  506.1923
  55  418.2877
  56  416.0262
  57  438.9329
  58  410.5786
  59  389.4328
  60  459.3195
  61  507.124
  62  441.2137
  63  305.7023
  64  299.9622
  65  381.6957
  66  389.6609
  67  366.5373
  68  385.5516
  69  412.6719
  70  342.7522
  71  392.222
  72  476.2639
  73  507.3418
  74  247.0279
  75  273.2023
  76  446.9115
  77  390.8972
  78  359.4753
  79  359.5593
  80  444.1871
  81  397.5666
  82  398.2466
  83  364.0032
  84  398.1141
  85  351.3932
  86  312.6816
  87  391.0653
  88  417.6522
  89  434.702
  90  380.936
  91  441.72
  92  377.0754
  93  452.7925
  94  426.5275
  95  457.0688
  96  440.42
  97  496.1529
  98  491.9802
  99  600.1398
 100  560.9931
 101  471.2719
 102  458.7501
 103  406.2571
 104  331.9225
 105  341.5615
 106  353.3255
 107  330.1453
 108  329.0169
 109  389.5341
 110  312.4678
 111  352.9506
 112  449.3177
 113  450.5682
 114  419.5457
 115  385.0191
 116  462.2116
 117  441.391
 118  413.1516
 119  409.065
 120  460.9789
 121  448.8077
 122  304.7619
 123  262.5057
 124  359.3499
 125  366.7989
 126  254.2638
 127  244.9022
 128  365.808
 129  251.3885
 130  253.8043
 131  256.226
 132  288.4363
 133  378.849
 134  374.8818
 135  341.1353
 136  311.4233
 137  340.2046
 138  351.9595
 139  436.4898
 140  365.1012
 141  319.9282
 142  341.2581
 143  273.1955
 144  287.2284
 145  311.2438
 146  475.3657
 147  323.1072
 148  340.9526
 149  386.3932
 150  472.3777
 151  423.9153
 152  402.9086
 153  368.6102
 154  297.1983
 155  287.8092
 156  324.478
 157  368.2821
 158  361.2612
 159  486.6946
 160  398.0148
 161  293.6953
 162  385.6925
 163  295.2284
 164  291.6479
 165  261.2331
 166  234.7556
 167  336.1663
 168  327.9073
 169  360.4225
 170  383.9575
 171  480.1012
 172  363.0285
 173  239.6958
 174  247.2919
 175  294.4855
 176  393.5815
 177  492.951
 178  422.8222
 179  336.2616
 180  355.5342
 181  298.6615
 182  190.2887
 183  339.5723
 184  349.7635
 185  326.9951
 186  308.4084
 187  256.4908
 188  296.0018
 189  317.3881
 190  292.7045
 191  214.0096
 192  314.4381
 193  361.062
 194  349.6323
 195  413.1313
 196  407.2497
 197  186.2528
 198  120.9419
 199  280.5585
 200  472.4998
 201  372.9893
 202  269.8169
 203  315.841
 204  307.7039
 205  358.0624
 206  314.4111
 207  426.1466
 208  339.5417
 209  350.7084
 210  398.3468
 211  324.6558
 212  299.9565
 213  324.2033
 214  320.7135
 215  371.7804
 216  429.0408
 217  442.2409
 218  439.9033
 219  355.5181
 220  385.3783
 221  320.8554
 222  287.6071
 223  377.8023
 224  362.9193
 225  259.5705
 226  381.5515
 227  353.5501
 228  296.3397
 229  353.072
 230  322.1219
 231  390.8606
 232  370.0202
 233  482.692
 234  620.3868
 235  492.6595
 236  409.6256
 237  516.8389
 238  515.9335
 239  456.9137
 240  430.8314
 241  465.6872
 242  506.8865
 243  468.737
 244  439.4803
 245  523.4848
 246  446.2655
 247  475.6819
 248  380.293
 249  315.7878
 250  330.7066
 251  312.5536
 252  391.1058
 253  543.854
 254  528.2761
 255  421.6717
 256  379.0746
 257  418.0252
 258  392.1376
 259  379.5349
 260  396.1318
 261  359.175
 262  369.8861
 263  444.9725
 264  443.5206
 265  331.7157
 266  391.5937
 267  480.3594
 268  504.5812
 269  414.2941
 270  336.0841
 271  306.2675
 272  328.1871
 273  463.255
 274  522.0872
 275  369.3979
 276  436.3604
 277  486.4832
 278  452.8766
 279  498.0781
 280  444.5044
 281  411.6974
 282  436.0818
 283  424.1505
 284  405.0559
 285  476.8914
 286  513.1675
 287  474.2132
 288  363.4675
 289  466.4307
 290  457.2089
 291  442.1194
 292  460.0337
 293  466.1716
 294  381.5894
 295  404.1361
 296  337.9467
 297  394.5763
 298  507.4557
 299  549.1805
 300  390.3726
 301  408.5608
 302  437.9153
 303  456.2012
 304  486.9921
 305  478.2897
 306  399.8664
 307  378.4796
 308  306.1342
 309  389.0709
 310  350.6353
 311  366.8337
 312  462.0424
 313  413.6075
 314  415.041
 315  452.2279
 316  469.7943
 317  471.4388
 318  462.2787
 319  363.3493
 320  462.5449
 321  464.6928
 322  444.8198
 323  464.9978
 324  445.1222
 325  492.9412
 326  390.7923
 327  381.8162
 328  424.2853
 329  371.144
 330  420.6401
 331  504.9552
 332  432.9445
 333  317.0338
 334  260.9292
 335  273.1073
 336  275.6707
 337  307.6768
 338  454.6333
 339  451.1045
 340  422.1136
 341  474.1587
 342  451.2094
 343  466.1136
 344  426.7018
 345  338.5977
 346  372.5757
 347  284.2117
 348  343.0336
 349  327.295
 350  321.9326
 351  487.5669
 352  516.3656
 353  467.7019
 354  367.5365
 355  387.8503
 356  482.5555
 357  514.9749
 358  491.6217
 359  471.2542
 360  493.1294
 361  431.2379
 362  377.8997
 363  364.7034
 364  408.606
 365  504.7625
 366  524.5049
 367  504.2693
 368  387.3246
 369  267.5858
 370  378.2668
 371  510.0622
 372  530.2485
 373  409.9152
 374  406.2753
 375  435.6104
 376  653.5566
 377  633.3179
 378  497.0936
 379  485.7637
 380  502.3652
 381  547.7346
 382  520.9885
 383  437.3477
 384  579.6009
 385  562.0053
 386  418.7323
 387  309.7377
 388  470.8336
 389  509.8889
 390  543.1356
 391  462.6749
 392  311.5125
 393  449.8102
 394  494.7343
 395  409.4153
 396  374.7296
 397  442.7329
 398  374.8801
 399  315.4977
 400  347.8315
 401  353.195
 402  373.1714
 403  308.953
 404  374.2108
 405  371.453
 406  469.9952
 407  405.4204
 408  343.8308
 409  378.0172
 410  418.5524
 411  386.937
 412  303.701
 413  395.693
 414  396.4741
 415  426.8408
 416  320.0928
 417  357.2736
 418  401.8267
 419  434.9891
 420  341.9804
 421  332.6591
 422  268.4536
 423  430.5589
 424  349.7212
 425  276.1476
 426  362.5551
 427  407.2673
 428  328.3593
 429  313.5814
 430  316.7083
 431  314.6341
 432  388.0879
 433  429.6232
 434  346.5865
 435  349.6588
 436  427.6542
 437  389.2348
 438  483.1651
 439  529.218
 440  585.5232
 441  568.6761
 442  468.1782
 443  460.8927
 444  460.4076
 445  599.8552
 446  495.2637
 447  505.3474
 448  462.7211
 449  471.123
 450  484.2267
 451  454.9657
 452  429.426
 453  450.3354
 454  477.6044
 455  470.3279
 456  430.2188
 457  346.1104
 458  382.1039
 459  341.3618
 460  381.5425
 461  378.2448
 462  412.8565
 463  420.1255
 464  346.9545
 465  397.0572
 466  424.7064
 467  481.3363
 468  474.9147
 469  485.7905
 470  508.6916
 471  383.9287
 472  432.6554
 473  443.5824
 474  322.3699
 475  236.5338
 476  199.6846
 477  266.8896
 478  297.2895
 479  401.6977
 480  397.7037
 481  297.0029
 482  155.5108
 483  150.3927
 484  274.4219
 485  316.9977
 486  233.0851
 487  363.766
 488  332.9257
 489  285.4451
 490  371.7113
 491  242.1422
 492  229.5322
 493  388.0168
 494  356.5365
 495  381.5606
 496  317.108
 497  244.0031
 498  241.8697
 499  240.1499
 500  282.4356
 501  438.1994
 502  390.0071
 503  358.0777
 504  406.8167
 505  450.3219
 506  446.9838
 507  593.9614
 508  687.1969
 509  751.5724
 510  887.1545
 511  986.7529
