# Input file       =  1206287371.110199_cleaned.dat
# Candidate        =  PSR_0332+5434
# Telescope        =  AR
# Epoch_topo       =  58205.659179516195
# Epoch_bary       =  N/A
# T_sample         =  0.002
# Data Folded      =  7340032
# Data Avg         =  0.0267890450339061
# Data StdDev      =  1.00006967210735 
# Profile Bins     =  512
# Profile Avg      =  384.118377881548 
# Profile StdDev   =  119.74137842973  
# Reduced chi-sqr  =  1.181
# Prob(Noise)      <  0.00289   (~2.8 sigma)
# P_topo (ms)      =  714.571884801126  +/- 0.00021
# P'_topo (s/s)    =  -0                +/- 1.11e-10
# P''_topo (s/s^2) =  0                 +/- 4.89e-14
# P_bary (ms)      =  N/A
# P'_bary (s/s)    =  N/A
# P''_bary (s/s^2) =  N/A
# P_orb (s)        =  N/A
# asin(i)/c (s)    =  N/A
# eccentricity     =  N/A
# w (rad)          =  N/A
# T_peri           =  N/A
######################################################
   0  963.6823
   1  808.1281
   2  519.4133
   3  500.009
   4  368.046
   5  428.9426
   6  394.3825
   7  358.6205
   8  405.0782
   9  498.3735
  10  465.0088
  11  387.9111
  12  362.6598
  13  322.9151
  14  325.9163
  15  355.1112
  16  469.34
  17  435.621
  18  360.2911
  19  384.3114
  20  297.8298
  21  361.4811
  22  239.7326
  23  172.9842
  24  204.4862
  25  229.9786
  26  364.3529
  27  421.4279
  28  249.3827
  29  178.2954
  30  278.1909
  31  368.8516
  32  333.5696
  33  306.3203
  34  336.5602
  35  305.2119
  36  220.7771
  37  194.585
  38  272.047
  39  287.9284
  40  251.6698
  41  237.852
  42  327.3394
  43  432.7349
  44  453.2268
  45  369.4696
  46  422.3524
  47  484.1208
  48  432.0801
  49  378.7671
  50  388.8992
  51  408.6048
  52  264.534
  53  387.7673
  54  422.6143
  55  373.7232
  56  366.0674
  57  402.9504
  58  446.8505
  59  543.277
  60  388.8343
  61  376.0903
  62  332.4085
  63  379.808
  64  398.8192
  65  348.529
  66  252.3127
  67  266.8181
  68  418.8526
  69  328.2608
  70  281.4264
  71  350.033
  72  227.7367
  73  296.8694
  74  378.7194
  75  453.3539
  76  365.6667
  77  232.0249
  78  203.1873
  79  247.7078
  80  341.3748
  81  322.5342
  82  345.9549
  83  351.0662
  84  338.1706
  85  392.9169
  86  318.1812
  87  300.0208
  88  283.2171
  89  349.6159
  90  454.5509
  91  389.2053
  92  359.0359
  93  341.6553
  94  290.2342
  95  388.2733
  96  277.3013
  97  235.0336
  98  333.2502
  99  424.3172
 100  393.2954
 101  489.8062
 102  485.1388
 103  375.4552
 104  349.3647
 105  482.7219
 106  552.3023
 107  374.4292
 108  450.8693
 109  535.6445
 110  465.3972
 111  441.0383
 112  452.7698
 113  480.5593
 114  398.7482
 115  339.1554
 116  487.9157
 117  479.2725
 118  453.4672
 119  425.8654
 120  341.3507
 121  277.7355
 122  382.4201
 123  385.8374
 124  444.5117
 125  432.6532
 126  471.6424
 127  413.5169
 128  414.6334
 129  463.3554
 130  402.4734
 131  445.7442
 132  464.0239
 133  512.2312
 134  538.2241
 135  443.1829
 136  435.2283
 137  364.1128
 138  405.2967
 139  376.059
 140  392.0342
 141  498.2371
 142  381.8401
 143  380.6944
 144  406.9473
 145  397.9711
 146  385.4952
 147  427.4249
 148  384.0669
 149  302.5914
 150  467.2448
 151  448.0827
 152  414.4901
 153  451.7339
 154  288.4009
 155  272.6307
 156  280.0006
 157  387.6996
 158  460.6776
 159  329.1643
 160  277.7039
 161  330.7062
 162  379.0552
 163  362.288
 164  434.0651
 165  365.897
 166  442.2359
 167  470.9178
 168  465.9205
 169  489.7149
 170  511.1673
 171  464.3218
 172  564.5417
 173  456.3286
 174  422.8975
 175  378.3444
 176  369.7353
 177  442.6544
 178  457.8907
 179  421.3493
 180  354.6023
 181  435.8992
 182  451.8437
 183  403.6446
 184  488.179
 185  562.8618
 186  434.2926
 187  472.9028
 188  464.8676
 189  342.4485
 190  393.8758
 191  525.6766
 192  504.6512
 193  407.0391
 194  292.9553
 195  352.0777
 196  335.9823
 197  330.1157
 198  465.5128
 199  500.7381
 200  405.7421
 201  399.9541
 202  389.0381
 203  253.4812
 204  358.1083
 205  503.1221
 206  498.791
 207  412.9054
 208  419.4594
 209  400.2336
 210  461.9219
 211  538.047
 212  373.4066
 213  449.6604
 214  458.1999
 215  334.5133
 216  298.5224
 217  272.7249
 218  343.4337
 219  540.4061
 220  444.4673
 221  287.2378
 222  322.5067
 223  397.3789
 224  306.1922
 225  287.5264
 226  395.9435
 227  302.9379
 228  284.5288
 229  378.3383
 230  494.7454
 231  452.2875
 232  370.7256
 233  381.8871
 234  372.4103
 235  412.7694
 236  411.6758
 237  397.016
 238  333.6027
 239  304.4114
 240  370.7755
 241  421.4222
 242  408.6607
 243  283.7242
 244  245.6286
 245  364.2502
 246  349.4784
 247  360.2872
 248  420.5701
 249  501.1428
 250  532.7211
 251  549.0452
 252  424.0799
 253  371.6393
 254  477.0582
 255  455.2014
 256  512.1639
 257  524.0389
 258  451.0078
 259  393.7727
 260  361.1052
 261  448.8646
 262  433.2917
 263  430.6808
 264  414.5983
 265  421.3629
 266  425.8572
 267  404.3038
 268  396.886
 269  371.1358
 270  414.7844
 271  525.1213
 272  460.5884
 273  284.2155
 274  369.8049
 275  508.2176
 276  457.5759
 277  425.5675
 278  339.3683
 279  505.4525
 280  394.3297
 281  345.3321
 282  396.1588
 283  460.9355
 284  365.0488
 285  326.0091
 286  334.8306
 287  434.1883
 288  507.4972
 289  495.4046
 290  445.6322
 291  381.7094
 292  449.765
 293  440.4794
 294  419.5615
 295  453.8567
 296  484.2089
 297  491.2799
 298  515.735
 299  387.8171
 300  429.9946
 301  360.0046
 302  302.8085
 303  212.0705
 304  354.2133
 305  384.9363
 306  424.302
 307  423.898
 308  456.1907
 309  392.7736
 310  510.6014
 311  433.929
 312  379.3877
 313  371.3483
 314  274.5894
 315  271.7616
 316  416.601
 317  481.1508
 318  358.1683
 319  380.4242
 320  404.5989
 321  422.1528
 322  377.5001
 323  335.9647
 324  257.5355
 325  191.7018
 326  370.6929
 327  541.4184
 328  399.015
 329  314.1233
 330  317.1075
 331  331.7336
 332  412.1107
 333  412.9016
 334  357.1422
 335  343.3145
 336  395.1503
 337  362.5972
 338  465.9861
 339  517.3013
 340  465.3262
 341  358.0881
 342  392.277
 343  395.9728
 344  483.6725
 345  471.8611
 346  389.0219
 347  449.8112
 348  463.4546
 349  443.4479
 350  397.3732
 351  346.4027
 352  496.1989
 353  536.223
 354  478.1175
 355  504.5329
 356  475.2726
 357  493.8715
 358  518.2187
 359  413.8721
 360  375.921
 361  334.0493
 362  447.2307
 363  379.3041
 364  271.3384
 365  277.2274
 366  348.4852
 367  313.4553
 368  352.6284
 369  361.8717
 370  360.9486
 371  503.6743
 372  469.8016
 373  541.7371
 374  499.7893
 375  455.6331
 376  387.5385
 377  401.3515
 378  423.3297
 379  492.2451
 380  622.0023
 381  457.9875
 382  357.3729
 383  461.897
 384  387.2808
 385  426.624
 386  481.5173
 387  540.6439
 388  412.3856
 389  407.1763
 390  436.7585
 391  460.7885
 392  433.0207
 393  465.6714
 394  440.4595
 395  357.8602
 396  241.9939
 397  374.8265
 398  488.2651
 399  414.7167
 400  399.0108
 401  425.6559
 402  315.5984
 403  281.0925
 404  310.3448
 405  356.7661
 406  302.4752
 407  368.2867
 408  354.4258
 409  246.3486
 410  234.3592
 411  392.1238
 412  382.5562
 413  377.399
 414  405.3663
 415  370.1336
 416  330.6076
 417  319.7249
 418  440.0337
 419  330.7491
 420  326.0816
 421  331.5055
 422  251.5634
 423  355.9273
 424  428.3075
 425  283.243
 426  253.1315
 427  402.2313
 428  452.5674
 429  418.3076
 430  371.5475
 431  258.9106
 432  317.2627
 433  387.7615
 434  373.1347
 435  420.1065
 436  441.9591
 437  380.9925
 438  383.2227
 439  453.463
 440  373.3982
 441  171.9872
 442  228.0328
 443  271.5699
 444  406.5871
 445  229.6664
 446  188.6697
 447  400.1754
 448  269.7663
 449  150.8249
 450  310.4263
 451  231.8428
 452  399.1429
 453  381.0076
 454  362.0739
 455  407.3693
 456  364.5757
 457  331.3034
 458  272.1905
 459  278.0145
 460  296.3614
 461  348.0207
 462  317.8949
 463  292.2025
 464  175.7345
 465  106.4217
 466  216.8895
 467  314.3646
 468  200.3439
 469  241.4198
 470  322.2144
 471  316.4721
 472  333.7292
 473  308.3022
 474  348.6318
 475  278.7149
 476  205.34
 477  288.9043
 478  416.5207
 479  424.2181
 480  384.2952
 481  359.0987
 482  263.4021
 483  241.8678
 484  287.5751
 485  431.875
 486  407.8451
 487  331.4533
 488  275.8317
 489  225.1319
 490  242.8985
 491  250.1745
 492  139.7604
 493  193.8712
 494  353.7792
 495  403.335
 496  308.2785
 497  199.8767
 498  275.2262
 499  382.345
 500  329.4087
 501  242.3153
 502  204.4857
 503  267.137
 504  346.8456
 505  256.5535
 506  423.6823
 507  430.0036
 508  355.6294
 509  566.4419
 510  777.9414
 511  901.3105
