# Input file       =  1206028808.107821_cleaned.dat
# Candidate        =  PSR_0332+5434
# Telescope        =  AR
# Epoch_topo       =  58202.666552173854
# Epoch_bary       =  N/A
# T_sample         =  0.002
# Data Folded      =  7340032
# Data Avg         =  0.0306303296365539
# Data StdDev      =  1.00004814754941 
# Profile Bins     =  512
# Profile Avg      =  439.051105254537 
# Profile StdDev   =  119.738801229051 
# Reduced chi-sqr  =  1.380
# Prob(Noise)      <  2.35e-08   (~5.5 sigma)
# P_topo (ms)      =  714.573452539915  +/- 0.000321
# P'_topo (s/s)    =  -0                +/- 1.69e-10
# P''_topo (s/s^2) =  0                 +/- 7.47e-14
# P_bary (ms)      =  N/A
# P'_bary (s/s)    =  N/A
# P''_bary (s/s^2) =  N/A
# P_orb (s)        =  N/A
# asin(i)/c (s)    =  N/A
# eccentricity     =  N/A
# w (rad)          =  N/A
# T_peri           =  N/A
######################################################
   0  1106.775
   1  1093.908
   2  993.3809
   3  674.0272
   4  549.9192
   5  612.5737
   6  540.3552
   7  506.5036
   8  561.9655
   9  567.0735
  10  453.6757
  11  416.6774
  12  458.0681
  13  530.6226
  14  549.658
  15  536.3892
  16  525.6089
  17  461.6467
  18  422.9789
  19  441.6638
  20  444.856
  21  463.3072
  22  452.0739
  23  496.0662
  24  525.6262
  25  467.2721
  26  489.0543
  27  564.9198
  28  479.4471
  29  429.8014
  30  460.1773
  31  528.1304
  32  513.8554
  33  485.3602
  34  441.5057
  35  435.2733
  36  505.712
  37  453.0689
  38  417.8189
  39  471.3852
  40  515.8107
  41  507.4508
  42  548.0844
  43  508.0038
  44  386.0529
  45  491.4688
  46  493.8491
  47  476.7936
  48  572.8611
  49  422.1046
  50  390.903
  51  472.5149
  52  551.9822
  53  505.9994
  54  429.7291
  55  560.7433
  56  547.8694
  57  418.4984
  58  469.1651
  59  573.3014
  60  417.7313
  61  408.5417
  62  439.6476
  63  391.2159
  64  393.4813
  65  385.9803
  66  331.1621
  67  384.548
  68  420.5002
  69  486.0367
  70  464.8898
  71  435.9702
  72  481.7913
  73  386.3097
  74  365.7572
  75  517.4708
  76  513.381
  77  403.2442
  78  457.3169
  79  392.3274
  80  504.6517
  81  449.0064
  82  461.1341
  83  494.4224
  84  480.5013
  85  479.5225
  86  457.6718
  87  550.6472
  88  487.8423
  89  430.6011
  90  303.8
  91  391.2743
  92  420.2874
  93  574.5041
  94  584.9767
  95  581.1971
  96  537.9441
  97  527.8428
  98  546.2947
  99  417.8451
 100  363.2308
 101  496.3496
 102  536.2374
 103  465.8789
 104  330.6761
 105  380.2679
 106  382.3402
 107  395.0879
 108  397.6078
 109  435.8283
 110  423.1172
 111  429.082
 112  376.8071
 113  444.0021
 114  445.5791
 115  538.475
 116  463.9175
 117  461.5208
 118  529.1967
 119  389.3681
 120  482.3099
 121  518.6655
 122  454.7766
 123  343.2223
 124  309.5299
 125  307.4554
 126  396.0669
 127  392.2013
 128  358.7258
 129  420.3331
 130  435.9543
 131  386.4819
 132  346.1158
 133  371.3305
 134  518.8845
 135  566.2416
 136  469.3438
 137  496.7838
 138  461.3932
 139  404.8795
 140  429.7129
 141  452.5641
 142  447.5378
 143  565.7531
 144  593.2372
 145  389.0612
 146  223.8647
 147  246.4539
 148  293.9881
 149  396.8465
 150  366.7679
 151  347.566
 152  392.0833
 153  434.2951
 154  453.448
 155  419.0159
 156  515.0111
 157  414.7921
 158  409.5396
 159  353.0485
 160  239.2251
 161  237.976
 162  281.5632
 163  312.9571
 164  306.7565
 165  356.8298
 166  413.8367
 167  383.4573
 168  526.4884
 169  366.0314
 170  250.4849
 171  367.0426
 172  450.4954
 173  452.3894
 174  408.585
 175  418.5141
 176  374.9008
 177  442.4796
 178  518.485
 179  467.0097
 180  530.0683
 181  449.8981
 182  362.0265
 183  434.7001
 184  498.9677
 185  502.4612
 186  381.4219
 187  308.7793
 188  384.9236
 189  455.5225
 190  440.9772
 191  364.3061
 192  334.7175
 193  342.4131
 194  523.5562
 195  518.1647
 196  412.1957
 197  360.1988
 198  388.5417
 199  386.5518
 200  262.2789
 201  255.5919
 202  244.7312
 203  347.4881
 204  449.1863
 205  477.5696
 206  401.8698
 207  426.6452
 208  394.6527
 209  366.0836
 210  478.9171
 211  351.297
 212  314.2384
 213  399.7155
 214  430.0087
 215  387.2705
 216  414.1114
 217  446.4728
 218  419.4427
 219  425.8467
 220  478.4183
 221  536.9478
 222  481.0557
 223  455.9046
 224  434.9332
 225  400.0895
 226  455.0935
 227  537.7431
 228  463.1873
 229  515.0519
 230  537.3666
 231  470.6169
 232  292.0768
 233  474.4015
 234  534.5928
 235  489.3474
 236  450.0793
 237  447.3279
 238  477.5726
 239  450.6071
 240  426.0615
 241  360.817
 242  354.662
 243  446.0605
 244  427.4268
 245  371.2479
 246  359.8371
 247  455.1969
 248  419.8998
 249  368.2314
 250  428.696
 251  452.3499
 252  414.2681
 253  405.4783
 254  244.0334
 255  220.2261
 256  354.798
 257  341.0048
 258  282.489
 259  279.6728
 260  378.0418
 261  455.555
 262  448.8313
 263  419.333
 264  465.022
 265  414.6686
 266  300.155
 267  450.2077
 268  589.944
 269  536.6882
 270  463.4001
 271  517.8018
 272  463.6289
 273  420.6972
 274  497.483
 275  456.2945
 276  324.3952
 277  443.2588
 278  530.6119
 279  263.8677
 280  306.3641
 281  307.4013
 282  326.9484
 283  476.3667
 284  474.1748
 285  413.2487
 286  407.5703
 287  382.9234
 288  399.007
 289  416.3971
 290  428.3976
 291  381.1574
 292  384.5892
 293  424.6881
 294  358.9688
 295  414.4435
 296  513.4695
 297  431.8011
 298  462.7808
 299  413.0902
 300  233.9653
 301  193.8594
 302  356.9969
 303  406.9669
 304  406.5585
 305  354.6033
 306  378.8075
 307  375.7987
 308  319.2295
 309  290.8983
 310  404.4373
 311  445.8902
 312  330.1961
 313  441.5355
 314  424.2913
 315  347.7196
 316  379.1158
 317  450.7987
 318  456.3121
 319  480.5629
 320  419.4091
 321  349.7986
 322  302.9833
 323  351.3421
 324  413.5881
 325  442.4681
 326  430.1835
 327  408.3164
 328  354.5906
 329  335.1185
 330  383.0718
 331  415.9305
 332  365.8878
 333  405.1115
 334  419.3954
 335  479.328
 336  468.3216
 337  432.6948
 338  433.1927
 339  300.042
 340  332.7753
 341  373.3191
 342  402.472
 343  577.8463
 344  424.5101
 345  321.846
 346  415.1192
 347  472.1575
 348  376.8542
 349  519.8218
 350  517.7749
 351  409.032
 352  422.3176
 353  441.4842
 354  380.8134
 355  321.3369
 356  255.6473
 357  284.8372
 358  359.7222
 359  432.0195
 360  428.1288
 361  403.6933
 362  332.742
 363  273.1671
 364  255.4381
 365  240.5338
 366  332.0304
 367  310.6149
 368  496.3985
 369  417.6555
 370  389.5823
 371  490.1895
 372  440.9047
 373  406.4418
 374  448.3156
 375  375.3304
 376  330.6548
 377  327.3814
 378  347.8263
 379  394.8392
 380  377.8213
 381  349.9656
 382  429.8487
 383  420.2609
 384  385.3092
 385  340.2824
 386  266.9969
 387  300.8736
 388  368.5913
 389  252.3475
 390  368.2269
 391  363.5898
 392  307.2072
 393  195.8101
 394  267.7042
 395  384.9934
 396  366.8069
 397  386.7475
 398  355.1864
 399  426.9062
 400  356.725
 401  285.7723
 402  347.9661
 403  507.1294
 404  471.0282
 405  468.1423
 406  340.0569
 407  340.0444
 408  417.9732
 409  421.4535
 410  406.6493
 411  415.9409
 412  402.0548
 413  444.5019
 414  468.7885
 415  542.7608
 416  470.6939
 417  440.6535
 418  448.581
 419  487.5081
 420  471.6351
 421  552.8693
 422  485.7544
 423  471.3931
 424  536.6787
 425  523.0142
 426  463.0339
 427  546.566
 428  562.8617
 429  465.9031
 430  468.9888
 431  339.817
 432  353.4988
 433  422.0782
 434  332.6254
 435  348.4253
 436  477.0927
 437  438.0335
 438  393.5509
 439  293.2939
 440  406.8931
 441  459.2328
 442  536.7285
 443  558.4995
 444  546.8843
 445  494.7374
 446  478.3118
 447  495.2531
 448  531.8241
 449  596.9127
 450  512.3896
 451  437.2162
 452  390.7135
 453  464.6133
 454  543.7017
 455  517.949
 456  469.5192
 457  609.0036
 458  528.7472
 459  489.8533
 460  486.8948
 461  396.5998
 462  419.0466
 463  518.6323
 464  466.7913
 465  547.1553
 466  591.3187
 467  464.3629
 468  333.7454
 469  443.3017
 470  472.8055
 471  475.6161
 472  415.8658
 473  453.6381
 474  470.8963
 475  474.2079
 476  557.1946
 477  503.1747
 478  476.1921
 479  517.9399
 480  467.2033
 481  573.7175
 482  584.6807
 483  544.2905
 484  466.9244
 485  464.7788
 486  506.4265
 487  516.3411
 488  534.2686
 489  485.9612
 490  504.7149
 491  472.4686
 492  500.1169
 493  460.1813
 494  380.6018
 495  446.8883
 496  548.1907
 497  457.7347
 498  417.2626
 499  341.3592
 500  487.5232
 501  568.403
 502  585.1442
 503  549.0064
 504  553.3099
 505  740.4117
 506  639.8856
 507  633.9774
 508  744.6872
 509  746.7686
 510  881.7023
 511  1006.608
