# Input file       =  1206201210.122017_cleaned.dat
# Candidate        =  PSR_0332+5434
# Telescope        =  AR
# Epoch_topo       =  58204.661945856678
# Epoch_bary       =  N/A
# T_sample         =  0.002
# Data Folded      =  7340032
# Data Avg         =  0.0282046564489668
# Data StdDev      =  1.00008742218944 
# Profile Bins     =  512
# Profile Avg      =  404.318245525015 
# Profile StdDev   =  119.743503700955 
# Reduced chi-sqr  =  1.309
# Prob(Noise)      <  2.98e-06   (~4.5 sigma)
# P_topo (ms)      =  714.572421237532  +/- 0.000373
# P'_topo (s/s)    =  -0                +/- 1.97e-10
# P''_topo (s/s^2) =  0                 +/- 8.69e-14
# P_bary (ms)      =  N/A
# P'_bary (s/s)    =  N/A
# P''_bary (s/s^2) =  N/A
# P_orb (s)        =  N/A
# asin(i)/c (s)    =  N/A
# eccentricity     =  N/A
# w (rad)          =  N/A
# T_peri           =  N/A
######################################################
   0  1023.707
   1  803.4565
   2  639.2137
   3  477.502
   4  434.2005
   5  326.3438
   6  295.0956
   7  463.3789
   8  580.094
   9  468.6679
  10  411.6323
  11  387.6564
  12  471.6334
  13  506.6296
  14  527.1188
  15  571.7013
  16  377.4296
  17  353.3421
  18  418.0498
  19  428.8431
  20  384.457
  21  362.1978
  22  473.399
  23  520.6594
  24  469.0083
  25  431.7554
  26  487.3043
  27  538.644
  28  497.6094
  29  413.0237
  30  437.0826
  31  463.3139
  32  446.9255
  33  374.9883
  34  429.0941
  35  583.4177
  36  427.5825
  37  402.9514
  38  451.3897
  39  420.8372
  40  367.024
  41  408.2032
  42  373.6281
  43  406.6949
  44  375.0323
  45  313.8987
  46  368.0332
  47  425.6158
  48  415.8739
  49  430.8647
  50  381.6356
  51  478.6025
  52  422.2271
  53  495.3617
  54  457.2213
  55  424.2461
  56  425.7692
  57  437.105
  58  367.2978
  59  424.6806
  60  505.5918
  61  490.5211
  62  343.0814
  63  287.7756
  64  337.4531
  65  405.8351
  66  380.1602
  67  369.0263
  68  402.6168
  69  378.3354
  70  349.0045
  71  449.374
  72  522.4729
  73  368.9182
  74  215.3366
  75  385.0964
  76  430.4349
  77  364.3896
  78  356.6311
  79  411.5953
  80  427.0534
  81  390.6571
  82  381.1562
  83  380.8641
  84  373.0702
  85  318.182
  86  343.8905
  87  414.4575
  88  453.965
  89  382.7265
  90  420.883
  91  396.135
  92  419.0489
  93  445.2497
  94  439.9539
  95  449.7161
  96  473.0856
  97  486.9055
  98  547.5975
  99  613.7041
 100  480.2327
 101  479.8281
 102  426.3014
 103  370.4836
 104  314.1268
 105  358.273
 106  346.6174
 107  330.3329
 108  362.0956
 109  357.5675
 110  308.2552
 111  418.7426
 112  456.4127
 113  431.7543
 114  397.5486
 115  429.2176
 116  460.7268
 117  419.2846
 118  391.0627
 119  435.7087
 120  463.6853
 121  385.501
 122  246.2094
 123  324.3374
 124  374.2342
 125  331.7367
 126  202.7708
 127  357.5228
 128  297.5653
 129  243.0973
 130  242.8379
 131  269.0395
 132  337.1318
 133  390.2318
 134  357.0389
 135  313.4558
 136  341.2613
 137  324.7426
 138  407.266
 139  402.7173
 140  328.6159
 141  347.6338
 142  298.1403
 143  284.215
 144  270.6392
 145  429.2221
 146  415.5559
 147  307.3535
 148  364.8174
 149  443.5905
 150  441.391
 151  418.5667
 152  376.543
 153  328.7583
 154  288.5184
 155  301.8693
 156  366.3011
 157  346.052
 158  431.4395
 159  483.6646
 160  298.4098
 161  354.5233
 162  352.5038
 163  268.9111
 164  306.8192
 165  198.6892
 166  304.5818
 167  321.1045
 168  366.3279
 169  354.3678
 170  453.9142
 171  421.9958
 172  291.2892
 173  215.3992
 174  279.9962
 175  338.8383
 176  483.0601
 177  463.6017
 178  357.3543
 179  337.7449
 180  343.8513
 181  233.6573
 182  244.8588
 183  390.0309
 184  302.3841
 185  344.6996
 186  267.3556
 187  271.2415
 188  311.6071
 189  319.6383
 190  244.9591
 191  251.8579
 192  351.5282
 193  352.8222
 194  368.0945
 195  453.3949
 196  263.2733
 197  127.6656
 198  180.7355
 199  418.2954
 200  453.5008
 201  290.4181
 202  287.3488
 203  338.4233
 204  313.6743
 205  357.1503
 206  334.548
 207  436.3295
 208  286.3832
 209  420.3234
 210  340.681
 211  308.6591
 212  314.885
 213  313.7431
 214  358.1187
 215  395.751
 216  436.9528
 217  453.4328
 218  369.7584
 219  378.285
 220  355.566
 221  302.5897
 222  324.1447
 223  407.8154
 224  282.1096
 225  321.0287
 226  395.9911
 227  281.3615
 228  356.9232
 229  329.4617
 230  372.9033
 231  361.6838
 232  434.7044
 233  561.6597
 234  585.8526
 235  399.5551
 236  473.3669
 237  535.4863
 238  471.1031
 239  439.7887
 240  432.0968
 241  514.9724
 242  489.8179
 243  430.4047
 244  498.9199
 245  476.7071
 246  466.2922
 247  438.9766
 248  312.0665
 249  341.9937
 250  304.5215
 251  342.8831
 252  481.999
 253  555.2219
 254  480.1802
 255  376.8647
 256  418.6241
 257  392.731
 258  392.713
 259  372.717
 260  404.1281
 261  329.3155
 262  438.2635
 263  435.4634
 264  401.5957
 265  312.5658
 266  472.2739
 267  486.4171
 268  470.5272
 269  362.1354
 270  316.6534
 271  317.0689
 272  374.6135
 273  538.4158
 274  433.811
 275  388.3648
 276  488.6458
 277  456.7537
 278  463.8152
 279  489.2025
 280  396.3001
 281  445.9486
 282  423.1361
 283  426.6977
 284  427.3405
 285  514.2006
 286  489.6229
 287  401.4434
 288  415.4339
 289  485.345
 290  438.8501
 291  446.3687
 292  480.6443
 293  406.5517
 294  398.9296
 295  359.1479
 296  354.0147
 297  450.6246
 298  574.947
 299  447.9955
 300  382.6671
 301  423.5375
 302  451.9146
 303  475.4593
 304  493.9388
 305  425.7995
 306  391.0957
 307  332.5232
 308  344.5688
 309  397.2043
 310  317.207
 311  445.2936
 312  425.2463
 313  417.804
 314  434.9463
 315  479.0603
 316  462.9518
 317  485.6237
 318  388.575
 319  404.8303
 320  473.2811
 321  460.3314
 322  450.0918
 323  455.056
 324  471.0493
 325  445.4338
 326  387.3446
 327  402.8072
 328  404.619
 329  359.1363
 330  487.7245
 331  480.0525
 332  364.251
 333  274.4507
 334  271.7425
 335  279.6481
 336  283.0487
 337  393.6797
 338  463.2787
 339  423.906
 340  452.2749
 341  461.1899
 342  457.683
 343  453.8496
 344  385.937
 345  324.1354
 346  355.8222
 347  273.7659
 348  380.3066
 349  288.7645
 350  416.606
 351  525.2939
 352  499.0732
 353  414.2409
 354  348.3064
 355  440.3019
 356  501.1791
 357  524.0695
 358  473.0524
 359  482.2719
 360  466.7969
 361  397.6558
 362  357.3425
 363  397.8773
 364  446.0752
 365  540.6157
 366  487.9654
 367  470.2935
 368  291.4192
 369  320.9642
 370  454.4258
 371  557.3468
 372  439.4893
 373  424.4935
 374  386.0074
 375  568.3593
 376  672.5264
 377  541.6386
 378  482.2379
 379  483.0337
 380  542.6911
 381  542.7928
 382  453.318
 383  520.2654
 384  587.0615
 385  502.4896
 386  318.8363
 387  401.3362
 388  518.2549
 389  503.9194
 390  537.2484
 391  344.2857
 392  376.0385
 393  498.8455
 394  455.208
 395  365.3093
 396  428.4419
 397  415.5703
 398  331.4018
 399  323.1185
 400  359.8744
 401  364.2826
 402  338.468
 403  334.6758
 404  382.8844
 405  425.0939
 406  460.174
 407  345.0413
 408  358.4949
 409  393.5376
 410  415.255
 411  316.8627
 412  365.1369
 413  396.9663
 414  423.9488
 415  373.5147
 416  318.12
 417  394.7164
 418  432.3173
 419  381.6045
 420  339.7377
 421  267.1299
 422  359.4082
 423  414.646
 424  278.6257
 425  325.0386
 426  406.1812
 427  370.5182
 428  305.8412
 429  326.947
 430  295.8916
 431  361.4538
 432  412.5182
 433  397.7774
 434  318.9803
 435  415.2385
 436  392.228
 437  441.965
 438  512.7456
 439  562.5384
 440  584.3718
 441  509.6904
 442  464.1724
 443  447.0313
 444  546.9437
 445  552.9408
 446  490.6013
 447  487.013
 448  460.6559
 449  482.2403
 450  470.68
 451  448.563
 452  429.0587
 453  479.168
 454  462.6032
 455  471.2565
 456  356.1924
 457  367.9272
 458  355.0389
 459  365.8292
 460  378.7579
 461  400.3646
 462  422.5946
 463  379.8892
 464  351.8644
 465  424.546
 466  457.7158
 467  486.7708
 468  466.8157
 469  515.1469
 470  440.2028
 471  389.8752
 472  472.8664
 473  363.8927
 474  274.6412
 475  199.1871
 476  239.546
 477  273.3251
 478  362.8038
 479  402.0474
 480  367.7313
 481  208.7284
 482  138.8552
 483  199.2289
 484  345.1045
 485  224.3815
 486  329.8353
 487  361.1447
 488  277.0256
 489  350.4088
 490  318.1299
 491  201.894
 492  330.0561
 493  364.5037
 494  379.9124
 495  357.2578
 496  275.1505
 497  212.9899
 498  268.0473
 499  228.7758
 500  397.5354
 501  415.0309
 502  360.0804
 503  375.5004
 504  442.958
 505  448.9021
 506  512.7965
 507  664.7827
 508  703.071
 509  838.7359
 510  923.1794
 511  1116.424
