# Input file       =  1206171627.11937_cleaned.dat
# Candidate        =  PSR_0332+5434
# Telescope        =  AR
# Epoch_topo       =  58204.319549992710
# Epoch_bary       =  N/A
# T_sample         =  0.002
# Data Folded      =  7208960
# Data Avg         =  0.0165243326747429
# Data StdDev      =  1.00007261559776 
# Profile Bins     =  512
# Profile Avg      =  232.741980337137 
# Profile StdDev   =  118.667792300511 
# Reduced chi-sqr  =  2.215
# Prob(Noise)      <  5.8e-49   (~14.7 sigma)
# P_topo (ms)      =  714.572250409348  +/- 5.3e-05
# P'_topo (s/s)    =  -0                +/- 2.85e-11
# P''_topo (s/s^2) =  0                 +/- 1.28e-14
# P_bary (ms)      =  N/A
# P'_bary (s/s)    =  N/A
# P''_bary (s/s^2) =  N/A
# P_orb (s)        =  N/A
# asin(i)/c (s)    =  N/A
# eccentricity     =  N/A
# w (rad)          =  N/A
# T_peri           =  N/A
######################################################
   0  1264.946
   1  1054.103
   2  806.3915
   3  402.5137
   4  111.894
   5  153.711
   6  236.1212
   7  294.4051
   8  228.8265
   9  269.3751
  10  437.7209
  11  331.717
  12  338.0709
  13  323.8983
  14  442.8668
  15  360.1961
  16  276.831
  17  251.4046
  18  255.223
  19  214.1783
  20  211.9487
  21  234.8202
  22  197.2119
  23  145.1991
  24  131.2825
  25  281.2743
  26  227.496
  27  224.6674
  28  166.813
  29  115.305
  30  163.6178
  31  267.0608
  32  271.6301
  33  230.1881
  34  421.0241
  35  384.1456
  36  144.4991
  37  79.36809
  38  204.2682
  39  359.1102
  40  479.8273
  41  250.1345
  42  234.278
  43  336.8105
  44  360.4686
  45  315.0827
  46  233.7926
  47  199.4447
  48  363.0974
  49  241.5146
  50  263.4403
  51  390.5775
  52  299.8293
  53  307.3739
  54  217.323
  55  103.7582
  56  90.64008
  57  148.603
  58  213.6066
  59  279.4977
  60  335.3633
  61  297.6813
  62  240.6245
  63  230.5969
  64  216.8902
  65  181.15
  66  176.3887
  67  265.9033
  68  240.3134
  69  209.4093
  70  77.62429
  71  24.73696
  72  171.4975
  73  265.7506
  74  127.578
  75  234.0345
  76  290.9627
  77  321.6371
  78  317.8414
  79  172.1793
  80  75.10797
  81  49.94835
  82  272.8703
  83  356.7405
  84  307.4163
  85  378.645
  86  206.03
  87  -44.78189
  88  102.9682
  89  180.7836
  90  122.2312
  91  291.5939
  92  388.6601
  93  362.984
  94  289.1731
  95  254.1163
  96  120.7013
  97  71.91284
  98  162.3754
  99  137.5453
 100  107.7471
 101  190.8907
 102  267.3036
 103  92.5517
 104  231.6561
 105  302.5528
 106  244.9192
 107  159.8137
 108  179.4026
 109  273.5125
 110  303.46
 111  248.7897
 112  185.4588
 113  257.1252
 114  318.159
 115  151.8639
 116  179.1678
 117  222.5784
 118  302.9192
 119  375.7785
 120  234.6751
 121  190.2398
 122  318.5786
 123  224.3403
 124  307.3802
 125  284.7853
 126  201.1174
 127  248.9314
 128  200.2152
 129  177.3421
 130  313.7524
 131  320.8497
 132  191.9544
 133  355.1743
 134  317.4866
 135  303.9901
 136  172.7449
 137  45.62517
 138  303.589
 139  295.7878
 140  172.9981
 141  290.0844
 142  300.8558
 143  235.1243
 144  230.0548
 145  350.0094
 146  367.0652
 147  265.3625
 148  216.7269
 149  168.1741
 150  328.4165
 151  322.4691
 152  129.5909
 153  125.6338
 154  318.7244
 155  296.2049
 156  270.5488
 157  297.6297
 158  352.7235
 159  312.4487
 160  231.7077
 161  141.5624
 162  169.2085
 163  108.6078
 164  156.8137
 165  146.4461
 166  316.4452
 167  317.455
 168  260.4003
 169  217.7562
 170  35.32883
 171  130.86
 172  227.7923
 173  254.1822
 174  303.5582
 175  332.7282
 176  244.4937
 177  257.4644
 178  272.2817
 179  278.0951
 180  266.5626
 181  98.30328
 182  157.2962
 183  343.0392
 184  338.0478
 185  212.6143
 186  174.7131
 187  138.679
 188  197.6219
 189  230.3493
 190  241.81
 191  233.6732
 192  300.396
 193  168.9572
 194  157.5906
 195  116.961
 196  168.3878
 197  235.4979
 198  254.3813
 199  238.2113
 200  254.2509
 201  272.1415
 202  201.8114
 203  150.6691
 204  123.7965
 205  98.93791
 206  119.1164
 207  84.87695
 208  191.2901
 209  326.5672
 210  177.572
 211  150.7721
 212  174.3167
 213  145.0341
 214  265.5603
 215  251.3853
 216  231.97
 217  206.7377
 218  191.0559
 219  53.03553
 220  105.1851
 221  202.3781
 222  287.6252
 223  191.2814
 224  235.0639
 225  328.8755
 226  352.3153
 227  245.1533
 228  177.7652
 229  142.4609
 230  29.93713
 231  54.27405
 232  234.7307
 233  273.1017
 234  93.68317
 235  88.1981
 236  107.2123
 237  112.8021
 238  269.4345
 239  211.7728
 240  259.9694
 241  385.2424
 242  364.641
 243  169.5002
 244  215.7685
 245  285.0159
 246  345.0225
 247  464.6168
 248  376.1364
 249  286.1653
 250  224.1154
 251  227.1094
 252  60.14423
 253  109.5797
 254  289.1443
 255  272.4525
 256  237.0224
 257  295.8847
 258  350.8737
 259  233.1925
 260  90.29237
 261  143.4277
 262  200.4464
 263  313.7305
 264  262.147
 265  316.0504
 266  261.882
 267  145.8295
 268  107.25
 269  40.85183
 270  85.051
 271  172.0144
 272  221.8744
 273  280.105
 274  346.4486
 275  298.1607
 276  114.311
 277  129.7777
 278  228.9651
 279  271.7479
 280  262.1038
 281  221.5829
 282  289.3065
 283  216.5916
 284  126.2465
 285  -21.84686
 286  -18.18319
 287  136.9264
 288  288.9375
 289  312.3929
 290  271.6824
 291  267.1813
 292  432.6795
 293  302.4307
 294  206.4784
 295  249.5413
 296  319.6945
 297  257.0737
 298  125.0125
 299  148.0312
 300  240.216
 301  240.1028
 302  169.6779
 303  107.6662
 304  221.811
 305  208.3439
 306  289.1494
 307  421.7397
 308  420.884
 309  298.2456
 310  52.99814
 311  121.3714
 312  176.942
 313  162.9141
 314  209.7516
 315  231.1155
 316  281.2358
 317  226.9751
 318  144.0795
 319  142.7425
 320  189.4442
 321  96.62889
 322  171.2524
 323  235.8704
 324  250.196
 325  229.3124
 326  124.8237
 327  57.06632
 328  308.2556
 329  323.192
 330  242.8985
 331  258.1168
 332  293.774
 333  343.527
 334  77.98376
 335  134.8902
 336  210.0737
 337  235.5489
 338  363.7441
 339  295.0957
 340  272.0206
 341  342.1673
 342  179.1409
 343  102.1692
 344  211.639
 345  200.8548
 346  162.9786
 347  147.5405
 348  316.8386
 349  222.3887
 350  71.16035
 351  11.31445
 352  99.54219
 353  196.5045
 354  294.2067
 355  160.4779
 356  212.7829
 357  295.1705
 358  255.0682
 359  173.0148
 360  72.41331
 361  125.167
 362  250.0787
 363  304.1113
 364  283.7832
 365  254.3147
 366  149.302
 367  217.1544
 368  235.0857
 369  127.3499
 370  151.4584
 371  325.5356
 372  233.9556
 373  398.7292
 374  402.8038
 375  328.1487
 376  292.1931
 377  192.0622
 378  357.2798
 379  275.5935
 380  314.395
 381  309.2723
 382  108.1306
 383  83.58315
 384  106.5743
 385  37.69969
 386  169.2338
 387  150.1635
 388  184.6884
 389  400.7117
 390  537.021
 391  397.8552
 392  263.6072
 393  214.8605
 394  209.5881
 395  107.1488
 396  131.079
 397  245.4932
 398  319.2047
 399  268.2735
 400  252.8201
 401  124.069
 402  151.6405
 403  163.9525
 404  177.1471
 405  337.8478
 406  351.7596
 407  282.8297
 408  52.50577
 409  83.05876
 410  11.64822
 411  197.3207
 412  340.9558
 413  164.4503
 414  152.8154
 415  208.36
 416  124.2499
 417  56.09526
 418  50.54055
 419  172.2827
 420  62.72451
 421  192.9097
 422  373.0414
 423  425.1956
 424  368.3731
 425  268.6987
 426  85.20202
 427  107.6375
 428  84.75231
 429  202.7305
 430  202.8746
 431  244.7962
 432  332.7283
 433  188.1451
 434  265.8792
 435  379.2476
 436  382.2103
 437  398.0751
 438  433.2846
 439  378.1874
 440  197.3048
 441  247.4691
 442  241.0218
 443  171.9266
 444  155.2984
 445  105.6475
 446  126.8084
 447  350.6264
 448  321.6266
 449  237.7152
 450  103.4533
 451  69.0601
 452  -12.20798
 453  165.8285
 454  233.4506
 455  312.4459
 456  299.9848
 457  247.6281
 458  210.5824
 459  291.4102
 460  264.6473
 461  175.944
 462  136.5995
 463  255.7998
 464  295.262
 465  219.6659
 466  141.6701
 467  202.4161
 468  204.9976
 469  123.0702
 470  177.7585
 471  321.2835
 472  307.5424
 473  167.1556
 474  226.3404
 475  106.8539
 476  236.4949
 477  193.3824
 478  109.4456
 479  163.046
 480  181.1194
 481  251.6875
 482  157.4774
 483  94.06864
 484  106.5111
 485  100.8111
 486  52.14446
 487  77.73573
 488  162.3968
 489  243.4184
 490  167.36
 491  212.6382
 492  235.4025
 493  230.4078
 494  316.8452
 495  186.82
 496  176.096
 497  165.6866
 498  216.2998
 499  86.72368
 500  58.64464
 501  80.90296
 502  172.0653
 503  237.6921
 504  299.7665
 505  284.4076
 506  411.9912
 507  489.5609
 508  395.5055
 509  626.5953
 510  1037.042
 511  1185.91
