# Input file       =  1206186294.114467_cleaned.dat
# Candidate        =  PSR_0332+5434
# Telescope        =  AR
# Epoch_topo       =  58204.489306880401
# Epoch_bary       =  N/A
# T_sample         =  0.002
# Data Folded      =  7340032
# Data Avg         =  0.0152785884091027
# Data StdDev      =  1.00026035917323 
# Profile Bins     =  512
# Profile Avg      =  218.565187812643 
# Profile StdDev   =  119.764209971125 
# Reduced chi-sqr  =  1.275
# Prob(Noise)      <  2.41e-05   (~4.1 sigma)
# P_topo (ms)      =  714.57217684792   +/- 0.000257
# P'_topo (s/s)    =  -0                +/- 1.36e-10
# P''_topo (s/s^2) =  0                 +/- 5.98e-14
# P_bary (ms)      =  N/A
# P'_bary (s/s)    =  N/A
# P''_bary (s/s^2) =  N/A
# P_orb (s)        =  N/A
# asin(i)/c (s)    =  N/A
# eccentricity     =  N/A
# w (rad)          =  N/A
# T_peri           =  N/A
######################################################
   0  636.1024
   1  697.1014
   2  642.2925
   3  460.7796
   4  345.6368
   5  285.8985
   6  176.2603
   7  182.3804
   8  230.9094
   9  185.7338
  10  227.4104
  11  200.129
  12  293.3766
  13  230.8011
  14  231.8159
  15  273.6627
  16  326.8925
  17  240.76
  18  191.8838
  19  190.5891
  20  189.2812
  21  118.2675
  22  173.4332
  23  151.9179
  24  170.2385
  25  144.6615
  26  82.92912
  27  104.3146
  28  165.0249
  29  225.2051
  30  224.6158
  31  134.5481
  32  109.3547
  33  90.07496
  34  99.66927
  35  140.3489
  36  129.6835
  37  135.0409
  38  161.9135
  39  182.5597
  40  192.421
  41  231.0751
  42  174.9231
  43  168.0034
  44  111.7246
  45  137.4055
  46  196.8448
  47  184.3058
  48  191.3362
  49  220.8255
  50  176.7529
  51  229.9904
  52  285.6414
  53  240.695
  54  226.6823
  55  222.2229
  56  235.3431
  57  231.8163
  58  230.1249
  59  197.1133
  60  169.673
  61  189.2351
  62  163.2621
  63  214.1371
  64  194.9134
  65  195.2202
  66  232.1351
  67  214.4944
  68  216.2857
  69  264.1111
  70  198.8805
  71  189.6564
  72  89.66492
  73  221.1058
  74  217.4109
  75  160.6154
  76  236.5517
  77  247.2404
  78  199.7721
  79  156.8678
  80  105.6997
  81  185.8402
  82  91.97266
  83  138.8099
  84  156.0258
  85  161.6783
  86  98.69279
  87  11.49681
  88  55.05536
  89  67.12626
  90  71.13242
  91  90.50861
  92  52.33149
  93  72.72109
  94  89.71762
  95  194.8302
  96  163.5743
  97  127.1898
  98  183.6247
  99  135.9014
 100  114.6721
 101  91.17973
 102  95.67386
 103  146.6139
 104  75.43829
 105  110.699
 106  91.74895
 107  101.9679
 108  141.8039
 109  73.46626
 110  72.7904
 111  208.4977
 112  221.5144
 113  203.5448
 114  182.4308
 115  188.3681
 116  150.9047
 117  177.255
 118  180.1296
 119  245.0351
 120  275.2497
 121  210.9302
 122  281.3621
 123  262.8434
 124  283.0191
 125  211.3721
 126  213.9167
 127  270.6772
 128  312.3353
 129  225.2945
 130  283.0598
 131  358.0424
 132  292.1889
 133  279.9551
 134  219.267
 135  191.4451
 136  226.3869
 137  254.3164
 138  266.2957
 139  265.102
 140  282.7259
 141  287.402
 142  262.2098
 143  215.0371
 144  216.1944
 145  211.1172
 146  145.4722
 147  188.2999
 148  174.4363
 149  138.0228
 150  242.9679
 151  189.5218
 152  169.6368
 153  142.2489
 154  159.3104
 155  170.3203
 156  135.205
 157  186.7753
 158  123.6146
 159  92.94286
 160  96.88776
 161  131.8236
 162  82.76715
 163  136.5667
 164  156.2762
 165  222.7565
 166  218.9927
 167  161.0621
 168  118.9708
 169  85.29451
 170  165.8123
 171  130.7344
 172  71.51452
 173  79.14513
 174  131.9806
 175  135.744
 176  137.9073
 177  106.501
 178  77.90103
 179  120.7109
 180  161.0134
 181  152.7017
 182  132.4532
 183  113.6989
 184  84.24775
 185  113.544
 186  88.97961
 187  76.27848
 188  61.59058
 189  68.59142
 190  116.7663
 191  134.7555
 192  136.3197
 193  65.79729
 194  70.16533
 195  174.3113
 196  234.7245
 197  129.3585
 198  224.8429
 199  208.933
 200  216.7862
 201  246.1682
 202  236.3607
 203  245.7858
 204  272.665
 205  352.6079
 206  331.8007
 207  272.1638
 208  337.472
 209  345.8723
 210  374.6961
 211  348.6484
 212  258.6361
 213  294.895
 214  384.4815
 215  295.1
 216  259.8272
 217  262.5572
 218  317.196
 219  361.734
 220  321.9629
 221  404.4463
 222  339.7168
 223  239.2384
 224  251.2317
 225  262.2777
 226  258.9811
 227  287.657
 228  256.3841
 229  306.7934
 230  271.3858
 231  301.1601
 232  339.4463
 233  168.5599
 234  113.9911
 235  141.1721
 236  185.6431
 237  61.70005
 238  -5.322515
 239  43.47459
 240  120.7078
 241  119.0518
 242  64.55997
 243  100.5749
 244  91.50869
 245  18.80499
 246  60.9879
 247  83.60677
 248  72.16131
 249  167.0858
 250  132.8545
 251  105.316
 252  96.55011
 253  102.7774
 254  96.43429
 255  104.8327
 256  191.1519
 257  235.5314
 258  223.2318
 259  196.8234
 260  190.1434
 261  244.7722
 262  108.8613
 263  133.1092
 264  138.8416
 265  134.0469
 266  208.97
 267  295.7933
 268  282.3245
 269  199.1455
 270  246.7277
 271  248.1844
 272  280.1122
 273  346.8684
 274  325.6327
 275  300.2994
 276  242.7076
 277  325.3339
 278  307.1082
 279  274.3132
 280  307.094
 281  312.0311
 282  328.0992
 283  380.7208
 284  340.4275
 285  257.2435
 286  274.1184
 287  373.368
 288  362.7629
 289  322.0423
 290  361.2899
 291  429.5466
 292  326.024
 293  246.2634
 294  268.8994
 295  274.41
 296  273.414
 297  232.1395
 298  187.578
 299  242.3198
 300  174.6956
 301  200.6678
 302  204.9536
 303  250.2241
 304  179.7343
 305  43.79073
 306  147.9108
 307  213.375
 308  260.7885
 309  219.26
 310  166.1197
 311  139.7247
 312  164.7196
 313  250.3771
 314  184.8863
 315  212.8426
 316  238.5525
 317  167.5137
 318  190.497
 319  180.7295
 320  192.3212
 321  163.6255
 322  206.3068
 323  203.9927
 324  199.8062
 325  234.8675
 326  212.6246
 327  263.4041
 328  237.4906
 329  221.3328
 330  207.3111
 331  232.0202
 332  247.9494
 333  226.8053
 334  188.4364
 335  245.1998
 336  216.7796
 337  248.2213
 338  286.729
 339  299.2018
 340  254.4653
 341  282.8606
 342  280.51
 343  263.7033
 344  215.0296
 345  268.9814
 346  366.375
 347  354.7472
 348  297.2916
 349  279.5212
 350  286.5493
 351  206.7827
 352  316.2747
 353  407.7755
 354  269.2323
 355  284.9923
 356  342.2318
 357  265.6908
 358  261.4589
 359  258.1801
 360  344.2021
 361  307.0308
 362  328.8768
 363  386.267
 364  412.0224
 365  313.435
 366  247.4852
 367  203.8093
 368  201.6162
 369  132.128
 370  179.6886
 371  135.3221
 372  169.7348
 373  157.508
 374  113.6184
 375  168.0655
 376  178.1869
 377  79.93243
 378  73.01733
 379  64.94576
 380  99.20808
 381  147.2302
 382  155.5516
 383  99.31175
 384  122.2863
 385  107.2334
 386  158.1647
 387  116.7251
 388  74.57634
 389  165.0361
 390  147.4731
 391  167.9104
 392  155.1024
 393  129.191
 394  74.45893
 395  59.80536
 396  42.3866
 397  119.8381
 398  153.9901
 399  214.2656
 400  332.7281
 401  336.655
 402  263.5305
 403  215.2941
 404  172.7297
 405  315.7133
 406  325.7786
 407  282.2084
 408  185.3396
 409  220.4865
 410  120.7906
 411  117.2891
 412  230.6615
 413  290.9582
 414  233.2846
 415  215.7578
 416  292.2412
 417  299.2573
 418  210.9055
 419  234.6727
 420  248.0019
 421  278.0156
 422  338.6339
 423  375.2564
 424  388.9742
 425  279.7354
 426  274.7515
 427  375.4198
 428  373.7099
 429  319.259
 430  378.7387
 431  443.9192
 432  408.307
 433  378.4774
 434  388.6702
 435  461.5472
 436  420.7895
 437  354.5436
 438  282.5595
 439  344.5206
 440  448.833
 441  436.8247
 442  301.0261
 443  235.4057
 444  227.2191
 445  214.9381
 446  258.9403
 447  247.4446
 448  217.0201
 449  270.679
 450  296.0382
 451  214.8123
 452  222.0173
 453  229.2784
 454  201.9706
 455  191.5325
 456  198.8541
 457  245.9599
 458  269.3547
 459  194.2206
 460  239.2949
 461  185.3647
 462  231.2764
 463  240.9327
 464  265.0269
 465  226.6512
 466  106.8318
 467  141.1269
 468  149.573
 469  147.8735
 470  132.4895
 471  220.2143
 472  286.308
 473  157.1898
 474  67.00536
 475  198.5347
 476  227.352
 477  220.8832
 478  104.6403
 479  180.4284
 480  216.1665
 481  194.6298
 482  262.6026
 483  271.5565
 484  156.3428
 485  180.8875
 486  202.2405
 487  181.0717
 488  282.4494
 489  270.0233
 490  279.4189
 491  317.8039
 492  354.6822
 493  297.1486
 494  232.2457
 495  300.6208
 496  259.0557
 497  252.0017
 498  289.0447
 499  278.1948
 500  326.9186
 501  316.9818
 502  333.1862
 503  334.5049
 504  308.8964
 505  258.5929
 506  375.1731
 507  456.1315
 508  406.2214
 509  488.7027
 510  646.7992
 511  632.938
