# Input file       =  1206114991.108777_cleaned.dat
# Candidate        =  PSR_0332+5434
# Telescope        =  AR
# Epoch_topo       =  58203.664040610849
# Epoch_bary       =  N/A
# T_sample         =  0.002
# Data Folded      =  7340032
# Data Avg         =  0.0313873828168063
# Data StdDev      =  1.0000565757757  
# Profile Bins     =  512
# Profile Avg      =  450.096268397614 
# Profile StdDev   =  119.739810366176 
# Reduced chi-sqr  =  1.171
# Prob(Noise)      <  0.00452   (~2.6 sigma)
# P_topo (ms)      =  714.572943254532  +/- 0.000296
# P'_topo (s/s)    =  -0                +/- 1.56e-10
# P''_topo (s/s^2) =  0                 +/- 6.9e-14
# P_bary (ms)      =  N/A
# P'_bary (s/s)    =  N/A
# P''_bary (s/s^2) =  N/A
# P_orb (s)        =  N/A
# asin(i)/c (s)    =  N/A
# eccentricity     =  N/A
# w (rad)          =  N/A
# T_peri           =  N/A
######################################################
   0  1109.397
   1  967.8975
   2  911.5203
   3  684.5937
   4  425.8648
   5  339.8526
   6  389.6405
   7  456.0392
   8  410.6807
   9  439.4686
  10  550.0964
  11  457.2234
  12  325.8167
  13  376.2822
  14  468.9508
  15  500.0731
  16  414.1283
  17  279.0752
  18  425.8501
  19  537.1079
  20  466.635
  21  400.5739
  22  435.8106
  23  436.7664
  24  444.0312
  25  405.8364
  26  512.1188
  27  492.2413
  28  364.5628
  29  545.0646
  30  496.0019
  31  493.6133
  32  528.6678
  33  417.8854
  34  407.7015
  35  443.2477
  36  475.2072
  37  400.9415
  38  424.744
  39  461.4274
  40  485.0656
  41  325.4577
  42  350.5061
  43  448.9361
  44  473.5979
  45  571.5239
  46  557.4982
  47  508.111
  48  490.7702
  49  447.0819
  50  400.3872
  51  402.1451
  52  432.4779
  53  382.9531
  54  430.0871
  55  507.9237
  56  561.7822
  57  497.3435
  58  420.5159
  59  427.9144
  60  509.8995
  61  491.6734
  62  506.8107
  63  491.1922
  64  522.8768
  65  449.4112
  66  438.6985
  67  626.1404
  68  597.595
  69  571.5721
  70  536.2054
  71  480.2449
  72  465.7721
  73  631.0889
  74  632.0062
  75  577.2164
  76  503.7107
  77  563.11
  78  463.6765
  79  463.5974
  80  424.1046
  81  319.3168
  82  533.116
  83  496.0229
  84  408.6762
  85  402.0598
  86  533.9818
  87  453.1373
  88  449.8388
  89  481.9275
  90  500.4855
  91  462.6695
  92  491.2409
  93  516.852
  94  544.8931
  95  492.2379
  96  373.1186
  97  430.9782
  98  511.9162
  99  392.3659
 100  462.8478
 101  369.4369
 102  240.5852
 103  381.3902
 104  464.4474
 105  471.8254
 106  425.4722
 107  449.1024
 108  544.798
 109  466.058
 110  366.0667
 111  401.3848
 112  384.0018
 113  490.9014
 114  423.3215
 115  418.1809
 116  427.1835
 117  488.4303
 118  444.9441
 119  448.1444
 120  392.2559
 121  376.4856
 122  375.2708
 123  383.2628
 124  440.6235
 125  469.2626
 126  463.8051
 127  543.0475
 128  473.1323
 129  400.6255
 130  394.6885
 131  341.518
 132  330.9262
 133  345.0274
 134  373.7311
 135  273.5688
 136  357.5496
 137  331.5882
 138  313.2621
 139  405.9554
 140  366.9645
 141  388.4209
 142  413.532
 143  438.1747
 144  554.6689
 145  460.3813
 146  436.9025
 147  428.1785
 148  383.5269
 149  509.2518
 150  393.1559
 151  454.1221
 152  431.5202
 153  314.3144
 154  314.5492
 155  315.4457
 156  398.6998
 157  435.0179
 158  302.06
 159  423.3321
 160  399.2045
 161  278.3724
 162  357.028
 163  364.0829
 164  358.8655
 165  385.7898
 166  290.0144
 167  347.4221
 168  405.7453
 169  390.7863
 170  491.34
 171  334.9024
 172  322.8031
 173  423.6022
 174  395.1089
 175  333.3663
 176  281.397
 177  337.578
 178  371.2242
 179  303.2722
 180  398.5999
 181  459.6425
 182  487.3556
 183  504.675
 184  382.2453
 185  356.3894
 186  405.381
 187  437.0462
 188  429.8984
 189  454.4452
 190  473.2131
 191  425.2832
 192  267.6168
 193  220.9866
 194  294.5542
 195  422.4528
 196  382.4777
 197  424.1827
 198  419.8289
 199  403.066
 200  295.9709
 201  297.4537
 202  295.8265
 203  263.4239
 204  326.0594
 205  386.7956
 206  355.3494
 207  406.9038
 208  422.6579
 209  335.2713
 210  383.932
 211  383.265
 212  433.3646
 213  456.4341
 214  412.6465
 215  449.6
 216  400.4283
 217  362.4875
 218  363.6806
 219  463.0462
 220  601.4844
 221  444.8699
 222  411.9232
 223  512.9141
 224  493.8916
 225  460.0641
 226  522.6866
 227  535.899
 228  491.6735
 229  494.0073
 230  484.9756
 231  554.7855
 232  460.8654
 233  407.8719
 234  451.9301
 235  371.423
 236  326.0479
 237  388.8468
 238  404.8485
 239  457.7831
 240  457.7206
 241  559.1313
 242  444.8717
 243  313.9579
 244  464.946
 245  487.2462
 246  495.8666
 247  601.1307
 248  610.3071
 249  534.4985
 250  487.4575
 251  386.8055
 252  348.4901
 253  442.1492
 254  465.3597
 255  295.9208
 256  399.6685
 257  389.7842
 258  424.2425
 259  444.4288
 260  329.3484
 261  335.5939
 262  361.1104
 263  368.9148
 264  402.9431
 265  447.8759
 266  511.5708
 267  487.8267
 268  471.1743
 269  456.8914
 270  475.9159
 271  442.3165
 272  356.1272
 273  370.606
 274  352.2623
 275  418.9077
 276  385.2775
 277  436.9806
 278  335.924
 279  323.9171
 280  378.6824
 281  504.4612
 282  472.4054
 283  389.4042
 284  378.254
 285  371.7165
 286  351.739
 287  484.888
 288  504.6783
 289  494.3176
 290  533.0636
 291  576.9216
 292  435.6361
 293  469.1586
 294  538.9529
 295  586.923
 296  578.468
 297  528.4716
 298  485.2301
 299  502.2005
 300  561.0947
 301  509.4639
 302  440.8731
 303  519.6365
 304  451.6742
 305  335.1464
 306  465.6395
 307  388.1399
 308  394.597
 309  422.105
 310  400.0068
 311  387.2471
 312  367.6017
 313  496.9358
 314  427.61
 315  460.5902
 316  481.5168
 317  528.0756
 318  543.4777
 319  475.8296
 320  455.3115
 321  535.2353
 322  443.472
 323  504.7671
 324  477.0595
 325  521.6368
 326  463.0714
 327  321.2731
 328  352.3822
 329  444.8416
 330  437.0924
 331  524.618
 332  495.7831
 333  484.5363
 334  506.2135
 335  480.7885
 336  493.935
 337  561.0168
 338  500.4637
 339  491.3715
 340  539.5026
 341  508.267
 342  407.8264
 343  489.9251
 344  470.0659
 345  489.8008
 346  414.1019
 347  448.437
 348  516.2303
 349  528.1812
 350  570.187
 351  451.5046
 352  362.7271
 353  482.155
 354  486.6557
 355  425.515
 356  460.3073
 357  604.3267
 358  598.9639
 359  439.172
 360  452.6299
 361  484.8857
 362  441.0324
 363  457.8557
 364  436.3094
 365  476.0121
 366  394.631
 367  413.656
 368  344.0577
 369  389.8708
 370  470.5115
 371  543.105
 372  500.111
 373  501.3172
 374  479.7571
 375  484.4697
 376  453.7348
 377  493.5618
 378  506.1609
 379  407.6774
 380  330.1755
 381  329.1347
 382  385.5109
 383  428.5363
 384  510.6901
 385  497.7976
 386  448.8229
 387  473.237
 388  433.1575
 389  464.1037
 390  512.597
 391  525.8416
 392  459.9808
 393  411.6216
 394  401.7028
 395  451.8103
 396  352.9767
 397  376.3093
 398  371.2487
 399  473.4323
 400  435.7625
 401  474.2338
 402  491.2377
 403  502.1489
 404  435.9841
 405  491.1745
 406  560.1723
 407  568.224
 408  502.5952
 409  381.8935
 410  455.0481
 411  471.1696
 412  545.6719
 413  659.9056
 414  528.4695
 415  463.4078
 416  523.7689
 417  505.419
 418  497.3414
 419  483.7059
 420  515.2173
 421  425.6114
 422  425.6194
 423  414.7028
 424  333.5139
 425  449.6077
 426  471.4958
 427  409.0073
 428  368.3751
 429  356.3092
 430  516.8315
 431  590.0584
 432  578.5531
 433  509.8332
 434  526.7482
 435  417.9108
 436  401.11
 437  472.8283
 438  380.5535
 439  390.7813
 440  522.8376
 441  543.3776
 442  474.8195
 443  357.9734
 444  314.5997
 445  344.6217
 446  340.0818
 447  432.905
 448  414.4062
 449  378.3677
 450  468.7774
 451  487.6067
 452  377.7256
 453  399.4542
 454  448.1142
 455  485.8171
 456  528.1823
 457  544.3277
 458  499.8743
 459  488.092
 460  521.1875
 461  410.4875
 462  337.0634
 463  318.9916
 464  319.4418
 465  282.8213
 466  364.6241
 467  382.0429
 468  365.1281
 469  441.111
 470  452.4556
 471  465.6233
 472  474.2236
 473  455.6709
 474  364.3367
 475  338.9526
 476  398.335
 477  404.1121
 478  328.1483
 479  354.6293
 480  456.4365
 481  541.691
 482  488.7849
 483  529.4443
 484  538.0621
 485  336.4465
 486  446.2889
 487  528.1573
 488  519.6254
 489  573.8795
 490  459.5964
 491  426.6419
 492  411.9935
 493  481.8017
 494  541.4388
 495  594.2863
 496  483.4348
 497  490.3113
 498  483.7812
 499  514.8038
 500  515.6508
 501  454.4434
 502  481.8
 503  531.2028
 504  421.6292
 505  524.7491
 506  534.1473
 507  542.5335
 508  626.6274
 509  788.5734
 510  907.2773
 511  1106.222
