# Input file       =  1206186294.114467_cleaned.dat
# Candidate        =  PSR_0332+5434
# Telescope        =  AR
# Epoch_topo       =  58204.489306880401
# Epoch_bary       =  N/A
# T_sample         =  0.002
# Data Folded      =  7340032
# Data Avg         =  0.0152785884091027
# Data StdDev      =  1.00026035917323 
# Profile Bins     =  512
# Profile Avg      =  218.565187694027 
# Profile StdDev   =  119.764209971125 
# Reduced chi-sqr  =  1.280
# Prob(Noise)      <  1.8e-05   (~4.1 sigma)
# P_topo (ms)      =  714.572176722129  +/- 0.000257
# P'_topo (s/s)    =  -0                +/- 1.35e-10
# P''_topo (s/s^2) =  0                 +/- 5.98e-14
# P_bary (ms)      =  N/A
# P'_bary (s/s)    =  N/A
# P''_bary (s/s^2) =  N/A
# P_orb (s)        =  N/A
# asin(i)/c (s)    =  N/A
# eccentricity     =  N/A
# w (rad)          =  N/A
# T_peri           =  N/A
######################################################
   0  680.0384
   1  688.4718
   2  558.2751
   3  361.6137
   4  326.0042
   5  206.3185
   6  162.1015
   7  222.7891
   8  206.8029
   9  213.5907
  10  207.9403
  11  251.9741
  12  269.8979
  13  220.9649
  14  253.3753
  15  313.7379
  16  284.3542
  17  209.6981
  18  182.9973
  19  198.8544
  20  143.8583
  21  139.7192
  22  179.6932
  23  137.0587
  24  187.849
  25  79.7826
  26  109.3761
  27  121.7932
  28  209.2885
  29  234.7722
  30  176.3836
  31  109.4229
  32  98.71459
  33  95.15962
  34  123.1564
  35  131.3698
  36  142.9192
  37  131.1433
  38  188.442
  39  167.0079
  40  234.7492
  41  200.0225
  42  181.5538
  43  125.6667
  44  111.687
  45  171.6483
  46  202.5728
  47  175.4466
  48  226.3466
  49  192.2761
  50  188.7341
  51  278.9339
  52  257.9107
  53  233.8448
  54  216.6927
  55  239.6752
  56  221.0047
  57  249.8149
  58  207.4328
  59  173.295
  60  189.0727
  61  166.4615
  62  198.7898
  63  190.4039
  64  200.6557
  65  203.3697
  66  248.4463
  67  191.8469
  68  254.9926
  69  234.386
  70  192.9134
  71  133.6866
  72  136.6833
  73  262.5224
  74  153.3198
  75  199.1605
  76  268.9904
  77  202.8087
  78  198.3325
  79  99.57498
  80  164.8136
  81  135.978
  82  102.463
  83  156.175
  84  157.8877
  85  139.3813
  86  38.99529
  87  25.67825
  88  74.47179
  89  66.56842
  90  85.44368
  91  72.3035
  92  42.72038
  93  93.28712
  94  135.8371
  95  212.9391
  96  125.7235
  97  157.1426
  98  172.6868
  99  113.0986
 100  110.9133
 101  84.02517
 102  122.3353
 103  114.115
 104  80.60275
 105  113.3562
 106  83.46307
 107  129.4152
 108  118.4206
 109  51.32479
 110  148.3339
 111  227.8122
 112  213.6328
 113  185.6693
 114  189.0643
 115  167.9397
 116  155.711
 117  187.2716
 118  191.8782
 119  291.6789
 120  220.6243
 121  253.2926
 122  284.7906
 123  269.6878
 124  256.1707
 125  187.6055
 126  253.3635
 127  299.9287
 128  269.6269
 129  220.7691
 130  349.1779
 131  320.2499
 132  286.903
 133  260.6301
 134  186.3875
 135  215.2766
 136  231.912
 137  276.4402
 138  250.7668
 139  292.6373
 140  270.1308
 141  296.3624
 142  212.7459
 143  223.1129
 144  212.6797
 145  183.5237
 146  157.4064
 147  200.046
 148  136.7056
 149  195.099
 150  223.9052
 151  169.9136
 152  165.0903
 153  132.3503
 154  190.2811
 155  128.5149
 156  178.346
 157  153.5947
 158  97.68534
 159  89.48502
 160  135.0754
 161  82.18139
 162  124.7238
 163  134.1925
 164  205.6398
 165  232.091
 166  176.9932
 167  154.4185
 168  75.13065
 169  132.0625
 170  159.4572
 171  87.0653
 172  65.97352
 173  112.6554
 174  134.4626
 175  140.5528
 176  120.0021
 177  92.71838
 178  102.4338
 179  137.639
 180  173.0117
 181  130.2939
 182  132.4461
 183  81.52372
 184  101.2136
 185  99.64306
 186  90.28163
 187  71.4384
 188  56.15117
 189  107.1585
 190  118.4692
 191  148.1375
 192  87.11781
 193  56.46971
 194  122.8948
 195  230.4075
 196  171.0051
 197  157.2632
 198  252.31
 199  186.5901
 200  249.6477
 201  233.2551
 202  239.8052
 203  259.9426
 204  316.8122
 205  365.4476
 206  276.5072
 207  304.1961
 208  349.8269
 209  355.4765
 210  376.8661
 211  304.3073
 212  243.4053
 213  371.6999
 214  334.0325
 215  282.0623
 216  251.9138
 217  291.2524
 218  345.2492
 219  344.083
 220  352.6727
 221  386.1575
 222  275.471
 223  239.0991
 224  278.6734
 225  231.1493
 226  288.2194
 227  261.8561
 228  295.728
 229  293.3519
 230  273.5485
 231  338.0773
 232  249.4067
 233  127.5103
 234  108.8501
 235  188.3096
 236  123.446
 237  4.565483
 238  22.81344
 239  77.52969
 240  135.5145
 241  84.50913
 242  67.67704
 243  132.8559
 244  21.68258
 245  57.08582
 246  61.2942
 247  84.35161
 248  115.448
 249  174.9073
 250  107.7424
 251  109.696
 252  78.3456
 253  114.6139
 254  79.94085
 255  162.7123
 256  217.3841
 257  233.34
 258  214.7087
 259  173.6435
 260  249.3439
 261  155.3046
 262  113.6136
 263  131.6633
 264  140.4933
 265  164.0147
 266  266.2582
 267  299.0637
 268  228.4499
 269  211.101
 270  270.6254
 271  248.0269
 272  332.8741
 273  334.0598
 274  316.4563
 275  260.8686
 276  275.3035
 277  337.6095
 278  277.5795
 279  299.744
 280  304.4695
 281  312.9091
 282  366.7894
 283  370.9615
 284  290.629
 285  244.8212
 286  330.7162
 287  390.2285
 288  328.662
 289  336.0571
 290  410.0693
 291  382.0853
 292  270.3845
 293  246.1585
 294  283.9453
 295  262.1907
 296  280.8336
 297  175.6264
 298  237.3113
 299  205.0712
 300  171.5925
 301  212.9035
 302  213.1988
 303  254.061
 304  61.80028
 305  109.2735
 306  181.1239
 307  257.7072
 308  236.5849
 309  190.3143
 310  138.2818
 311  153.0371
 312  218.4698
 313  221.7345
 314  171.7964
 315  257.8666
 316  184.9593
 317  184.0265
 318  180.8238
 319  189.6826
 320  174.2115
 321  176.3755
 322  227.7036
 323  185.9134
 324  229.7447
 325  213.1543
 326  245.4697
 327  260.8666
 328  224.5544
 329  208.3431
 330  210.8327
 331  249.671
 332  245.8858
 333  199.2613
 334  213.2531
 335  235.7823
 336  226.9116
 337  270.0603
 338  305.7368
 339  270.3229
 340  267.2621
 341  296.9842
 342  260.5966
 343  244.892
 344  213.1629
 345  340.9187
 346  359.9048
 347  333.6945
 348  271.6951
 349  295.6822
 350  234.6449
 351  244.0969
 352  396.7262
 353  350.2963
 354  232.4368
 355  359.5187
 356  283.1042
 357  268.411
 358  238.335
 359  311.5006
 360  338.0194
 361  300.573
 362  370.5623
 363  410.0981
 364  369.335
 365  264.4237
 366  220.8588
 367  209.152
 368  154.9106
 369  161.806
 370  157.6612
 371  142.6259
 372  178.755
 373  120.4312
 374  125.1037
 375  196.025
 376  123.4081
 377  68.3959
 378  76.08646
 379  72.18561
 380  127.4444
 381  165.1751
 382  105.8695
 383  125.1141
 384  103.2149
 385  142.915
 386  142.0541
 387  75.32727
 388  126.612
 389  171.7558
 390  147.8684
 391  173.9962
 392  137.0788
 393  100.9748
 394  58.25409
 395  51.57388
 396  71.08971
 397  163.6386
 398  156.1487
 399  300.0775
 400  334.9854
 401  304.0604
 402  225.397
 403  184.9433
 404  241.1968
 405  350.7068
 406  302.6339
 407  222.1806
 408  201.1777
 409  176.1426
 410  94.21153
 411  184.9652
 412  279.8106
 413  260.0777
 414  213.8724
 415  241.423
 416  323.6891
 417  240.7995
 418  218.8432
 419  245.1422
 420  258.9597
 421  316.3562
 422  366.0555
 423  390.352
 424  335.6937
 425  250.0392
 426  333.3471
 427  397.2991
 428  329.7776
 429  330.7869
 430  424.3065
 431  435.5594
 432  398.3562
 433  363.4789
 434  449.0164
 435  434.5118
 436  393.8074
 437  300.0583
 438  296.7586
 439  407.2782
 440  461.9169
 441  366.7564
 442  261.9017
 443  230.6424
 444  218.1623
 445  229.5023
 446  266.0461
 447  223.1494
 448  243.5313
 449  289.2043
 450  261.2686
 451  195.9753
 452  240.5069
 453  213.8232
 454  192.4623
 455  193.3493
 456  215.2737
 457  282.6882
 458  215.84
 459  226.0661
 460  206.0901
 461  203.011
 462  238.5636
 463  246.9982
 464  270.2072
 465  148.3718
 466  117.2119
 467  148.8388
 468  151.4991
 469  133.0771
 470  164.6716
 471  280.476
 472  231.8394
 473  80.52045
 474  131.9395
 475  228.3002
 476  232.7315
 477  156.7101
 478  127.0338
 479  213.8964
 480  198.8062
 481  225.6482
 482  299.4322
 483  188.6549
 484  155.3602
 485  200.327
 486  176.7042
 487  242.6335
 488  292.8274
 489  261.2099
 490  311.1149
 491  332.951
 492  347.0815
 493  239.8215
 494  269.8523
 495  285.868
 496  231.8389
 497  294.6248
 498  278.3401
 499  297.9294
 500  331.1149
 501  310.8995
 502  359.8039
 503  315.4362
 504  266.5949
 505  302.6665
 506  450.0846
 507  422.8224
 508  431.3745
 509  588.8489
 510  656.5453
 511  618.728
