# Input file       =  1207644063.222042_cleaned.dat
# Candidate        =  PSR_0332+5434
# Telescope        =  AR
# Epoch_topo       =  58221.361634514375
# Epoch_bary       =  N/A
# T_sample         =  0.002
# Data Folded      =  7340032
# Data Avg         =  0.00798726055902501
# Data StdDev      =  1.0000869025019  
# Profile Bins     =  512
# Profile Avg      =  114.448719906132 
# Profile StdDev   =  119.743441477188 
# Reduced chi-sqr  =  2.611
# Prob(Noise)      <  7.8e-75   (~18.3 sigma)
# P_topo (ms)      =  714.561348343288  +/- 0.000212
# P'_topo (s/s)    =  -0                +/- 1.12e-10
# P''_topo (s/s^2) =  0                 +/- 4.94e-14
# P_bary (ms)      =  N/A
# P'_bary (s/s)    =  N/A
# P''_bary (s/s^2) =  N/A
# P_orb (s)        =  N/A
# asin(i)/c (s)    =  N/A
# eccentricity     =  N/A
# w (rad)          =  N/A
# T_peri           =  N/A
######################################################
   0  1233.402
   1  1124.803
   2  867.9454
   3  564.9133
   4  327.2994
   5  166.9683
   6  11.91804
   7  13.2658
   8  128.2977
   9  179.3615
  10  179.1707
  11  195.6843
  12  220.5814
  13  216.1502
  14  224.6735
  15  110.6722
  16  149.2415
  17  116.5038
  18  102.6538
  19  116.4001
  20  119.6196
  21  136.2401
  22  -11.01105
  23  73.69434
  24  119.3055
  25  -14.65878
  26  101.1985
  27  54.19532
  28  -5.826522
  29  82.85028
  30  180.0806
  31  182.6281
  32  111.2518
  33  80.73347
  34  165.8679
  35  220.2251
  36  112.0311
  37  109.1871
  38  246.969
  39  189.5658
  40  70.57567
  41  108.3669
  42  173.3969
  43  76.58138
  44  -39.73714
  45  89.61623
  46  249.7813
  47  347.9553
  48  292.9925
  49  260.0798
  50  230.9147
  51  221.7492
  52  228.8562
  53  200.5508
  54  144.6085
  55  307.0715
  56  317.6652
  57  154.6963
  58  26.00009
  59  130.2567
  60  228.0815
  61  308.7729
  62  263.5023
  63  240.4946
  64  170.6281
  65  72.9552
  66  187.6448
  67  102.3495
  68  0.5481959
  69  -13.14716
  70  35.56414
  71  62.83109
  72  131.0887
  73  152.1459
  74  143.355
  75  86.07124
  76  104.4205
  77  77.09255
  78  70.31435
  79  158.1026
  80  221.5612
  81  127.6111
  82  61.24057
  83  37.34787
  84  19.62308
  85  165.3773
  86  106.5992
  87  123.2226
  88  218.745
  89  193.9666
  90  52.74366
  91  -48.19471
  92  86.38021
  93  80.48229
  94  47.76977
  95  64.30137
  96  131.8363
  97  64.35391
  98  49.9709
  99  -4.643456
 100  6.515975
 101  128.6353
 102  64.54716
 103  38.05669
 104  139.1242
 105  197.5814
 106  99.00086
 107  24.92365
 108  -14.11809
 109  -4.479014
 110  59.1642
 111  187.7536
 112  112.945
 113  19.73578
 114  49.01783
 115  -9.384981
 116  -97.74082
 117  2.407964
 118  -88.49471
 119  23.37124
 120  116.593
 121  211.2568
 122  88.6294
 123  36.05458
 124  20.23263
 125  64.1516
 126  88.67091
 127  174.7009
 128  299.6459
 129  254.7131
 130  121.6217
 131  2.507033
 132  9.565097
 133  126.2233
 134  222.286
 135  84.19923
 136  -35.95546
 137  30.38326
 138  87.66676
 139  157.8441
 140  170.1652
 141  -56.67915
 142  -36.91042
 143  58.75164
 144  210.1951
 145  338.5706
 146  245.7782
 147  222.5299
 148  61.38004
 149  59.42506
 150  11.19329
 151  -63.76532
 152  -161.4489
 153  -34.48142
 154  128.4242
 155  80.63499
 156  -80.39162
 157  25.44022
 158  85.9243
 159  5.378608
 160  73.69896
 161  -7.638075
 162  94.83599
 163  138.995
 164  154.9682
 165  120.9881
 166  10.32012
 167  12.14755
 168  86.84312
 169  19.37495
 170  18.99138
 171  52.67345
 172  104.2156
 173  -28.65607
 174  -146.768
 175  -102.4179
 176  -44.25479
 177  6.159448
 178  223.3597
 179  46.68481
 180  -14.65501
 181  38.12219
 182  65.61626
 183  52.25052
 184  28.30515
 185  86.84319
 186  77.59698
 187  63.18356
 188  50.22352
 189  48.41792
 190  77.33929
 191  185.5109
 192  260.5755
 193  160.76
 194  181.4505
 195  113.9399
 196  134.0789
 197  93.16779
 198  57.35299
 199  44.40436
 200  65.54469
 201  183.7849
 202  117.238
 203  129.608
 204  118.62
 205  144.5234
 206  326.5366
 207  264.3686
 208  220.1184
 209  158.7431
 210  69.24149
 211  98.87882
 212  123.2289
 213  157.0489
 214  96.66924
 215  16.22905
 216  73.41021
 217  88.95032
 218  169.5291
 219  119.4198
 220  117.9832
 221  24.17125
 222  43.90524
 223  38.05117
 224  1.466638
 225  45.99603
 226  132.3193
 227  144.9798
 228  203.0798
 229  196.0962
 230  219.2259
 231  193.0618
 232  146.9333
 233  60.16483
 234  -17.66497
 235  11.5719
 236  120.5126
 237  198.3857
 238  234.1732
 239  173.097
 240  30.0844
 241  125.1237
 242  30.9478
 243  98.83349
 244  116.3534
 245  148.7038
 246  66.16073
 247  59.08274
 248  85.36977
 249  163.485
 250  67.83039
 251  5.483872
 252  2.690741
 253  -1.594122
 254  172.05
 255  189.225
 256  148.3997
 257  168.5806
 258  102.5053
 259  191.4624
 260  188.7307
 261  105.5977
 262  159.8509
 263  111.6182
 264  128.9227
 265  237.1351
 266  262.9125
 267  159.0221
 268  143.8466
 269  -12.64254
 270  60.84136
 271  185.594
 272  149.7199
 273  153.9862
 274  148.8627
 275  79.77407
 276  62.40235
 277  54.53027
 278  95.67753
 279  102.6368
 280  -34.79781
 281  -39.07057
 282  102.0345
 283  115.205
 284  14.22602
 285  86.50867
 286  190.5241
 287  5.306175
 288  -58.90801
 289  -73.79911
 290  55.23046
 291  19.12816
 292  112.4882
 293  46.09374
 294  -19.61461
 295  80.98382
 296  131.5337
 297  13.24118
 298  31.30531
 299  49.60311
 300  9.673634
 301  -77.72938
 302  -29.5027
 303  -30.85518
 304  -77.0651
 305  -54.1531
 306  53.6614
 307  120.8287
 308  82.76283
 309  -19.21743
 310  20.44061
 311  23.20698
 312  -32.77601
 313  -113.9546
 314  -105.038
 315  -34.7781
 316  42.87115
 317  34.83289
 318  64.19312
 319  12.96811
 320  -15.35777
 321  2.340866
 322  -43.53008
 323  -61.53042
 324  44.69651
 325  2.028424
 326  12.63152
 327  84.26721
 328  92.46668
 329  -87.50127
 330  -75.39273
 331  166.5023
 332  196.1745
 333  -53.50356
 334  -129.5459
 335  -25.52404
 336  61.29744
 337  151.7614
 338  8.113177
 339  -6.49535
 340  74.19346
 341  223.71
 342  201.0203
 343  52.64223
 344  80.07341
 345  89.67657
 346  181.641
 347  213.3118
 348  179.8968
 349  186.4983
 350  145.7232
 351  172.5768
 352  136.8382
 353  56.3503
 354  180.3715
 355  250.0759
 356  152.3441
 357  80.17388
 358  191.6676
 359  255.4675
 360  76.26536
 361  200.2114
 362  271.1129
 363  176.4612
 364  12.11318
 365  78.20132
 366  105.7055
 367  52.24598
 368  138.5984
 369  167.8613
 370  124.3696
 371  25.20828
 372  89.10836
 373  57.03002
 374  153.1819
 375  179.0436
 376  144.8121
 377  151.0959
 378  179.9975
 379  140.377
 380  94.87817
 381  156.1756
 382  137.6209
 383  8.607711
 384  -43.32699
 385  -4.417209
 386  27.94935
 387  81.10458
 388  97.22335
 389  -14.67142
 390  -52.68672
 391  25.1469
 392  30.20079
 393  -135.5773
 394  -83.81393
 395  -64.2342
 396  4.457705
 397  69.62222
 398  40.69984
 399  49.47208
 400  90.02135
 401  61.59093
 402  -16.81387
 403  62.53561
 404  103.9567
 405  103.8398
 406  72.05557
 407  22.54013
 408  130.7992
 409  147.405
 410  197.6836
 411  253.8425
 412  215.7251
 413  154.2022
 414  105.9314
 415  92.55865
 416  123.0607
 417  222.1024
 418  180.1204
 419  286.6908
 420  305.6129
 421  275.5664
 422  212.3754
 423  272.8249
 424  248.9543
 425  269.8684
 426  270.0528
 427  193.2178
 428  83.70618
 429  198.5539
 430  254.1498
 431  126.8893
 432  102.129
 433  192.0932
 434  220.7537
 435  185.8703
 436  129.6797
 437  68.0504
 438  146.866
 439  104.6942
 440  49.94532
 441  53.17925
 442  139.1214
 443  180.9517
 444  297.7356
 445  269.4921
 446  205.7816
 447  87.16488
 448  -18.97464
 449  10.47624
 450  124.3431
 451  202.0869
 452  133.7048
 453  158.4188
 454  173.9711
 455  109.612
 456  154.0992
 457  170.3928
 458  68.51641
 459  29.0198
 460  3.399387
 461  -13.82324
 462  2.148985
 463  96.0197
 464  49.93264
 465  -30.19057
 466  -0.1598299
 467  26.08949
 468  62.26972
 469  110.1473
 470  143.9889
 471  141.5957
 472  47.82212
 473  91.40742
 474  18.73629
 475  52.14826
 476  57.86695
 477  112.8322
 478  145.4556
 479  155.3605
 480  22.06308
 481  77.90366
 482  110.941
 483  21.39685
 484  71.13616
 485  59.98829
 486  85.80414
 487  87.76096
 488  99.29585
 489  245.043
 490  137.1824
 491  199.1891
 492  219.0149
 493  302.3206
 494  289.5892
 495  121.1596
 496  188.1845
 497  219.5458
 498  153.2337
 499  114.0778
 500  110.857
 501  141.3936
 502  190.7233
 503  183.9582
 504  202.9753
 505  263.4597
 506  305.3615
 507  373.7419
 508  422.2533
 509  852.3734
 510  1094.777
 511  1127.205
