# Input file       =  1207838381.10396_cleaned.dat
# Candidate        =  PSR_0332+5434
# Telescope        =  AR
# Epoch_topo       =  58223.610684073610
# Epoch_bary       =  N/A
# T_sample         =  0.002
# Data Folded      =  7340032
# Data Avg         =  0.0285430146315703
# Data StdDev      =  1.00004940612517 
# Profile Bins     =  512
# Profile Avg      =  409.200021041107 
# Profile StdDev   =  119.738951922149 
# Reduced chi-sqr  =  2.139
# Prob(Noise)      <  2.09e-44   (~13.9 sigma)
# P_topo (ms)      =  714.56003484343   +/- 0.000259
# P'_topo (s/s)    =  -0                +/- 1.36e-10
# P''_topo (s/s^2) =  0                 +/- 6.02e-14
# P_bary (ms)      =  N/A
# P'_bary (s/s)    =  N/A
# P''_bary (s/s^2) =  N/A
# P_orb (s)        =  N/A
# asin(i)/c (s)    =  N/A
# eccentricity     =  N/A
# w (rad)          =  N/A
# T_peri           =  N/A
######################################################
   0  1430.347
   1  1286.212
   2  1083.918
   3  894.4127
   4  747.8923
   5  568.4387
   6  471.935
   7  429.9585
   8  453.5984
   9  433.7628
  10  659.4769
  11  628.877
  12  446.9247
  13  494.593
  14  530.4259
  15  536.8846
  16  571.2523
  17  562.2908
  18  528.2052
  19  434.8394
  20  433.186
  21  480.101
  22  404.0942
  23  339.9868
  24  321.3348
  25  451.0014
  26  558.1861
  27  427.3752
  28  420.5366
  29  475.616
  30  530.1172
  31  451.928
  32  402.1115
  33  470.8298
  34  526.5206
  35  484.0061
  36  542.0231
  37  451.2261
  38  343.7003
  39  367.9273
  40  317.6136
  41  273.7328
  42  308.6503
  43  305.7353
  44  281.4869
  45  348.7521
  46  300.7673
  47  271.1716
  48  385.5959
  49  424.4626
  50  339.8169
  51  270.168
  52  250.9727
  53  373.3601
  54  361.2669
  55  349.6896
  56  363.7247
  57  335.2316
  58  367.2137
  59  321.3007
  60  437.1693
  61  487.147
  62  484.8217
  63  507.4637
  64  482.3755
  65  403.6999
  66  442.1463
  67  431.9519
  68  444.913
  69  511.0238
  70  541.1192
  71  499.0305
  72  557.2009
  73  575.4867
  74  532.4718
  75  566.2183
  76  466.973
  77  462.9954
  78  496.3716
  79  399.2819
  80  528.6423
  81  586.9511
  82  427.1297
  83  465.2352
  84  543.4555
  85  521.8416
  86  501.7369
  87  538.072
  88  477.535
  89  500.5847
  90  559.1334
  91  525.6663
  92  504.7328
  93  490.8121
  94  457.8812
  95  464.1093
  96  499.0771
  97  463.8083
  98  620.4677
  99  529.2386
 100  458.4174
 101  419.0934
 102  420.2294
 103  357.0589
 104  339.2757
 105  266.5369
 106  374.1695
 107  209.3707
 108  293.8985
 109  285.3691
 110  304.542
 111  358.3248
 112  382.7924
 113  285.6196
 114  311.7505
 115  279.2707
 116  380.7114
 117  351.5045
 118  359.6898
 119  319.5258
 120  346.4187
 121  292.7083
 122  294.4095
 123  322.7447
 124  385.5931
 125  289.9461
 126  320.2029
 127  405.547
 128  407.8669
 129  338.8947
 130  221.1814
 131  251.8521
 132  260.4555
 133  350.9326
 134  424.9061
 135  364.2574
 136  379.2252
 137  435.3451
 138  373.1546
 139  383.0659
 140  392.1337
 141  417.0863
 142  475.3128
 143  411.4978
 144  376.2002
 145  465.9055
 146  421.1006
 147  333.6573
 148  407.2973
 149  426.2654
 150  394.2815
 151  461.2306
 152  465.6352
 153  409.6008
 154  405.1009
 155  476.1859
 156  407.7389
 157  351.5463
 158  494.5724
 159  475.327
 160  525.3149
 161  481.595
 162  448.535
 163  453.255
 164  439.9606
 165  421.9505
 166  344.6906
 167  377.9199
 168  290.8701
 169  399.7614
 170  454.5762
 171  401.8899
 172  361.7077
 173  375.0248
 174  337.7145
 175  452.9143
 176  314.0127
 177  327.2449
 178  396.4802
 179  418.9346
 180  387.207
 181  430.1812
 182  429.8062
 183  359.2185
 184  301.6184
 185  369.7515
 186  333.2035
 187  340.3742
 188  348.9211
 189  409.2847
 190  247.5788
 191  327.0097
 192  393.0432
 193  315.6258
 194  315.4094
 195  302.5461
 196  341.9187
 197  380.4826
 198  330.2067
 199  502.9595
 200  463.4191
 201  393.7995
 202  374.4939
 203  450.2071
 204  329.2066
 205  323.5882
 206  452.9539
 207  340.5707
 208  380.0753
 209  418.8559
 210  427.1334
 211  357.1905
 212  459.8542
 213  349.6779
 214  311.9594
 215  213.6819
 216  371.8393
 217  459.4727
 218  415.4998
 219  413.7163
 220  401.5446
 221  472.7508
 222  429.4823
 223  391.3885
 224  457.1485
 225  471.3986
 226  492.9488
 227  608.7912
 228  602.5334
 229  507.351
 230  586.7051
 231  461.7538
 232  435.6152
 233  587.076
 234  565.5527
 235  649.981
 236  491.2493
 237  488.8858
 238  529.934
 239  551.2245
 240  583.8799
 241  488.6786
 242  478.0407
 243  542.7505
 244  550.85
 245  395.9635
 246  419.266
 247  414.035
 248  419.1192
 249  431.0513
 250  425.3208
 251  440.7664
 252  504.6173
 253  481.8009
 254  445.7527
 255  428.4555
 256  358.8568
 257  412.2664
 258  496.3005
 259  403.5648
 260  404.1594
 261  465.7725
 262  497.4704
 263  451.2684
 264  456.968
 265  501.2701
 266  543.8442
 267  432.3319
 268  418.1785
 269  492.1687
 270  490.5921
 271  329.8581
 272  341.4952
 273  395.3606
 274  421.1259
 275  341.2534
 276  386.8711
 277  367.1653
 278  326.6989
 279  352.7313
 280  326.4492
 281  307.9168
 282  349.9147
 283  396.1765
 284  474.3086
 285  449.889
 286  386.9302
 287  274.6556
 288  285.1978
 289  381.663
 290  473.1677
 291  532.015
 292  456.8479
 293  423.8138
 294  440.2966
 295  435.9803
 296  467.5039
 297  481.7511
 298  381.1589
 299  355.9529
 300  377.684
 301  503.4725
 302  549.6868
 303  490.973
 304  597.9539
 305  581.6873
 306  486.381
 307  357.5165
 308  467.8141
 309  477.5823
 310  488.0699
 311  487.8871
 312  433.6246
 313  401.0248
 314  381.0986
 315  414.0838
 316  384.3758
 317  524.9378
 318  482.7797
 319  358.6855
 320  339.1482
 321  318.9611
 322  269.7426
 323  176.6143
 324  165.6736
 325  278.6386
 326  431.0675
 327  355.2626
 328  290.3038
 329  298.2784
 330  325.5407
 331  360.9642
 332  290.5245
 333  294.511
 334  386.6396
 335  391.8019
 336  323.7615
 337  283.5325
 338  277.6858
 339  258.1139
 340  298.3402
 341  323.7252
 342  439.3551
 343  501.2603
 344  294.2656
 345  311.7197
 346  291.5164
 347  279.9125
 348  275.4017
 349  292.4025
 350  310.9799
 351  337.0978
 352  265.1048
 353  274.3913
 354  285.1526
 355  269.8395
 356  310.4146
 357  378.2739
 358  188.6181
 359  160.1759
 360  256.1048
 361  336.6978
 362  344.8633
 363  321.6995
 364  347.764
 365  432.589
 366  358.0227
 367  326.5236
 368  337.7147
 369  376.6257
 370  499.3497
 371  400.8569
 372  393.8195
 373  431.8244
 374  339.3002
 375  421.2968
 376  508.0726
 377  471.4086
 378  427.3763
 379  407.3188
 380  460.2007
 381  462.6921
 382  402.3751
 383  374.8384
 384  401.6959
 385  357.6611
 386  317.9828
 387  241.0959
 388  289.1382
 389  259.2543
 390  388.5958
 391  419.6121
 392  440.3769
 393  362.0392
 394  328.8204
 395  410.0917
 396  375.6449
 397  348.1911
 398  379.9376
 399  438.2825
 400  481.4925
 401  294.4854
 402  271.3777
 403  325.2292
 404  260.1718
 405  195.0792
 406  200.8398
 407  292.2272
 408  309.6249
 409  243.6154
 410  250.4281
 411  171.4121
 412  287.8883
 413  264.108
 414  195.6843
 415  316.1272
 416  276.2109
 417  320.4831
 418  396.8248
 419  259.9598
 420  339.6279
 421  318.4928
 422  378.758
 423  376.2137
 424  362.8954
 425  243.3698
 426  207.3921
 427  313.0887
 428  411.7332
 429  391.7795
 430  427.5031
 431  434.9402
 432  402.2414
 433  354.8157
 434  427.5781
 435  377.7226
 436  350.2553
 437  369.575
 438  435.699
 439  526.97
 440  423.8873
 441  412.0364
 442  476.829
 443  382.606
 444  347.0355
 445  495.4978
 446  539.9955
 447  560.496
 448  448.9524
 449  474.8112
 450  474.8456
 451  449.2406
 452  393.372
 453  467.2565
 454  375.8196
 455  370.4993
 456  505.5537
 457  433.4484
 458  441.7107
 459  349.4359
 460  386.2671
 461  431.3676
 462  424.3477
 463  482.9099
 464  393.2445
 465  366.2408
 466  389.0288
 467  429.0178
 468  517.7174
 469  425.7582
 470  382.9457
 471  384.529
 472  323.4305
 473  224.7708
 474  268.5861
 475  344.242
 476  328.6037
 477  256.6673
 478  286.129
 479  296.5595
 480  206.97
 481  354.2393
 482  226.0765
 483  137.0842
 484  186.394
 485  299.1395
 486  370.2688
 487  419.5146
 488  257.2756
 489  311.8538
 490  302.9074
 491  352.8732
 492  466.4758
 493  489.6267
 494  511.2885
 495  500.3891
 496  533.2397
 497  448.5308
 498  439.9442
 499  340.1574
 500  345.4364
 501  424.5188
 502  367.6071
 503  455.7286
 504  495.5767
 505  360.5329
 506  320.3201
 507  521.7044
 508  678.3226
 509  843.2755
 510  1038.374
 511  1288.369
