# Input file       =  1207673922.110527_cleaned.dat
# Candidate        =  PSR_0332+5434
# Telescope        =  AR
# Epoch_topo       =  58221.707223501471
# Epoch_bary       =  N/A
# T_sample         =  0.002
# Data Folded      =  7340032
# Data Avg         =  0.00901634019627735
# Data StdDev      =  1.00003259994955 
# Profile Bins     =  512
# Profile Avg      =  129.239528611944 
# Profile StdDev   =  119.736939667712 
# Reduced chi-sqr  =  2.620
# Prob(Noise)      <  1.95e-75   (~18.3 sigma)
# P_topo (ms)      =  714.561674091646  +/- 0.000221
# P'_topo (s/s)    =  -0                +/- 1.17e-10
# P''_topo (s/s^2) =  0                 +/- 5.14e-14
# P_bary (ms)      =  N/A
# P'_bary (s/s)    =  N/A
# P''_bary (s/s^2) =  N/A
# P_orb (s)        =  N/A
# asin(i)/c (s)    =  N/A
# eccentricity     =  N/A
# w (rad)          =  N/A
# T_peri           =  N/A
######################################################
   0  1387.439
   1  1168.076
   2  954.5891
   3  620.9058
   4  309.7626
   5  146.1221
   6  118.9432
   7  103.434
   8  -0.8854743
   9  184.4104
  10  109.859
  11  152.272
  12  296.0516
  13  223.4469
  14  68.9906
  15  147.8225
  16  185.1233
  17  194.6598
  18  186.679
  19  143.4505
  20  99.12122
  21  161.3122
  22  147.3398
  23  167.1992
  24  235.2307
  25  238.4687
  26  139.5877
  27  211.1678
  28  195.9455
  29  217.347
  30  138.1497
  31  284.3989
  32  149.0969
  33  134.2929
  34  268.8889
  35  186.8085
  36  236.3619
  37  208.6051
  38  98.45152
  39  136.8753
  40  211.8197
  41  293.4609
  42  275.5177
  43  228.1715
  44  30.74438
  45  -79.29105
  46  34.63595
  47  103.6689
  48  150.5885
  49  207.3877
  50  152.5619
  51  174.8823
  52  188.8316
  53  195.3826
  54  94.36548
  55  124.2816
  56  136.896
  57  148.9889
  58  69.25391
  59  85.61317
  60  57.33101
  61  50.24984
  62  -4.652476
  63  189.3025
  64  135.0002
  65  81.8688
  66  -21.98929
  67  221.9511
  68  227.3697
  69  65.70734
  70  105.4532
  71  77.53455
  72  212.6295
  73  130.5395
  74  166.9917
  75  189.1679
  76  134.5692
  77  114.1597
  78  157.6794
  79  69.2431
  80  113.1749
  81  267.6496
  82  239.3113
  83  98.75997
  84  178.989
  85  54.17982
  86  144.1397
  87  111.6608
  88  230.7209
  89  200.1738
  90  178.6432
  91  2.070715
  92  -61.88822
  93  51.18488
  94  79.33826
  95  -59.49727
  96  104.1972
  97  75.34903
  98  187.5168
  99  136.8951
 100  219.4294
 101  214.5491
 102  94.6607
 103  134.5788
 104  14.8489
 105  142.9805
 106  125.8703
 107  131.6919
 108  -57.04273
 109  -83.27834
 110  7.82648
 111  79.08265
 112  39.79252
 113  95.0435
 114  168.8845
 115  109.1502
 116  -0.08349629
 117  78.31425
 118  -1.91104
 119  47.43311
 120  28.63331
 121  31.5567
 122  53.67012
 123  142.4157
 124  148.0029
 125  -13.97795
 126  10.92237
 127  139.1687
 128  120.1302
 129  109.1899
 130  62.4504
 131  93.45377
 132  93.37759
 133  -30.55339
 134  -91.07269
 135  24.71598
 136  174.8143
 137  178.3584
 138  7.160298
 139  -40.76192
 140  28.47956
 141  119.541
 142  157.6416
 143  182.0529
 144  265.8773
 145  187.9614
 146  295.005
 147  299.0234
 148  182.9389
 149  55.11367
 150  21.14547
 151  290.1497
 152  316.8667
 153  298.9686
 154  146.5839
 155  109.3654
 156  66.95033
 157  27.86752
 158  37.45705
 159  182.6057
 160  53.19773
 161  46.56711
 162  118.4999
 163  185.1471
 164  182.9668
 165  103.2294
 166  76.45982
 167  43.17065
 168  88.43173
 169  160.4462
 170  206.7047
 171  39.12077
 172  32.96775
 173  104.7374
 174  47.81842
 175  119.567
 176  208.3799
 177  251.1376
 178  106.5298
 179  164.2121
 180  249.8179
 181  200.2417
 182  85.1459
 183  50.07507
 184  36.37773
 185  76.50773
 186  -72.39202
 187  100.8969
 188  59.36812
 189  84.19947
 190  131.4272
 191  167.1168
 192  98.92593
 193  110.9578
 194  36.41585
 195  143.3083
 196  107.6122
 197  21.18215
 198  24.26929
 199  -33.54689
 200  17.02628
 201  31.55137
 202  7.190512
 203  -11.06857
 204  -12.36203
 205  129.1838
 206  -47.58884
 207  -7.902114
 208  -12.77293
 209  -132.6975
 210  72.03371
 211  145.4608
 212  -15.06563
 213  79.46233
 214  57.45878
 215  -8.253359
 216  125.4514
 217  53.69827
 218  29.04709
 219  67.34771
 220  69.1105
 221  39.34505
 222  70.52305
 223  158.9063
 224  103.3519
 225  -18.30096
 226  -4.797836
 227  64.37021
 228  174.5805
 229  271.1703
 230  213.3898
 231  193.7262
 232  122.8306
 233  -14.08313
 234  175.3632
 235  277.3755
 236  193.8689
 237  147.6821
 238  174.9228
 239  176.609
 240  230.7812
 241  266.583
 242  198.6417
 243  221.5306
 244  126.6867
 245  83.19842
 246  93.84432
 247  127.8393
 248  209.342
 249  126.4703
 250  128.6363
 251  232.7667
 252  113.3541
 253  119.6655
 254  62.68836
 255  64.46261
 256  70.32128
 257  30.40547
 258  -167.0772
 259  -141.7921
 260  43.67583
 261  132.3299
 262  239.6925
 263  253.8378
 264  177.8957
 265  113.2766
 266  42.34261
 267  181.7298
 268  170.6073
 269  -43.99381
 270  3.614816
 271  82.54844
 272  77.21278
 273  21.81518
 274  46.43034
 275  8.180566
 276  151.0041
 277  178.7634
 278  132.1295
 279  102.6781
 280  190.1453
 281  192.8261
 282  190.3956
 283  214.0185
 284  207.6215
 285  214.2591
 286  148.2448
 287  105.249
 288  74.91825
 289  123.3773
 290  116.3183
 291  93.08938
 292  246.6189
 293  181.0264
 294  72.25993
 295  142.1677
 296  206.1556
 297  212.5032
 298  28.02585
 299  18.21482
 300  103.0027
 301  138.644
 302  193.0229
 303  171.9046
 304  124.453
 305  77.77328
 306  68.10469
 307  22.19957
 308  65.58201
 309  189.4086
 310  73.89713
 311  108.4816
 312  102.9122
 313  92.76866
 314  -32.55699
 315  51.32396
 316  120.3377
 317  139.136
 318  135.7152
 319  112.1824
 320  23.60604
 321  172.237
 322  251.0072
 323  98.36989
 324  78.49468
 325  176.7331
 326  63.15814
 327  -77.9192
 328  44.66732
 329  46.69346
 330  9.089065
 331  30.16612
 332  217.794
 333  72.36444
 334  123.2178
 335  94.84742
 336  60.30053
 337  32.66735
 338  28.18289
 339  173.6907
 340  216.0593
 341  38.67371
 342  113.2138
 343  53.87674
 344  9.628684
 345  135.5076
 346  169.5846
 347  139.0368
 348  160.0486
 349  132.9658
 350  97.4241
 351  12.66989
 352  183.9148
 353  58.75626
 354  46.31215
 355  220.8044
 356  313.5542
 357  210.4219
 358  282.499
 359  178.3931
 360  154.125
 361  84.6552
 362  71.26042
 363  154.1043
 364  135.8262
 365  166.0537
 366  113.1769
 367  141.7587
 368  73.10317
 369  233.1813
 370  272.4715
 371  230.7998
 372  134.0471
 373  91.07545
 374  153.2285
 375  256.3858
 376  241.5258
 377  223.1526
 378  133.7598
 379  147.7156
 380  276.5383
 381  142.5419
 382  257.7391
 383  193.2584
 384  175.2501
 385  88.58503
 386  128.1898
 387  180.1902
 388  190.5755
 389  62.6773
 390  99.66135
 391  170.1821
 392  -13.21358
 393  152.9205
 394  221.0234
 395  103.1495
 396  36.15248
 397  133.6597
 398  199.1224
 399  161.4364
 400  -7.879125
 401  -128.4337
 402  -30.81872
 403  122.7371
 404  86.43004
 405  191.0066
 406  147.7771
 407  -130.62
 408  90.40572
 409  205.113
 410  157.601
 411  87.84303
 412  141.3696
 413  139.3805
 414  205.8543
 415  141.3093
 416  164.1137
 417  49.31379
 418  120.7709
 419  154.2338
 420  76.81105
 421  27.86108
 422  139.2079
 423  63.63049
 424  160.3672
 425  222.226
 426  181.1253
 427  117.9796
 428  70.46021
 429  109.8557
 430  130.2796
 431  117.9968
 432  76.41852
 433  102.1591
 434  147.2209
 435  107.758
 436  67.93146
 437  150.0519
 438  164.7103
 439  108.136
 440  204.1505
 441  294.2635
 442  233.0702
 443  212.7834
 444  71.97603
 445  -39.60203
 446  112.2835
 447  119.3103
 448  146.8772
 449  253.0839
 450  223.5126
 451  181.6174
 452  145.325
 453  -34.92796
 454  38.04389
 455  82.79993
 456  95.01817
 457  125.9955
 458  80.87098
 459  116.858
 460  106.2172
 461  115.0713
 462  27.49105
 463  22.03513
 464  46.56934
 465  128.2432
 466  139.6169
 467  9.849357
 468  149.8265
 469  142.7569
 470  65.69778
 471  -19.60073
 472  40.46798
 473  31.90879
 474  67.42474
 475  158.6999
 476  189.0008
 477  77.12687
 478  30.96399
 479  44.19844
 480  -10.91219
 481  -87.33228
 482  -133.0615
 483  -107.8346
 484  0.7227364
 485  53.99646
 486  83.45944
 487  53.30073
 488  46.76582
 489  -34.81518
 490  82.75195
 491  212.0986
 492  166.6052
 493  243.9871
 494  205.8182
 495  17.14832
 496  -16.20101
 497  93.07815
 498  180.1286
 499  181.4735
 500  99.00462
 501  67.21053
 502  116.574
 503  261.2872
 504  280.3641
 505  328.9224
 506  243.4222
 507  456.5319
 508  513.9631
 509  595.7142
 510  1027.915
 511  1322.719
