# Input file       =  1207894977.102396_cleaned.dat
# Candidate        =  PSR_0332+5434
# Telescope        =  AR
# Epoch_topo       =  58224.265730351806
# Epoch_bary       =  N/A
# T_sample         =  0.002
# Data Folded      =  7208960
# Data Avg         =  0.0288946552675283
# Data StdDev      =  1.00007094335855 
# Profile Bins     =  512
# Profile Avg      =  406.925195342625 
# Profile StdDev   =  118.667593873984 
# Reduced chi-sqr  =  1.749
# Prob(Noise)      <  2.69e-23   (~9.9 sigma)
# P_topo (ms)      =  714.559171647654  +/- 9.13e-05
# P'_topo (s/s)    =  -0                +/- 4.9e-11
# P''_topo (s/s^2) =  0                 +/- 2.2e-14
# P_bary (ms)      =  N/A
# P'_bary (s/s)    =  N/A
# P''_bary (s/s^2) =  N/A
# P_orb (s)        =  N/A
# asin(i)/c (s)    =  N/A
# eccentricity     =  N/A
# w (rad)          =  N/A
# T_peri           =  N/A
######################################################
   0  1289.06
   1  1117.513
   2  901.7904
   3  706.5479
   4  541.1721
   5  279.2537
   6  213.7958
   7  324.2818
   8  409.2994
   9  429.5577
  10  444.0227
  11  402.9713
  12  370.4716
  13  307.1795
  14  387.5421
  15  315.0559
  16  347.5469
  17  415.8546
  18  435.8537
  19  458.6034
  20  415.5893
  21  312.1318
  22  238.4188
  23  334.9491
  24  443.5185
  25  458.4319
  26  400.5324
  27  358.238
  28  337.363
  29  390.1777
  30  308.8136
  31  248.5128
  32  424.4199
  33  606.1714
  34  499.5518
  35  396.0908
  36  397.2259
  37  338.7232
  38  233.1049
  39  281.6622
  40  379.219
  41  330.6601
  42  425.631
  43  341.3135
  44  331.7179
  45  366.3292
  46  294.6396
  47  343.4265
  48  375.5381
  49  261.0775
  50  339.6884
  51  391.4879
  52  424.765
  53  422.4267
  54  386.5388
  55  341.016
  56  416.1619
  57  452.1347
  58  492.5219
  59  570.8326
  60  549.7402
  61  333.4536
  62  394.7995
  63  455.839
  64  534.5586
  65  377.6866
  66  411.3819
  67  424.8732
  68  311.9913
  69  400.6418
  70  346.5065
  71  424.7958
  72  328.5438
  73  286.6383
  74  361.0038
  75  410.7462
  76  407.177
  77  348.9902
  78  430.3992
  79  277.4688
  80  239.27
  81  330.5925
  82  417.346
  83  411.7083
  84  461.2265
  85  447.5783
  86  413.5485
  87  440.8725
  88  431.193
  89  440.8138
  90  531.0042
  91  520.0548
  92  476.8611
  93  414.9621
  94  328.2282
  95  342.9842
  96  227.0396
  97  297.8743
  98  497.6493
  99  412.621
 100  379.435
 101  415.6518
 102  329.5545
 103  338.5475
 104  345.866
 105  338.2689
 106  419.7249
 107  377.7523
 108  289.5961
 109  453.7304
 110  322.4356
 111  254.6234
 112  243.7973
 113  282.3162
 114  320.2733
 115  298.9888
 116  386.5962
 117  461.0461
 118  455.9852
 119  479.3835
 120  348.232
 121  188.6149
 122  356.3536
 123  297.8347
 124  343.6763
 125  383.2545
 126  417.1676
 127  380.888
 128  350.3762
 129  227.5035
 130  355.916
 131  441.8179
 132  388.5014
 133  412.9047
 134  403.5007
 135  476.4066
 136  447.3305
 137  360.1796
 138  552.4277
 139  405.8551
 140  363.7393
 141  378.9749
 142  385.2166
 143  413.8087
 144  377.7433
 145  428.7606
 146  484.1717
 147  501.9547
 148  543.4402
 149  506.3982
 150  396.1389
 151  467.3371
 152  339.8753
 153  337.8191
 154  427.0655
 155  358.0697
 156  295.1281
 157  428.6013
 158  459.6543
 159  474.5362
 160  439.658
 161  348.8656
 162  321.4413
 163  304.3483
 164  456.9052
 165  453.3869
 166  385.8926
 167  416.614
 168  365.413
 169  325.4787
 170  320.0919
 171  282.075
 172  376.0085
 173  450.2791
 174  359.6404
 175  374.6052
 176  463.8063
 177  431.8915
 178  250.0099
 179  176.8266
 180  331.3557
 181  425.5773
 182  565.3925
 183  546.5004
 184  483.6246
 185  401.2458
 186  394.4825
 187  343.2894
 188  392.0975
 189  413.8667
 190  320.4108
 191  315.6707
 192  388.4282
 193  364.3802
 194  323.86
 195  396.652
 196  351.77
 197  401.7073
 198  305.7014
 199  270.0076
 200  422.3402
 201  420.2478
 202  399.7849
 203  398.8806
 204  400.7656
 205  434.9446
 206  490.9647
 207  389.0068
 208  287.8965
 209  259.0338
 210  377.8038
 211  325.3688
 212  375.1441
 213  490.7912
 214  447.0923
 215  428.9209
 216  398.2198
 217  480.1438
 218  415.0741
 219  273.0971
 220  308.1566
 221  425.8763
 222  397.8649
 223  343.3652
 224  250.4659
 225  287.3132
 226  381.0497
 227  334.966
 228  354.1007
 229  275.9285
 230  417.5485
 231  481.6184
 232  338.7174
 233  316.8221
 234  384.3739
 235  456.8939
 236  371.1187
 237  462.2594
 238  594.8079
 239  610.106
 240  315.7917
 241  319.1998
 242  335.0489
 243  415.1369
 244  350.9553
 245  374.212
 246  494.1122
 247  472.8734
 248  493.6203
 249  336.9423
 250  446.6433
 251  484.936
 252  398.079
 253  376.2492
 254  407.7659
 255  479.6978
 256  437.3938
 257  402.7761
 258  489.281
 259  367.1139
 260  302.3268
 261  310.6342
 262  412.7799
 263  377.0611
 264  411.8503
 265  496.2524
 266  548.9959
 267  471.9283
 268  458.648
 269  397.7586
 270  418.8318
 271  460.4666
 272  550.5751
 273  475.6751
 274  490.6432
 275  425.223
 276  382.7824
 277  275.0181
 278  464.7242
 279  533.1669
 280  594.2401
 281  589.1785
 282  511.5706
 283  597.7969
 284  526.6512
 285  493.1377
 286  498.209
 287  463.8801
 288  443.7872
 289  556.2291
 290  462.7862
 291  359.3315
 292  448.2847
 293  271.4157
 294  306.3301
 295  248.8511
 296  279.823
 297  352.2368
 298  344.541
 299  481.9998
 300  477.9009
 301  266.1171
 302  356.613
 303  350.0755
 304  306.5251
 305  426.3011
 306  367.3017
 307  422.4579
 308  265.6532
 309  274.3472
 310  293.9253
 311  297.2063
 312  246.9616
 313  419.2642
 314  422.1974
 315  344.3591
 316  362.942
 317  471.0889
 318  434.0807
 319  304.6671
 320  399.2102
 321  453.0584
 322  373.0504
 323  309.7593
 324  507.3942
 325  517.203
 326  471.8921
 327  453.0301
 328  303.7566
 329  311.6291
 330  450.9548
 331  429.368
 332  400.7675
 333  432.335
 334  285.9641
 335  270.977
 336  339.7994
 337  444.1425
 338  493.9913
 339  457.0124
 340  414.8188
 341  332.2811
 342  269.0301
 343  243.7685
 344  204.4414
 345  336.6187
 346  491.4742
 347  315.2863
 348  387.9977
 349  534.5838
 350  591.3503
 351  483.2368
 352  335.0108
 353  344.1847
 354  453.9266
 355  523.1015
 356  471.4487
 357  448.3984
 358  526.0241
 359  548.4152
 360  417.4075
 361  307.2567
 362  448.3269
 363  566.2296
 364  559.5486
 365  527.8785
 366  521.4014
 367  501.5314
 368  510.9285
 369  294.028
 370  280.1372
 371  366.5808
 372  378.6138
 373  478.9016
 374  459.4006
 375  513.1176
 376  302.8495
 377  246.2139
 378  323.3723
 379  408.7605
 380  361.0455
 381  406.8174
 382  461.9015
 383  449.5194
 384  412.1075
 385  289.1184
 386  421.282
 387  533.6214
 388  530.7578
 389  443.6645
 390  374.4533
 391  420.1832
 392  358.4605
 393  262.4649
 394  375.9029
 395  367.1827
 396  382.2181
 397  383.5379
 398  362.0993
 399  444.1093
 400  506.0082
 401  425.7411
 402  496.9392
 403  606.5124
 404  481.1854
 405  417.9266
 406  413.3013
 407  267.9487
 408  368.4669
 409  416.5851
 410  442.5997
 411  364.1814
 412  346.7534
 413  430.886
 414  548.3873
 415  444.2277
 416  494.6954
 417  333.9406
 418  313.207
 419  395.9923
 420  340.5957
 421  446.2726
 422  439.2998
 423  419.0283
 424  385.4249
 425  404.7821
 426  355.2698
 427  433.9442
 428  453.3398
 429  383.225
 430  354.6498
 431  365.4113
 432  523.6722
 433  375.0183
 434  220.9982
 435  285.9333
 436  232.1071
 437  307.4877
 438  375.1857
 439  371.7945
 440  280.2885
 441  250.5843
 442  196.8781
 443  284.8195
 444  299.3341
 445  399.6969
 446  424.114
 447  395.5024
 448  360.2909
 449  398.9577
 450  410.4662
 451  448.0853
 452  499.3989
 453  565.0859
 454  476.185
 455  438.8871
 456  459.1002
 457  332.2065
 458  346.5782
 459  313.0125
 460  301.763
 461  358.5938
 462  435.3332
 463  333.5447
 464  275.9803
 465  318.3877
 466  361.2582
 467  515.4332
 468  530.911
 469  417.5544
 470  339.4226
 471  355.4103
 472  410.8307
 473  484.0482
 474  484.3699
 475  387.0549
 476  295.0111
 477  279.4243
 478  387.11
 479  461.4763
 480  375.701
 481  356.1394
 482  322.0835
 483  437.1536
 484  483.6924
 485  457.9971
 486  454.0724
 487  468.4659
 488  465.2356
 489  496.7218
 490  416.1619
 491  436.883
 492  417.9997
 493  387.0781
 494  474.136
 495  592.4742
 496  542.5154
 497  447.6023
 498  438.3085
 499  409.0339
 500  390.2369
 501  404.4314
 502  447.132
 503  491.5153
 504  436.068
 505  521.9333
 506  599.0557
 507  689.0275
 508  556.5256
 509  566.9628
 510  1122.506
 511  1364.802
