# Input file       =  1207644063.222042_cleaned.dat
# Candidate        =  PSR_0332+5434
# Telescope        =  AR
# Epoch_topo       =  58221.361634514375
# Epoch_bary       =  N/A
# T_sample         =  0.002
# Data Folded      =  7340032
# Data Avg         =  0.00798726055902501
# Data StdDev      =  1.0000869025019  
# Profile Bins     =  512
# Profile Avg      =  114.448719879931 
# Profile StdDev   =  119.743441477188 
# Reduced chi-sqr  =  2.607
# Prob(Noise)      <  1.52e-74   (~18.2 sigma)
# P_topo (ms)      =  714.561348575905  +/- 0.000213
# P'_topo (s/s)    =  -0                +/- 1.12e-10
# P''_topo (s/s^2) =  0                 +/- 4.97e-14
# P_bary (ms)      =  N/A
# P'_bary (s/s)    =  N/A
# P''_bary (s/s^2) =  N/A
# P_orb (s)        =  N/A
# asin(i)/c (s)    =  N/A
# eccentricity     =  N/A
# w (rad)          =  N/A
# T_peri           =  N/A
######################################################
   0  1205.234
   1  1200.776
   2  1017.577
   3  723.5576
   4  454.9265
   5  251.3659
   6  100.0762
   7  -13.65629
   8  60.55207
   9  167.2427
  10  179.7027
  11  180.6255
  12  212.0083
  13  199.6641
  14  247.3636
  15  173.3992
  16  109.8526
  17  158.274
  18  81.76439
  19  118.185
  20  109.5181
  21  151.0239
  22  64.14358
  23  12.03352
  24  104.1643
  25  55.67392
  26  22.60144
  27  117.6925
  28  12.68521
  29  11.01481
  30  151.1468
  31  184.4875
  32  156.806
  33  72.40417
  34  119.5875
  35  209.5384
  36  182.1491
  37  79.83286
  38  157.9992
  39  268.3301
  40  103.4514
  41  81.74774
  42  135.3304
  43  163.1797
  44  8.487464
  45  6.165805
  46  155.7809
  47  312.2485
  48  325.7249
  49  280.6474
  50  242.2844
  51  224.4348
  52  223.9179
  53  228.6881
  54  153.4921
  55  190.6784
  56  352.9472
  57  258.4944
  58  80.47638
  59  57.56152
  60  170.0116
  61  267.8373
  62  314.2029
  63  227.7912
  64  237.8781
  65  101.5989
  66  136.6509
  67  174.7385
  68  36.67062
  69  -20.93215
  70  13.93697
  71  41.60766
  72  92.90086
  73  147.6213
  74  147.6252
  75  122.4896
  76  82.88308
  77  101.2738
  78  61.69938
  79  101.9254
  80  205.7024
  81  194.8898
  82  79.76581
  83  69.43569
  84  18.71202
  85  79.61434
  86  158.4144
  87  75.78329
  88  172.0697
  89  219.0421
  90  150.6845
  91  -21.42201
  92  2.940255
  93  103.7437
  94  72.97665
  95  31.59118
  96  120.0605
  97  96.01463
  98  66.39854
  99  31.72377
 100  -24.6388
 101  67.78904
 102  107.0063
 103  37.10853
 104  71.64916
 105  196.3461
 106  155.5066
 107  58.28816
 108  -7.925238
 109  6.674431
 110  -0.9686049
 111  129.0266
 112  173.6446
 113  58.7869
 114  17.70124
 115  58.96341
 116  -82.16162
 117  -41.11361
 118  -35.56239
 119  -67.47346
 120  81.80472
 121  164.8035
 122  177.2054
 123  42.01814
 124  30.44942
 125  47.86277
 126  62.31165
 127  130.1139
 128  231.0464
 129  304.0905
 130  185.9671
 131  67.03682
 132  -13.39398
 133  54.69699
 134  174.6322
 135  208.2977
 136  -10.44662
 137  -11.29414
 138  59.8264
 139  108.4664
 140  208.557
 141  63.53359
 142  -85.88265
 143  15.27856
 144  99.15044
 145  312.8775
 146  290.5943
 147  245.0284
 148  149.5246
 149  43.66946
 150  58.60496
 151  -33.98144
 152  -95.7822
 153  -167.1973
 154  78.9416
 155  125.0153
 156  2.037543
 157  -68.61488
 158  83.8528
 159  47.47837
 160  49.62957
 161  37.64942
 162  21.64181
 163  115.5784
 164  153.6206
 165  143.6644
 166  67.72326
 167  -13.19866
 168  58.12475
 169  56.05878
 170  21.75493
 171  27.01044
 172  85.83485
 173  60.58097
 174  -99.98945
 175  -141.4189
 176  -58.90038
 177  -46.16662
 178  107.8157
 179  199.3138
 180  -23.51488
 181  13.61455
 182  54.07957
 183  59.48129
 184  27.13521
 185  50.38787
 186  86.19289
 187  88.60607
 188  59.00846
 189  46.13132
 190  45.01084
 191  121.8526
 192  241.2197
 193  227.7751
 194  141.5858
 195  172.3465
 196  94.13921
 197  145.5293
 198  69.12029
 199  62.11974
 200  37.60232
 201  121.239
 202  169.5579
 203  110.0452
 204  131.1535
 205  114.5724
 206  224.7611
 207  329.2523
 208  233.7312
 209  206.2096
 210  102.995
 211  72.49057
 212  101.547
 213  153.1753
 214  127.142
 215  69.67103
 216  17.29934
 217  103.8252
 218  109.1635
 219  166.6325
 220  106.9032
 221  81.31521
 222  19.87664
 223  40.26576
 224  41.82224
 225  -16.67937
 226  116.3358
 227  117.1941
 228  190.619
 229  192.4823
 230  205.2948
 231  207.671
 232  190.2172
 233  98.57579
 234  35.77282
 235  -37.61155
 236  69.27676
 237  151.029
 238  218.5139
 239  222.9649
 240  93.21261
 241  61.38968
 242  102.9457
 243  24.32502
 244  136.1721
 245  134.4584
 246  128.3314
 247  42.16778
 248  64.09296
 249  134.7791
 250  126.523
 251  46.67126
 252  -2.265377
 253  -19.20268
 254  61.91239
 255  197.5918
 256  186.9305
 257  140.4797
 258  149.8003
 259  122.2644
 260  222.8938
 261  150.1882
 262  108.3499
 263  157.7416
 264  90.49154
 265  184.6758
 266  274.3954
 267  201.6747
 268  153.4909
 269  78.04833
 270  -2.559144
 271  114.6436
 272  214.4708
 273  115.7553
 274  187.9255
 275  93.25854
 276  69.30087
 277  65.6003
 278  56.38475
 279  123.7578
 280  53.28885
 281  -71.76994
 282  18.80184
 283  130.0995
 284  68.70531
 285  7.628094
 286  170.1619
 287  130.6495
 288  -47.75822
 289  -77.11388
 290  -13.76584
 291  49.55699
 292  43.91216
 293  118.2871
 294  -11.1587
 295  16.63138
 296  120.5236
 297  85.85201
 298  -3.526885
 299  67.92659
 300  27.53866
 301  -23.2881
 302  -87.1815
 303  -0.2024672
 304  -62.88026
 305  -79.36364
 306  -14.34726
 307  88.97127
 308  118.6216
 309  33.67877
 310  -7.228828
 311  29.53172
 312  18.05396
 313  -102.438
 314  -93.98683
 315  -94.02221
 316  13.84917
 317  42.34863
 318  37.45755
 319  70.81813
 320  -23.65678
 321  2.829261
 322  -19.22643
 323  -61.20691
 324  -12.18445
 325  38.55278
 326  -5.886508
 327  33.84455
 328  119.737
 329  17.55175
 330  -124.0426
 331  30.8243
 332  212.6488
 333  104.1876
 334  -133.6779
 335  -65.62882
 336  -3.461643
 337  124.2406
 338  102.8517
 339  -26.39738
 340  11.17721
 341  138.3765
 342  240.0708
 343  134.2899
 344  57.27918
 345  88.4465
 346  121.1772
 347  205.4252
 348  203.1857
 349  185.8656
 350  182.3139
 351  127.3138
 352  182.5285
 353  75.44486
 354  105.707
 355  228.7109
 356  231.3121
 357  93.81325
 358  113.4513
 359  266.9042
 360  156.2532
 361  104.0893
 362  258.294
 363  251.2259
 364  89.21764
 365  8.742219
 366  135.3986
 367  61.35978
 368  86.29194
 369  126.6162
 370  179.6828
 371  56.9461
 372  70.22095
 373  65.68871
 374  85.27565
 375  180.6692
 376  176.6017
 377  134.9406
 378  178.9431
 379  168.8479
 380  105.3324
 381  118.0835
 382  159.2574
 383  98.98914
 384  -41.7482
 385  -30.52705
 386  7.812494
 387  50.36972
 388  92.63374
 389  70.42633
 390  -64.91557
 391  -11.58766
 392  48.37514
 393  -40.5838
 394  -142.3655
 395  -44.48376
 396  -71.21032
 397  63.55941
 398  48.9626
 399  37.21128
 400  58.01544
 401  110.8324
 402  18.25218
 403  0.1510569
 404  83.85294
 405  98.56396
 406  109.4919
 407  34.23332
 408  62.46328
 409  151.4868
 410  159.45
 411  233.0994
 412  243.1758
 413  192.2581
 414  116.9091
 415  114.5244
 416  80.416
 417  185.5153
 418  195.9829
 419  207.8836
 420  320.9907
 421  286.1312
 422  250.211
 423  227.6756
 424  269.8279
 425  266.5806
 426  260.476
 427  263.7633
 428  120.9066
 429  121.3064
 430  249.8048
 431  210.3889
 432  72.13047
 433  146.6029
 434  213.2111
 435  215.9821
 436  161.6381
 437  100.3638
 438  91.19032
 439  162.8924
 440  66.02788
 441  46.20186
 442  80.76833
 443  171.4032
 444  210.743
 445  304.6038
 446  242.933
 447  166.2603
 448  40.01926
 449  -27.18085
 450  51.48985
 451  176.0444
 452  159.2393
 453  139.2545
 454  174.711
 455  163.7475
 456  85.71963
 457  205.8807
 458  100.9972
 459  58.13063
 460  14.62018
 461  -5.419077
 462  -11.54737
 463  38.56341
 464  103.6789
 465  -6.411338
 466  -16.90018
 467  -0.8261945
 468  59.76622
 469  67.76159
 470  151.1338
 471  125.6171
 472  123.3547
 473  39.88022
 474  80.22234
 475  27.4488
 476  48.49545
 477  83.85263
 478  126.0811
 479  164.9231
 480  107.0208
 481  6.70148
 482  124.1038
 483  66.05785
 484  30.48285
 485  85.53728
 486  48.6752
 487  109.0022
 488  66.812
 489  170.613
 490  218.9001
 491  127.1953
 492  232.8393
 493  226.9147
 494  361.0863
 495  176.0182
 496  151.2894
 497  203.3799
 498  194.3688
 499  131.9908
 500  117.328
 501  107.4464
 502  174.9893
 503  170.684
 504  210.992
 505  207.0442
 506  314.3471
 507  307.9975
 508  410.2722
 509  543.5027
 510  1043.611
 511  1076.6
