# Input file       =  1207981188.104769_cleaned.dat
# Candidate        =  PSR_0332+5434
# Telescope        =  AR
# Epoch_topo       =  58225.263542879271
# Epoch_bary       =  N/A
# T_sample         =  0.002
# Data Folded      =  7143424
# Data Avg         =  0.0174777072576896
# Data StdDev      =  1.00002876262777 
# Profile Bins     =  512
# Profile Avg      =  243.871637752147 
# Profile StdDev   =  118.121981882745 
# Reduced chi-sqr  =  2.144
# Prob(Noise)      <  1.05e-44   (~14.0 sigma)
# P_topo (ms)      =  714.558386769094  +/- 0.000192
# P'_topo (s/s)    =  -0                +/- 1.04e-10
# P''_topo (s/s^2) =  0                 +/- 4.73e-14
# P_bary (ms)      =  N/A
# P'_bary (s/s)    =  N/A
# P''_bary (s/s^2) =  N/A
# P_orb (s)        =  N/A
# asin(i)/c (s)    =  N/A
# eccentricity     =  N/A
# w (rad)          =  N/A
# T_peri           =  N/A
######################################################
   0  1225.305
   1  1135.017
   2  783.0817
   3  525.6523
   4  365.0443
   5  337.9431
   6  327.7298
   7  289.3569
   8  225.5764
   9  186.021
  10  218.743
  11  299.614
  12  234.5188
  13  201.9001
  14  326.7657
  15  321.8893
  16  258.81
  17  328.3178
  18  272.9781
  19  367.3765
  20  279.8229
  21  217.1163
  22  330.9007
  23  260.692
  24  213.7344
  25  315.4601
  26  333.6083
  27  267.0005
  28  371.3771
  29  374.7431
  30  255.7426
  31  265.2073
  32  277.0896
  33  251.1565
  34  230.5679
  35  314.0473
  36  232.0809
  37  186.6065
  38  266.213
  39  340.9312
  40  280.64
  41  283.2222
  42  275.6539
  43  325.1497
  44  333.6314
  45  327.7888
  46  355.2422
  47  353.6835
  48  272.3651
  49  187.1797
  50  344.6883
  51  328.4547
  52  274.2352
  53  232.8499
  54  237.9512
  55  299.7514
  56  311.8006
  57  350.353
  58  320.8342
  59  168.333
  60  228.3954
  61  82.38519
  62  105.9598
  63  223.5993
  64  169.9111
  65  75.98075
  66  128.6649
  67  267.4921
  68  202.5366
  69  137.4418
  70  179.3612
  71  153.3225
  72  181.1727
  73  201.3335
  74  278.1079
  75  127.8925
  76  143.2823
  77  198.3781
  78  204.6208
  79  311.9771
  80  265.6566
  81  237.7764
  82  147.9974
  83  66.17281
  84  52.25089
  85  134.7974
  86  165.5641
  87  172.6245
  88  160.6921
  89  131.4986
  90  257.0672
  91  395.5132
  92  287.3892
  93  144.6627
  94  71.07418
  95  87.51728
  96  91.23351
  97  189.6847
  98  270.0719
  99  169.7014
 100  173.8435
 101  196.7168
 102  193.4445
 103  271.0539
 104  269.4304
 105  435.1718
 106  128.5694
 107  256.7156
 108  277.3756
 109  292.9696
 110  363.6001
 111  219.1153
 112  172.6176
 113  275.016
 114  301.3625
 115  143.3502
 116  239.1786
 117  303.9955
 118  281.6288
 119  289.5306
 120  239.6704
 121  223.3229
 122  320.5539
 123  228.4834
 124  288.7403
 125  146.7843
 126  221.9894
 127  291.6437
 128  228.8837
 129  260.2543
 130  379.5809
 131  388.7392
 132  260.9861
 133  213.3619
 134  126.2564
 135  153.0245
 136  64.01929
 137  187.111
 138  287.7379
 139  274.5903
 140  96.25541
 141  279.0268
 142  213.0792
 143  268.6073
 144  244.9523
 145  279.7502
 146  473.1532
 147  354.278
 148  239.0569
 149  221.4279
 150  157.6489
 151  323.219
 152  282.1531
 153  116.2323
 154  219.4611
 155  266.748
 156  284.1268
 157  430.8666
 158  374.0106
 159  338.5721
 160  229.019
 161  196.1359
 162  212.87
 163  120.871
 164  195.7811
 165  167.8539
 166  33.98133
 167  141.0156
 168  302.1399
 169  276.3567
 170  239.1685
 171  279.2401
 172  304.6964
 173  327.0204
 174  338.9814
 175  325.9986
 176  165.2345
 177  189.7846
 178  254.2706
 179  139.0908
 180  5.010149
 181  25.48431
 182  235.3459
 183  308.3072
 184  190.5721
 185  280.881
 186  289.3032
 187  393.6247
 188  323.5699
 189  471.1449
 190  467.5348
 191  276.555
 192  195.0565
 193  149.6897
 194  201.4223
 195  282.3089
 196  408.0852
 197  360.4911
 198  286.1966
 199  210.1801
 200  233.1226
 201  291.106
 202  190.9519
 203  279.7101
 204  265.9243
 205  202.5554
 206  140.7585
 207  148.2537
 208  188.8495
 209  280.2973
 210  284.7289
 211  228.963
 212  99.75767
 213  197.8988
 214  43.88931
 215  101.5387
 216  345.7084
 217  299.3091
 218  174.0213
 219  116.3528
 220  254.744
 221  365.8542
 222  306.8304
 223  258.3061
 224  245.2416
 225  277.8952
 226  295.4771
 227  328.758
 228  366.8023
 229  291.8482
 230  212.6467
 231  287.4091
 232  281.2657
 233  329.4458
 234  260.0668
 235  251.3386
 236  231.9221
 237  281.5416
 238  309.9301
 239  201.0162
 240  297.6961
 241  434.9959
 242  331.2556
 243  234.7141
 244  166.2564
 245  248.8254
 246  261.6277
 247  372.2752
 248  382.1779
 249  233.279
 250  227.251
 251  257.3436
 252  244.2954
 253  258.6224
 254  372.8423
 255  385.4016
 256  427.9414
 257  319.6297
 258  146.7273
 259  362.104
 260  273.1275
 261  217.3075
 262  207.5694
 263  243.5344
 264  229.3844
 265  113.2115
 266  201.5578
 267  138.4205
 268  152.2425
 269  193.7307
 270  343.174
 271  392.9607
 272  409.7263
 273  322.962
 274  295.7213
 275  285.6682
 276  221.2088
 277  200.9456
 278  177.1889
 279  216.1756
 280  146.529
 281  31.43577
 282  144.9002
 283  211.913
 284  4.402965
 285  115.7834
 286  214.7426
 287  273.5011
 288  168.4799
 289  157.2956
 290  258.0323
 291  204.6357
 292  98.81775
 293  64.70192
 294  71.07993
 295  171.468
 296  263.2736
 297  212.4948
 298  132.8908
 299  150.6171
 300  116.1538
 301  213.0919
 302  280.5332
 303  231.104
 304  217.5946
 305  142.303
 306  233.88
 307  173.831
 308  213.2913
 309  250.5491
 310  280.3674
 311  137.4611
 312  166.2606
 313  195.2037
 314  224.0551
 315  275.4497
 316  158.3116
 317  246.99
 318  199.7699
 319  112.9919
 320  147.7243
 321  318.7983
 322  278.0063
 323  297.6208
 324  219.3126
 325  165.1786
 326  162.0649
 327  198.8527
 328  253.4522
 329  211.2146
 330  93.40438
 331  -5.040751
 332  183.0143
 333  291.1251
 334  281.6031
 335  347.1903
 336  463.6076
 337  360.4382
 338  241.0893
 339  161.6851
 340  272.4124
 341  258.7614
 342  250.705
 343  203.8973
 344  231.5006
 345  313.8549
 346  280.1218
 347  152.6513
 348  92.52225
 349  188.8095
 350  182.7925
 351  110.3398
 352  243.8482
 353  169.637
 354  187.184
 355  330.669
 356  277.2281
 357  57.5816
 358  -18.59946
 359  81.54322
 360  241.86
 361  245.784
 362  107.86
 363  130.162
 364  133.8251
 365  158.3109
 366  133.5969
 367  137.1361
 368  307.3623
 369  170.2908
 370  266.5425
 371  330.747
 372  225.0137
 373  192.266
 374  155.7649
 375  243.4124
 376  336.7021
 377  270.4604
 378  185.4233
 379  124.0715
 380  182.7527
 381  162.7668
 382  115.5252
 383  77.56242
 384  123.5064
 385  256.4995
 386  381.7171
 387  476.5486
 388  370.4147
 389  271.1036
 390  298.5457
 391  277.1917
 392  162.5659
 393  73.9348
 394  53.99158
 395  146.8081
 396  301.5882
 397  164.0586
 398  77.50394
 399  277.2198
 400  280.899
 401  147.937
 402  245.2595
 403  281.6285
 404  258.5129
 405  281.887
 406  284.9262
 407  264.4702
 408  134.8472
 409  225.762
 410  99.25608
 411  175.7046
 412  167.3887
 413  220.4053
 414  123.9802
 415  73.04508
 416  115.6341
 417  168.2404
 418  215.102
 419  160.0561
 420  247.188
 421  282.1286
 422  178.9135
 423  262.3943
 424  356.0983
 425  135.8983
 426  193.842
 427  203.1353
 428  166.3302
 429  206.0941
 430  173.0404
 431  288.2183
 432  216.2587
 433  137.6105
 434  31.7525
 435  -22.98411
 436  158.5617
 437  162.2162
 438  172.5737
 439  227.9874
 440  170.6871
 441  96.77493
 442  124.0336
 443  195.8218
 444  147.215
 445  139.5005
 446  83.69733
 447  127.6304
 448  197.1728
 449  255.7487
 450  219.8259
 451  340.3039
 452  258.5418
 453  225.9788
 454  279.5632
 455  325.7861
 456  278.7087
 457  145.2058
 458  78.40914
 459  174.6596
 460  95.1087
 461  112.8669
 462  149.5103
 463  90.79981
 464  229.6821
 465  289.1003
 466  178.9691
 467  144.498
 468  153.681
 469  332.1497
 470  340.9854
 471  365.3132
 472  324.1824
 473  299.5082
 474  412.1219
 475  337.5786
 476  316.4055
 477  291.6507
 478  195.8273
 479  116.4027
 480  108.7946
 481  240.6196
 482  258.4992
 483  262.6897
 484  476.1496
 485  427.3692
 486  387.0233
 487  283.8015
 488  246.597
 489  311.5703
 490  232.015
 491  337.3982
 492  330.2009
 493  377.4051
 494  352.5062
 495  357.8243
 496  280.4402
 497  256.3763
 498  269.5386
 499  161.9423
 500  125.5304
 501  158.8873
 502  272.1114
 503  316.6115
 504  462.9521
 505  482.453
 506  439.6318
 507  456.5763
 508  528.65
 509  681.7142
 510  900.0786
 511  1215.38
