# Input file       =  1207981188.104769_cleaned.dat
# Candidate        =  PSR_0332+5434
# Telescope        =  AR
# Epoch_topo       =  58225.263542879271
# Epoch_bary       =  N/A
# T_sample         =  0.002
# Data Folded      =  7143424
# Data Avg         =  0.0174777072576896
# Data StdDev      =  1.00002876262777 
# Profile Bins     =  512
# Profile Avg      =  243.87163762816  
# Profile StdDev   =  118.121981882745 
# Reduced chi-sqr  =  2.131
# Prob(Noise)      <  6.13e-44   (~13.9 sigma)
# P_topo (ms)      =  714.558386718756  +/- 0.000192
# P'_topo (s/s)    =  -0                +/- 1.04e-10
# P''_topo (s/s^2) =  0                 +/- 4.71e-14
# P_bary (ms)      =  N/A
# P'_bary (s/s)    =  N/A
# P''_bary (s/s^2) =  N/A
# P_orb (s)        =  N/A
# asin(i)/c (s)    =  N/A
# eccentricity     =  N/A
# w (rad)          =  N/A
# T_peri           =  N/A
######################################################
   0  1194.229
   1  955.2854
   2  625.133
   3  436.1655
   4  334.5812
   5  349.2117
   6  292.7792
   7  249.8753
   8  201.9761
   9  176.491
  10  289.8016
  11  264.9369
  12  199.1432
  13  281.2307
  14  348.623
  15  282.5925
  16  291.4671
  17  302.7545
  18  298.9929
  19  356.0933
  20  199.1991
  21  299.2776
  22  306.5781
  23  209.5461
  24  279.7449
  25  330.2387
  26  304.8911
  27  288.1298
  28  412.7216
  29  285.0763
  30  250.7817
  31  279.7972
  32  277.3383
  33  236.3598
  34  272.6834
  35  302.3092
  36  164.5533
  37  245.7516
  38  296.8645
  39  333.8066
  40  261.7769
  41  298.6332
  42  284.9241
  43  343.4294
  44  315.6577
  45  345.1019
  46  343.5832
  47  340.3922
  48  186.1915
  49  291.1194
  50  341.1719
  51  302.5815
  52  243.2973
  53  221.1515
  54  288.9761
  55  292.8643
  56  343.3929
  57  338.8519
  58  239.4917
  59  184.3172
  60  176.76
  61  57.78586
  62  195.458
  63  214.7297
  64  114.5011
  65  65.70251
  66  227.5248
  67  237.6682
  68  160.8304
  69  155.7278
  70  175.0062
  71  166.7374
  72  179.7413
  73  255.7341
  74  208.3711
  75  90.1517
  76  194.8938
  77  178.8341
  78  284.596
  79  306.1535
  80  243.7028
  81  197.5395
  82  95.399
  83  36.56658
  84  119.6471
  85  134.0207
  86  189.029
  87  154.1265
  88  141.6545
  89  178.8576
  90  353.235
  91  366.174
  92  197.9136
  93  92.50656
  94  83.55011
  95  85.81313
  96  141.3329
  97  242.5272
  98  209.4409
  99  156.5742
 100  205.6819
 101  186.2303
 102  255.4846
 103  240.464
 104  396.29
 105  272.3214
 106  145.6136
 107  309.0133
 108  262.3109
 109  351.498
 110  294.4605
 111  164.6454
 112  232.7668
 113  323.0183
 114  202.4061
 115  154.7624
 116  297.4126
 117  283.374
 118  282.9071
 119  291.294
 120  201.8572
 121  300.4762
 122  262.1425
 123  275.6993
 124  214.1348
 125  157.1763
 126  273.1811
 127  269.3104
 128  228.3591
 129  325.0883
 130  412.7757
 131  306.8961
 132  235.5064
 133  153.7245
 134  142.9669
 135  108.1466
 136  100.2954
 137  278.0948
 138  304.0005
 139  150.2169
 140  174.7876
 141  268.5363
 142  219.8494
 143  292.9695
 144  208.7788
 145  405.9052
 146  431.3531
 147  277.9173
 148  242.3568
 149  172.8005
 150  242.0132
 151  340.3023
 152  156.8209
 153  155.4212
 154  277.0927
 155  254.6079
 156  381.5385
 157  403.0453
 158  377.4804
 159  254.1496
 160  208.1042
 161  184.4203
 162  182.2521
 163  135.2974
 164  225.82
 165  68.66946
 166  74.24744
 167  243.9855
 168  303.0541
 169  244.8679
 170  258.6291
 171  296.4479
 172  315.2366
 173  323.9496
 174  365.8521
 175  230.5196
 176  161.8814
 177  223.54
 178  216.0968
 179  49.50025
 180  4.140628
 181  128.9274
 182  321.9428
 183  206.3302
 184  238.7273
 185  285.7675
 186  355.4698
 187  362.6128
 188  364.3159
 189  533.5277
 190  331.5811
 191  244.165
 192  157.545
 193  185.3904
 194  225.2397
 195  372.8661
 196  383.199
 197  334.2405
 198  225.6136
 199  221.4467
 200  262.5955
 201  254.0101
 202  201.9799
 203  322.5296
 204  198.1663
 205  175.6947
 206  146.4727
 207  153.4093
 208  271.4417
 209  259.4214
 210  298.2959
 211  97.31103
 212  174.1846
 213  132.9186
 214  8.210875
 215  277.1748
 216  330.6879
 217  241.0629
 218  110.1872
 219  189.1956
 220  331.0873
 221  350.3506
 222  254.8287
 223  268.047
 224  249.3365
 225  306.933
 226  286.3162
 227  372.4009
 228  328.9043
 229  246.7668
 230  246.238
 231  290.973
 232  308.7658
 233  297.8107
 234  233.4574
 235  243.138
 236  252.4524
 237  324.9119
 238  253.2241
 239  222.7646
 240  382.5664
 241  397.125
 242  264.691
 243  194.0964
 244  214.3534
 245  247.3689
 246  313.1281
 247  418.2315
 248  293.1018
 249  212.3438
 250  236.5547
 251  259.07
 252  230.3936
 253  334.541
 254  380.9124
 255  414.6298
 256  401.8641
 257  191.9972
 258  246.3379
 259  365.4115
 260  192.5875
 261  237.4828
 262  204.349
 263  276.3814
 264  134.4947
 265  169.1599
 266  158.5443
 267  140.5986
 268  164.3394
 269  281.2072
 270  385.6301
 271  395.7574
 272  378.5124
 273  280.7893
 274  319.685
 275  244.6755
 276  205.1146
 277  191.7306
 278  194.83
 279  186.8316
 280  72.8345
 281  62.42033
 282  238.7088
 283  77.76193
 284  41.83957
 285  175.0877
 286  257.1895
 287  239.7684
 288  129.3006
 289  228.6192
 290  231.2712
 291  141.7421
 292  79.44207
 293  60.78053
 294  117.5784
 295  232.6651
 296  249.1132
 297  166.1331
 298  135.386
 299  132.4375
 300  145.2513
 301  280.6804
 302  253.1142
 303  230.1927
 304  156.0605
 305  203.8931
 306  190.1489
 307  200.4263
 308  224.2997
 309  295.1651
 310  190.1238
 311  127.7304
 312  199.5342
 313  209.8349
 314  263.7087
 315  207.5363
 316  189.2929
 317  268.1275
 318  126.2062
 319  99.63223
 320  258.5737
 321  311.3966
 322  291.4569
 323  249.7723
 324  178.2922
 325  168.0415
 326  186.9481
 327  233.88
 328  235.5352
 329  157.4704
 330  2.257467
 331  97.55659
 332  251.2758
 333  304.1662
 334  280.3559
 335  441.1738
 336  415.6031
 337  306.3845
 338  170.2454
 339  227.1302
 340  266.0717
 341  247.7971
 342  226.4259
 343  200.3507
 344  293.2388
 345  309.7217
 346  222.9423
 347  92.50356
 348  131.5311
 349  218.5635
 350  114.9358
 351  201.8094
 352  209.83
 353  141.6981
 354  274.2886
 355  335.3458
 356  161.7239
 357  -14.68677
 358  13.21192
 359  181.266
 360  271.3563
 361  177.1596
 362  94.7309
 363  145.0802
 364  135.8863
 365  167.137
 366  101.3391
 367  252.7697
 368  248.6506
 369  181.9473
 370  350.8604
 371  258.684
 372  211.4788
 373  154.5049
 374  201.0513
 375  299.7057
 376  318.0454
 377  212.4839
 378  133.8548
 379  162.3807
 380  195.0132
 381  139.9597
 382  74.31201
 383  88.86742
 384  188.9685
 385  335.4727
 386  445.0966
 387  444.5469
 388  295.6225
 389  280.7186
 390  304.6452
 391  209.2267
 392  114.323
 393  33.84404
 394  103.7052
 395  221.1462
 396  302.6186
 397  37.46058
 398  212.6686
 399  294.8552
 400  191.4681
 401  179.7938
 402  290.1092
 403  262.1624
 404  283.9872
 405  267.8538
 406  306.5793
 407  166.074
 408  183.3522
 409  177.4434
 410  94.86028
 411  209.8705
 412  181.241
 413  188.0252
 414  73.42303
 415  86.5527
 416  138.5011
 417  223.6848
 418  170.8276
 419  210.418
 420  275.0642
 421  234.5477
 422  181.018
 423  364.0807
 424  226.4093
 425  145.9359
 426  224.8226
 427  173.6878
 428  175.5683
 429  197.9954
 430  215.7576
 431  292.0857
 432  149.3795
 433  94.2901
 434  -27.7629
 435  74.59995
 436  190.7596
 437  144.9702
 438  213.2405
 439  209.758
 440  117.6325
 441  87.58014
 442  159.0708
 443  190.1358
 444  145.9692
 445  129.2071
 446  78.55546
 447  176.6641
 448  235.6157
 449  239.9657
 450  255.6475
 451  342.3791
 452  203.7809
 453  277.874
 454  288.6871
 455  325.0606
 456  194.8109
 457  103.3529
 458  128.562
 459  156.4838
 460  54.96261
 461  160.2698
 462  106.2819
 463  153.8317
 464  306.9525
 465  210.698
 466  158.9831
 467  118.9652
 468  259.7779
 469  362.2589
 470  348.6577
 471  358.2877
 472  284.778
 473  372.8908
 474  386.066
 475  309.5298
 476  304.444
 477  249.1723
 478  132.0458
 479  111.7449
 480  153.3714
 481  304.8213
 482  209.1994
 483  406.5573
 484  475.9959
 485  386.9953
 486  351.5883
 487  213.8137
 488  323.0442
 489  242.8192
 490  294.2131
 491  328.6359
 492  364.1617
 493  369.1639
 494  371.4739
 495  312.7282
 496  244.724
 497  278.3112
 498  212.19
 499  130.1634
 500  144.0843
 501  214.467
 502  306.8448
 503  370.729
 504  519.6169
 505  429.5456
 506  461.6035
 507  467.5925
 508  625.0653
 509  768.421
 510  1106.361
 511  1233.939
