# Input file       =  1207838381.10396_cleaned.dat
# Candidate        =  PSR_0332+5434
# Telescope        =  AR
# Epoch_topo       =  58223.610684073610
# Epoch_bary       =  N/A
# T_sample         =  0.002
# Data Folded      =  7340032
# Data Avg         =  0.0285430146315703
# Data StdDev      =  1.00004940612517 
# Profile Bins     =  512
# Profile Avg      =  409.20002103195  
# Profile StdDev   =  119.738951922149 
# Reduced chi-sqr  =  2.132
# Prob(Noise)      <  5.24e-44   (~13.9 sigma)
# P_topo (ms)      =  714.560034949993  +/- 0.000262
# P'_topo (s/s)    =  -0                +/- 1.38e-10
# P''_topo (s/s^2) =  0                 +/- 6.1e-14
# P_bary (ms)      =  N/A
# P'_bary (s/s)    =  N/A
# P''_bary (s/s^2) =  N/A
# P_orb (s)        =  N/A
# asin(i)/c (s)    =  N/A
# eccentricity     =  N/A
# w (rad)          =  N/A
# T_peri           =  N/A
######################################################
   0  1372.662
   1  1165.695
   2  974.0319
   3  814.4216
   4  644.7711
   5  500.8736
   6  444.1586
   7  444.9052
   8  430.8726
   9  545.382
  10  692.626
  11  503.979
  12  457.9413
  13  526.6288
  14  532.9583
  15  559.7841
  16  571.2347
  17  543.8995
  18  482.1958
  19  411.368
  20  469.5899
  21  450.7937
  22  366.3648
  23  324.0202
  24  369.308
  25  546.9857
  26  490.793
  27  405.7866
  28  439.4205
  29  512.7396
  30  494.3141
  31  405.9029
  32  436.3002
  33  519.8699
  34  511.308
  35  500.7459
  36  533.0503
  37  343.4823
  38  376.5177
  39  336.2986
  40  297.7128
  41  289.335
  42  309.8203
  43  292.2065
  44  292.44
  45  369.3682
  46  237.2218
  47  346.5789
  48  410.375
  49  391.5579
  50  286.5395
  51  262.6289
  52  295.9652
  53  411.1007
  54  312.5763
  55  385.7411
  56  330.2074
  57  366.2765
  58  341.6396
  59  368.5365
  60  487.8342
  61  472.9964
  62  497.6859
  63  510.1917
  64  427.7585
  65  413.2299
  66  435.6413
  67  435.1044
  68  492.3733
  69  530.8815
  70  542.4812
  71  487.288
  72  614.3652
  73  500.1288
  74  585.1569
  75  506.0599
  76  463.783
  77  491.3044
  78  445.8779
  79  430.9472
  80  597.5746
  81  502.0845
  82  411.1692
  83  534.4398
  84  528.4464
  85  507.6136
  86  530.5055
  87  511.7033
  88  479.8739
  89  518.4921
  90  559.8317
  91  484.7339
  92  534.1859
  93  454.2115
  94  465.4676
  95  478.9054
  96  470.2958
  97  541.5778
  98  611.6479
  99  462.6533
 100  442.2113
 101  435.6629
 102  377.5946
 103  345.7415
 104  274.8761
 105  352.2094
 106  285.3492
 107  233.1575
 108  304.8698
 109  288.8936
 110  328.4735
 111  390.6617
 112  323.0714
 113  304.4476
 114  280.9409
 115  321.9728
 116  394.5412
 117  340.4014
 118  354.3859
 119  315.3618
 120  344.3229
 121  269.1482
 122  309.7452
 123  368.8558
 124  338.7135
 125  279.0423
 126  361.5707
 127  429.3853
 128  382.5032
 129  262.8818
 130  226.1119
 131  252.0251
 132  315.405
 133  394.2385
 134  405.83
 135  352.7942
 136  424.7598
 137  397.2677
 138  366.5905
 139  393.9955
 140  396.6197
 141  453.821
 142  448.243
 143  381.9938
 144  418.399
 145  480.2708
 146  355.887
 147  361.8292
 148  450.9181
 149  379.4633
 150  441.9811
 151  469.1898
 152  440.2767
 153  383.0981
 154  462.6719
 155  442.8122
 156  364.4462
 157  411.3259
 158  522.2872
 159  480.0651
 160  514.1876
 161  458.3048
 162  442.683
 163  451.4362
 164  427.7168
 165  374.446
 166  367.5283
 167  332.8617
 168  334.7661
 169  445.8459
 170  442.5627
 171  354.26
 172  379.4548
 173  327.0373
 174  417.6308
 175  398.5859
 176  285.7979
 177  377.2772
 178  416.6421
 179  400.0968
 180  406.6873
 181  415.9113
 182  434.5069
 183  286.3689
 184  368.0873
 185  333.0027
 186  343.1642
 187  326.7841
 188  413.2487
 189  315.9012
 190  268.694
 191  379.1696
 192  353.4491
 193  303.9405
 194  314.572
 195  308.8879
 196  392.5016
 197  324.5049
 198  427.4518
 199  491.7202
 200  432.1425
 201  359.944
 202  433.055
 203  394.976
 204  289.3057
 205  434.0978
 206  387.7026
 207  342.7547
 208  418.9562
 209  411.931
 210  387.5612
 211  407.3902
 212  416.6411
 213  329.558
 214  236.6229
 215  293.0171
 216  447.0577
 217  440.7775
 218  400.0044
 219  414.8675
 220  424.3661
 221  472.7481
 222  386.2614
 223  428.9841
 224  474.1124
 225  472.8847
 226  559.3883
 227  633.9633
 228  522.712
 229  553.0642
 230  547.1027
 231  392.0268
 232  554.1431
 233  557.446
 234  632.6462
 235  566.6825
 236  463.5974
 237  531.5157
 238  521.9913
 239  600.1066
 240  511.1642
 241  482.461
 242  491.1289
 243  596.2976
 244  444.0281
 245  402.5972
 246  407.4242
 247  419.338
 248  434.1357
 249  435.6954
 250  420.0485
 251  477.1356
 252  494.3619
 253  470.9189
 254  436.5791
 255  400.7395
 256  356.2184
 257  492.3399
 258  435.737
 259  398.0919
 260  432.8453
 261  502.3142
 262  457.0208
 263  458.4008
 264  449.7105
 265  574.5058
 266  463.3675
 267  426.0903
 268  440.5999
 269  519.4111
 270  391.5186
 271  329.5255
 272  359.9862
 273  429.9724
 274  372.8263
 275  353.9613
 276  404.7558
 277  328.0676
 278  344.7858
 279  345.0488
 280  297.1721
 281  343.3883
 282  354.7107
 283  472.2817
 284  456.3242
 285  425.8736
 286  309.1934
 287  258.7393
 288  346.5981
 289  432.1105
 290  514.2524
 291  506.5794
 292  420.8348
 293  427.4927
 294  445.0646
 295  437.7562
 296  498.2583
 297  427.6131
 298  353.666
 299  368.1765
 300  428.7281
 301  563.9423
 302  496.1477
 303  561.96
 304  593.3203
 305  557.0571
 306  364.4991
 307  430.4528
 308  460.9267
 309  491.903
 310  490.1332
 311  465.5968
 312  416.4639
 313  372.0482
 314  415.7179
 315  386.5242
 316  463.6925
 317  533.0477
 318  392.2188
 319  343.5702
 320  319.9123
 321  312.4882
 322  208.1194
 323  159.0387
 324  204.299
 325  383.9438
 326  424.5915
 327  299.1833
 328  305.3508
 329  285.9101
 330  358.8366
 331  331.0316
 332  274.6769
 333  353.0772
 334  390.0145
 335  384.2735
 336  253.5712
 337  308.8159
 338  237.3856
 339  302.7637
 340  298.5937
 341  375.3856
 342  518.8498
 343  384.8744
 344  282.5775
 345  303.6668
 346  272.9714
 347  278.4674
 348  288.5619
 349  301.996
 350  335.8041
 351  299.013
 352  270.1409
 353  268.2484
 354  295.5073
 355  248.8092
 356  390.5251
 357  270.921
 358  151.1692
 359  207.2328
 360  308.1195
 361  355.8477
 362  328.9594
 363  331.5135
 364  394.8766
 365  411.8989
 366  312.7127
 367  338.4346
 368  346.1646
 369  458.9473
 370  466.4954
 371  376.9359
 372  423.9067
 373  386.1768
 374  355.7595
 375  495.3843
 376  484.1062
 377  446.5423
 378  407.9981
 379  438.8768
 380  471.3401
 381  430.3791
 382  359.7733
 383  399.068
 384  382.7696
 385  342.8041
 386  274.4292
 387  263.0363
 388  273.8772
 389  320.6468
 390  416.1129
 391  426.1173
 392  395.0755
 393  337.1447
 394  372.1983
 395  404.9229
 396  357.0283
 397  365.7186
 398  407.1317
 399  475.3973
 400  399.4618
 401  234.2568
 402  319.4568
 403  283.2675
 404  222.6244
 405  197.5759
 406  245.5554
 407  340.5197
 408  243.3241
 409  271.0175
 410  176.7776
 411  231.052
 412  308.1989
 413  204.9336
 414  265.334
 415  312.127
 416  264.0602
 417  397.1589
 418  311.1244
 419  302.0768
 420  326.8215
 421  353.1677
 422  364.0066
 423  403.1559
 424  290.489
 425  207.5894
 426  244.0332
 427  378.5788
 428  417.2371
 429  404.6062
 430  438.4736
 431  417.226
 432  361.4853
 433  394.6301
 434  419.5304
 435  346.2812
 436  375.7241
 437  379.7963
 438  509.42
 439  470.7871
 440  391.3833
 441  447.8076
 442  456.7372
 443  337.8101
 444  432.957
 445  536.8607
 446  549.631
 447  509.6926
 448  452.3502
 449  474.4836
 450  475.547
 451  390.9817
 452  438.1022
 453  432.4384
 454  345.8283
 455  472.2554
 456  460.8109
 457  426.1381
 458  392.8504
 459  354.5344
 460  426.1271
 461  430.1084
 462  458.3665
 463  449.7996
 464  363.793
 465  375.3319
 466  401.7935
 467  476.3856
 468  492.6688
 469  383.5814
 470  379.6667
 471  371.8728
 472  249.4435
 473  256.7453
 474  307.2659
 475  346.32
 476  279.7996
 477  253.6352
 478  315.5602
 479  227.4307
 480  294.4084
 481  314.8266
 482  158.6343
 483  147.8884
 484  249.3827
 485  340.8795
 486  414.5353
 487  352.6013
 488  244.6946
 489  327.0503
 490  295.9658
 491  435.8958
 492  482.5545
 493  513.4213
 494  485.0543
 495  528.9479
 496  488.0454
 497  454.0703
 498  390.3397
 499  316.3588
 500  398.9602
 501  390.5178
 502  405.7674
 503  502.7868
 504  441.9825
 505  282.7188
 506  428.9312
 507  622.8882
 508  765.8199
 509  952.8755
 510  1158.872
 511  1408.775
