# Input file       =  1207752188.129288_cleaned.dat
# Candidate        =  PSR_0332+5434
# Telescope        =  AR
# Epoch_topo       =  58222.613080200092
# Epoch_bary       =  N/A
# T_sample         =  0.002
# Data Folded      =  7340032
# Data Avg         =  0.0300242042932642
# Data StdDev      =  1.00008477609181 
# Profile Bins     =  512
# Profile Avg      =  430.472260130895 
# Profile StdDev   =  119.743186875651 
# Reduced chi-sqr  =  1.638
# Prob(Noise)      <  3.47e-18   (~8.6 sigma)
# P_topo (ms)      =  714.560799575434  +/- 0.000311
# P'_topo (s/s)    =  -0                +/- 1.64e-10
# P''_topo (s/s^2) =  0                 +/- 7.23e-14
# P_bary (ms)      =  N/A
# P'_bary (s/s)    =  N/A
# P''_bary (s/s^2) =  N/A
# P_orb (s)        =  N/A
# asin(i)/c (s)    =  N/A
# eccentricity     =  N/A
# w (rad)          =  N/A
# T_peri           =  N/A
######################################################
   0  1321.862
   1  1282.972
   2  1113.035
   3  818.0777
   4  657.116
   5  483.6332
   6  459.604
   7  507.8801
   8  474.88
   9  361.4562
  10  387.2221
  11  442.3391
  12  388.2352
  13  483.2531
  14  376.606
  15  414.6676
  16  364.1686
  17  391.316
  18  500.0046
  19  504.8689
  20  418.473
  21  530.2803
  22  520.5814
  23  464.6448
  24  543.6389
  25  411.0576
  26  366.6865
  27  459.1904
  28  458.3585
  29  454.3694
  30  440.722
  31  506.6343
  32  474.0086
  33  490.2877
  34  534.7953
  35  446.6519
  36  468.8668
  37  467.86
  38  469.455
  39  382.3832
  40  420.3062
  41  444.6075
  42  348.7099
  43  371.1214
  44  316.1694
  45  236.3303
  46  394.991
  47  413.5808
  48  425.7794
  49  421.4694
  50  412.7113
  51  284.2781
  52  288.5424
  53  320.3481
  54  257.6422
  55  352.231
  56  437.4721
  57  360.0572
  58  344.6149
  59  284.472
  60  376.8748
  61  444.9948
  62  477.869
  63  432.4908
  64  361.842
  65  410.364
  66  495.2145
  67  462.6692
  68  398.4983
  69  356.1289
  70  279.0224
  71  322.403
  72  359.9653
  73  347.9843
  74  399.8416
  75  362.6701
  76  297.3329
  77  299.3687
  78  377.4844
  79  458.5516
  80  313.1709
  81  325.2045
  82  440.4129
  83  354.7647
  84  290.1542
  85  366.9586
  86  475.9202
  87  514.1864
  88  348.069
  89  286.1666
  90  368.7867
  91  357.4686
  92  429.628
  93  423.9895
  94  398.4864
  95  370.5747
  96  372.3136
  97  377.139
  98  460.0642
  99  529.6892
 100  500.108
 101  418.1635
 102  456.624
 103  589.5982
 104  434.0519
 105  412.7895
 106  376.8717
 107  297.6428
 108  341.5687
 109  256.1449
 110  357.2248
 111  303.6381
 112  287.9701
 113  326.9785
 114  370.5381
 115  367.9344
 116  327.7657
 117  473.7889
 118  460.3972
 119  439.2199
 120  271.5063
 121  290.4256
 122  353.6075
 123  369.5221
 124  443.3292
 125  305.7972
 126  266.4445
 127  388.7032
 128  490.2242
 129  411.024
 130  313.6422
 131  419.6199
 132  352.5815
 133  362.2007
 134  412.6845
 135  375.0407
 136  382.571
 137  354.5775
 138  286.9545
 139  260.9671
 140  304.4751
 141  335.3552
 142  253.4671
 143  334.8242
 144  446.5331
 145  493.5365
 146  583.0114
 147  581.3732
 148  537.5981
 149  373.4449
 150  382.9909
 151  415.4825
 152  523.541
 153  511.0898
 154  515.8179
 155  448.6792
 156  485.3236
 157  387.1241
 158  460.6291
 159  592.3165
 160  543.9477
 161  479.7345
 162  452.1061
 163  464.9545
 164  454.2032
 165  532.7695
 166  502.2411
 167  462.4372
 168  500.0806
 169  484.4245
 170  471.1103
 171  356.9333
 172  363.1374
 173  409.2505
 174  500.1363
 175  518.1742
 176  462.5994
 177  480.4465
 178  480.0528
 179  454.0442
 180  459.7286
 181  400.3799
 182  481.4106
 183  453.4266
 184  338.6201
 185  386.6905
 186  341.6624
 187  329.8193
 188  366.6356
 189  438.2465
 190  502.3732
 191  390.9114
 192  332.6625
 193  387.8734
 194  409.5807
 195  472.0634
 196  394.5987
 197  447.3281
 198  399.7299
 199  361.6129
 200  387.6099
 201  421.5139
 202  416.257
 203  475.2274
 204  471.1151
 205  399.7159
 206  447.2368
 207  458.1877
 208  370.3827
 209  430.2758
 210  511.4036
 211  425.6649
 212  306.8127
 213  256.2028
 214  354.2594
 215  373.5087
 216  451.1448
 217  499.2235
 218  528.6194
 219  435.0189
 220  364.7931
 221  378.054
 222  477.8625
 223  466.0191
 224  468.0711
 225  387.3631
 226  422.1168
 227  398.123
 228  422.5795
 229  471.5101
 230  463.5551
 231  366.7628
 232  347.4074
 233  521.8284
 234  580.257
 235  519.4294
 236  499.8421
 237  509.2406
 238  506.4256
 239  544.5515
 240  483.5348
 241  548.1472
 242  474.5674
 243  436.871
 244  520.9176
 245  575.54
 246  500.9458
 247  470.7841
 248  476.252
 249  407.9544
 250  402.4529
 251  445.8403
 252  399.2793
 253  426.4939
 254  392.6143
 255  369.5406
 256  312.5313
 257  398.6792
 258  493.0844
 259  373.1455
 260  384.8544
 261  440.7207
 262  439.6151
 263  434.032
 264  348.9794
 265  302.2446
 266  360.1795
 267  405.6957
 268  441.7965
 269  334.3693
 270  401.3275
 271  418.5109
 272  332.2389
 273  309.3686
 274  329.2049
 275  287.9432
 276  332.0636
 277  297.0463
 278  367.1683
 279  415.5005
 280  454.2855
 281  387.6209
 282  419.421
 283  485.287
 284  441.8261
 285  358.4052
 286  296.6356
 287  313.0471
 288  438.5981
 289  481.4276
 290  484.4404
 291  391.7171
 292  367.9648
 293  387.8242
 294  386.7799
 295  403.4912
 296  362.0503
 297  278.7365
 298  235.2232
 299  408.6107
 300  398.7235
 301  428.2395
 302  504.462
 303  388.88
 304  337.513
 305  299.8106
 306  419.9398
 307  428.0847
 308  425.2622
 309  396.5481
 310  417.5078
 311  429.1965
 312  441.9982
 313  310.9005
 314  329.0897
 315  424.8243
 316  396.2316
 317  461.5352
 318  503.3029
 319  470.8515
 320  471.793
 321  522.1279
 322  580.1772
 323  518.181
 324  505.3375
 325  357.2701
 326  389.7242
 327  423.5205
 328  441.878
 329  424.9031
 330  309.4424
 331  362.3537
 332  459.7818
 333  518.1182
 334  524.8472
 335  508.1513
 336  448.6441
 337  424.3066
 338  487.1846
 339  439.9308
 340  360.9697
 341  354.5812
 342  298.6884
 343  306.4586
 344  407.2632
 345  587.7353
 346  518.2204
 347  496.8178
 348  467.7115
 349  486.8962
 350  423.8681
 351  322.995
 352  339.7463
 353  473.7757
 354  472.2865
 355  547.9541
 356  483.9483
 357  393.6068
 358  321.013
 359  331.3443
 360  411.2252
 361  555.7341
 362  494.827
 363  487.6194
 364  438.129
 365  469.7613
 366  415.3331
 367  466.4569
 368  612.1219
 369  546.671
 370  531.6721
 371  456.9883
 372  505.1507
 373  547.8851
 374  453.2294
 375  526.3817
 376  470.0819
 377  446.1473
 378  447.7137
 379  435.2387
 380  456.0779
 381  483.605
 382  468.1985
 383  474.6407
 384  533.2958
 385  496.614
 386  535.2069
 387  516.1491
 388  479.7202
 389  529.5964
 390  573.8585
 391  638.7352
 392  545.227
 393  554.4415
 394  520.0505
 395  517.611
 396  455.6636
 397  370.8698
 398  524.8665
 399  440.4249
 400  415.9625
 401  457.6398
 402  418.4218
 403  458.1882
 404  395.3106
 405  392.6101
 406  447.1236
 407  470.8212
 408  546.0779
 409  450.2176
 410  406.0993
 411  436.5653
 412  369.4799
 413  376.6025
 414  392.3102
 415  386.0066
 416  368.906
 417  337.1705
 418  269.5762
 419  372.5901
 420  344.0426
 421  284.634
 422  227.3779
 423  162.0034
 424  358.3884
 425  298.441
 426  234.494
 427  343.5706
 428  365.4383
 429  314.995
 430  292.8673
 431  351.3143
 432  411.9634
 433  416.9634
 434  302.7454
 435  242.1913
 436  402.1694
 437  348.4016
 438  342.3194
 439  302.1981
 440  322.456
 441  442.2536
 442  454.0636
 443  427.1147
 444  531.7003
 445  447.8087
 446  405.6867
 447  348.7008
 448  435.1777
 449  419.5884
 450  308.6366
 451  392.636
 452  461.5253
 453  437.9639
 454  431.3263
 455  256.2336
 456  378.8786
 457  563.8878
 458  426.7241
 459  407.0304
 460  447.1028
 461  452.9538
 462  455.3154
 463  534.625
 464  458.7241
 465  475.2115
 466  535.4714
 467  525.0856
 468  436.3115
 469  438.4465
 470  507.086
 471  617.9136
 472  501.6545
 473  538.7124
 474  402.0019
 475  371.5262
 476  427.8184
 477  402.0724
 478  393.0449
 479  430.1731
 480  410.4074
 481  458.2054
 482  365.7691
 483  364.0876
 484  326.4799
 485  419.827
 486  358.0719
 487  393.3752
 488  446.0991
 489  495.1021
 490  369.6368
 491  402.1184
 492  470.9324
 493  532.9925
 494  521.3956
 495  515.7495
 496  459.0722
 497  450.4006
 498  496.2803
 499  488.176
 500  407.0482
 501  329.9207
 502  433.1497
 503  435.4912
 504  425.668
 505  548.6161
 506  621.0246
 507  443.902
 508  599.6328
 509  839.0873
 510  991.6487
 511  1199.82
