# Input file       =  1208441724.10273_cleaned.dat
# Candidate        =  PSR_0332+5434
# Telescope        =  AR
# Epoch_topo       =  58230.593820633447
# Epoch_bary       =  N/A
# T_sample         =  0.002
# Data Folded      =  7340032
# Data Avg         =  0.0304728074247913
# Data StdDev      =  1.0000727992353  
# Profile Bins     =  512
# Profile Avg      =  436.870928581427 
# Profile StdDev   =  119.741752850254 
# Reduced chi-sqr  =  1.562
# Prob(Noise)      <  5.91e-15   (~7.7 sigma)
# P_topo (ms)      =  714.554388272676  +/- 0.0003
# P'_topo (s/s)    =  -0                +/- 1.58e-10
# P''_topo (s/s^2) =  0                 +/- 7e-14
# P_bary (ms)      =  N/A
# P'_bary (s/s)    =  N/A
# P''_bary (s/s^2) =  N/A
# P_orb (s)        =  N/A
# asin(i)/c (s)    =  N/A
# eccentricity     =  N/A
# w (rad)          =  N/A
# T_peri           =  N/A
######################################################
   0  1055.861
   1  1083.198
   2  898.9801
   3  580.2824
   4  388.393
   5  360.6861
   6  410.6187
   7  418.942
   8  383.4868
   9  440.9889
  10  301.0353
  11  266.212
  12  333.0455
  13  328.2236
  14  329.337
  15  224.4716
  16  293.751
  17  276.3017
  18  233.6923
  19  202.8668
  20  260.1431
  21  242.0932
  22  265.7588
  23  368.6505
  24  337.4053
  25  352.2264
  26  220.2501
  27  296.2792
  28  467.5139
  29  383.8344
  30  516.1095
  31  503.2728
  32  513.1128
  33  537.9632
  34  309.2296
  35  356.5453
  36  271.6157
  37  306.1954
  38  461.9819
  39  467.2617
  40  489.2682
  41  476.9232
  42  417.4295
  43  487.9265
  44  547.2721
  45  539.6386
  46  449.0764
  47  421.1439
  48  453.736
  49  517.7979
  50  550.8
  51  502.9836
  52  477.6969
  53  541.1179
  54  454.4989
  55  469.7606
  56  542.72
  57  479.3469
  58  499.6488
  59  433.9628
  60  436.4547
  61  413.9288
  62  498.3264
  63  524.4308
  64  448.3524
  65  351.4914
  66  335.4575
  67  347.4525
  68  369.9267
  69  348.9852
  70  315.0565
  71  209.6622
  72  273.2688
  73  244.8362
  74  159.0696
  75  376.0646
  76  396.1106
  77  479.4956
  78  449.5222
  79  451.7678
  80  367.8898
  81  363.9889
  82  412.3304
  83  465.2704
  84  355.9929
  85  238.2436
  86  267.938
  87  277.3665
  88  340.0947
  89  333.3869
  90  326.1014
  91  316.5381
  92  301.09
  93  360.7661
  94  369.0605
  95  320.9659
  96  372.6802
  97  387.2578
  98  445.8214
  99  510.2778
 100  510.8185
 101  499.6853
 102  486.2149
 103  416.3922
 104  482.6679
 105  545.6379
 106  457.9548
 107  454.1333
 108  484.3619
 109  541.5474
 110  542.6375
 111  485.8323
 112  492.6963
 113  514.6364
 114  520.6566
 115  578.2853
 116  561.1874
 117  462.4736
 118  465.084
 119  515.2858
 120  559.804
 121  449.2117
 122  464.4523
 123  560.9304
 124  530.1411
 125  569.518
 126  566.3546
 127  458.7625
 128  401.6906
 129  422.5511
 130  474.5628
 131  542.4496
 132  530.3867
 133  473.0483
 134  469.7971
 135  514.8675
 136  363.6728
 137  363.0836
 138  356.3088
 139  396.031
 140  530.4647
 141  557.3706
 142  456.8475
 143  527.2373
 144  412.0433
 145  421.8557
 146  414.8751
 147  346.3206
 148  488.8356
 149  463.1944
 150  468.0221
 151  455.2782
 152  328.3279
 153  424.4162
 154  476.1565
 155  397.0223
 156  409.0586
 157  383.8603
 158  502.1634
 159  534.5577
 160  410.4657
 161  287.3912
 162  251.4472
 163  365.7929
 164  369.1573
 165  400.5848
 166  474.9271
 167  600.2658
 168  610.3297
 169  523.1345
 170  619.7472
 171  466.4347
 172  384.196
 173  378.1364
 174  332.2704
 175  273.3183
 176  357.8943
 177  497.6961
 178  489.0428
 179  503.5879
 180  493.4538
 181  504.5248
 182  537.0932
 183  388.6499
 184  404.8535
 185  442.7821
 186  442.2484
 187  364.8564
 188  426.476
 189  391.0363
 190  507.8369
 191  406.1794
 192  395.5384
 193  498.3781
 194  480.0597
 195  516.3566
 196  512.6776
 197  424.6559
 198  471.6877
 199  486.6073
 200  614.2365
 201  568.9725
 202  420.1727
 203  437.8076
 204  518.5209
 205  531.1288
 206  420.8458
 207  294.2962
 208  296.1175
 209  320.2068
 210  433.2733
 211  461.0751
 212  485.2571
 213  473.3471
 214  350.6534
 215  353.7372
 216  376.467
 217  490.3029
 218  546.512
 219  429.7402
 220  514.0275
 221  492.019
 222  307.6653
 223  329.4754
 224  381.0106
 225  323.2811
 226  234.4069
 227  311.6354
 228  401.4875
 229  294.7083
 230  254.2872
 231  315.9677
 232  394.9549
 233  452.0871
 234  402.0211
 235  398.6431
 236  306.7794
 237  377.3125
 238  364.8441
 239  303.9841
 240  505.1576
 241  499.9047
 242  522.4526
 243  445.7074
 244  361.2902
 245  468.5764
 246  500.8229
 247  405.4493
 248  439.3936
 249  490.9787
 250  468.5671
 251  494.3086
 252  459.9586
 253  465.4093
 254  415.3235
 255  420.2294
 256  325.8463
 257  408.2808
 258  471.1364
 259  553.7501
 260  550.1215
 261  514.787
 262  466.3929
 263  556.1927
 264  414.8357
 265  396.358
 266  396.8869
 267  354.6678
 268  395.4746
 269  441.3552
 270  389.7547
 271  441.5782
 272  386.4498
 273  485.6805
 274  532.7018
 275  426.4293
 276  463.2841
 277  535.3602
 278  605.0399
 279  499.4627
 280  455.4576
 281  550.7128
 282  471.3519
 283  460.6328
 284  489.983
 285  504.2915
 286  492.9642
 287  477.1326
 288  497.7528
 289  405.5516
 290  357.834
 291  452.7486
 292  519.5477
 293  500.9415
 294  473.9122
 295  388.5099
 296  514.7618
 297  620.3179
 298  552.3608
 299  449.6548
 300  483.1926
 301  533.2078
 302  343.9757
 303  368.4346
 304  335.8911
 305  473.9015
 306  442.5252
 307  338.0855
 308  303.9602
 309  330.0684
 310  412.3689
 311  389.5735
 312  401.395
 313  456.2497
 314  362.5775
 315  336.8198
 316  409.9392
 317  414.1122
 318  546.6077
 319  511.9443
 320  425.043
 321  487.4322
 322  426.8594
 323  475.2381
 324  548.9006
 325  531.4545
 326  504.6635
 327  474.3001
 328  538.1399
 329  525.2527
 330  561.7608
 331  581.2026
 332  475.7043
 333  438.7626
 334  522.9257
 335  536.243
 336  634.291
 337  574.0678
 338  538.0826
 339  486.9784
 340  501.7664
 341  569.2094
 342  457.6014
 343  569.0814
 344  520.71
 345  503.731
 346  593.0524
 347  610.9235
 348  613.6407
 349  565.8521
 350  459.7094
 351  487.3334
 352  380.6904
 353  529.9713
 354  546.4056
 355  561.9799
 356  539.15
 357  394.8002
 358  280.1025
 359  457.367
 360  540.7859
 361  480.5662
 362  381.3911
 363  458.2154
 364  497.155
 365  469.1675
 366  414.0817
 367  469.357
 368  496.2506
 369  409.171
 370  431.8515
 371  559.5061
 372  409.6885
 373  354.4001
 374  301.8467
 375  411.6031
 376  387.7879
 377  339.9207
 378  347.4183
 379  368.3526
 380  372.1881
 381  321.2165
 382  362.8784
 383  350.3112
 384  337.0069
 385  244.9865
 386  427.1996
 387  415.0971
 388  405.1886
 389  512.2877
 390  508.4176
 391  442.8012
 392  404.1873
 393  358.2969
 394  387.1656
 395  411.8316
 396  536.1079
 397  467.0632
 398  628.8
 399  550.8151
 400  484.5119
 401  503.7382
 402  588.2933
 403  528.0948
 404  484.4968
 405  421.6516
 406  445.1634
 407  623.1013
 408  536.106
 409  452.1106
 410  559.9725
 411  594.8253
 412  501.1342
 413  486.6557
 414  489.6412
 415  519.9008
 416  523.8048
 417  568.2073
 418  469.3849
 419  339.5852
 420  451.3623
 421  317.8448
 422  355.4249
 423  595.5936
 424  473.932
 425  429.6277
 426  349.3426
 427  433.282
 428  461.3447
 429  418.3622
 430  503.108
 431  358.4826
 432  376.9442
 433  399.4269
 434  272.6941
 435  295.3519
 436  413.9488
 437  442.3747
 438  295.438
 439  308.9453
 440  400.722
 441  376.9731
 442  303.5222
 443  352.0262
 444  310.2414
 445  270.8903
 446  319.4216
 447  353.189
 448  356.9077
 449  237.0858
 450  283.8303
 451  401.131
 452  352.291
 453  331.7645
 454  221.5741
 455  301.8231
 456  320.7361
 457  298.7952
 458  306.5564
 459  287.9323
 460  356.6331
 461  333.9091
 462  289.8206
 463  325.6188
 464  376.5407
 465  461.478
 466  328.6829
 467  220.8151
 468  314.332
 469  425.5879
 470  436.5302
 471  463.2372
 472  469.8357
 473  310.0977
 474  284.2489
 475  340.7061
 476  403.2552
 477  265.7947
 478  397.6733
 479  488.5391
 480  352.0333
 481  434.812
 482  464.4662
 483  322.9231
 484  363.6641
 485  296.962
 486  363.6524
 487  267.3825
 488  395.1916
 489  438.0229
 490  376.6513
 491  490.4121
 492  482.7023
 493  505.0601
 494  512.7856
 495  477.7471
 496  471.1141
 497  525.1049
 498  465.727
 499  392.9154
 500  355.1342
 501  389.3478
 502  486.8928
 503  415.4413
 504  537.1113
 505  466.2732
 506  547.3369
 507  512.9197
 508  633.0602
 509  834.7759
 510  1004.965
 511  1009.966
