# Input file       =  1208340608.107277_cleaned.dat
# Candidate        =  PSR_0332+5434
# Telescope        =  AR
# Epoch_topo       =  58229.423496611998
# Epoch_bary       =  N/A
# T_sample         =  0.002
# Data Folded      =  7340032
# Data Avg         =  0.0302013740827329
# Data StdDev      =  1.00012843886647 
# Profile Bins     =  512
# Profile Avg      =  433.034092266238 
# Profile StdDev   =  119.748414752237 
# Reduced chi-sqr  =  1.134
# Prob(Noise)      <  0.0188   (~2.1 sigma)
# P_topo (ms)      =  714.555027536621  +/- 0.00071
# P'_topo (s/s)    =  -0                +/- 3.75e-10
# P''_topo (s/s^2) =  0                 +/- 1.65e-13
# P_bary (ms)      =  N/A
# P'_bary (s/s)    =  N/A
# P''_bary (s/s^2) =  N/A
# P_orb (s)        =  N/A
# asin(i)/c (s)    =  N/A
# eccentricity     =  N/A
# w (rad)          =  N/A
# T_peri           =  N/A
######################################################
   0  951.6518
   1  924.1061
   2  786.5848
   3  593.4106
   4  447.9737
   5  423.3204
   6  441.7959
   7  471.657
   8  408.7422
   9  411.035
  10  472.6275
  11  415.1141
  12  421.0412
  13  451.0829
  14  426.5345
  15  394.8563
  16  438.2371
  17  464.1165
  18  374.2736
  19  485.0013
  20  451.0728
  21  438.9102
  22  546.1422
  23  523.2669
  24  510.4394
  25  456.3269
  26  493.5724
  27  375.4684
  28  444.8333
  29  485.1918
  30  415.2611
  31  552.8512
  32  568.4384
  33  489.5632
  34  532.1876
  35  537.3499
  36  511.7981
  37  526.0466
  38  526.2865
  39  530.6518
  40  485.773
  41  514.0433
  42  460.4506
  43  496.4722
  44  511.428
  45  506.189
  46  479.8601
  47  510.8069
  48  537.4606
  49  543.1005
  50  495.1312
  51  451.187
  52  504.9878
  53  472.94
  54  347.9338
  55  368.2827
  56  491.8699
  57  392.1572
  58  387.4087
  59  459.487
  60  454.4063
  61  480.2973
  62  543.0803
  63  464.4146
  64  346.7509
  65  280.0246
  66  356.3429
  67  294.377
  68  352.2337
  69  424.5724
  70  400.2667
  71  399.8839
  72  380.0498
  73  328.3743
  74  358.6544
  75  328.7847
  76  351.4284
  77  412.2599
  78  430.9919
  79  349.9646
  80  256.8342
  81  291.5867
  82  306.7666
  83  356.0902
  84  306.6701
  85  315.9478
  86  412.2625
  87  454.3507
  88  400.7682
  89  319.9757
  90  395.3608
  91  421.382
  92  405.9147
  93  332.5516
  94  402.5784
  95  340.5658
  96  328.8406
  97  385.5063
  98  418.9213
  99  438.9093
 100  442.8484
 101  445.6078
 102  413.3753
 103  410.3982
 104  458.5184
 105  430.4145
 106  405.2293
 107  381.7143
 108  477.2559
 109  481.268
 110  485.4729
 111  553.4296
 112  523.8841
 113  445.4582
 114  404.1576
 115  436.6562
 116  508.3831
 117  463.9376
 118  525.7761
 119  471.3446
 120  497.1887
 121  432.5449
 122  468.2765
 123  517.4508
 124  439.1129
 125  405.0325
 126  493.0856
 127  474.3757
 128  518.7587
 129  383.2381
 130  403.3818
 131  448.8335
 132  478.348
 133  445.2133
 134  458.8553
 135  449.3793
 136  448.6779
 137  362.3186
 138  426.7125
 139  415.0349
 140  362.3082
 141  363.4536
 142  390.7094
 143  409.5139
 144  419.9861
 145  371.461
 146  389.3665
 147  400.9459
 148  402.5529
 149  409.2421
 150  337.6904
 151  398.548
 152  413.4752
 153  366.5515
 154  417.7301
 155  424.5412
 156  376.201
 157  395.3228
 158  404.0678
 159  432.1222
 160  415.4341
 161  460.5287
 162  451.5276
 163  393.2778
 164  434.2622
 165  460.4668
 166  446.258
 167  420.3557
 168  414.9895
 169  441.2929
 170  381.5731
 171  434.0843
 172  502.3744
 173  434.208
 174  420.8625
 175  443.1464
 176  523.7979
 177  603.8334
 178  537.9799
 179  567.0844
 180  538.5956
 181  572.917
 182  629.6411
 183  597.6339
 184  607.6453
 185  637.3364
 186  614.6269
 187  639.753
 188  642.2844
 189  645.1401
 190  578.4016
 191  619.8354
 192  565.1727
 193  512.1139
 194  603.3352
 195  591.0763
 196  540.889
 197  513.5024
 198  471.1768
 199  517.2403
 200  489.2328
 201  465.1423
 202  441.9038
 203  387.3401
 204  367.0484
 205  483.8468
 206  418.2785
 207  339.3616
 208  372.8676
 209  415.5917
 210  370.7471
 211  346.0127
 212  381.2318
 213  451.1204
 214  439.0472
 215  360.34
 216  307.5095
 217  387.7156
 218  355.065
 219  346.8001
 220  407.172
 221  419.8119
 222  407.9663
 223  393.1958
 224  402.7322
 225  330.7911
 226  326.8023
 227  372.1497
 228  392.2715
 229  350.2987
 230  328.2387
 231  296.1187
 232  413.5576
 233  371.0385
 234  354.8518
 235  382.3185
 236  341.1068
 237  343.8903
 238  341.326
 239  270.6881
 240  299.7156
 241  351.3836
 242  374.1224
 243  386.833
 244  407.2323
 245  442.6229
 246  433.5007
 247  507.3946
 248  463.3135
 249  450.8922
 250  440.0857
 251  548.2188
 252  480.0179
 253  502.65
 254  424.8991
 255  372.612
 256  396.7342
 257  486.9055
 258  449.4873
 259  427.3301
 260  486.2405
 261  523.8353
 262  539.8975
 263  494.8242
 264  500.7984
 265  480.1956
 266  467.2182
 267  464.9377
 268  494.8714
 269  518.0767
 270  484.2773
 271  425.614
 272  469.2775
 273  429.9835
 274  495.7234
 275  424.4398
 276  343.5187
 277  354.4725
 278  357.9116
 279  381.5438
 280  382.726
 281  303.609
 282  237.533
 283  272.4624
 284  271.5409
 285  291.392
 286  271.7234
 287  285.459
 288  453.8355
 289  375.4076
 290  241.0427
 291  279.7416
 292  353.0887
 293  372.0016
 294  281.0597
 295  407.4561
 296  330.6339
 297  293.3063
 298  299.1788
 299  337.6364
 300  245.3681
 301  239.3567
 302  248.7633
 303  263.8732
 304  330.5753
 305  384.3921
 306  330.7391
 307  311.6082
 308  271.3699
 309  250.033
 310  262.3876
 311  299.7646
 312  311.2197
 313  302.2909
 314  264.7961
 315  273.5869
 316  408.3333
 317  421.726
 318  323.5779
 319  293.5849
 320  331.4179
 321  317.0986
 322  297.8594
 323  310.1072
 324  313.709
 325  308.1122
 326  412.5074
 327  434.4886
 328  348.4503
 329  378.1704
 330  293.9392
 331  424.2105
 332  425.3927
 333  342.3916
 334  356.8356
 335  406.3172
 336  358.7946
 337  389.9109
 338  351.4415
 339  352.4767
 340  431.9998
 341  361.0106
 342  303.3046
 343  337.5391
 344  358.0797
 345  399.4293
 346  395.2096
 347  413.9523
 348  453.4217
 349  420.8707
 350  456.7226
 351  498.4633
 352  434.1349
 353  410.6288
 354  344.2227
 355  386.5909
 356  418.9281
 357  459.8524
 358  431.1049
 359  384.9864
 360  390.1004
 361  366.6931
 362  386.9704
 363  414.7484
 364  387.0341
 365  460.2277
 366  509.7888
 367  429.4878
 368  410.9772
 369  316.0774
 370  441.7042
 371  348.5943
 372  339.0117
 373  426.2421
 374  439.0435
 375  388.1978
 376  373.8178
 377  399.1078
 378  360.5276
 379  392.2423
 380  411.3357
 381  400.193
 382  351.9915
 383  378.2246
 384  381.9451
 385  365.0856
 386  392.283
 387  356.1698
 388  358.3575
 389  423.3955
 390  402.6614
 391  434.2414
 392  392.9188
 393  371.1369
 394  402.2922
 395  434.8926
 396  412.1871
 397  417.9885
 398  417.3167
 399  440.6904
 400  387.7289
 401  328.3001
 402  414.812
 403  417.1571
 404  346.9335
 405  347.3122
 406  315.541
 407  341.7232
 408  271.3618
 409  348.7604
 410  411.5566
 411  410.5459
 412  475.817
 413  474.1304
 414  394.6989
 415  377.6053
 416  404.175
 417  411.2429
 418  423.07
 419  396.386
 420  379.2708
 421  428.4223
 422  349.4989
 423  327.279
 424  418.1315
 425  395.8915
 426  393.0166
 427  364.2116
 428  468.1631
 429  429.8055
 430  471.6794
 431  433.4686
 432  417.1725
 433  405.5325
 434  463.4365
 435  539.8596
 436  531.6623
 437  510.3125
 438  503.7107
 439  543.58
 440  534.5374
 441  473.8033
 442  578.5786
 443  570.3232
 444  485.1084
 445  505.3288
 446  541.9813
 447  555.7577
 448  548.8843
 449  538.5608
 450  532.1258
 451  586.5274
 452  596.8547
 453  499.0887
 454  504.5337
 455  576.6086
 456  563.7852
 457  536.8499
 458  626.7084
 459  477.9002
 460  560.0868
 461  599.7178
 462  560.5169
 463  588.9576
 464  557.6325
 465  564.3181
 466  557.3059
 467  552.6252
 468  514.2607
 469  516.9321
 470  535.9146
 471  533.5604
 472  497.5163
 473  492.0114
 474  531.7658
 475  513.6564
 476  533.2361
 477  501.9499
 478  465.4037
 479  549.5011
 480  634.4321
 481  579.3856
 482  562.6707
 483  520.1517
 484  548.7982
 485  489.4969
 486  480.9886
 487  486.4362
 488  471.5028
 489  518.4935
 490  450.7711
 491  484.8241
 492  449.6262
 493  458.0849
 494  435.007
 495  388.2173
 496  425.38
 497  441.0117
 498  405.526
 499  404.171
 500  425.8016
 501  454.594
 502  460.0685
 503  404.2577
 504  329.7253
 505  389.9823
 506  473.8736
 507  458.2098
 508  498.9434
 509  598.1705
 510  764.5239
 511  865.2172
