# Input file       =  1208269331.106611_cleaned.dat
# Candidate        =  PSR_0332+5434
# Telescope        =  AR
# Epoch_topo       =  58228.598531326519
# Epoch_bary       =  N/A
# T_sample         =  0.002
# Data Folded      =  7340032
# Data Avg         =  0.0288453425964468
# Data StdDev      =  1.00006970454748 
# Profile Bins     =  512
# Profile Avg      =  413.450429021551 
# Profile StdDev   =  119.741382313886 
# Reduced chi-sqr  =  1.598
# Prob(Noise)      <  1.8e-16   (~8.2 sigma)
# P_topo (ms)      =  714.556048236624  +/- 0.000269
# P'_topo (s/s)    =  -0                +/- 1.42e-10
# P''_topo (s/s^2) =  0                 +/- 6.26e-14
# P_bary (ms)      =  N/A
# P'_bary (s/s)    =  N/A
# P''_bary (s/s^2) =  N/A
# P_orb (s)        =  N/A
# asin(i)/c (s)    =  N/A
# eccentricity     =  N/A
# w (rad)          =  N/A
# T_peri           =  N/A
######################################################
   0  861.4829
   1  856.416
   2  669.595
   3  504.9444
   4  417.4091
   5  312.1696
   6  269.3452
   7  417.5529
   8  416.3745
   9  349.2619
  10  327.2923
  11  310.2039
  12  390.7437
  13  515.6985
  14  463.8863
  15  301.9463
  16  295.727
  17  247.4703
  18  374.1095
  19  437.281
  20  420.4121
  21  411.0266
  22  444.3578
  23  564.2722
  24  469.5724
  25  472.052
  26  502.407
  27  300.7723
  28  369.5061
  29  434.1114
  30  476.5862
  31  557.0534
  32  515.5618
  33  493.6323
  34  426.0158
  35  412.1569
  36  449.9433
  37  565.8618
  38  505.4064
  39  397.7644
  40  410.4234
  41  474.1967
  42  477.6548
  43  480.0224
  44  427.559
  45  504.5901
  46  527.5896
  47  516.2759
  48  465.2947
  49  457.1606
  50  386.5092
  51  346.7244
  52  322.1845
  53  367.9614
  54  440.0352
  55  436.9514
  56  444.7982
  57  379.357
  58  407.2111
  59  465.149
  60  538.3068
  61  452.8334
  62  463.0973
  63  531.512
  64  525.5557
  65  524.3703
  66  374.9372
  67  371.3179
  68  171.4587
  69  251.6879
  70  304.936
  71  358.6133
  72  319.1573
  73  268.5643
  74  330.697
  75  379.5854
  76  504.5867
  77  275.5124
  78  203.718
  79  369.9801
  80  312.2194
  81  251.44
  82  270.4573
  83  358.457
  84  288.6651
  85  303.7726
  86  335.6385
  87  315.1612
  88  345.1866
  89  391.0254
  90  317.9081
  91  324.1414
  92  394.6248
  93  361.4686
  94  348.4537
  95  405.4374
  96  400.5536
  97  390.1647
  98  419.8636
  99  447.9495
 100  482.7664
 101  393.7501
 102  293.7014
 103  460.3515
 104  528.5311
 105  517.7016
 106  511.9228
 107  557.6577
 108  483.0366
 109  443.8614
 110  473.3813
 111  481.5596
 112  340.1499
 113  355.4554
 114  421.3765
 115  431.1601
 116  476.4422
 117  410.951
 118  427.4205
 119  418.5153
 120  470.2562
 121  522.1024
 122  526.1675
 123  505.5287
 124  446.3676
 125  504.0384
 126  522.0104
 127  554.7986
 128  565.7108
 129  640.6136
 130  571.7009
 131  564.1578
 132  611.4675
 133  492.7913
 134  554.0403
 135  597.4239
 136  549.136
 137  442.0502
 138  365.3911
 139  438.6345
 140  503.5719
 141  491.2517
 142  388.8635
 143  243.9698
 144  309.942
 145  276.167
 146  325.0841
 147  296.7664
 148  361.7752
 149  321.9328
 150  249.4905
 151  355.6627
 152  359.4602
 153  284.4772
 154  243.7862
 155  309.7375
 156  326.3503
 157  405.2241
 158  373.7872
 159  246.0202
 160  283.2833
 161  401.8649
 162  497.8015
 163  453.3232
 164  417.6709
 165  307.0966
 166  143.1243
 167  246.7298
 168  350.3204
 169  354.2163
 170  381.8517
 171  473.4356
 172  344.331
 173  168.2452
 174  50.93042
 175  199.1008
 176  250.7439
 177  277.4839
 178  344.6357
 179  380.4001
 180  317.4849
 181  322.7143
 182  339.0294
 183  304.3279
 184  368.144
 185  317.4315
 186  347.0979
 187  404.3227
 188  382.8596
 189  375.3767
 190  290.7827
 191  424.6725
 192  426.9725
 193  481.9604
 194  514.139
 195  457.8833
 196  506.6536
 197  558.1702
 198  538.295
 199  564.954
 200  664.4447
 201  570.024
 202  451.7511
 203  402.7053
 204  619.3967
 205  607.4016
 206  672.2378
 207  619.8583
 208  480.5677
 209  554.2449
 210  407.8048
 211  383.2967
 212  463.7878
 213  524.8401
 214  452.1045
 215  380.4929
 216  396.6067
 217  390.4528
 218  337.6178
 219  287.1685
 220  249.5104
 221  280.2382
 222  278.9535
 223  303.2268
 224  353.8392
 225  280.177
 226  343.7705
 227  374.8589
 228  334.5685
 229  337.9915
 230  304.1142
 231  408.9269
 232  545.6572
 233  491.1121
 234  429.9592
 235  395.9076
 236  418.9234
 237  412.3502
 238  411.1126
 239  417.5764
 240  382.2202
 241  371.5922
 242  255.313
 243  287.6988
 244  430.7536
 245  353.7044
 246  358.9195
 247  417.2079
 248  496.5446
 249  451.1664
 250  411.4895
 251  535.5609
 252  396.6104
 253  363.79
 254  350.8614
 255  461.4206
 256  409.4316
 257  353.9658
 258  436.5838
 259  443.8916
 260  437.0651
 261  483.5804
 262  552.7057
 263  482.5925
 264  416.3496
 265  460.9095
 266  511.756
 267  565.6567
 268  548.9927
 269  507.7642
 270  556.649
 271  625.765
 272  631.298
 273  561.9905
 274  525.7286
 275  585.1873
 276  572.2678
 277  512.8691
 278  557.4231
 279  522.911
 280  592.0558
 281  588.5224
 282  500.2167
 283  367.2868
 284  396.634
 285  437.5363
 286  463.7267
 287  407.7676
 288  398.7352
 289  373.9322
 290  295.2705
 291  413.8849
 292  466.9529
 293  416.9753
 294  266.7636
 295  256.7443
 296  348.4985
 297  334.1208
 298  349.295
 299  346.8175
 300  526.0999
 301  437.1699
 302  351.939
 303  221.3985
 304  372.4768
 305  443.0975
 306  502.154
 307  425.435
 308  401.137
 309  480.2154
 310  532.545
 311  509.7551
 312  547.0635
 313  583.9661
 314  490.0092
 315  524.8278
 316  425.4177
 317  388.6386
 318  419.8675
 319  425.4912
 320  365.5376
 321  293.7628
 322  392.2524
 323  564.8864
 324  528.7401
 325  470.291
 326  426.9476
 327  311.5362
 328  435.0114
 329  443.979
 330  457.7154
 331  355.1896
 332  389.4533
 333  387.3065
 334  350.0256
 335  439.7742
 336  459.0501
 337  352.7737
 338  414.0926
 339  406.3723
 340  354.5565
 341  460.0547
 342  474.723
 343  447.3186
 344  430.1447
 345  476.5827
 346  490.1654
 347  495.4765
 348  530.4257
 349  472.8417
 350  434.1293
 351  341.3273
 352  361.3192
 353  414.7379
 354  339.1972
 355  247.2388
 356  246.0015
 357  291.869
 358  312.4924
 359  256.0337
 360  220.8609
 361  324.338
 362  304.6706
 363  311.4054
 364  306.6466
 365  310.2281
 366  267.4564
 367  201.8449
 368  269.1178
 369  224.2888
 370  245.8184
 371  71.33472
 372  185.5876
 373  251.3127
 374  239.7119
 375  250.5832
 376  314.2576
 377  296.5898
 378  281.7271
 379  332.1168
 380  282.2392
 381  257.5804
 382  341.0365
 383  365.3801
 384  288.7289
 385  238.163
 386  212.5895
 387  289.8523
 388  245.1863
 389  324.7304
 390  346.2076
 391  176.1314
 392  221.9095
 393  272.5522
 394  341.121
 395  452.8089
 396  483.5952
 397  399.4997
 398  329.1717
 399  425.1907
 400  329.2346
 401  396.2707
 402  422.2894
 403  348.4667
 404  381.5552
 405  320.4732
 406  376.5343
 407  438.8931
 408  484.767
 409  474.7457
 410  475.1768
 411  469.8108
 412  474.0471
 413  523.7312
 414  430.6918
 415  374.9686
 416  432.9029
 417  504.6883
 418  565.0173
 419  578.8992
 420  552.4461
 421  467.9139
 422  481.0955
 423  458.9983
 424  458.1451
 425  444.9171
 426  464.4585
 427  408.9826
 428  405.6876
 429  365.215
 430  329.2955
 431  376.7451
 432  400.5169
 433  389.8519
 434  472.394
 435  255.0725
 436  160.6937
 437  315.4854
 438  414.1846
 439  458.9926
 440  312.0535
 441  252.5716
 442  354.5966
 443  402.9061
 444  420.1353
 445  426.9904
 446  429.4092
 447  446.8989
 448  351.3965
 449  408.5708
 450  340.8822
 451  335.7501
 452  342.127
 453  327.7533
 454  462.9784
 455  576.3611
 456  419.9006
 457  392.1364
 458  360.1891
 459  343.9105
 460  315.4205
 461  276.1481
 462  394.2506
 463  550.4681
 464  581.9398
 465  442.0039
 466  370.9494
 467  409.6223
 468  445.0245
 469  533.1509
 470  543.0762
 471  513.9925
 472  344.5892
 473  316.0986
 474  385.4864
 475  360.6211
 476  395.482
 477  356.9757
 478  437.6725
 479  422.3763
 480  309.5243
 481  361.1719
 482  347.9611
 483  396.4998
 484  434.7599
 485  532.9745
 486  576.1328
 487  476.4299
 488  502.8379
 489  532.6402
 490  610.9167
 491  494.0042
 492  489.2705
 493  512.5265
 494  574.3995
 495  557.1067
 496  492.9717
 497  528.6631
 498  454.2054
 499  364.0532
 500  544.1534
 501  549.7578
 502  533.0707
 503  406.1132
 504  432.556
 505  494.7257
 506  488.199
 507  469.0672
 508  656.6316
 509  799.1689
 510  833.1229
 511  895.4585
