# Input file       =  1208153608.10872_cleaned.dat
# Candidate        =  PSR_0332+5434
# Telescope        =  AR
# Epoch_topo       =  58227.259144776850
# Epoch_bary       =  N/A
# T_sample         =  0.002
# Data Folded      =  7143424
# Data Avg         =  0.0296413955194001
# Data StdDev      =  1.00003198522971 
# Profile Bins     =  512
# Profile Avg      =  413.556324234134 
# Profile StdDev   =  118.122362531925 
# Reduced chi-sqr  =  1.821
# Prob(Noise)      <  7.82e-27   (~10.7 sigma)
# P_topo (ms)      =  714.556785128631  +/- 4.44e-05
# P'_topo (s/s)    =  -0                +/- 2.41e-11
# P''_topo (s/s^2) =  0                 +/- 1.09e-14
# P_bary (ms)      =  N/A
# P'_bary (s/s)    =  N/A
# P''_bary (s/s^2) =  N/A
# P_orb (s)        =  N/A
# asin(i)/c (s)    =  N/A
# eccentricity     =  N/A
# w (rad)          =  N/A
# T_peri           =  N/A
######################################################
   0  1002.177
   1  1094.848
   2  1038.21
   3  861.0337
   4  610.3804
   5  463.2999
   6  456.0686
   7  371.9757
   8  316.7279
   9  480.9977
  10  563.6369
  11  529.1208
  12  531.681
  13  577.6913
  14  442.036
  15  443.8277
  16  495.2526
  17  571.6453
  18  483.6731
  19  190.7465
  20  196.179
  21  407.0048
  22  421.9556
  23  363.5167
  24  361.1861
  25  448.0952
  26  556.4512
  27  592.1843
  28  631.2903
  29  523.7998
  30  474.8248
  31  356.8221
  32  294.1761
  33  285.1237
  34  440.6659
  35  533.5448
  36  444.1664
  37  509.9413
  38  501.2589
  39  383.3393
  40  368.798
  41  422.3015
  42  423.7269
  43  599.0303
  44  706.8201
  45  655.1584
  46  561.1182
  47  490.9729
  48  420.2206
  49  392.2939
  50  329.0402
  51  449.4219
  52  466.8524
  53  446.012
  54  461.7933
  55  459.6809
  56  392.5187
  57  381.3283
  58  399.7818
  59  466.4555
  60  485.7656
  61  456.6772
  62  390.3384
  63  513.4962
  64  456.0924
  65  333.8275
  66  375.0026
  67  394.4193
  68  550.4413
  69  565.1604
  70  546.4946
  71  524.2999
  72  397.2304
  73  275.4638
  74  392.0829
  75  446.4222
  76  448.9258
  77  504.919
  78  595.0411
  79  690.0021
  80  411.8914
  81  195.2567
  82  287.2964
  83  251.778
  84  291.1207
  85  536.048
  86  523.2679
  87  418.5404
  88  344.6164
  89  351.5519
  90  384.8868
  91  315.81
  92  344.8738
  93  437.2914
  94  453.2328
  95  442.234
  96  367.0871
  97  401.2061
  98  426.5743
  99  310.2591
 100  358.2235
 101  477.5661
 102  491.889
 103  539.843
 104  429.8641
 105  392.5418
 106  311.4911
 107  240.3061
 108  398.2455
 109  443.5143
 110  538.6339
 111  436.6961
 112  405.3849
 113  418.856
 114  301.9742
 115  355.3387
 116  355.8003
 117  356.5725
 118  458.831
 119  531.5144
 120  447.4086
 121  336.9255
 122  389.6118
 123  453.8741
 124  517.8682
 125  461.0656
 126  363.8227
 127  500.7968
 128  470.317
 129  385.7857
 130  420.9134
 131  382.3128
 132  368.1107
 133  386.5681
 134  459.8474
 135  488.6495
 136  355.39
 137  338.8417
 138  376.3307
 139  385.1693
 140  366.1391
 141  379.9937
 142  445.7944
 143  605.175
 144  522.7484
 145  498.1878
 146  480.633
 147  404.1586
 148  429.6226
 149  349.2534
 150  254.4179
 151  398.2975
 152  453.5626
 153  377.86
 154  236.8971
 155  262.9846
 156  332.051
 157  419.461
 158  466.6371
 159  504.7076
 160  549.976
 161  514.8335
 162  424.338
 163  407.7053
 164  415.3242
 165  374.7619
 166  333.8969
 167  438.1404
 168  456.2289
 169  448.8393
 170  329.4825
 171  316.433
 172  381.2793
 173  351.1303
 174  370.6835
 175  384.8004
 176  401.0974
 177  490.2424
 178  386.1771
 179  366.4875
 180  419.0698
 181  406.3197
 182  434.9992
 183  419.544
 184  510.4902
 185  469.7185
 186  459.7812
 187  469.9377
 188  360.3877
 189  322.1298
 190  286.6169
 191  292.103
 192  475.024
 193  521.2523
 194  306.7845
 195  347.0537
 196  340.9482
 197  297.4515
 198  302.208
 199  294.5856
 200  241.3505
 201  158.1886
 202  220.1352
 203  294.3482
 204  301.6732
 205  352.4421
 206  266.9155
 207  391.2979
 208  579.36
 209  522.2568
 210  454.8264
 211  373.5186
 212  390.4917
 213  309.3158
 214  200.9578
 215  266.7311
 216  455.2676
 217  493.5376
 218  384.0165
 219  417.2272
 220  370.2173
 221  349.102
 222  320.4528
 223  314.1731
 224  474.4074
 225  634.1445
 226  619.9
 227  419.6294
 228  397.1733
 229  439.8036
 230  293.2675
 231  344.1482
 232  320.4103
 233  404.0789
 234  495.731
 235  497.8633
 236  324.1659
 237  220.4053
 238  349.7349
 239  376.8707
 240  462.2517
 241  485.7537
 242  467.8262
 243  511.9074
 244  494.6991
 245  448.5237
 246  387.6078
 247  391.3718
 248  419.5523
 249  479.4074
 250  490.2185
 251  478.6248
 252  384.713
 253  330.7961
 254  276.4008
 255  291.7419
 256  461.2234
 257  588.7957
 258  570.6291
 259  504.3106
 260  434.9165
 261  325.8474
 262  338.7531
 263  381.7616
 264  382.9256
 265  386.8637
 266  395.3322
 267  422.1876
 268  379.4512
 269  321.5744
 270  327.8268
 271  326.7928
 272  331.4271
 273  356.1014
 274  513.3358
 275  529.8356
 276  401.5852
 277  346.0669
 278  234.6801
 279  207.7513
 280  321.0633
 281  356.5871
 282  435.1011
 283  495.3623
 284  406.2212
 285  160.336
 286  226.8346
 287  196.1686
 288  129.1516
 289  235.9787
 290  263.4774
 291  344.501
 292  360.4047
 293  300.6088
 294  296.029
 295  361.1538
 296  377.1137
 297  319.7032
 298  287.6658
 299  462.3071
 300  467.1416
 301  448.245
 302  345.7584
 303  262.5713
 304  360.0439
 305  404.5681
 306  388.5563
 307  429.2193
 308  404.531
 309  333.5915
 310  394.7732
 311  340.0713
 312  308.131
 313  433.1186
 314  522.6898
 315  439.868
 316  466.9872
 317  535.3339
 318  588.5762
 319  475.612
 320  303.787
 321  315.1174
 322  304.1818
 323  325.9534
 324  472.6001
 325  512.4788
 326  510.8197
 327  389.7856
 328  314.1865
 329  284.9629
 330  348.276
 331  345.3012
 332  355.6003
 333  475.3889
 334  452.8441
 335  399.1252
 336  285.0914
 337  295.9778
 338  407.5238
 339  442.6923
 340  452.517
 341  556.3364
 342  521.571
 343  439.3658
 344  403.0343
 345  386.8515
 346  459.7794
 347  462.2499
 348  545.6182
 349  469.8521
 350  496.4559
 351  448.5259
 352  327.9721
 353  404.6854
 354  324.2781
 355  278.9458
 356  318.322
 357  474.6695
 358  524.0033
 359  429.1425
 360  346.2074
 361  285.455
 362  425.9803
 363  456.983
 364  419.3988
 365  431.4286
 366  376.2525
 367  337.7556
 368  290.3795
 369  384.1479
 370  466.0516
 371  450.2762
 372  539.7129
 373  378.8449
 374  530.7581
 375  646.4739
 376  529.8917
 377  409.5452
 378  423.0746
 379  397.9898
 380  297.1249
 381  276.3823
 382  238.2389
 383  437.6601
 384  373.2682
 385  407.5799
 386  290.6856
 387  342.0532
 388  382.448
 389  351.1472
 390  530.6702
 391  501.1644
 392  340.4471
 393  464.405
 394  492.0354
 395  386.1814
 396  404.7331
 397  366.1564
 398  481.2384
 399  536.4774
 400  547.9929
 401  385.0827
 402  286.3279
 403  313.7471
 404  482.7726
 405  399.6674
 406  401.3001
 407  514.827
 408  514.0817
 409  280.2834
 410  256.8533
 411  342.4437
 412  337.2513
 413  419.8023
 414  567.4139
 415  529.4714
 416  362.0937
 417  392.0681
 418  489.9203
 419  356.1054
 420  317.2632
 421  210.1772
 422  191.3084
 423  421.5178
 424  570.3028
 425  569.7026
 426  398.6649
 427  300.5013
 428  280.4639
 429  295.955
 430  349.4956
 431  293.4778
 432  421.6029
 433  545.5917
 434  372.1546
 435  297.9536
 436  380.1107
 437  390.2986
 438  384.9321
 439  489.4864
 440  497.6851
 441  451.5277
 442  494.5676
 443  524.9128
 444  438.5447
 445  320.3488
 446  343.0953
 447  428.7619
 448  403.8714
 449  508.8299
 450  360.9305
 451  241.6361
 452  302.7473
 453  278.4312
 454  368.0088
 455  343.208
 456  307.3631
 457  357.438
 458  445.3494
 459  518.0488
 460  366.7325
 461  259.2307
 462  394.5237
 463  414.3309
 464  405.6261
 465  310.9035
 466  472.1563
 467  425.5322
 468  336.454
 469  316.813
 470  346.0248
 471  328.5334
 472  435.7837
 473  525.9817
 474  563.8754
 475  442.8732
 476  406.4215
 477  290.3607
 478  346.751
 479  494.1045
 480  441.2018
 481  286.7064
 482  307.834
 483  431.8202
 484  522.9677
 485  397.611
 486  245.6594
 487  449.7985
 488  447.0398
 489  458.9621
 490  398.0851
 491  517.5178
 492  354.5385
 493  288.3353
 494  274.7736
 495  365.8817
 496  447.5391
 497  387.9033
 498  348.6877
 499  443.2599
 500  515.5168
 501  395.1602
 502  348.5216
 503  273.2041
 504  187.335
 505  362.8526
 506  442.9652
 507  671.6414
 508  828.3773
 509  866.317
 510  878.4937
 511  1006.554
