# Input file       =  1208010727.122757_cleaned.dat
# Candidate        =  PSR_0332+5434
# Telescope        =  AR
# Epoch_topo       =  58225.605429661540
# Epoch_bary       =  N/A
# T_sample         =  0.002
# Data Folded      =  7340032
# Data Avg         =  0.0267411643924433
# Data StdDev      =  1.00008904743672 
# Profile Bins     =  512
# Profile Avg      =  383.348476742023 
# Profile StdDev   =  119.743698296746 
# Reduced chi-sqr  =  1.436
# Prob(Noise)      <  3.28e-10   (~6.2 sigma)
# P_topo (ms)      =  714.558470667736  +/- 0.000276
# P'_topo (s/s)    =  -0                +/- 1.46e-10
# P''_topo (s/s^2) =  0                 +/- 6.44e-14
# P_bary (ms)      =  N/A
# P'_bary (s/s)    =  N/A
# P''_bary (s/s^2) =  N/A
# P_orb (s)        =  N/A
# asin(i)/c (s)    =  N/A
# eccentricity     =  N/A
# w (rad)          =  N/A
# T_peri           =  N/A
######################################################
   0  1101.552
   1  948.3181
   2  701.2729
   3  526.1849
   4  354.6761
   5  335.3657
   6  349.7927
   7  411.1031
   8  404.747
   9  444.1144
  10  396.1479
  11  343.8772
  12  396.4816
  13  468.9035
  14  443.8076
  15  438.5661
  16  446.5454
  17  423.8228
  18  528.3954
  19  579.0377
  20  498.9543
  21  410.9252
  22  464.2417
  23  546.2111
  24  529.6905
  25  520.4487
  26  485.2168
  27  453.2213
  28  328.9512
  29  428.9525
  30  483.7132
  31  399.5214
  32  409.281
  33  437.2608
  34  455.115
  35  357.0527
  36  344.919
  37  256.1888
  38  312.1064
  39  386.4379
  40  321.6529
  41  344.1185
  42  371.1097
  43  363.592
  44  311.8748
  45  351.1815
  46  328.667
  47  356.857
  48  376.9202
  49  286.0996
  50  280.2744
  51  309.892
  52  300.686
  53  207.0805
  54  276.7081
  55  301.8911
  56  198.8868
  57  344.95
  58  369.4121
  59  206.4939
  60  200.8434
  61  269.3076
  62  277.0585
  63  376.8716
  64  306.6814
  65  204.3498
  66  308.4347
  67  328.1324
  68  237.5344
  69  171.5495
  70  245.7335
  71  316.0117
  72  248.5199
  73  322.6497
  74  276.6454
  75  256.8691
  76  243.6985
  77  247.2054
  78  329.4051
  79  260.4124
  80  245.1174
  81  227.3933
  82  338.3907
  83  189.9619
  84  145.0389
  85  320.0844
  86  276.6035
  87  352.4824
  88  396.204
  89  294.4252
  90  428.8885
  91  448.2221
  92  439.6734
  93  376.7093
  94  432.1781
  95  406.0055
  96  321.0206
  97  252.2764
  98  300.1541
  99  299.9343
 100  345.175
 101  299.5266
 102  321.1495
 103  375.2069
 104  401.6981
 105  407.0821
 106  366.5104
 107  474.502
 108  410.7048
 109  307.4535
 110  306.9263
 111  328.9613
 112  373.1111
 113  481.443
 114  392.278
 115  413.1368
 116  481.0876
 117  406.2567
 118  413.1746
 119  342.2255
 120  336.8674
 121  391.1461
 122  344.9263
 123  352.9741
 124  346.111
 125  324.5262
 126  310.5705
 127  319
 128  401.9931
 129  436.0453
 130  447.8488
 131  269.3968
 132  270.411
 133  253.7462
 134  147.4259
 135  139.9131
 136  298.21
 137  350.2689
 138  289.0981
 139  163.9538
 140  154.4803
 141  238.3358
 142  321.7222
 143  254.5951
 144  213.1624
 145  176.3365
 146  234.8307
 147  266.4835
 148  183.6983
 149  175.4767
 150  161.727
 151  179.3441
 152  182.887
 153  238.1553
 154  335.2594
 155  234.4643
 156  300.8869
 157  334.1461
 158  336.5503
 159  339.5465
 160  315.1685
 161  303.5433
 162  293.8605
 163  292.4735
 164  366.4264
 165  440.7857
 166  517.8507
 167  478.7338
 168  428.7666
 169  423.5634
 170  327.1282
 171  348.6027
 172  453.8387
 173  470.2563
 174  364.6462
 175  337.0151
 176  309.382
 177  379.951
 178  415.9912
 179  326.6504
 180  286.8873
 181  379.4653
 182  481.075
 183  318.88
 184  371.1652
 185  382.1901
 186  347.343
 187  444.9247
 188  353.566
 189  345.1316
 190  381.9399
 191  374.564
 192  327.5491
 193  444.6562
 194  493.2423
 195  395.1313
 196  338.0618
 197  396.3398
 198  397.1029
 199  306.535
 200  365.3298
 201  403.6231
 202  306.3513
 203  287.4148
 204  189.5931
 205  277.3351
 206  417.6534
 207  312.7049
 208  317.7793
 209  379.8175
 210  348.6788
 211  292.4768
 212  353.7451
 213  359.4322
 214  370.7808
 215  331.3883
 216  279.2153
 217  371.2913
 218  481.2957
 219  403.7545
 220  400.0259
 221  285.9528
 222  271.4678
 223  267.7485
 224  295.1582
 225  330.2328
 226  342.2704
 227  389.9243
 228  414.1966
 229  354.8776
 230  328.5234
 231  400.8703
 232  401.5444
 233  452.0578
 234  451.265
 235  517.9912
 236  461.5621
 237  464.1047
 238  576.9557
 239  512.2599
 240  421.094
 241  484.558
 242  394.0985
 243  429.5612
 244  370.4787
 245  462.5708
 246  439.611
 247  489.2552
 248  544.6577
 249  459.2393
 250  384.757
 251  425.7961
 252  538.4961
 253  591.2082
 254  533.9472
 255  483.5244
 256  637.212
 257  688.3486
 258  548.3647
 259  524.5553
 260  471.1084
 261  419.8449
 262  354.1942
 263  422.3838
 264  385.9825
 265  400.009
 266  352.4846
 267  424.3608
 268  357.1059
 269  320.4031
 270  280.4333
 271  314.6647
 272  363.4048
 273  390.0589
 274  292.9702
 275  374.64
 276  463.4211
 277  368.3519
 278  274.1662
 279  178.1858
 280  225.8862
 281  244.4026
 282  300.3833
 283  287.1514
 284  369.8362
 285  413.5826
 286  458.2165
 287  412.3518
 288  330.9323
 289  374.2249
 290  349.7786
 291  397.629
 292  378.5544
 293  387.9633
 294  378.7488
 295  320.9916
 296  390.6984
 297  473.1702
 298  496.9185
 299  341.9755
 300  391.7004
 301  429.355
 302  444.4156
 303  564.6188
 304  433.0384
 305  396.7863
 306  513.4104
 307  496.295
 308  490.5604
 309  470.8848
 310  424.1153
 311  396.9309
 312  417.1852
 313  551.861
 314  563.5917
 315  359.0612
 316  398.8366
 317  451.9312
 318  405.7386
 319  470.9336
 320  399.9571
 321  422.1511
 322  422.0341
 323  412.0944
 324  407.4746
 325  390.1985
 326  468.2901
 327  470.6003
 328  362.8453
 329  382.4337
 330  420.3578
 331  412.7066
 332  387.5371
 333  347.2379
 334  401.1456
 335  456.7957
 336  421.9291
 337  309.2106
 338  350.6889
 339  422.7554
 340  389.1485
 341  506.0459
 342  438.5243
 343  458.1976
 344  397.1787
 345  323.3971
 346  346.9044
 347  337.979
 348  319.4861
 349  307.4428
 350  275.2765
 351  353.7796
 352  295.861
 353  226.541
 354  267.8524
 355  355.613
 356  324.7835
 357  175.4987
 358  275.0972
 359  326.8039
 360  348.6953
 361  345.5976
 362  391.7437
 363  469.7127
 364  429.6877
 365  476.1256
 366  399.1902
 367  369.1451
 368  333.2184
 369  469.4994
 370  408.0947
 371  444.6511
 372  553.008
 373  501.4666
 374  451.6372
 375  386.5198
 376  352.7907
 377  263.58
 378  304.3649
 379  411.9343
 380  500.1892
 381  502.6526
 382  388.239
 383  295.4482
 384  410.5285
 385  343.5338
 386  356.014
 387  376.6984
 388  341.2974
 389  304.4566
 390  377.7726
 391  399.4492
 392  378.2647
 393  350.5861
 394  344.5679
 395  375.0771
 396  499.9151
 397  566.4734
 398  460.9533
 399  370.3671
 400  366.6642
 401  354.3725
 402  366.1935
 403  347.6508
 404  380.6537
 405  428.3083
 406  523.5902
 407  510.403
 408  439.2498
 409  436.7652
 410  472.4052
 411  397.2863
 412  410.3926
 413  375.8849
 414  403.5605
 415  471.3168
 416  425.2829
 417  363.9414
 418  421.1421
 419  455.766
 420  466.7617
 421  551.0994
 422  498.8498
 423  373.5268
 424  359.144
 425  293.3741
 426  280.2602
 427  403.7317
 428  372.3997
 429  219.8724
 430  257.8647
 431  271.4828
 432  338.8332
 433  219.1613
 434  382.9491
 435  408.069
 436  278.6776
 437  339.9147
 438  521.1378
 439  464.372
 440  321.4018
 441  354.4922
 442  374.1372
 443  348.7823
 444  296.4578
 445  309.7163
 446  371.192
 447  436.1606
 448  482.6667
 449  503.1736
 450  502.8221
 451  501.4583
 452  460.3583
 453  442.5064
 454  455.2902
 455  480.6277
 456  558.3809
 457  498.4829
 458  308.2591
 459  359.6905
 460  486.7552
 461  608.6936
 462  553.2464
 463  523.7311
 464  523.7493
 465  457.8716
 466  446.183
 467  435.7208
 468  417.1949
 469  482.973
 470  444.0556
 471  414.2272
 472  412.4103
 473  558.1664
 474  566.2792
 475  486.4238
 476  371.149
 477  392.7787
 478  444.0129
 479  563.9728
 480  467.796
 481  409.7706
 482  426.6863
 483  407.0378
 484  371.2195
 485  405.4871
 486  438.3962
 487  442.364
 488  437.1337
 489  445.9376
 490  350.2318
 491  346.9668
 492  398.0502
 493  424.9024
 494  359.2812
 495  337.6201
 496  244.849
 497  275.6347
 498  316.4494
 499  282.9075
 500  312.3627
 501  250.7996
 502  261.8107
 503  337.5133
 504  430.9521
 505  394.8039
 506  358.8383
 507  403.0837
 508  390.0438
 509  579.0118
 510  739.2809
 511  1020.761
