# Input file       =  1208239734.114344_cleaned.dat
# Candidate        =  PSR_0332+5434
# Telescope        =  AR
# Epoch_topo       =  58228.255973545645
# Epoch_bary       =  N/A
# T_sample         =  0.002
# Data Folded      =  7208960
# Data Avg         =  0.0269484880515906
# Data StdDev      =  1.00136919207826 
# Profile Bins     =  512
# Profile Avg      =  379.415156796627 
# Profile StdDev   =  118.82164299704  
# Reduced chi-sqr  =  1.786
# Prob(Noise)      <  4.33e-25   (~10.3 sigma)
# P_topo (ms)      =  714.555971147289  +/- 0.000174
# P'_topo (s/s)    =  -0                +/- 9.37e-11
# P''_topo (s/s^2) =  0                 +/- 4.21e-14
# P_bary (ms)      =  N/A
# P'_bary (s/s)    =  N/A
# P''_bary (s/s^2) =  N/A
# P_orb (s)        =  N/A
# asin(i)/c (s)    =  N/A
# eccentricity     =  N/A
# w (rad)          =  N/A
# T_peri           =  N/A
######################################################
   0  1152.449
   1  1181.013
   2  896.7571
   3  557.7554
   4  410.2973
   5  351.1006
   6  521.7269
   7  515.4985
   8  577.6588
   9  587.2764
  10  628.0001
  11  575.2749
  12  536.0898
  13  555.6052
  14  502.6465
  15  556.0466
  16  557.0736
  17  421.8312
  18  431.9831
  19  440.0285
  20  468.98
  21  472.0103
  22  472.193
  23  451.7721
  24  390.145
  25  373.9711
  26  491.8151
  27  500.133
  28  460.9745
  29  464.1129
  30  380.5013
  31  426.3915
  32  545.1643
  33  522.6389
  34  358.628
  35  392.5593
  36  474.1094
  37  539.1638
  38  419.3336
  39  464.685
  40  411.0972
  41  380.522
  42  372.5674
  43  413.1273
  44  440.4514
  45  437.6593
  46  418.1755
  47  586.5585
  48  506.4026
  49  412.5201
  50  433.2545
  51  374.5221
  52  332.9739
  53  324.1668
  54  337.2238
  55  428.0152
  56  417.4081
  57  495.1744
  58  430.3017
  59  303.7227
  60  443.4859
  61  431.1951
  62  354.7465
  63  282.8943
  64  233.9337
  65  286.112
  66  392.171
  67  234.3884
  68  268.2191
  69  295.9308
  70  284.2264
  71  198.9589
  72  170.4834
  73  270.9856
  74  412.1682
  75  490.9821
  76  446.7861
  77  346.5844
  78  362.5256
  79  356.263
  80  252.2615
  81  351.2327
  82  379.2752
  83  301.8909
  84  320.3141
  85  290.9499
  86  272.1383
  87  378.3033
  88  187.4739
  89  132.2191
  90  258.3171
  91  358.1778
  92  409.9484
  93  337.5117
  94  351.3136
  95  421.4193
  96  472.7941
  97  413.0149
  98  228.7384
  99  235.184
 100  391.0522
 101  392.872
 102  453.4082
 103  366.0421
 104  309.2613
 105  346.0244
 106  440.6038
 107  398.569
 108  278.2506
 109  374.012
 110  486.5966
 111  266.3573
 112  296.9465
 113  299.1702
 114  299.6413
 115  326.8988
 116  346.4764
 117  459.0144
 118  500.744
 119  370.4798
 120  299.9714
 121  355.6785
 122  377.6782
 123  360.0744
 124  371.6964
 125  402.5047
 126  448.5893
 127  464.3985
 128  555.6639
 129  521.8086
 130  478.5659
 131  359.4371
 132  255.284
 133  310.6546
 134  327.6013
 135  378.5442
 136  327.0628
 137  362.4883
 138  447.2068
 139  416.7011
 140  335.4113
 141  390.8351
 142  392.4767
 143  369.1383
 144  475.6231
 145  350.238
 146  280.9583
 147  318.6961
 148  323.6577
 149  407.7042
 150  276.1173
 151  302.0826
 152  262.2018
 153  277.68
 154  366.223
 155  293.3908
 156  377.8918
 157  483.4146
 158  415.3998
 159  231.6129
 160  209.3209
 161  329.2094
 162  401.6559
 163  356.5033
 164  290.1974
 165  258.6218
 166  229.5643
 167  360.4857
 168  384.2945
 169  314.7849
 170  352.5972
 171  395.2776
 172  231.1082
 173  308.1149
 174  452.6978
 175  364.5618
 176  364.699
 177  275.6075
 178  203.204
 179  355.9523
 180  313.4662
 181  294.3909
 182  330.6174
 183  418.8767
 184  406.1906
 185  310.346
 186  314.1921
 187  304.2353
 188  419.7836
 189  440.1424
 190  544.8696
 191  501.9375
 192  514.9271
 193  506.4506
 194  375.2621
 195  341.1649
 196  323.0789
 197  434.4182
 198  482.4928
 199  399.4597
 200  312.1128
 201  260.5744
 202  293.7955
 203  304.9684
 204  338.2158
 205  362.2216
 206  395.0181
 207  432.5974
 208  544.5353
 209  350.3374
 210  352.2904
 211  395.3171
 212  468.139
 213  350.8948
 214  277.7975
 215  387.6191
 216  386.1422
 217  335.7788
 218  303.6749
 219  269.3363
 220  402.6519
 221  447.8153
 222  369.196
 223  444.6112
 224  360.8515
 225  249.9709
 226  412.9485
 227  405.0798
 228  401.7053
 229  352.2024
 230  289.0857
 231  348.0766
 232  308.582
 233  332.2897
 234  411.3536
 235  348.9335
 236  277.394
 237  240.6548
 238  374.5749
 239  386.7281
 240  319.57
 241  278.1141
 242  371.0613
 243  322.353
 244  305.4605
 245  315.9598
 246  294.3466
 247  361.3326
 248  206.4667
 249  246.2118
 250  185.0688
 251  66.7028
 252  280.6703
 253  287.1967
 254  223.7353
 255  337.8807
 256  321.9305
 257  382.5002
 258  438.3035
 259  362.2228
 260  316.5595
 261  327.3286
 262  442.3328
 263  271.5691
 264  318.6911
 265  458.3425
 266  458.6955
 267  501.3105
 268  410.6659
 269  402.3029
 270  460.4769
 271  606.97
 272  406.7111
 273  312.06
 274  414.0277
 275  503.7762
 276  543.5562
 277  482.8874
 278  453.2708
 279  502.0471
 280  354.4592
 281  423.9822
 282  457.9291
 283  287.1057
 284  284.503
 285  331.289
 286  257.9757
 287  295.8174
 288  371.462
 289  417.0504
 290  458.0548
 291  382.7633
 292  276.4952
 293  331.6898
 294  370.7667
 295  399.1373
 296  278.9367
 297  389.3402
 298  439.8103
 299  343.8862
 300  309.6508
 301  288.946
 302  322.1115
 303  273.8732
 304  386.1114
 305  330.8658
 306  386.8493
 307  457.4886
 308  457.2437
 309  460.1084
 310  517.3749
 311  497.1104
 312  469.0676
 313  351.6723
 314  320.3406
 315  354.7433
 316  338.9815
 317  311.7719
 318  431.0999
 319  384.455
 320  491.8794
 321  295.2902
 322  337.8329
 323  469.3117
 324  357.7822
 325  392.0878
 326  409.3745
 327  502.0662
 328  439.7654
 329  438.0566
 330  521.3847
 331  523.3257
 332  440.8731
 333  308.4054
 334  307.9915
 335  335.099
 336  148.6781
 337  133.7479
 338  243.981
 339  402.5094
 340  553.5984
 341  640.8607
 342  378.17
 343  337.5068
 344  295.9153
 345  351.9955
 346  359.2399
 347  408.6764
 348  385.2328
 349  262.4653
 350  265.9484
 351  265.106
 352  259.401
 353  340.1203
 354  323.6668
 355  265.7751
 356  357.8413
 357  277.8953
 358  322.6638
 359  350.4798
 360  285.9691
 361  279.8059
 362  249.2557
 363  314.8538
 364  282.6319
 365  287.7992
 366  338.0872
 367  195.8772
 368  225.5618
 369  308.7389
 370  218.1903
 371  349.3802
 372  319.5049
 373  312.1068
 374  322.8294
 375  425.9036
 376  446.2308
 377  279.9474
 378  237.4233
 379  293.8663
 380  360.5236
 381  459.1869
 382  344.7705
 383  292.1717
 384  375.211
 385  243.7517
 386  283.6401
 387  348.056
 388  436.4857
 389  451.2582
 390  410.4136
 391  517.1113
 392  433.6497
 393  376.2901
 394  253.8742
 395  388.4045
 396  453.5199
 397  411.0362
 398  334.6342
 399  203.6917
 400  213.298
 401  178.856
 402  171.7968
 403  338.6143
 404  342.4917
 405  387.6227
 406  468.9073
 407  374.8378
 408  329.4127
 409  308.1418
 410  386.3294
 411  366.0139
 412  360.0769
 413  449.3784
 414  557.6506
 415  414.0464
 416  361.5673
 417  268.1817
 418  242.0989
 419  411.6399
 420  396.1039
 421  358.1137
 422  361.5175
 423  459.1832
 424  418.0013
 425  354.0987
 426  364.5792
 427  327.4869
 428  350.4716
 429  384.7692
 430  374.0019
 431  346.5134
 432  335.2832
 433  354.2438
 434  318.85
 435  351.721
 436  366.4857
 437  470.6707
 438  351.0012
 439  331.0092
 440  333.9921
 441  393.8648
 442  494.2003
 443  350.0156
 444  392.6287
 445  261.8358
 446  262.7359
 447  298.5338
 448  360.1448
 449  322.5617
 450  226.9803
 451  277.3945
 452  322.8444
 453  408.9608
 454  439.2847
 455  373.9217
 456  363.1929
 457  327.1424
 458  408.6872
 459  419.0219
 460  395.8278
 461  226.1018
 462  454.9492
 463  546.9181
 464  368.2432
 465  280.2393
 466  265.9759
 467  320.2088
 468  297.6705
 469  359.176
 470  402.3059
 471  320.0092
 472  372.5338
 473  445.6717
 474  312.4804
 475  422.6298
 476  264.9558
 477  448.9272
 478  540.9123
 479  377.0528
 480  345.6143
 481  356.1634
 482  257.4802
 483  385.0455
 484  235.8824
 485  329.277
 486  348.0687
 487  289.6816
 488  397.9216
 489  415.9362
 490  314.5986
 491  342.8819
 492  339.632
 493  422.3545
 494  433.055
 495  556.9251
 496  575.0035
 497  497.9547
 498  337.9951
 499  353.8795
 500  377.5707
 501  423.3444
 502  361.6884
 503  438.7928
 504  759.3805
 505  626.9271
 506  605.1515
 507  635.3425
 508  707.0739
 509  861.8459
 510  904.293
 511  1048.985
