# Input file       =  1208325940.125452_cleaned.dat
# Candidate        =  PSR_0332+5434
# Telescope        =  AR
# Epoch_topo       =  58229.253728303840
# Epoch_bary       =  N/A
# T_sample         =  0.002
# Data Folded      =  7208960
# Data Avg         =  0.0263019818842704
# Data StdDev      =  1.00002620841262 
# Profile Bins     =  512
# Profile Avg      =  370.290349461984 
# Profile StdDev   =  118.66228566217  
# Reduced chi-sqr  =  2.228
# Prob(Noise)      <  8.28e-50   (~14.8 sigma)
# P_topo (ms)      =  714.55514698931   +/- 5.65e-05
# P'_topo (s/s)    =  -0                +/- 3.04e-11
# P''_topo (s/s^2) =  0                 +/- 1.37e-14
# P_bary (ms)      =  N/A
# P'_bary (s/s)    =  N/A
# P''_bary (s/s^2) =  N/A
# P_orb (s)        =  N/A
# asin(i)/c (s)    =  N/A
# eccentricity     =  N/A
# w (rad)          =  N/A
# T_peri           =  N/A
######################################################
   0  1295.715
   1  1131.678
   2  946.3514
   3  716.603
   4  478.6646
   5  425.3397
   6  402.903
   7  420.6076
   8  305.9446
   9  152.7583
  10  240.4962
  11  332.8736
  12  605.3815
  13  596.8841
  14  710.3391
  15  624.7271
  16  412.7902
  17  328.2906
  18  249.8198
  19  317.941
  20  309.2773
  21  477.4029
  22  529.1095
  23  394.1203
  24  296.2924
  25  247.9676
  26  308.2385
  27  261.5375
  28  359.2014
  29  483.129
  30  577.288
  31  566.5904
  32  340.5583
  33  333.5963
  34  292.5118
  35  399.855
  36  385.2811
  37  351.0778
  38  407.842
  39  427.5616
  40  423.9614
  41  249.1474
  42  325.1362
  43  410.9998
  44  363.2007
  45  380.5636
  46  492.5215
  47  482.7258
  48  363.2937
  49  337.8028
  50  258.7885
  51  430.0411
  52  408.8963
  53  352.1622
  54  324.674
  55  485.7843
  56  531.0784
  57  363.1018
  58  294.3678
  59  354.7181
  60  354.2256
  61  372.0697
  62  403.5901
  63  282.4819
  64  242.3719
  65  402.9774
  66  214.8045
  67  153.689
  68  239.0041
  69  297.3059
  70  343.9165
  71  441.1459
  72  348.5454
  73  383.1857
  74  373.7196
  75  222.6832
  76  176.3744
  77  268.2872
  78  331.9422
  79  304.4774
  80  323.2583
  81  292.0143
  82  254.9238
  83  268.8433
  84  224.5517
  85  251.8281
  86  277.5269
  87  253.665
  88  362.594
  89  320.9415
  90  364.3053
  91  354.2762
  92  235.526
  93  169.795
  94  102.4916
  95  239.7245
  96  342.4695
  97  281.7829
  98  222.1423
  99  159.1948
 100  159.7319
 101  187.8629
 102  237.3372
 103  246.1009
 104  410.3251
 105  302.9432
 106  296.4181
 107  337.4527
 108  266.3391
 109  261.8648
 110  258.6568
 111  329.1856
 112  253.1109
 113  363.8009
 114  343.3167
 115  229.0458
 116  80.84457
 117  133.9244
 118  252.1615
 119  213.5885
 120  268.1435
 121  372.3734
 122  321.3402
 123  380.2202
 124  297.1834
 125  193.5498
 126  341.1214
 127  250.6294
 128  213.2947
 129  325.7094
 130  425.65
 131  393.6105
 132  422.1561
 133  445.5395
 134  296.1914
 135  215.1689
 136  292.1339
 137  415.3249
 138  390.9686
 139  339.4159
 140  276.5324
 141  214.7986
 142  359.8849
 143  370.884
 144  370.9537
 145  351.3247
 146  427.1669
 147  472.8523
 148  426.6437
 149  309.6377
 150  319.3157
 151  416.2183
 152  513.0684
 153  438.6868
 154  443.7913
 155  498.7449
 156  457.6331
 157  436.76
 158  424.4408
 159  451.1027
 160  470.5018
 161  548.1259
 162  431.3048
 163  485.8409
 164  560.6334
 165  426.0058
 166  346.2147
 167  248.1597
 168  243.8645
 169  397.3047
 170  469.2043
 171  497.3762
 172  382.7261
 173  390.1938
 174  322.2909
 175  384.2205
 176  292.0436
 177  290.1338
 178  470.0031
 179  540.9184
 180  423.6057
 181  280.0782
 182  258.4908
 183  250.7217
 184  340.4247
 185  364.4522
 186  388.1055
 187  416.0175
 188  326.5896
 189  242.3863
 190  303.2746
 191  328.5365
 192  291.0682
 193  373.008
 194  554.8062
 195  548.0826
 196  401.4881
 197  335.8513
 198  288.861
 199  200.0557
 200  112.0121
 201  277.2399
 202  423.4612
 203  510.6184
 204  534.064
 205  509.7219
 206  361.1066
 207  315.4964
 208  310.2274
 209  227.0799
 210  406.3979
 211  323.4048
 212  218.1433
 213  412.4217
 214  437.9969
 215  268.7253
 216  408.8294
 217  303.0394
 218  402.4102
 219  486.9149
 220  572.6664
 221  569.6769
 222  493.1702
 223  376.6797
 224  341.8346
 225  437.3588
 226  424.7856
 227  392.6559
 228  424.409
 229  394.027
 230  373.6256
 231  358.0966
 232  426.0607
 233  460.2619
 234  372.9031
 235  397.7464
 236  520.9064
 237  521.9389
 238  451.2209
 239  450.6953
 240  371.5926
 241  345.0923
 242  305.4283
 243  375.5217
 244  365.5544
 245  184.875
 246  325.0318
 247  382.7055
 248  367.4867
 249  320.9066
 250  261.964
 251  348.3492
 252  408.2632
 253  459.2183
 254  439.5196
 255  311.8014
 256  265.5029
 257  305.1292
 258  327.6333
 259  332.6689
 260  331.551
 261  366.7978
 262  278.5818
 263  177.2828
 264  110.6549
 265  223.5661
 266  209.0015
 267  209.9033
 268  240.7242
 269  383.3458
 270  439.6463
 271  245.5408
 272  281.9923
 273  347.8419
 274  214.3282
 275  153.2366
 276  271.2581
 277  345.3715
 278  387.2309
 279  365.6941
 280  309.3715
 281  255.9458
 282  269.8006
 283  120.1536
 284  226.6301
 285  380.4797
 286  364.3884
 287  384.2186
 288  292.3724
 289  274.9294
 290  220.982
 291  313.3043
 292  415.3272
 293  384.386
 294  305.1644
 295  406.3593
 296  500.4614
 297  446.3002
 298  392.1073
 299  228.8122
 300  326.634
 301  282.2813
 302  310.5488
 303  408.5531
 304  458.2292
 305  356.1626
 306  270.6393
 307  382.8037
 308  430.3666
 309  346.141
 310  282.5363
 311  440.651
 312  381.7456
 313  384.7679
 314  273.8703
 315  188.6006
 316  322.5347
 317  300.8735
 318  386.2727
 319  367.5745
 320  333.12
 321  287.2534
 322  322.0681
 323  378.7449
 324  369.9408
 325  328.6909
 326  361.4624
 327  436.3239
 328  381.5804
 329  339.8289
 330  236.3517
 331  227.1033
 332  417.2332
 333  455.7538
 334  358.0645
 335  389.5397
 336  442.9824
 337  364.353
 338  291.1836
 339  359.4538
 340  424.5811
 341  483.8354
 342  515.3509
 343  380.3853
 344  435.3079
 345  338.8164
 346  388.4985
 347  302.6498
 348  255.7328
 349  199.9965
 350  308.2584
 351  404.0559
 352  427.7833
 353  349.5984
 354  391.5609
 355  377.6953
 356  425.2065
 357  439.306
 358  253.3718
 359  345.669
 360  335.5167
 361  350.673
 362  354.4329
 363  380.9579
 364  381.0392
 365  248.0341
 366  100.8449
 367  309.5225
 368  365.8814
 369  464.2419
 370  545.7086
 371  339.6148
 372  288.6462
 373  170.6236
 374  312.5559
 375  422.9918
 376  465.1432
 377  452.6151
 378  357.9179
 379  385.9739
 380  356.2077
 381  309.6819
 382  378.6367
 383  343.3199
 384  357.1333
 385  474.4143
 386  630.0795
 387  597.8262
 388  404.2302
 389  248.4557
 390  348.8679
 391  378.9589
 392  360.4246
 393  460.1851
 394  495.1873
 395  505.6037
 396  397.0889
 397  288.8127
 398  382.2617
 399  387.7869
 400  389.9314
 401  411.6619
 402  470.3658
 403  403.2422
 404  428.0191
 405  521.4485
 406  475.498
 407  405.9131
 408  450.5453
 409  426.5271
 410  450.6552
 411  445.1937
 412  409.7785
 413  363.9518
 414  406.8902
 415  373.001
 416  428.0513
 417  469.2624
 418  464.0949
 419  326.8226
 420  365.9308
 421  382.4716
 422  310.7373
 423  284.8165
 424  314.5519
 425  435.6731
 426  536.7776
 427  618.1652
 428  417.1344
 429  222.653
 430  238.2107
 431  272.5971
 432  355.9256
 433  395.2548
 434  463.7936
 435  340.0922
 436  502.9378
 437  611.3849
 438  454.9283
 439  337.8073
 440  301.5436
 441  362.1366
 442  537.5258
 443  444.8637
 444  387.1859
 445  302.749
 446  285.2282
 447  456.8648
 448  414.6134
 449  354.4853
 450  444.9728
 451  481.4437
 452  461.1331
 453  551.812
 454  489.9779
 455  279.7646
 456  292.5406
 457  295.602
 458  330.4662
 459  374.5495
 460  466.8724
 461  475.5736
 462  457.8624
 463  365.6056
 464  273.9277
 465  319.6047
 466  436.9895
 467  482.2683
 468  486.4215
 469  421.955
 470  387.4754
 471  375.7542
 472  283.2292
 473  341.9256
 474  374.607
 475  434.0193
 476  469.0814
 477  420.8788
 478  373.5003
 479  254.103
 480  227.4528
 481  325.5943
 482  314.6493
 483  331.7335
 484  277.7002
 485  283.6483
 486  477.6062
 487  414.8463
 488  288.1526
 489  377.3539
 490  430.775
 491  474.7477
 492  473.2203
 493  417.6715
 494  397.8975
 495  295.3142
 496  281.834
 497  229.5076
 498  238.257
 499  271.5265
 500  283.1069
 501  214.3831
 502  160.2891
 503  360.8569
 504  376.4629
 505  414.0726
 506  471.5656
 507  566.338
 508  662.9044
 509  832.9047
 510  1097.995
 511  1333.267
