# Input file       =  1208670671.120142_cleaned.dat
# Candidate        =  PSR_0332+5434
# Telescope        =  AR
# Epoch_topo       =  58233.243670372016
# Epoch_bary       =  N/A
# T_sample         =  0.002
# Data Folded      =  7208960
# Data Avg         =  0.0162842048345883
# Data StdDev      =  1.00003528780719 
# Profile Bins     =  512
# Profile Avg      =  229.472494423424 
# Profile StdDev   =  118.663363015648 
# Reduced chi-sqr  =  3.313
# Prob(Noise)      <  1.83e-126   (~23.9 sigma)
# P_topo (ms)      =  714.551772895586  +/- 3.59e-05
# P'_topo (s/s)    =  -0                +/- 1.93e-11
# P''_topo (s/s^2) =  0                 +/- 8.67e-15
# P_bary (ms)      =  N/A
# P'_bary (s/s)    =  N/A
# P''_bary (s/s^2) =  N/A
# P_orb (s)        =  N/A
# asin(i)/c (s)    =  N/A
# eccentricity     =  N/A
# w (rad)          =  N/A
# T_peri           =  N/A
######################################################
   0  1421.735
   1  1415.429
   2  1292.134
   3  804.8882
   4  579.4859
   5  468.3437
   6  274.0576
   7  291.0367
   8  492.6029
   9  513.8741
  10  494.5161
  11  248.4908
  12  177.3316
  13  191.2013
  14  328.084
  15  201.5915
  16  172.4451
  17  376.3645
  18  286.5603
  19  267.7584
  20  162.3384
  21  253.2742
  22  288.1831
  23  277.7802
  24  373.5624
  25  445.6993
  26  386.7676
  27  243.3263
  28  273.7621
  29  250.7387
  30  161.1016
  31  122.4517
  32  153.9413
  33  307.8625
  34  305.8164
  35  163.0708
  36  50.63409
  37  135.909
  38  201.9994
  39  195.8112
  40  347.2514
  41  412.7971
  42  478.6098
  43  401.4839
  44  350.0787
  45  159.96
  46  222.1167
  47  194.1797
  48  120.5805
  49  336.6377
  50  314.7557
  51  202.2404
  52  118.5729
  53  166.5439
  54  139.812
  55  152.0886
  56  238.0843
  57  234.7213
  58  298.8391
  59  345.0623
  60  229.9485
  61  91.07777
  62  105.7861
  63  -90.66894
  64  56.12436
  65  251.1153
  66  228.1319
  67  156.1887
  68  164.7171
  69  116.3373
  70  -7.883608
  71  -2.798748
  72  64.03716
  73  230.5431
  74  399.2924
  75  411.1758
  76  322.9378
  77  222.8485
  78  275.4863
  79  195.9667
  80  175.0061
  81  216.6133
  82  288.2985
  83  268.0165
  84  197.2953
  85  124.0547
  86  38.08949
  87  41.87181
  88  124.7237
  89  280.149
  90  402.7804
  91  263.7503
  92  252.849
  93  189.7256
  94  185.2426
  95  184.4497
  96  68.47733
  97  74.35753
  98  76.42342
  99  213.0642
 100  138.2773
 101  44.59278
 102  115.7391
 103  211.8887
 104  203.7215
 105  316.9815
 106  469.0052
 107  367.5808
 108  223.7401
 109  291.9503
 110  198.3731
 111  59.70723
 112  146.1781
 113  72.83498
 114  158.8938
 115  169.9927
 116  199.4884
 117  189.4128
 118  168.6233
 119  134.8601
 120  106.3263
 121  144.5077
 122  161.0861
 123  186.4656
 124  201.6035
 125  382.2711
 126  187.3091
 127  74.40444
 128  259.8613
 129  308.6928
 130  259.598
 131  218.5959
 132  164.2354
 133  220.3987
 134  265.5935
 135  179.437
 136  68.51137
 137  115.0985
 138  204.2088
 139  280.4038
 140  272.4065
 141  332.9698
 142  116.5839
 143  220.5029
 144  325.9083
 145  312.3277
 146  296.4821
 147  178.0904
 148  314.5595
 149  330.853
 150  243.755
 151  156.4774
 152  119.8346
 153  96.20442
 154  162.3531
 155  361.4451
 156  371.865
 157  395.7651
 158  341.7871
 159  303.926
 160  204.4507
 161  181.3932
 162  71.50475
 163  137.6802
 164  254.2279
 165  247.304
 166  306.8918
 167  208.8315
 168  123.5768
 169  107.6412
 170  91.2943
 171  166.1528
 172  299.4222
 173  304.0048
 174  326.46
 175  305.229
 176  211.9908
 177  266.1768
 178  204.6691
 179  190.7005
 180  204.6844
 181  243.6292
 182  277.5165
 183  168.2501
 184  108.3166
 185  126.9472
 186  83.8653
 187  64.64292
 188  98.58378
 189  136.3029
 190  265.5815
 191  216.9489
 192  292.235
 193  170.0051
 194  222.9084
 195  141.0191
 196  -52.37972
 197  122.9196
 198  170.5961
 199  228.683
 200  135.6729
 201  -35.08795
 202  -9.890654
 203  -27.57466
 204  56.68773
 205  106.5832
 206  313.259
 207  293.0307
 208  141.648
 209  40.43038
 210  147.0742
 211  100.1035
 212  87.2591
 213  189.1714
 214  178.8573
 215  241.6258
 216  190.747
 217  178.8015
 218  17.43478
 219  14.33707
 220  100.8054
 221  278.5912
 222  398.3325
 223  312.4733
 224  224.9706
 225  102.7615
 226  79.80202
 227  90.78566
 228  210.0335
 229  60.79766
 230  -20.04682
 231  195.7746
 232  183.4491
 233  159.8579
 234  105.6899
 235  58.63969
 236  104.2872
 237  192.8561
 238  215.6374
 239  277.0394
 240  323.54
 241  233.358
 242  235.6903
 243  202.7684
 244  176.0668
 245  282.1807
 246  318.1211
 247  289.5349
 248  384.5974
 249  274.9854
 250  70.98383
 251  -20.7009
 252  57.84597
 253  120.7341
 254  112.7218
 255  345.1774
 256  249.2702
 257  122.6501
 258  186.2636
 259  157.7367
 260  165.2487
 261  33.22343
 262  117.7305
 263  318.6678
 264  210.0933
 265  254.6171
 266  135.5055
 267  13.73881
 268  33.355
 269  114.6848
 270  156.4898
 271  222.7683
 272  243.7464
 273  365.8471
 274  340.7835
 275  262.8727
 276  152.7457
 277  241.5183
 278  237.4707
 279  85.71232
 280  247.122
 281  229.6405
 282  28.9063
 283  34.78139
 284  258.1157
 285  263.7408
 286  172.4171
 287  296.5804
 288  415.1609
 289  412.1564
 290  227.9108
 291  305.5629
 292  242.1566
 293  171.5574
 294  164.1391
 295  131.8212
 296  220.864
 297  210.5683
 298  240.8535
 299  195.1541
 300  184.3456
 301  132.6762
 302  96.69561
 303  25.30495
 304  204.4041
 305  364.8562
 306  525.6416
 307  468.9025
 308  371.8546
 309  306.5598
 310  303.235
 311  235.2605
 312  227.8989
 313  291.2094
 314  358.377
 315  308.415
 316  214.6164
 317  134.6957
 318  160.9284
 319  188.5707
 320  286.4109
 321  306.5811
 322  388.2521
 323  347.1324
 324  133.036
 325  229.2172
 326  241.3097
 327  195.6113
 328  269.5352
 329  265.6407
 330  386.7488
 331  376.4829
 332  225.7608
 333  206.2711
 334  117.9931
 335  110.3965
 336  213.2112
 337  210.8514
 338  338.4081
 339  331.3942
 340  251.8668
 341  373.3564
 342  206.576
 343  96.76408
 344  184.536
 345  193.6982
 346  252.0748
 347  324.4473
 348  250.8614
 349  198.9964
 350  196.3534
 351  173.0639
 352  91.4033
 353  257.952
 354  221.3148
 355  230.3177
 356  264.6463
 357  209.4199
 358  185.5273
 359  152.823
 360  232.5141
 361  250.061
 362  214.5061
 363  324.0875
 364  284.8778
 365  233.5033
 366  279.8433
 367  195.408
 368  127.9894
 369  116.1744
 370  196.5318
 371  318.3607
 372  444.719
 373  425.8987
 374  374.3519
 375  288.5718
 376  238.7646
 377  266.0616
 378  235.1987
 379  218.4195
 380  276.0325
 381  174.0251
 382  32.77723
 383  67.4014
 384  11.21768
 385  -24.9302
 386  164.4061
 387  337.2703
 388  343.0658
 389  313.0233
 390  260.7505
 391  195.8398
 392  256.8242
 393  155.0148
 394  112.6301
 395  91.92848
 396  121.7201
 397  256.5999
 398  250.5836
 399  159.6585
 400  113.1071
 401  154.6362
 402  92.73569
 403  145.0895
 404  406.7993
 405  370.7841
 406  189.7033
 407  111.7139
 408  152.5867
 409  185.3768
 410  218.3127
 411  328.6125
 412  272.7417
 413  275.1649
 414  270.3095
 415  225.4266
 416  152.3576
 417  60.89083
 418  90.86835
 419  192.5843
 420  296.0763
 421  308.7552
 422  350.0206
 423  334.417
 424  290.0371
 425  204.7666
 426  227.287
 427  158.5575
 428  206.9541
 429  283.0966
 430  200.553
 431  92.29942
 432  132.8504
 433  265.2747
 434  82.68568
 435  64.94386
 436  245.2405
 437  386.2951
 438  431.4398
 439  243.9794
 440  354.9243
 441  211.0893
 442  112.6808
 443  194.7634
 444  231.374
 445  325.9347
 446  348.1526
 447  356.1357
 448  238.0399
 449  62.36354
 450  26.36855
 451  60.96104
 452  36.71313
 453  143.7449
 454  240.2024
 455  189.0638
 456  40.15121
 457  208.4323
 458  148.7535
 459  234.6942
 460  143.0652
 461  138.1106
 462  180.308
 463  143.5749
 464  182.7958
 465  111.7356
 466  142.2651
 467  50.57591
 468  61.06966
 469  169.3202
 470  318.2878
 471  518.4017
 472  356.3759
 473  200.7398
 474  122.613
 475  107.9304
 476  127.402
 477  196.3328
 478  306.2271
 479  218.082
 480  263.831
 481  261.9157
 482  238.107
 483  160.3652
 484  121.9263
 485  207.6853
 486  339.7751
 487  419.9515
 488  337.1103
 489  240.1948
 490  142.3498
 491  318.9244
 492  357.569
 493  261.8703
 494  252.1144
 495  289.3494
 496  347.2447
 497  246.8424
 498  203.4838
 499  115.2494
 500  109.9421
 501  119.0455
 502  304.8853
 503  512.9664
 504  415.3607
 505  354.9373
 506  482.0666
 507  539.7856
 508  579.9822
 509  852.2178
 510  1024.037
 511  1281.721
