# Input file       =  1208958230.109069_cleaned.dat
# Candidate        =  PSR_0332+5434
# Telescope        =  AR
# Epoch_topo       =  58236.571899410519
# Epoch_bary       =  N/A
# T_sample         =  0.002
# Data Folded      =  7340032
# Data Avg         =  0.0294205243897092
# Data StdDev      =  1.00006135859168 
# Profile Bins     =  512
# Profile Avg      =  421.761796459217 
# Profile StdDev   =  119.740383027256 
# Reduced chi-sqr  =  1.502
# Prob(Noise)      <  1.38e-12   (~7.0 sigma)
# P_topo (ms)      =  714.549224160549  +/- 0.000305
# P'_topo (s/s)    =  -0                +/- 1.61e-10
# P''_topo (s/s^2) =  0                 +/- 7.11e-14
# P_bary (ms)      =  N/A
# P'_bary (s/s)    =  N/A
# P''_bary (s/s^2) =  N/A
# P_orb (s)        =  N/A
# asin(i)/c (s)    =  N/A
# eccentricity     =  N/A
# w (rad)          =  N/A
# T_peri           =  N/A
######################################################
   0  1167.926
   1  1032.752
   2  889.3588
   3  755.827
   4  597.2139
   5  535.7089
   6  498.6285
   7  533.2842
   8  555.2425
   9  444.6868
  10  496.9583
  11  367.1223
  12  315.5483
  13  355.6664
  14  427.8944
  15  494.1392
  16  322.0757
  17  332.8014
  18  454.3405
  19  572.2668
  20  650.3289
  21  540.0729
  22  491.5784
  23  536.5886
  24  442.7028
  25  476.7499
  26  409.2438
  27  426.8354
  28  473.689
  29  590.1016
  30  538.4861
  31  570.2852
  32  550.5181
  33  503.0785
  34  482.6674
  35  578.1865
  36  559.1895
  37  374.5732
  38  424.177
  39  522.5128
  40  504.0117
  41  372.3343
  42  342.6424
  43  465.2197
  44  470.6993
  45  358.0005
  46  289.259
  47  290.6324
  48  423.8469
  49  487.3624
  50  545.6373
  51  458.9292
  52  440.0437
  53  487.713
  54  523.4338
  55  595.9953
  56  556.0356
  57  439.4652
  58  437.9377
  59  433.9516
  60  510.6011
  61  472.6549
  62  458.2487
  63  510.1991
  64  589.4269
  65  520.1073
  66  492.4919
  67  467.4128
  68  470.9368
  69  503.1572
  70  470.4025
  71  354.9398
  72  253.582
  73  359.9901
  74  426.7697
  75  404.1744
  76  357.6653
  77  421.8197
  78  484.3171
  79  363.7172
  80  256.238
  81  338.1347
  82  386.7126
  83  472.8956
  84  497.8903
  85  450.4962
  86  478.184
  87  485.0733
  88  508.775
  89  464.2116
  90  446.4162
  91  479.3668
  92  484.0953
  93  452.0062
  94  390.6875
  95  398.1826
  96  402.2287
  97  488.8959
  98  498.9585
  99  422.3801
 100  261.4964
 101  239.2949
 102  413.1879
 103  531.0007
 104  432.3558
 105  450.1121
 106  519.4163
 107  472.8966
 108  308.2755
 109  350.4836
 110  453.4929
 111  406.4353
 112  391.5445
 113  437.1425
 114  382.5535
 115  361.406
 116  328.6287
 117  420.2412
 118  373.8134
 119  375.2885
 120  323.6432
 121  369.3229
 122  312.4148
 123  290.3418
 124  396.1372
 125  405.9908
 126  472.1161
 127  391.7883
 128  450.2764
 129  362.451
 130  300.8259
 131  267.3765
 132  343.8904
 133  467.7768
 134  433.928
 135  407.9486
 136  457.7885
 137  414.9721
 138  318.1264
 139  260.8982
 140  277.9941
 141  425.1305
 142  360.2162
 143  327.7316
 144  438.8787
 145  350.8491
 146  381.9064
 147  422.9903
 148  461.3356
 149  305.9875
 150  328.7249
 151  377.9536
 152  404.326
 153  393.3717
 154  361.3304
 155  432.9691
 156  414.7669
 157  380.0957
 158  308.4328
 159  362.0645
 160  317.0595
 161  328.3307
 162  329.2364
 163  344.6191
 164  325.2666
 165  375.364
 166  402.2336
 167  333.3301
 168  365.156
 169  456.8929
 170  375.2813
 171  377.5031
 172  446.9327
 173  474.3064
 174  390.4668
 175  315.6654
 176  338.0159
 177  408.2317
 178  453.2912
 179  401.3854
 180  416.229
 181  368.1476
 182  273.0808
 183  243.2545
 184  329.7122
 185  411.0225
 186  273.4365
 187  351.0176
 188  383.2908
 189  412.738
 190  467.1193
 191  324.4823
 192  358.1222
 193  530.1958
 194  494.4465
 195  267.4668
 196  318.0276
 197  432.378
 198  495.114
 199  466.1271
 200  418.6163
 201  268.9931
 202  473.2536
 203  437.2862
 204  363.7911
 205  359.1216
 206  391.0781
 207  437.1129
 208  485.88
 209  549.6296
 210  510.4164
 211  375.8714
 212  419.6228
 213  350.2412
 214  301.26
 215  474.7469
 216  510.6005
 217  437.3908
 218  480.02
 219  401.4789
 220  449.2741
 221  477.0676
 222  532.4806
 223  478.7955
 224  380.4337
 225  369.3476
 226  384.0097
 227  364.0136
 228  400.9751
 229  266.8462
 230  359.5544
 231  364.1186
 232  308.037
 233  410.1945
 234  475.5535
 235  402.7372
 236  378.227
 237  438.1013
 238  406.7404
 239  480.8964
 240  592.8921
 241  605.4362
 242  461.4821
 243  402.5605
 244  488.5409
 245  554.8659
 246  529.0205
 247  463.0737
 248  456.3539
 249  479.6216
 250  510.8878
 251  501.1193
 252  578.4982
 253  514.1959
 254  442.5216
 255  427.524
 256  503.9489
 257  487.5317
 258  476.8713
 259  495.8684
 260  418.6342
 261  407.4381
 262  448.6733
 263  422.0491
 264  440.1753
 265  475.3692
 266  467.0513
 267  501.8326
 268  609.5333
 269  560.3602
 270  529.6304
 271  386.5082
 272  452.2376
 273  509.856
 274  499.2896
 275  394.4922
 276  285.1071
 277  300.4251
 278  277.5698
 279  288.3181
 280  226.321
 281  208.7132
 282  375.1219
 283  416.4527
 284  348.0859
 285  259.6597
 286  322.1132
 287  292.4861
 288  349.2545
 289  375.8865
 290  349.8063
 291  373.5532
 292  345.5884
 293  298.9792
 294  299.4854
 295  342.3293
 296  234.7826
 297  228.8043
 298  345.5788
 299  471.8214
 300  415.165
 301  428.9643
 302  431.0753
 303  451.9456
 304  416.895
 305  439.138
 306  349.0568
 307  433.8586
 308  411.626
 309  424.5976
 310  378.2294
 311  463.4356
 312  561.175
 313  588.9161
 314  572.2668
 315  634.2623
 316  497.7354
 317  444.1707
 318  428.4561
 319  533.6008
 320  382.8553
 321  341.3338
 322  475.0626
 323  405.8555
 324  390.5079
 325  459.4725
 326  466.2638
 327  421.4737
 328  483.9885
 329  422.5893
 330  351.4315
 331  368.8325
 332  367.39
 333  383.2671
 334  548.9992
 335  470.1718
 336  396.0162
 337  381.2334
 338  411.2144
 339  465.2621
 340  431.1923
 341  391.835
 342  438.7361
 343  408.3454
 344  450.9228
 345  457.6251
 346  514.5425
 347  458.2837
 348  334.1669
 349  361.2958
 350  485.4303
 351  480.7406
 352  506.467
 353  405.7072
 354  278.3506
 355  301.9172
 356  362.4261
 357  418.0408
 358  424.497
 359  369.3034
 360  365.2112
 361  394.1362
 362  350.3705
 363  333.6187
 364  322.4191
 365  302.1397
 366  408.267
 367  381.1104
 368  406.0185
 369  379.0741
 370  361.8365
 371  382.1117
 372  330.1755
 373  373.8478
 374  375.7054
 375  362.9783
 376  400.4922
 377  422.6092
 378  272.6062
 379  330.1733
 380  359.4605
 381  493.9542
 382  429.1614
 383  372.5418
 384  517.3132
 385  465.1116
 386  381.9433
 387  342.6205
 388  448.4792
 389  381.0832
 390  394.5941
 391  512.2917
 392  380.5779
 393  406.9387
 394  550.1014
 395  492.3403
 396  420.5795
 397  532.0063
 398  624.386
 399  554.2097
 400  400.2782
 401  449.9401
 402  496.4863
 403  589.5972
 404  554.065
 405  395.8468
 406  330.17
 407  470.7117
 408  535.994
 409  489.3417
 410  339.3458
 411  449.3361
 412  495.0365
 413  294.3889
 414  385.387
 415  352.5143
 416  326.2634
 417  430.2602
 418  512.4425
 419  490.5747
 420  377.6437
 421  359.2025
 422  387.2605
 423  421.8143
 424  410.9804
 425  391.2251
 426  361.9236
 427  221.6143
 428  132.6368
 429  236.7809
 430  331.7018
 431  388.7151
 432  399.027
 433  358.7651
 434  230.9677
 435  282.4904
 436  375.5853
 437  278.2669
 438  389.4684
 439  400.5205
 440  328.9064
 441  228.0221
 442  201.3928
 443  299.8315
 444  229.2991
 445  310.0676
 446  337.0885
 447  251.0019
 448  241.4746
 449  273.5203
 450  365.406
 451  462.751
 452  444.327
 453  357.2794
 454  325.1436
 455  356.0457
 456  401.3593
 457  439.5187
 458  426.3081
 459  427.0012
 460  350.5487
 461  365.8685
 462  326.6925
 463  393.0779
 464  470.4706
 465  387.2254
 466  470.6937
 467  464.5077
 468  455.7607
 469  452.1578
 470  462.0671
 471  514.446
 472  404.6516
 473  333.0134
 474  371.3971
 475  368.1054
 476  443.4836
 477  546.4615
 478  398.8708
 479  340.2173
 480  397.7776
 481  477.8549
 482  504.0992
 483  554.0955
 484  490.8604
 485  430.4224
 486  384.7896
 487  420.3808
 488  364.7579
 489  313.8564
 490  330.0752
 491  364.1699
 492  506.61
 493  520.8012
 494  490.1134
 495  432.8468
 496  344.357
 497  261.357
 498  392.032
 499  491.0247
 500  372.026
 501  355.3034
 502  483.7239
 503  492.15
 504  516.5742
 505  472.0836
 506  425.6449
 507  484.2313
 508  494.3962
 509  679.849
 510  1015.527
 511  1193.283
