# Input file       =  1208756838.127308_cleaned.dat
# Candidate        =  PSR_0332+5434
# Telescope        =  AR
# Epoch_topo       =  58234.240973695691
# Epoch_bary       =  N/A
# T_sample         =  0.002
# Data Folded      =  7208960
# Data Avg         =  0.017035423052452
# Data StdDev      =  0.99998338979869 
# Profile Bins     =  512
# Profile Avg      =  239.772991293329 
# Profile StdDev   =  118.657204840733 
# Reduced chi-sqr  =  1.986
# Prob(Noise)      <  1.37e-35   (~12.4 sigma)
# P_topo (ms)      =  714.550912085431  +/- 0.00025
# P'_topo (s/s)    =  -0                +/- 1.34e-10
# P''_topo (s/s^2) =  0                 +/- 6.03e-14
# P_bary (ms)      =  N/A
# P'_bary (s/s)    =  N/A
# P''_bary (s/s^2) =  N/A
# P_orb (s)        =  N/A
# asin(i)/c (s)    =  N/A
# eccentricity     =  N/A
# w (rad)          =  N/A
# T_peri           =  N/A
######################################################
   0  1243.282
   1  1273.237
   2  982.7853
   3  660.5466
   4  379.1788
   5  342.516
   6  503.7984
   7  420.3618
   8  344.5183
   9  399.45
  10  407.5176
  11  262.5728
  12  304.7864
  13  301.3969
  14  428.9872
  15  369.254
  16  277.1519
  17  278.208
  18  373.5078
  19  271.3694
  20  315.4374
  21  282.7746
  22  256.0172
  23  312.8219
  24  276.5329
  25  210.8419
  26  164.1926
  27  347.0957
  28  254.5002
  29  218.2372
  30  433.5387
  31  387.3885
  32  218.6294
  33  276.1114
  34  268.0087
  35  364.6038
  36  397.4163
  37  231.3261
  38  176.3565
  39  178.4642
  40  313.6624
  41  229.3892
  42  248.146
  43  237.1719
  44  239.8448
  45  126.6464
  46  272.8195
  47  153.3356
  48  88.5263
  49  232.2843
  50  296.9348
  51  280.0937
  52  153.421
  53  186.8303
  54  309.5675
  55  268.3
  56  292.1981
  57  270.1336
  58  202.5866
  59  71.27793
  60  146.0982
  61  266.0941
  62  130.8158
  63  117.9951
  64  145.2013
  65  158.2154
  66  144.0524
  67  235.796
  68  132.5633
  69  229.327
  70  230.2376
  71  202.0892
  72  199.7116
  73  273.3194
  74  313.7841
  75  185.7686
  76  72.03201
  77  140.1281
  78  229.0356
  79  321.8921
  80  253.8802
  81  99.33848
  82  89.15038
  83  166.7921
  84  280.1729
  85  117.0663
  86  100.6843
  87  216.1442
  88  184.9386
  89  247.3008
  90  211.7123
  91  323.083
  92  304.4877
  93  253.375
  94  225.0984
  95  240.3428
  96  194.3428
  97  260.1686
  98  279.9117
  99  183.6127
 100  116.2977
 101  215.5001
 102  225.0263
 103  240.4411
 104  257.0897
 105  287.9892
 106  176.5706
 107  155.9767
 108  293.7941
 109  167.5609
 110  206.7945
 111  211.705
 112  282.2713
 113  200.195
 114  213.1731
 115  235.1914
 116  257.9698
 117  197.693
 118  247.935
 119  221.8297
 120  271.6261
 121  173.5715
 122  255.0185
 123  269.801
 124  260.0538
 125  142.8502
 126  193.7725
 127  217.6308
 128  184.7409
 129  175.0032
 130  121.682
 131  222.0487
 132  226.6211
 133  314.5497
 134  429.0923
 135  325.2647
 136  438.9646
 137  279.4369
 138  216.3925
 139  254.8973
 140  178.0116
 141  147.3971
 142  72.28689
 143  115.179
 144  75.74025
 145  153.1816
 146  188.5263
 147  176.2422
 148  285.3508
 149  275.9525
 150  25.56447
 151  76.47255
 152  168.3616
 153  162.2025
 154  198.3983
 155  279.4533
 156  146.7766
 157  131.1585
 158  172.4574
 159  204.2699
 160  122.9363
 161  92.16364
 162  207.2695
 163  311.7277
 164  283.1667
 165  322.4647
 166  277.2807
 167  193.1892
 168  259.4246
 169  361.6987
 170  314.1288
 171  295.867
 172  145.1847
 173  72.01532
 174  209.7829
 175  321.2294
 176  314.7118
 177  197.8479
 178  250.6729
 179  247.6211
 180  245.4521
 181  164.549
 182  152.6366
 183  169.0292
 184  256.631
 185  196.7741
 186  131.5211
 187  104.8305
 188  201.3283
 189  86.50648
 190  110.9752
 191  123.812
 192  164.3307
 193  339.6516
 194  229.7576
 195  155.7245
 196  217.5501
 197  251.2214
 198  213.6423
 199  237.3448
 200  196.233
 201  185.7359
 202  249.7218
 203  230.7926
 204  63.84328
 205  22.77761
 206  177.5333
 207  134.5305
 208  113.0561
 209  48.39977
 210  119.4488
 211  214.2194
 212  238.042
 213  195.6369
 214  90.52962
 215  115.3362
 216  296.3937
 217  341.6742
 218  183.0818
 219  208.6988
 220  230.8302
 221  173.4209
 222  150.3161
 223  180.8264
 224  131.6484
 225  164.3906
 226  266.8754
 227  98.8093
 228  189.1659
 229  320.617
 230  332.0093
 231  324.4574
 232  222.6823
 233  164.7092
 234  223.6553
 235  288.2179
 236  286.9352
 237  227.7879
 238  228.9514
 239  217.8535
 240  168.386
 241  114.4719
 242  91.32655
 243  178.166
 244  324.1389
 245  344.4332
 246  146.8017
 247  211.0626
 248  299.2889
 249  245.3533
 250  219.1043
 251  161.8841
 252  120.0602
 253  235.3557
 254  206.1338
 255  214.6644
 256  184.4624
 257  174.6414
 258  131.4745
 259  155.1969
 260  294.9006
 261  282.2839
 262  332.9764
 263  277.6368
 264  361.612
 265  285.1805
 266  249.8188
 267  224.175
 268  169.4086
 269  232.0002
 270  184.9951
 271  221.0141
 272  237.0177
 273  233.1041
 274  254.5885
 275  288.0386
 276  145.4187
 277  178.2957
 278  131.8713
 279  110.9343
 280  148.7889
 281  184.5147
 282  229.1125
 283  245.4515
 284  217.3167
 285  169.6432
 286  164.0581
 287  202.1391
 288  77.70364
 289  84.45274
 290  83.57018
 291  113.6427
 292  112.1485
 293  162.6596
 294  187.7337
 295  209.0097
 296  73.03306
 297  163.4675
 298  204.5338
 299  277.7403
 300  393.2207
 301  291.8016
 302  249.201
 303  230.1635
 304  262.3695
 305  222.0938
 306  179.9758
 307  161.9098
 308  84.40033
 309  157.3138
 310  259.7309
 311  283.4659
 312  302.8329
 313  258.3762
 314  267.5095
 315  196.8708
 316  109.6659
 317  137.982
 318  42.14254
 319  112.1962
 320  202.9516
 321  278.0626
 322  272.716
 323  265.3239
 324  266.8583
 325  201.3791
 326  251.4654
 327  182.5811
 328  21.95431
 329  205.3165
 330  233.8323
 331  292.7573
 332  232.504
 333  267.4081
 334  260.2577
 335  190.7343
 336  313.9334
 337  267.4055
 338  283.9662
 339  189.7679
 340  120.619
 341  86.76543
 342  -16.65965
 343  252.2038
 344  340.5877
 345  172.7781
 346  122.771
 347  293.8112
 348  194.6037
 349  250.2411
 350  351.0325
 351  270.7334
 352  185.2548
 353  132.3584
 354  195.2604
 355  102.7011
 356  120.792
 357  177.2425
 358  222.6256
 359  211.8103
 360  213.9872
 361  219.2231
 362  156.8412
 363  259.0839
 364  349.1615
 365  375.5215
 366  372.8377
 367  246.8856
 368  181.3841
 369  188.317
 370  323.118
 371  210.2088
 372  211.1368
 373  340.0917
 374  311.8871
 375  317.6844
 376  299.8601
 377  238.7516
 378  204.8988
 379  152.5227
 380  140.2357
 381  270.433
 382  325.8728
 383  196.2529
 384  207.2217
 385  392.2495
 386  383.1239
 387  233.2716
 388  257.5533
 389  287.8792
 390  288.0592
 391  303.4345
 392  297.5949
 393  261.5952
 394  160.5457
 395  336.0758
 396  330.7256
 397  165.187
 398  120.2146
 399  252.4528
 400  264.7684
 401  249.2348
 402  300.4964
 403  252.451
 404  187.453
 405  175.7375
 406  127.8661
 407  271.5553
 408  345.0564
 409  323.338
 410  295.6321
 411  230.959
 412  175.3532
 413  104.472
 414  127.0638
 415  239.007
 416  140.7429
 417  158.8188
 418  98.27965
 419  179.0996
 420  229.3892
 421  205.6177
 422  308.5976
 423  273.6324
 424  220.0525
 425  281.0701
 426  337.9618
 427  269.0176
 428  188.8544
 429  230.9274
 430  282.0175
 431  176.8467
 432  88.45914
 433  203.0208
 434  285.6541
 435  267.4828
 436  268.5406
 437  374.4242
 438  340.6222
 439  338.9626
 440  310.0167
 441  311.8254
 442  316.5306
 443  293.286
 444  246.3014
 445  215.7403
 446  232.7518
 447  183.7722
 448  109.3122
 449  332.3969
 450  348.592
 451  270.08
 452  219.3533
 453  266.5937
 454  307.4679
 455  375.4112
 456  394.0833
 457  325.3059
 458  344.4548
 459  307.955
 460  302.5191
 461  283.2151
 462  249.776
 463  240.9144
 464  216.5263
 465  134.2966
 466  242.5188
 467  393.2271
 468  348.9992
 469  335.8965
 470  375.1893
 471  323.3502
 472  305.2765
 473  237.2934
 474  278.0903
 475  328.0847
 476  159.9658
 477  176.7534
 478  201.127
 479  271.8185
 480  174.3231
 481  310.2446
 482  377.8273
 483  210.312
 484  119.4728
 485  266.7297
 486  259.8759
 487  180.2519
 488  249.7609
 489  237.2207
 490  269.7231
 491  157.5761
 492  124.4973
 493  132.7041
 494  254.4668
 495  222.325
 496  307.9026
 497  290.2309
 498  257.9407
 499  156.718
 500  188.8868
 501  309.3318
 502  205.7015
 503  338.7038
 504  368.1428
 505  435.0169
 506  414.0247
 507  365.4016
 508  483.5204
 509  692.1786
 510  761.0003
 511  1125.29
