# Input file       =  1208771537.100019_cleaned.dat
# Candidate        =  PSR_0332+5434
# Telescope        =  AR
# Epoch_topo       =  58234.411100694662
# Epoch_bary       =  N/A
# T_sample         =  0.002
# Data Folded      =  7340032
# Data Avg         =  0.00481318706466933
# Data StdDev      =  1.00002365305776 
# Profile Bins     =  512
# Profile Avg      =  68.940276740001  
# Profile StdDev   =  119.735868429192 
# Reduced chi-sqr  =  0.978
# Prob(Noise)      <  0.631   (~0.0 sigma)
# P_topo (ms)      =  714.55078859654   +/- 0.00084
# P'_topo (s/s)    =  -0                +/- 4.43e-10
# P''_topo (s/s^2) =  0                 +/- 1.96e-13
# P_bary (ms)      =  N/A
# P'_bary (s/s)    =  N/A
# P''_bary (s/s^2) =  N/A
# P_orb (s)        =  N/A
# asin(i)/c (s)    =  N/A
# eccentricity     =  N/A
# w (rad)          =  N/A
# T_peri           =  N/A
######################################################
   0  541.6804
   1  551.0573
   2  438.4956
   3  252.1513
   4  178.0901
   5  118.3111
   6  105.231
   7  31.92039
   8  29.96978
   9  30.59865
  10  41.77433
  11  1.639961
  12  -71.09502
  13  20.49124
  14  57.66859
  15  79.25605
  16  60.07596
  17  61.12434
  18  90.85186
  19  -7.919255
  20  49.66769
  21  74.1963
  22  82.65707
  23  83.23868
  24  62.88502
  25  47.98049
  26  78.20586
  27  16.873
  28  9.681669
  29  66.19251
  30  94.05645
  31  75.62308
  32  146.7378
  33  142.9335
  34  120.6908
  35  70.63824
  36  39.28669
  37  23.27472
  38  83.94218
  39  116.7013
  40  114.3769
  41  170.0968
  42  105.7462
  43  31.60056
  44  92.49139
  45  141.4827
  46  154.1213
  47  128.9134
  48  110.2196
  49  145.3739
  50  164.5828
  51  173.2841
  52  162.6636
  53  108.257
  54  169.5
  55  141.9483
  56  131.8478
  57  121.2093
  58  112.1275
  59  112.9922
  60  68.61983
  61  78.70731
  62  38.0381
  63  172.1816
  64  114.7995
  65  70.38651
  66  54.59378
  67  125.5428
  68  107.9319
  69  102.106
  70  87.15217
  71  91.07627
  72  28.05562
  73  38.02147
  74  78.71143
  75  54.85208
  76  45.42116
  77  34.76633
  78  -5.286962
  79  84.80123
  80  45.82838
  81  -18.77604
  82  -33.67616
  83  59.21374
  84  115.318
  85  117.9623
  86  62.58597
  87  101.747
  88  95.06821
  89  58.3997
  90  72.5325
  91  47.40458
  92  13.9519
  93  29.94366
  94  104.8895
  95  118.4401
  96  84.97641
  97  96.53941
  98  152.3846
  99  77.67477
 100  113.3613
 101  88.90195
 102  92.11597
 103  126.6343
 104  110.6965
 105  36.88762
 106  38.20605
 107  83.29073
 108  68.43253
 109  84.14837
 110  35.14378
 111  3.194162
 112  14.58811
 113  -46.4651
 114  -0.07594072
 115  74.28883
 116  57.88736
 117  40.65557
 118  26.9216
 119  37.12695
 120  74.28243
 121  23.0424
 122  -28.62639
 123  5.521371
 124  67.81419
 125  33.41298
 126  58.34696
 127  73.29922
 128  41.69426
 129  -20.65568
 130  4.414392
 131  39.5015
 132  -72.35081
 133  -124.1594
 134  -88.54218
 135  -36.05414
 136  -48.39873
 137  -37.27107
 138  -4.962796
 139  -67.12148
 140  -103.9146
 141  -89.17477
 142  -42.37477
 143  -84.18319
 144  -131.0317
 145  -86.76208
 146  -94.16971
 147  -69.549
 148  -26.64877
 149  -69.51405
 150  -53.64543
 151  95.84362
 152  15.23906
 153  -41.5918
 154  -12.91884
 155  -25.19969
 156  -45.96851
 157  -69.98936
 158  -65.12833
 159  0.1224266
 160  -21.25065
 161  -15.87306
 162  21.48934
 163  -31.30841
 164  -29.42268
 165  9.44722
 166  60.18654
 167  51.26861
 168  17.84749
 169  0.5384419
 170  -19.36604
 171  38.5587
 172  79.82848
 173  53.18895
 174  -17.1298
 175  -0.6063819
 176  -18.97422
 177  -37.36147
 178  -22.41908
 179  -33.1745
 180  38.224
 181  106.8509
 182  75.7772
 183  -40.94954
 184  25.50147
 185  68.30613
 186  45.44453
 187  34.97817
 188  7.572363
 189  51.25919
 190  53.60933
 191  57.22308
 192  86.22703
 193  47.10302
 194  -2.849806
 195  45.70219
 196  18.75723
 197  -8.98658
 198  -52.01224
 199  -100.61
 200  -91.2473
 201  -66.09303
 202  11.6752
 203  46.24833
 204  25.48482
 205  -35.6051
 206  -73.56331
 207  -80.80185
 208  -34.36164
 209  -20.72727
 210  79.77372
 211  31.12167
 212  15.1586
 213  -6.788199
 214  -13.34079
 215  32.87018
 216  48.57064
 217  59.84693
 218  62.92134
 219  55.26527
 220  -16.53417
 221  55.30237
 222  78.21965
 223  -25.06034
 224  -2.178567
 225  64.87936
 226  47.42524
 227  33.08721
 228  33.50181
 229  72.86883
 230  106.8873
 231  28.5279
 232  92.65018
 233  77.23843
 234  42.65686
 235  95.05502
 236  159.996
 237  132.2386
 238  99.30981
 239  112.7457
 240  131.8212
 241  147.3835
 242  75.55216
 243  43.31222
 244  134.8713
 245  119.5332
 246  142.8113
 247  82.91525
 248  149.2345
 249  164.1359
 250  113.2926
 251  112.594
 252  135.6662
 253  82.74026
 254  57.27301
 255  35.01928
 256  95.02052
 257  83.38208
 258  157.6885
 259  110.5619
 260  75.93253
 261  43.42704
 262  85.20859
 263  56.01967
 264  104.94
 265  112.8732
 266  82.16307
 267  139.9581
 268  132.033
 269  55.8209
 270  30.5211
 271  13.17587
 272  26.14629
 273  78.32577
 274  100.2684
 275  126.4581
 276  81.61544
 277  13.27364
 278  15.567
 279  60.52299
 280  90.77217
 281  85.82768
 282  96.75227
 283  28.87629
 284  49.18515
 285  -41.20361
 286  8.92305
 287  -5.176933
 288  -21.39141
 289  -14.19748
 290  -62.1559
 291  28.84996
 292  17.16502
 293  59.45292
 294  38.50475
 295  -51.36679
 296  -79.42942
 297  -56.05317
 298  -39.1011
 299  -12.87388
 300  24.21796
 301  22.02244
 302  8.893746
 303  -55.93803
 304  -112.5358
 305  -39.2288
 306  -37.83761
 307  52.87496
 308  24.34049
 309  2.79981
 310  18.43961
 311  17.40712
 312  19.89843
 313  -19.92456
 314  -30.90959
 315  72.67715
 316  76.68566
 317  62.9875
 318  125.0424
 319  140.5778
 320  58.41437
 321  69.13929
 322  42.80322
 323  82.98157
 324  95.9016
 325  93.66284
 326  41.67147
 327  75.65625
 328  104.5662
 329  82.86179
 330  106.2233
 331  36.43882
 332  2.795536
 333  -11.51163
 334  -20.60049
 335  -18.37372
 336  12.36932
 337  65.29911
 338  72.99697
 339  59.68343
 340  91.72572
 341  72.23437
 342  94.4561
 343  78.2675
 344  55.36707
 345  71.67557
 346  1.908668
 347  -17.13965
 348  45.1827
 349  12.89002
 350  -20.66603
 351  -0.5161403
 352  47.47101
 353  -0.1670796
 354  18.38618
 355  -3.895385
 356  -14.27773
 357  1.816117
 358  4.314958
 359  -39.87455
 360  -20.87659
 361  36.76585
 362  32.26643
 363  8.370775
 364  72.09377
 365  5.385397
 366  -16.3272
 367  35.24809
 368  7.793688
 369  -4.198285
 370  -27.89869
 371  -2.87568
 372  16.79127
 373  35.29736
 374  44.88258
 375  -29.82315
 376  -88.68938
 377  -106.9586
 378  -80.12158
 379  -17.74589
 380  -68.79095
 381  -102.1695
 382  -2.888689
 383  -24.03145
 384  -4.262962
 385  97.1284
 386  105.0283
 387  57.01167
 388  30.17721
 389  73.92152
 390  79.07528
 391  189.8828
 392  132.395
 393  104.8275
 394  69.05585
 395  131.8105
 396  186.0183
 397  114.9345
 398  116.5977
 399  182.4594
 400  212.1959
 401  148.0125
 402  157.116
 403  169.7134
 404  170.1674
 405  185.5758
 406  180.8236
 407  233.7579
 408  170.9779
 409  93.57293
 410  147.7639
 411  182.8193
 412  129.6844
 413  121.6047
 414  136.4635
 415  155.961
 416  126.0169
 417  122.4123
 418  129.0249
 419  140.3378
 420  123.6158
 421  134.704
 422  93.84985
 423  106.4524
 424  113.9497
 425  134.5715
 426  139.4796
 427  153.9855
 428  160.3082
 429  189.7539
 430  226.6899
 431  165.3321
 432  139.3018
 433  119.7566
 434  113.1073
 435  129.5399
 436  109.4156
 437  74.82995
 438  137.6374
 439  206.912
 440  225.4893
 441  89.56221
 442  56.70341
 443  109.692
 444  168.1342
 445  197.6975
 446  172.3057
 447  113.3117
 448  22.44893
 449  4.728721
 450  52.17088
 451  66.87923
 452  56.61863
 453  131.3274
 454  76.35765
 455  37.34079
 456  74.05372
 457  111.0737
 458  94.50594
 459  144.4886
 460  212.2041
 461  175.1701
 462  104.2363
 463  101.4883
 464  139.0164
 465  135.0386
 466  60.3921
 467  115.0188
 468  105.9097
 469  166.092
 470  133.113
 471  166.043
 472  137.3101
 473  141.4489
 474  154.2599
 475  140.4147
 476  96.02073
 477  110.3231
 478  195.7074
 479  206.4051
 480  104.295
 481  31.80816
 482  72.24557
 483  73.55849
 484  60.23072
 485  112.3309
 486  126.1522
 487  114.5955
 488  165.5697
 489  208.6765
 490  239.2079
 491  222.1699
 492  169.0018
 493  274.1291
 494  244.836
 495  172.2664
 496  194.2118
 497  213.639
 498  193.8406
 499  150.5985
 500  153.1982
 501  240.5392
 502  229.8825
 503  199.831
 504  195.09
 505  135.9365
 506  155.8201
 507  144.1531
 508  193.3914
 509  322.0173
 510  458.0558
 511  496.889
