# Input file       =  1208340608.107277_cleaned.dat
# Candidate        =  PSR_0332+5434
# Telescope        =  AR
# Epoch_topo       =  58229.423496611998
# Epoch_bary       =  N/A
# T_sample         =  0.002
# Data Folded      =  7340032
# Data Avg         =  0.0302013740827329
# Data StdDev      =  1.00012843886647 
# Profile Bins     =  512
# Profile Avg      =  433.034092275757 
# Profile StdDev   =  119.748414752237 
# Reduced chi-sqr  =  1.139
# Prob(Noise)      <  0.0161   (~2.1 sigma)
# P_topo (ms)      =  714.555027327096  +/- 0.000711
# P'_topo (s/s)    =  -0                +/- 3.75e-10
# P''_topo (s/s^2) =  0                 +/- 1.66e-13
# P_bary (ms)      =  N/A
# P'_bary (s/s)    =  N/A
# P''_bary (s/s^2) =  N/A
# P_orb (s)        =  N/A
# asin(i)/c (s)    =  N/A
# eccentricity     =  N/A
# w (rad)          =  N/A
# T_peri           =  N/A
######################################################
   0  959.5162
   1  852.1309
   2  674.7834
   3  505.4636
   4  417.404
   5  442.7428
   6  452.489
   7  450.6017
   8  383.2688
   9  459.4404
  10  443.5855
  11  405.9315
  12  446.2712
  13  446.6694
  14  401.3149
  15  417.0387
  16  462.6052
  17  413.7431
  18  402.1568
  19  501.3545
  20  407.1934
  21  521.2568
  22  538.2278
  23  525.5087
  24  466.0032
  25  495.3832
  26  417.9402
  27  396.1648
  28  499.6328
  29  422.8183
  30  480.1098
  31  587.5292
  32  522.1872
  33  500.7528
  34  548.6268
  35  504.8154
  36  530.0272
  37  531.9652
  38  530.166
  39  504.9428
  40  500.0089
  41  487.8095
  42  461.151
  43  512.1924
  44  517.2651
  45  477.9436
  46  503.9659
  47  518.8174
  48  557.535
  49  511.2963
  50  471.6572
  51  461.3932
  52  530.1656
  53  381.5445
  54  347.8113
  55  443.3724
  56  451.9591
  57  363.7
  58  431.3665
  59  470.8076
  60  441.7858
  61  538.5314
  62  511.0635
  63  403.9546
  64  285.096
  65  324.5103
  66  327.3875
  67  305.5668
  68  408.058
  69  418.8125
  70  393.3417
  71  399.2885
  72  342.5145
  73  351.2767
  74  337.0509
  75  331.6708
  76  394.3748
  77  425.5188
  78  416.0554
  79  256.0151
  80  278.8701
  81  285.748
  82  347.1684
  83  340.9141
  84  293.8002
  85  371.6052
  86  436.9262
  87  448.4669
  88  339.2343
  89  357.8475
  90  418.7793
  91  425.97
  92  349.5022
  93  365.7592
  94  384.7432
  95  320.482
  96  350.2375
  97  416.7594
  98  426.4706
  99  451.1409
 100  438.3712
 101  422.5316
 102  404.4917
 103  439.556
 104  456.1227
 105  415.4095
 106  385.9025
 107  427.878
 108  491.9351
 109  471.5162
 110  527.4062
 111  556.7183
 112  465.5875
 113  417.9926
 114  401.6844
 115  503.0656
 116  486.106
 117  508.0067
 118  476.8615
 119  487.4823
 120  468.4325
 121  434.6113
 122  506.9329
 123  485.1285
 124  400.182
 125  460.4691
 126  481.3563
 127  510.6311
 128  453.601
 129  366.475
 130  435.0951
 131  475.0093
 132  451.0041
 133  460.1198
 134  446.7844
 135  459.986
 136  394.3055
 137  389.057
 138  440.2079
 139  371.2304
 140  356.6232
 141  376.2642
 142  406.1945
 143  429.8144
 144  393.0859
 145  368.7753
 146  395.7015
 147  392.5782
 148  427.2871
 149  363.6752
 150  357.7654
 151  423.8972
 152  384.5521
 153  384.655
 154  443.8372
 155  384.2808
 156  389.6351
 157  388.9664
 158  419.5899
 159  433.4139
 160  433.6768
 161  476.1414
 162  408.377
 163  409.0534
 164  451.7397
 165  466.5903
 166  422.5535
 167  412.1113
 168  430.8754
 169  402.5114
 170  408.6586
 171  470.6524
 172  477.3026
 173  409.5252
 174  448.4455
 175  469.973
 176  590.5054
 177  562.9404
 178  547.7513
 179  550.7153
 180  543.6075
 181  614.1041
 182  620.2397
 183  592.8864
 184  627.6038
 185  632.0449
 186  618.9771
 187  646.0474
 188  653.7106
 189  600.3353
 190  594.7011
 191  597.5352
 192  538.4019
 193  539.7482
 194  641.3403
 195  536.8405
 196  545.6942
 197  457.5801
 198  507.6865
 199  510.4703
 200  473.3797
 201  453.2412
 202  412.0639
 203  368.9967
 204  428.5076
 205  469.4454
 206  354.0593
 207  349.9789
 208  404.2158
 209  399.7158
 210  337.6782
 211  377.8314
 212  399.5014
 213  476.7733
 214  392.966
 215  318.3259
 216  349.0374
 217  390.1837
 218  327.1816
 219  384.0879
 220  409.0763
 221  429.0147
 222  382.3991
 223  419.9417
 224  361.7988
 225  319.8232
 226  349.8155
 227  391.7233
 228  366.3282
 229  345.3322
 230  285.9226
 231  372.381
 232  408.7978
 233  342.4497
 234  373.305
 235  369.4642
 236  331.2769
 237  364.0518
 238  289.301
 239  291.3168
 240  309.5529
 241  383.8143
 242  366.7099
 243  412.9762
 244  420.7856
 245  433.3857
 246  477.127
 247  483.5364
 248  458.7053
 249  426.135
 250  507.3847
 251  526.3189
 252  475.5149
 253  477.146
 254  386.4639
 255  374.2233
 256  448.5427
 257  483.3116
 258  415.4099
 259  470.3352
 260  497.7557
 261  549.4928
 262  504.2321
 263  504.0692
 264  482.3686
 265  492.6295
 266  443.8181
 267  488.657
 268  498.636
 269  521.872
 270  436.8205
 271  453.239
 272  444.7128
 273  468.2503
 274  473.7036
 275  371.0202
 276  345.7416
 277  363.616
 278  356.1663
 279  400.323
 280  346.515
 281  246.0171
 282  259.5464
 283  271.3703
 284  276.6217
 285  295.0095
 286  253.6424
 287  386.803
 288  444.1974
 289  276.011
 290  256.6965
 291  296.6558
 292  411.2249
 293  279.4098
 294  377.6291
 295  373.0495
 296  291.4807
 297  286.1885
 298  342.697
 299  286.8339
 300  245.315
 301  228.2325
 302  268.5091
 303  269.606
 304  401.7991
 305  340.6396
 306  326.0838
 307  288.4386
 308  259.7299
 309  246.2699
 310  284.7481
 311  311.1973
 312  307.9989
 313  291.2171
 314  243.124
 315  353.7398
 316  428.6148
 317  371.8389
 318  286.2545
 319  319.0698
 320  324.4697
 321  308.0273
 322  295.9257
 323  328.5329
 324  291.7961
 325  360.8395
 326  455.5016
 327  371.4951
 328  373.8715
 329  311.9962
 330  354.8997
 331  460.0446
 332  376.121
 333  337.6833
 334  400.6551
 335  373.6053
 336  368.8721
 337  382.69
 338  327.7621
 339  419.1202
 340  392.7923
 341  330.266
 342  307.2916
 343  358.1035
 344  372.0323
 345  412.7544
 346  388.777
 347  443.3922
 348  433.2594
 349  434.2825
 350  496.36
 351  461.6267
 352  430.0737
 353  362.4856
 354  356.4781
 355  404.4286
 356  447.1328
 357  449.8956
 358  401.318
 359  389.6784
 360  382.4392
 361  349.4074
 362  428.0267
 363  381.4735
 364  430.2541
 365  497.8356
 366  466.9505
 367  425.7165
 368  353.2816
 369  373.7255
 370  417.266
 371  311.7906
 372  383.6175
 373  458.6425
 374  410.9466
 375  372.469
 376  386.9568
 377  376.2875
 378  376.1032
 379  404.7895
 380  407.5283
 381  374.8068
 382  347.96
 383  402.6995
 384  364.799
 385  381.7641
 386  373.4761
 387  338.232
 388  419.1335
 389  406.5166
 390  415.569
 391  421.9464
 392  372.8918
 393  384.988
 394  427.0599
 395  416.1066
 396  425.5975
 397  404.5604
 398  436.7362
 399  424.3942
 400  343.7161
 401  357.711
 402  454.3477
 403  352.2851
 404  365.2712
 405  301.989
 406  353.0227
 407  291.7245
 408  313.3329
 409  387.0511
 410  411.0323
 411  431.0899
 412  487.4084
 413  442.2614
 414  372.3706
 415  408.4785
 416  397.9713
 417  419.9717
 418  408.5319
 419  372.9988
 420  415.7967
 421  399.0708
 422  310.4758
 423  392.8766
 424  403.4955
 425  399.5155
 426  354.2982
 427  444.3445
 428  445.8759
 429  455.7634
 430  444.3037
 431  415.9167
 432  419.7507
 433  416.5164
 434  520.7653
 435  535.9167
 436  535.0709
 437  492.8149
 438  529.4489
 439  550.8613
 440  478.5631
 441  527.8341
 442  600.3543
 443  508.282
 444  488.3527
 445  526.6605
 446  559.9864
 447  551.3657
 448  536.5803
 449  535.7377
 450  554.4404
 451  611.714
 452  534.2257
 453  492.4039
 454  546.3198
 455  589.8494
 456  516.3452
 457  613.7676
 458  541.7008
 459  502.5289
 460  599.8695
 461  571.2124
 462  585.8248
 463  575.7292
 464  552.3412
 465  571.3754
 466  542.8842
 467  539.9846
 468  501.1955
 469  531.9789
 470  535.6783
 471  520.2523
 472  484.0145
 473  521.3466
 474  521.677
 475  522.6116
 476  526.6031
 477  472.024
 478  484.7203
 479  629.847
 480  599.7333
 481  576.9639
 482  530.7477
 483  529.174
 484  536.3416
 485  457.6054
 486  506.9997
 487  455.8392
 488  523.0308
 489  464.9612
 490  472.5871
 491  460.0503
 492  460.4716
 493  446.8083
 494  408.3105
 495  392.8426
 496  452.8854
 497  418.9005
 498  401.2931
 499  414.6489
 500  431.6082
 501  483.4543
 502  424.3955
 503  362.6491
 504  338.2137
 505  450.7061
 506  469.3887
 507  463.4363
 508  549.5122
 509  691.2499
 510  822.3706
 511  927.0271
