# Input file       =  1208872645.123394_cleaned.dat
# Candidate        =  PSR_0332+5434
# Telescope        =  AR
# Epoch_topo       =  58235.581332446687
# Epoch_bary       =  N/A
# T_sample         =  0.002
# Data Folded      =  7340032
# Data Avg         =  0.0291742238496974
# Data StdDev      =  1.00005804257702 
# Profile Bins     =  512
# Profile Avg      =  418.280416569961 
# Profile StdDev   =  119.739985990752 
# Reduced chi-sqr  =  1.871
# Prob(Noise)      <  2.07e-29   (~11.2 sigma)
# P_topo (ms)      =  714.550109309923  +/- 0.000306
# P'_topo (s/s)    =  -0                +/- 1.62e-10
# P''_topo (s/s^2) =  0                 +/- 7.14e-14
# P_bary (ms)      =  N/A
# P'_bary (s/s)    =  N/A
# P''_bary (s/s^2) =  N/A
# P_orb (s)        =  N/A
# asin(i)/c (s)    =  N/A
# eccentricity     =  N/A
# w (rad)          =  N/A
# T_peri           =  N/A
######################################################
   0  1276.625
   1  1298.721
   2  993.3771
   3  703.1503
   4  645.4803
   5  552.145
   6  528.643
   7  586.5335
   8  593.8773
   9  558.1974
  10  483.7355
  11  485.6705
  12  505.9764
  13  521.5109
  14  390.2499
  15  356.9944
  16  444.4224
  17  589.9874
  18  495.0402
  19  470.6023
  20  431.0294
  21  429.4193
  22  569.0606
  23  438.461
  24  422.3786
  25  444.4607
  26  414.1795
  27  464.2384
  28  497.2916
  29  429.2135
  30  459.6135
  31  465.6126
  32  385.6831
  33  439.9566
  34  441.842
  35  433.1657
  36  458.4707
  37  429.8434
  38  443.9709
  39  338.5972
  40  414.2137
  41  380.4698
  42  427.5472
  43  465.2025
  44  421.6724
  45  358.938
  46  367.9197
  47  364.8025
  48  384.1613
  49  474.5506
  50  391.6563
  51  370.9139
  52  314.4537
  53  381.9552
  54  410.8037
  55  537.7083
  56  590.0383
  57  562.488
  58  408.7306
  59  374.1495
  60  281.062
  61  278.7009
  62  440.2125
  63  312.7866
  64  442.8129
  65  441.6998
  66  426.8223
  67  393.6339
  68  355.3691
  69  523.8356
  70  556.4027
  71  527.2939
  72  531.6258
  73  498.7206
  74  450.7067
  75  518.3378
  76  500.47
  77  513.5104
  78  512.6686
  79  504.0444
  80  465.1307
  81  628.1219
  82  557.5769
  83  587.546
  84  597.6173
  85  623.9767
  86  578.9401
  87  525.0206
  88  443.304
  89  474.9439
  90  513.8212
  91  463.5097
  92  457.8204
  93  505.545
  94  442.3319
  95  411.4317
  96  474.1464
  97  544.0009
  98  607.9201
  99  613.581
 100  463.1405
 101  394.3618
 102  437.9762
 103  394.3062
 104  366.2639
 105  418.262
 106  261.5885
 107  274.1913
 108  459.6322
 109  331.3291
 110  330.9968
 111  463.9341
 112  571.5444
 113  549.8026
 114  344.8677
 115  277.9324
 116  371.5467
 117  404.2622
 118  424.3049
 119  349.4896
 120  389.0239
 121  278.4929
 122  268.3173
 123  387.8011
 124  371.8472
 125  284.744
 126  393.0727
 127  304.9587
 128  345.0281
 129  360.5556
 130  378.3099
 131  284.9771
 132  287.5808
 133  356.0435
 134  346.0925
 135  419.4539
 136  426.8271
 137  447.3309
 138  430.4143
 139  339.9488
 140  400.2457
 141  518.3061
 142  494.5628
 143  539.5594
 144  547.0315
 145  506.7259
 146  468.5915
 147  471.1791
 148  431.9091
 149  535.6642
 150  534.2324
 151  571.9772
 152  591.6081
 153  475.9087
 154  467.1709
 155  505.7046
 156  493.2614
 157  510.9615
 158  466.2825
 159  541.0119
 160  525.3469
 161  397.168
 162  381.6436
 163  491.5201
 164  504.3164
 165  564.5754
 166  511.5287
 167  491.875
 168  506.0402
 169  481.0636
 170  449.9253
 171  478.9138
 172  515.0299
 173  421.299
 174  295.3828
 175  301.5118
 176  412.6544
 177  475.0658
 178  379.8332
 179  312.2484
 180  318.6505
 181  427.635
 182  421.7234
 183  239.8785
 184  262.3932
 185  255.0921
 186  266.6219
 187  363.2898
 188  309.9319
 189  251.7359
 190  313.8276
 191  261.3769
 192  130.4707
 193  153.6246
 194  261.5671
 195  180.6056
 196  249.4069
 197  273.7413
 198  225.2261
 199  315.6442
 200  356.7524
 201  279.68
 202  240.1981
 203  315.2551
 204  355.7652
 205  318.7211
 206  439.8397
 207  451.6077
 208  225.8839
 209  200.0588
 210  278.6194
 211  319.2437
 212  373.9607
 213  293.909
 214  340.9817
 215  331.1613
 216  270.9797
 217  273.0826
 218  356.1481
 219  355.7844
 220  389.1349
 221  338.2005
 222  282.8385
 223  300.2654
 224  361.1654
 225  304.2555
 226  268.9731
 227  247.4289
 228  329.68
 229  391.6004
 230  367.9521
 231  383.3079
 232  429.1299
 233  421.9052
 234  343.3889
 235  389.9635
 236  382.8083
 237  376.7813
 238  414.0282
 239  403.274
 240  353.3351
 241  299.1866
 242  448.2234
 243  304.4567
 244  395.5565
 245  427.394
 246  508.7263
 247  365.2334
 248  358.4155
 249  321.8981
 250  310.9309
 251  318.7057
 252  282.3517
 253  279.9651
 254  259.8033
 255  343.2331
 256  296.0262
 257  278.4774
 258  236.7353
 259  249.5346
 260  224.1583
 261  215.7297
 262  345.868
 263  346.0034
 264  347.8706
 265  447.6018
 266  436.6743
 267  361.9888
 268  322.9753
 269  409.1501
 270  340.6803
 271  272.1783
 272  351.4949
 273  435.128
 274  326.7388
 275  317.6916
 276  369.8278
 277  317.5783
 278  388.787
 279  400.6162
 280  401.9899
 281  434.2201
 282  377.9871
 283  331.2144
 284  354.8691
 285  359.1727
 286  391.3527
 287  428.694
 288  471.8531
 289  517.3703
 290  580.8532
 291  541.226
 292  477.7666
 293  534.3284
 294  574.4142
 295  460.4169
 296  448.5218
 297  453.3248
 298  473.2516
 299  390.6581
 300  397.0414
 301  335.2718
 302  373.6504
 303  511.4384
 304  446.091
 305  399.5726
 306  264.7786
 307  353.8108
 308  413.6756
 309  414.3716
 310  363.7662
 311  401.7235
 312  341.2125
 313  341.1613
 314  353.1484
 315  314.4155
 316  372.2041
 317  334.9181
 318  334.9677
 319  241.5524
 320  376.4656
 321  399.5318
 322  436.2596
 323  321.6839
 324  280.4067
 325  317.8503
 326  373.5807
 327  390.4776
 328  413.6025
 329  358.6052
 330  323.8518
 331  290.9963
 332  361.403
 333  334.2412
 334  391.637
 335  334.4655
 336  412.6733
 337  408.1425
 338  392.1118
 339  439.5634
 340  336.7971
 341  309.6668
 342  380.4495
 343  397.6747
 344  462.3944
 345  461.6556
 346  340.037
 347  342.2899
 348  362.6581
 349  497.2772
 350  459.9166
 351  464.6362
 352  446.7401
 353  516.0974
 354  484.1458
 355  414.7524
 356  453.3558
 357  520.7855
 358  560.8985
 359  534.5301
 360  559.9147
 361  580.968
 362  557.6804
 363  449.2331
 364  437.0107
 365  374.6986
 366  396.7991
 367  441.8913
 368  522.016
 369  601.71
 370  501.6571
 371  383.0344
 372  360.1228
 373  508.5319
 374  552.7142
 375  601.5391
 376  452.5355
 377  401.1719
 378  444.768
 379  442.3948
 380  399.2267
 381  450.3618
 382  472.1453
 383  337.873
 384  329.841
 385  325.2928
 386  410.0175
 387  459.9861
 388  545.04
 389  509.9929
 390  294.5876
 391  357.4554
 392  428.1526
 393  443.7503
 394  400.5606
 395  487.8048
 396  502.2008
 397  441.2852
 398  484.6523
 399  485.9677
 400  347.5275
 401  398.3025
 402  407.0154
 403  382.7924
 404  350.9193
 405  417.9484
 406  344.1677
 407  400.8895
 408  425.762
 409  356.9114
 410  354.4164
 411  372.6783
 412  405.3627
 413  489.5849
 414  419.8618
 415  310.1398
 416  292.0267
 417  371.0458
 418  393.12
 419  301.5629
 420  390.0717
 421  455.1472
 422  324.6247
 423  399.4678
 424  410.0099
 425  425.356
 426  395.0948
 427  331.2333
 428  365.7967
 429  499.3445
 430  496.1666
 431  528.1185
 432  435.6478
 433  293.4005
 434  323.3681
 435  314.614
 436  370.5001
 437  442.7695
 438  451.9143
 439  475.3247
 440  572.3069
 441  483.7927
 442  404.4704
 443  401.6208
 444  413.2199
 445  473.2333
 446  462.2494
 447  426.5948
 448  371.4322
 449  431.9991
 450  443.8386
 451  344.3361
 452  451.1966
 453  585.8438
 454  542.7889
 455  581.1439
 456  397.1415
 457  434.49
 458  400.3108
 459  320.3947
 460  325.0161
 461  425.5201
 462  471.2087
 463  364.5772
 464  399.3768
 465  474.1126
 466  302.4767
 467  310.6322
 468  379.4772
 469  308.2325
 470  339.6295
 471  294.2159
 472  279.3128
 473  241.5367
 474  307.0938
 475  365.5913
 476  336.6429
 477  265.8641
 478  295.1246
 479  436.5971
 480  474.7342
 481  386.2402
 482  457.9216
 483  327.9016
 484  297.5428
 485  384.5488
 486  445.0601
 487  385.5231
 488  469.6799
 489  503.6227
 490  512.4495
 491  532.774
 492  416.5344
 493  465.5395
 494  451.7073
 495  482.0332
 496  539.4827
 497  356.9711
 498  311.9176
 499  320.6845
 500  411.5416
 501  539.6937
 502  418.3969
 503  388.4387
 504  556.7941
 505  549.6588
 506  595.7971
 507  609.8226
 508  716.132
 509  834.8171
 510  954.2197
 511  1164.307
