# Input file       =  1208325940.125452_cleaned.dat
# Candidate        =  PSR_0332+5434
# Telescope        =  AR
# Epoch_topo       =  58229.253728303840
# Epoch_bary       =  N/A
# T_sample         =  0.002
# Data Folded      =  7208960
# Data Avg         =  0.0263019818842704
# Data StdDev      =  1.00002620841262 
# Profile Bins     =  512
# Profile Avg      =  370.290349408141 
# Profile StdDev   =  118.66228566217  
# Reduced chi-sqr  =  2.238
# Prob(Noise)      <  2.18e-50   (~14.9 sigma)
# P_topo (ms)      =  714.555146933888  +/- 5.63e-05
# P'_topo (s/s)    =  -0                +/- 3.02e-11
# P''_topo (s/s^2) =  0                 +/- 1.36e-14
# P_bary (ms)      =  N/A
# P'_bary (s/s)    =  N/A
# P''_bary (s/s^2) =  N/A
# P_orb (s)        =  N/A
# asin(i)/c (s)    =  N/A
# eccentricity     =  N/A
# w (rad)          =  N/A
# T_peri           =  N/A
######################################################
   0  1213.771
   1  1044.891
   2  824.0705
   3  559.5643
   4  423.0619
   5  437.4836
   6  386.2692
   7  419.1869
   8  164.9132
   9  207.7588
  10  267.1581
  11  494.9058
  12  612.52
  13  638.4745
  14  705.6396
  15  503.6228
  16  357.449
  17  273.1602
  18  289.6049
  19  309.9971
  20  383.4611
  21  543.1911
  22  460.6736
  23  340.7492
  24  262.4779
  25  273.7009
  26  291.2949
  27  269.7456
  28  461.3775
  29  507.6651
  30  643.313
  31  404.5879
  32  342.6747
  33  280.8434
  34  360.6876
  35  405.2644
  36  364.7058
  37  367.11
  38  423.9269
  39  441.8274
  40  335.8152
  41  249.5518
  42  395.7497
  43  394.6904
  44  348.0793
  45  452.024
  46  507.0925
  47  395.9693
  48  361.8173
  49  270.1183
  50  358.6333
  51  435.9956
  52  371.5087
  53  325.1262
  54  405.2393
  55  542.5153
  56  453.4763
  57  289.5093
  58  331.545
  59  375.0933
  60  332.4575
  61  412.253
  62  346.8261
  63  228.5983
  64  357.1726
  65  303.1242
  66  159.6906
  67  172.4138
  68  318.6934
  69  282.1606
  70  438.0806
  71  378.5968
  72  355.5316
  73  408.4096
  74  285.0349
  75  189.6011
  76  199.6726
  77  328.6347
  78  297.9872
  79  331.1275
  80  303.0907
  81  275.2986
  82  253.9647
  83  257.0512
  84  220.8101
  85  295.9571
  86  247.5332
  87  306.8863
  88  367.2211
  89  319.842
  90  380.1471
  91  276.8794
  92  186.8559
  93  139.457
  94  144.8887
  95  338.6451
  96  300.4605
  97  259.21
  98  178.4156
  99  145.5433
 100  177.6914
 101  211.2956
 102  249.4862
 103  320.7909
 104  410.2358
 105  246.2085
 106  341.1933
 107  283.528
 108  265.8436
 109  252.6507
 110  307.1059
 111  299.1021
 112  278.2177
 113  399.2405
 114  276.1075
 115  154.8922
 116  68.1373
 117  208.1914
 118  242.8468
 119  220.2302
 120  347.357
 121  347.8293
 122  336.7845
 123  383.0054
 124  182.2677
 125  297.016
 126  308.1279
 127  222.2548
 128  257.2098
 129  391.4141
 130  407.7232
 131  388.1858
 132  463.1292
 133  380.7542
 134  240.9248
 135  237.2586
 136  370.1083
 137  421.2773
 138  357.7736
 139  314.1086
 140  210.8306
 141  295.6425
 142  374.5726
 143  371.6627
 144  344.2661
 145  394.7986
 146  465.9586
 147  454.3936
 148  359.6577
 149  296.3737
 150  365.4831
 151  488.1841
 152  474.4811
 153  423.8903
 154  477.4922
 155  481.7973
 156  438.4293
 157  429.1822
 158  443.8076
 159  450.2857
 160  539.3853
 161  482.8352
 162  444.693
 163  539.2614
 164  508.5087
 165  345.4943
 166  320.661
 167  211.4191
 168  331.2109
 169  435.5869
 170  508.1779
 171  432.4874
 172  387.8928
 173  363.2931
 174  338.5691
 175  353.0726
 176  237.3212
 177  397.0255
 178  540.5186
 179  503.9241
 180  315.1041
 181  268.8907
 182  255.3805
 183  285.5471
 184  371.8715
 185  348.6448
 186  430.0291
 187  376.0382
 188  275.2674
 189  255.6862
 190  322.1892
 191  292.0497
 192  330.4043
 193  480.498
 194  588.2504
 195  463.0909
 196  349.4556
 197  320.9149
 198  247.8225
 199  123.7021
 200  187.6304
 201  367.1638
 202  488.623
 203  516.7614
 204  545.7593
 205  419.2772
 206  325.4572
 207  319.858
 208  254.8215
 209  303.7171
 210  420.15
 211  214.3914
 212  318.2544
 213  463.5847
 214  315.4196
 215  342.2789
 216  381.3463
 217  332.7791
 218  452.6551
 219  539.0773
 220  576.4526
 221  551.8395
 222  418.3907
 223  335.832
 224  398.7756
 225  437.0575
 226  407.055
 227  399.9564
 228  421.1562
 229  370.2851
 230  376.4771
 231  380.9172
 232  471.4356
 233  405.4304
 234  365.5822
 235  470.5865
 236  553.6788
 237  464.5043
 238  460.8053
 239  396.8032
 240  349.6833
 241  320.4275
 242  323.3987
 243  430.6643
 244  226.0993
 245  243.2697
 246  377.4174
 247  390.1301
 248  357.7834
 249  254.4619
 250  294.7134
 251  390.9226
 252  441.8299
 253  478.3547
 254  343.1669
 255  289.0815
 256  269.7844
 257  343.671
 258  310.9329
 259  337.5621
 260  350.0747
 261  340.3052
 262  207.0386
 263  129.3839
 264  165.1112
 265  246.948
 266  200.1272
 267  207.1615
 268  310.3106
 269  446.2875
 270  332.5381
 271  245.6811
 272  330.7937
 273  303.4843
 274  131.3952
 275  234.8264
 276  308.6215
 277  381.3419
 278  363.4321
 279  350.6328
 280  252.9269
 281  285.3465
 282  198.5274
 283  118.5464
 284  358.8136
 285  349.5859
 286  407.3428
 287  312.9024
 288  288.791
 289  237.7916
 290  261.7616
 291  391.9446
 292  398.1324
 293  326.7003
 294  341.1166
 295  483.696
 296  482.5882
 297  427.391
 298  288.7162
 299  259.7566
 300  337.1044
 301  268.4199
 302  363.4422
 303  439.515
 304  415.9073
 305  301.1898
 306  318.2646
 307  437.3486
 308  396.7339
 309  270.2733
 310  385.5031
 311  418.7951
 312  369.7927
 313  351.1689
 314  190.7616
 315  280.7292
 316  307.9838
 317  330.0177
 318  391.2923
 319  350.8715
 320  306.6189
 321  304.5691
 322  358.9303
 323  379.7435
 324  342.406
 325  328.2258
 326  416.5677
 327  411.3149
 328  352.4901
 329  303.7617
 330  190.0085
 331  335.1735
 332  456.9586
 333  413.346
 334  340.9623
 335  445.9009
 336  400.2907
 337  317.7806
 338  308.8793
 339  409.4618
 340  444.0607
 341  533.3376
 342  430.0183
 343  406.938
 344  389.8055
 345  350.9398
 346  355.2446
 347  279.0274
 348  220.7441
 349  235.5721
 350  377.3115
 351  423.2982
 352  381.259
 353  370.0378
 354  393.6133
 355  400.9756
 356  454.5692
 357  315.3509
 358  271.8738
 359  369.8222
 360  335.787
 361  364.3262
 362  361.7948
 363  388.7998
 364  337.0016
 365  133.6169
 366  182.865
 367  380.7831
 368  377.6003
 369  576.0891
 370  425.2576
 371  303.869
 372  195.4886
 373  236.4672
 374  392.1441
 375  454.7875
 376  470.9581
 377  375.6366
 378  380.8345
 379  377.3677
 380  315.0687
 381  345.939
 382  363.1577
 383  348.0758
 384  406.8327
 385  589.0319
 386  621.9814
 387  512.1296
 388  276.609
 389  291.2525
 390  389.8868
 391  339.822
 392  428.3121
 393  496.9786
 394  508.3148
 395  464.3745
 396  295.0786
 397  329.001
 398  400.8268
 399  401.7683
 400  382.593
 401  459.0137
 402  436.6447
 403  388.493
 404  507.3083
 405  494.2963
 406  433.1456
 407  418.8634
 408  452.4715
 409  440.0861
 410  443.8697
 411  441.0409
 412  354.359
 413  409.0565
 414  373.3413
 415  408.3855
 416  447.7676
 417  491.0801
 418  377.9171
 419  325.956
 420  390.2888
 421  347.0714
 422  284.0473
 423  301.296
 424  369.6172
 425  501.2946
 426  581.4398
 427  562.5327
 428  254.8686
 429  242.0775
 430  246.1351
 431  324.4521
 432  374.9765
 433  448.9823
 434  396.1549
 435  391.5601
 436  593.0649
 437  539.7023
 438  368.5731
 439  325.1232
 440  305.7981
 441  482.0483
 442  502.7661
 443  412.6814
 444  346.435
 445  261.1254
 446  370.274
 447  480.539
 448  349.1096
 449  401.3656
 450  469.6669
 451  462.57
 452  500.107
 453  571.4191
 454  359.0609
 455  267.8013
 456  287.4065
 457  315.7697
 458  342.4873
 459  458.3327
 460  450.4929
 461  499.8115
 462  385.4981
 463  331.0078
 464  256.229
 465  399.156
 466  459.7746
 467  495.6559
 468  462.7013
 469  395.1717
 470  385.8048
 471  323.7005
 472  292.3141
 473  388.1728
 474  387.4341
 475  481.0008
 476  415.7431
 477  416.2311
 478  297.6547
 479  216.5249
 480  293.5494
 481  312.8223
 482  356.0519
 483  304.281
 484  256.6935
 485  388.0927
 486  479.6319
 487  320.7185
 488  315.3385
 489  419.1795
 490  435.5349
 491  494.7289
 492  441.7037
 493  416.5098
 494  354.2294
 495  259.1041
 496  282.2274
 497  199.2347
 498  284.5322
 499  250.1094
 500  280.433
 501  145.7431
 502  263.7994
 503  402.9138
 504  372.7656
 505  459.2547
 506  511.5887
 507  608.7693
 508  761.5794
 509  963.3218
 510  1244.035
 511  1345.486
