# Input file       =  1208498346.111598_cleaned.dat
# Candidate        =  PSR_0332+5434
# Telescope        =  AR
# Epoch_topo       =  58231.249167958311
# Epoch_bary       =  N/A
# T_sample         =  0.002
# Data Folded      =  7208960
# Data Avg         =  0.0299575849172529
# Data StdDev      =  1.00020954804028 
# Profile Bins     =  512
# Profile Avg      =  421.820182146706 
# Profile StdDev   =  118.684040591279 
# Reduced chi-sqr  =  1.753
# Prob(Noise)      <  1.85e-23   (~9.9 sigma)
# P_topo (ms)      =  714.553473860053  +/- 0.000139
# P'_topo (s/s)    =  -0                +/- 7.44e-11
# P''_topo (s/s^2) =  0                 +/- 3.35e-14
# P_bary (ms)      =  N/A
# P'_bary (s/s)    =  N/A
# P''_bary (s/s^2) =  N/A
# P_orb (s)        =  N/A
# asin(i)/c (s)    =  N/A
# eccentricity     =  N/A
# w (rad)          =  N/A
# T_peri           =  N/A
######################################################
   0  1293.275
   1  1210.199
   2  912.1774
   3  622.7103
   4  523.7687
   5  497.4087
   6  487.3885
   7  501.1487
   8  400.0663
   9  322.1064
  10  248.6446
  11  429.7467
  12  559.4277
  13  447.8089
  14  398.5644
  15  534.6036
  16  520.2125
  17  431.5095
  18  418.2006
  19  425.3067
  20  480.8123
  21  467.5984
  22  461.294
  23  484.257
  24  306.1697
  25  188.3807
  26  286.8415
  27  560.7562
  28  591.8466
  29  438.491
  30  387.7962
  31  469.2969
  32  412.9274
  33  450.9904
  34  528.4224
  35  534.0678
  36  509.7136
  37  320.1262
  38  292.0783
  39  325.9515
  40  337.1704
  41  327.4783
  42  437.0219
  43  542.2425
  44  478.3092
  45  463.7037
  46  415.6367
  47  346.5802
  48  291.5902
  49  355.1765
  50  498.9358
  51  363.3933
  52  425.091
  53  422.3792
  54  394.2998
  55  360.779
  56  257.9496
  57  402.5849
  58  430.7524
  59  347.5215
  60  308.8813
  61  330.5959
  62  456.1444
  63  465.9664
  64  425.9493
  65  384.4244
  66  403.3408
  67  345.333
  68  282.6298
  69  343.3516
  70  401.894
  71  250.2351
  72  265.5775
  73  294.8394
  74  327.5329
  75  375.5941
  76  381.2092
  77  380.6557
  78  207.51
  79  299.5626
  80  383.211
  81  465.2336
  82  351.9941
  83  332.3579
  84  341.7451
  85  340.8343
  86  244.9113
  87  302.4866
  88  367.2852
  89  326.5743
  90  358.9791
  91  389.1286
  92  545.2788
  93  398.0436
  94  364.4344
  95  413.2475
  96  512.6577
  97  461.4772
  98  488.3568
  99  373.5185
 100  377.7647
 101  474.6535
 102  483.9216
 103  406.6093
 104  346.1616
 105  409.4109
 106  410.665
 107  360.4247
 108  383.8574
 109  416.8535
 110  439.7357
 111  370.5981
 112  350.4148
 113  425.0488
 114  541.4104
 115  648.4954
 116  474.7776
 117  436.4959
 118  424.898
 119  383.5994
 120  482.4518
 121  524.0185
 122  420.657
 123  398.9556
 124  389.3
 125  340.5624
 126  489.9879
 127  636.3676
 128  552.5165
 129  459.6454
 130  439.4333
 131  428.3705
 132  338.8376
 133  282.7163
 134  362.7818
 135  338.3048
 136  302.4387
 137  258.6159
 138  373.4773
 139  474.4535
 140  444.6099
 141  362.6274
 142  337.3951
 143  431.0529
 144  432.0439
 145  451.5877
 146  360.7743
 147  414.3175
 148  344.6949
 149  332.097
 150  470.1102
 151  445.6736
 152  365.3069
 153  300.8718
 154  380.3321
 155  315.3412
 156  385.6625
 157  371.4894
 158  346.2398
 159  345.3788
 160  319.0668
 161  329.2694
 162  301.1144
 163  326.7924
 164  466.1667
 165  360.9532
 166  329.1315
 167  381.3833
 168  415.1642
 169  373.3398
 170  345.8343
 171  235.2353
 172  296.9323
 173  400.2621
 174  413.8045
 175  339.0482
 176  357.7662
 177  291.6714
 178  314.9229
 179  423.3911
 180  452.3225
 181  494.1849
 182  482.6581
 183  536.5474
 184  529.5488
 185  520.947
 186  464.186
 187  421.7409
 188  523.8455
 189  524.2365
 190  497.6199
 191  438.3364
 192  479.2359
 193  542.5283
 194  570.7038
 195  465.7434
 196  536.7809
 197  532.5385
 198  553.7621
 199  517.4919
 200  477.5555
 201  476.1642
 202  361.5861
 203  395.4992
 204  331.3252
 205  293.7028
 206  306.3577
 207  211.0573
 208  376.4859
 209  388.6247
 210  395.8415
 211  381.6522
 212  361.9339
 213  373.0427
 214  503.807
 215  486.0898
 216  396.549
 217  401.9272
 218  497.0128
 219  399.1152
 220  373.9694
 221  352.9847
 222  309.4037
 223  372.1066
 224  462.6954
 225  448.5483
 226  550.419
 227  521.9343
 228  474.1558
 229  416.7362
 230  405.2334
 231  313.2868
 232  276.0003
 233  269.1425
 234  359.576
 235  474.5936
 236  463.6325
 237  439.8584
 238  323.2295
 239  98.80038
 240  227.8718
 241  307.1601
 242  334.4146
 243  364.8332
 244  506.6786
 245  427.9012
 246  402.4626
 247  355.0077
 248  451.0446
 249  476.2804
 250  499.4847
 251  415.3057
 252  485.133
 253  346.7972
 254  222.7712
 255  280.8904
 256  297.7473
 257  251.5561
 258  248.3186
 259  303.2993
 260  386.1311
 261  440.0675
 262  593.5043
 263  549.6593
 264  408.1818
 265  312.739
 266  362.5595
 267  409.8595
 268  248.7395
 269  307.2163
 270  403.2705
 271  405.4841
 272  424.0633
 273  326.7054
 274  399.1823
 275  421.0365
 276  354.5557
 277  301.4725
 278  222.5322
 279  416.2618
 280  541.4803
 281  336.457
 282  322.9793
 283  421.2976
 284  313.8392
 285  206.3013
 286  335.826
 287  324.7916
 288  378.4817
 289  472.9245
 290  423.4611
 291  434.7693
 292  329.348
 293  308.2122
 294  404.7603
 295  451.0177
 296  514.1702
 297  411.8682
 298  442.6784
 299  513.0142
 300  537.5234
 301  494.265
 302  390.2698
 303  434.0638
 304  481.9348
 305  481.7958
 306  315.6606
 307  327.7768
 308  333.1306
 309  403.6597
 310  336.7461
 311  340.8064
 312  481.6902
 313  389.1153
 314  278.1537
 315  454.6614
 316  450.8479
 317  446.3256
 318  305.2303
 319  419.5644
 320  488.5334
 321  422.7353
 322  409.4074
 323  417.9722
 324  371.1877
 325  307.3058
 326  301.025
 327  451.8
 328  568.587
 329  577.2234
 330  432.6114
 331  376.8784
 332  442.8673
 333  476.9394
 334  454.2589
 335  235.2849
 336  275.8666
 337  385.4356
 338  422.1967
 339  377.4734
 340  440.5168
 341  523.9314
 342  435.9103
 343  417.3755
 344  447.1857
 345  445.8621
 346  521.3537
 347  429.3941
 348  406.0959
 349  440.9308
 350  473.9218
 351  430.0583
 352  486.8064
 353  499.3182
 354  415.8339
 355  249.4293
 356  227.0093
 357  297.9674
 358  349.0494
 359  397.006
 360  418.4501
 361  406.6164
 362  446.284
 363  420.5397
 364  469.8365
 365  550.7867
 366  458.5474
 367  537.298
 368  385.3148
 369  404.0167
 370  443.4049
 371  364.6968
 372  440.2688
 373  485.8476
 374  434.7287
 375  556.0568
 376  550.7687
 377  486.2454
 378  423.0481
 379  538.3336
 380  631.4579
 381  590.3295
 382  431.3458
 383  432.9073
 384  526.705
 385  437.2442
 386  266.9179
 387  278.2258
 388  307.2257
 389  398.3666
 390  499.2941
 391  560.2671
 392  448.7867
 393  409.3731
 394  430.9857
 395  383.0619
 396  358.4644
 397  515.613
 398  447.7636
 399  488.8277
 400  409.3775
 401  464.2184
 402  490.6432
 403  591.1568
 404  539.851
 405  398.2724
 406  289.2456
 407  386.7547
 408  434.013
 409  504.4886
 410  561.4155
 411  597.2329
 412  496.8449
 413  556.1943
 414  499.6296
 415  439.9752
 416  445.2224
 417  292.3216
 418  279.7558
 419  309.1328
 420  431.3462
 421  437.6482
 422  375.6143
 423  310.0448
 424  518.035
 425  600.9955
 426  537.366
 427  494.3279
 428  380.3345
 429  456.6009
 430  416.6804
 431  394.3579
 432  358.1857
 433  235.6312
 434  314.625
 435  316.9755
 436  148.9023
 437  354.0116
 438  483.8351
 439  419.7
 440  340.2166
 441  397.6032
 442  464.0758
 443  373.2892
 444  400.5771
 445  485.9274
 446  585.0043
 447  490.2744
 448  357.5164
 449  480.7412
 450  426.1284
 451  514.318
 452  533.2593
 453  656.887
 454  489.5991
 455  307.5004
 456  394.0076
 457  472.9635
 458  501.2823
 459  424.2961
 460  465.8016
 461  477.4962
 462  549.5879
 463  454.476
 464  396.7701
 465  561.8733
 466  503.7923
 467  334.721
 468  397.0963
 469  415.8893
 470  385.9096
 471  333.3107
 472  384.6659
 473  427.2549
 474  380.2239
 475  468.0981
 476  603.0797
 477  505.0101
 478  556.5504
 479  493.8536
 480  411.0865
 481  468.4069
 482  391.0578
 483  443.4235
 484  483.8226
 485  495.4346
 486  482.6181
 487  310.8086
 488  170.529
 489  394.2503
 490  478.377
 491  496.9431
 492  382.2906
 493  511.3723
 494  550.4403
 495  423.6195
 496  416.5579
 497  361.9875
 498  431.6258
 499  374.761
 500  492.1755
 501  432.5401
 502  396.3502
 503  523.2808
 504  599.3455
 505  531.4648
 506  565.8345
 507  471.1472
 508  470.5652
 509  759.1406
 510  1010.376
 511  1195.715
