# Input file       =  1208183128.111974_cleaned.dat
# Candidate        =  PSR_0332+5434
# Telescope        =  AR
# Epoch_topo       =  58227.600811481178
# Epoch_bary       =  N/A
# T_sample         =  0.002
# Data Folded      =  7340032
# Data Avg         =  0.0253201240296981
# Data StdDev      =  1.00008060291968 
# Profile Bins     =  512
# Profile Avg      =  363.036425469935 
# Profile StdDev   =  119.74268720908  
# Reduced chi-sqr  =  1.362
# Prob(Noise)      <  8.84e-08   (~5.2 sigma)
# P_topo (ms)      =  714.556865138716  +/- 0.000372
# P'_topo (s/s)    =  -0                +/- 1.96e-10
# P''_topo (s/s^2) =  0                 +/- 8.66e-14
# P_bary (ms)      =  N/A
# P'_bary (s/s)    =  N/A
# P''_bary (s/s^2) =  N/A
# P_orb (s)        =  N/A
# asin(i)/c (s)    =  N/A
# eccentricity     =  N/A
# w (rad)          =  N/A
# T_peri           =  N/A
######################################################
   0  1010.759
   1  1018.945
   2  862.1071
   3  622.646
   4  439.6296
   5  456.4231
   6  385.1952
   7  417.1852
   8  443.7909
   9  424.4252
  10  439.3102
  11  426.0576
  12  531.9731
  13  555.6688
  14  604.6606
  15  623.2227
  16  578.7841
  17  534.9456
  18  442.1082
  19  460.2473
  20  494.3016
  21  471.4278
  22  437.3531
  23  440.8084
  24  425.6863
  25  363.0405
  26  390.4167
  27  431.3203
  28  440.7946
  29  402.6202
  30  431.4761
  31  431.8402
  32  435.76
  33  400.0347
  34  303.097
  35  300.0672
  36  337.0022
  37  232.312
  38  194.1457
  39  340.9546
  40  319.5654
  41  240.012
  42  390.0034
  43  352.7086
  44  356.484
  45  309.0231
  46  319.504
  47  278.308
  48  223.6785
  49  217.7783
  50  244.3736
  51  270.9294
  52  363.0751
  53  336.3347
  54  371.1025
  55  334.4706
  56  209.2202
  57  194.4244
  58  291.2842
  59  298.2953
  60  197.2236
  61  203.5143
  62  162.105
  63  308.6015
  64  322.8734
  65  322.9884
  66  276.8886
  67  231.8152
  68  239.5997
  69  274.4716
  70  373.211
  71  397.6367
  72  382.138
  73  290.8309
  74  189.4441
  75  264.5599
  76  305.5281
  77  339.0203
  78  329.6605
  79  384.2558
  80  360.5542
  81  356.0371
  82  416.0677
  83  270.5984
  84  289.3495
  85  435.8459
  86  324.3943
  87  383.0361
  88  421.471
  89  375.3232
  90  374.7638
  91  275.6709
  92  393.3073
  93  405.4388
  94  319.9971
  95  272.559
  96  478.2969
  97  499.4964
  98  414.9661
  99  375.8209
 100  499.7164
 101  416.6205
 102  399.0167
 103  441.3086
 104  490.0147
 105  446.0406
 106  436.6168
 107  523.9875
 108  345.5304
 109  320.889
 110  386.0149
 111  446.3917
 112  345.2711
 113  217.4748
 114  315.9653
 115  344.6421
 116  382.049
 117  379.9727
 118  244.5939
 119  249.3084
 120  396.1695
 121  368.1877
 122  303.1998
 123  215.7959
 124  212.4846
 125  285.5762
 126  388.3502
 127  401.1292
 128  389.5363
 129  389.8011
 130  330.2446
 131  274.95
 132  407.3418
 133  344.2598
 134  227.1785
 135  250.5259
 136  384.2434
 137  519.8112
 138  488.8533
 139  351.1674
 140  267.6345
 141  359.543
 142  460.0377
 143  495.4357
 144  326.6746
 145  382.8799
 146  382.2145
 147  366.7975
 148  330.6387
 149  337.1294
 150  338.0758
 151  404.3939
 152  436.5216
 153  489.3983
 154  477.308
 155  438.6417
 156  436.6078
 157  442.2326
 158  322.8011
 159  374.4748
 160  503.3967
 161  439.3331
 162  267.1616
 163  266.538
 164  448.0156
 165  435.506
 166  418.7261
 167  392.1449
 168  436.8933
 169  274.2643
 170  314.2554
 171  369.0397
 172  320.2664
 173  390.7923
 174  434.3782
 175  388.6572
 176  247.4945
 177  186.5448
 178  313.5669
 179  432.6223
 180  368.5306
 181  202.5739
 182  296.2456
 183  421.5608
 184  391.8879
 185  303.5377
 186  268.0213
 187  435.3758
 188  357.1402
 189  197.6246
 190  257.4788
 191  307.8091
 192  329.5903
 193  411.7658
 194  380.1091
 195  306.086
 196  330.5791
 197  364.4448
 198  446.0995
 199  487.9758
 200  485.6539
 201  381.6885
 202  219.9752
 203  255.2683
 204  423.8243
 205  332.4284
 206  280.2273
 207  398.6467
 208  436.3802
 209  367.337
 210  336.3171
 211  320.57
 212  407.1938
 213  396.6972
 214  459.1874
 215  286.8653
 216  322.4194
 217  440.9987
 218  404.2621
 219  571.3349
 220  504.3107
 221  484.6639
 222  420.093
 223  471.6745
 224  540.4251
 225  433.449
 226  484.2643
 227  475.2912
 228  470.187
 229  422.0528
 230  338.2751
 231  457.9075
 232  492.4619
 233  422.5985
 234  342.4744
 235  155.8072
 236  221.5205
 237  211.1755
 238  398.1143
 239  509.3063
 240  383.2818
 241  405.1799
 242  341.7068
 243  339.2392
 244  354.062
 245  329.3385
 246  367.9949
 247  385.1821
 248  369.4838
 249  410.2519
 250  538.9399
 251  532.0015
 252  436.407
 253  402.9837
 254  331.0008
 255  314.7432
 256  374.5645
 257  448.724
 258  379.5882
 259  483.2714
 260  410.4732
 261  437.0161
 262  392.5169
 263  444.2878
 264  443.7534
 265  338.2325
 266  343.3503
 267  400.1022
 268  513.3611
 269  448.7486
 270  331.4528
 271  322.0054
 272  406.5028
 273  333.836
 274  261.0835
 275  308.6436
 276  368.2088
 277  367.7831
 278  346.8572
 279  466.8508
 280  427.433
 281  344.5249
 282  357.795
 283  328.0902
 284  313.2957
 285  424.0192
 286  401.2208
 287  399.9571
 288  480.2048
 289  508.4426
 290  354.0685
 291  198.9267
 292  265.4104
 293  382.4198
 294  393.9671
 295  359.1181
 296  320.814
 297  281.1864
 298  344.9375
 299  347.5633
 300  373.6833
 301  310.8494
 302  269.187
 303  315.8251
 304  328.1949
 305  246.192
 306  312.2419
 307  396.2667
 308  335.9857
 309  372.1608
 310  312.9661
 311  254.9312
 312  331.161
 313  210.6191
 314  235.1509
 315  275.7032
 316  345.2784
 317  268.6331
 318  371.0046
 319  431.9737
 320  413.2239
 321  301.8981
 322  340.8756
 323  384.6692
 324  386.9131
 325  344.9484
 326  325.3227
 327  367.7399
 328  401.8546
 329  293.6865
 330  222.7307
 331  216.3189
 332  247.4332
 333  257.7935
 334  252.7451
 335  294.6521
 336  144.7603
 337  215.4608
 338  272.4516
 339  261.7158
 340  230.8003
 341  179.3745
 342  219.5319
 343  289.1502
 344  243.4014
 345  240.2801
 346  201.1919
 347  322.0822
 348  308.9591
 349  354.5601
 350  338.5678
 351  279.243
 352  224.2012
 353  294.1492
 354  279.2103
 355  317.864
 356  369.6136
 357  328.0026
 358  253.7945
 359  465.8448
 360  340.6157
 361  357.1072
 362  285.7842
 363  276.568
 364  300.337
 365  369.4442
 366  392.5214
 367  400.9621
 368  361.2045
 369  359.018
 370  394.4977
 371  357.9743
 372  289.9208
 373  285.9019
 374  338.5275
 375  305.3077
 376  228.512
 377  235.2042
 378  196.5835
 379  305.1698
 380  410.4123
 381  424.2277
 382  346.3398
 383  376.9352
 384  341.3741
 385  196.3455
 386  319.4092
 387  347.3108
 388  410.4215
 389  342.7477
 390  262.0302
 391  346.9796
 392  360.8372
 393  314.9391
 394  370.6323
 395  380.493
 396  275.3207
 397  376.7222
 398  473.2997
 399  363.1658
 400  327.7578
 401  296.5309
 402  289.9877
 403  314.4588
 404  328.9558
 405  377.9393
 406  365.4586
 407  375.2345
 408  394.5594
 409  380.1639
 410  436.9769
 411  384.4098
 412  301.0037
 413  290.378
 414  217.3953
 415  293.8232
 416  342.8499
 417  458.2147
 418  408.2206
 419  431.1664
 420  366.1998
 421  211.8802
 422  270.8354
 423  331.838
 424  352.8444
 425  293.3606
 426  363.3879
 427  280.0313
 428  215.4357
 429  318.2191
 430  431.8817
 431  435.7901
 432  343.0966
 433  318.8127
 434  329.4472
 435  298.2138
 436  361.394
 437  362.9208
 438  276.8106
 439  327.7813
 440  352.484
 441  333.4805
 442  298.2486
 443  261.2641
 444  262.3062
 445  208.7612
 446  241.5757
 447  314.9701
 448  315.2428
 449  355.6424
 450  403.6053
 451  401.6629
 452  284.8028
 453  249.184
 454  265.1279
 455  284.8068
 456  392.6213
 457  472.2384
 458  436.4024
 459  378.0682
 460  322.8496
 461  367.0009
 462  431.8078
 463  394.9297
 464  397.2894
 465  337.6793
 466  232.2774
 467  259.2049
 468  295.7277
 469  306.8365
 470  364.6073
 471  436.849
 472  429.7343
 473  365.1906
 474  358.3679
 475  290.5421
 476  404.1008
 477  393.4151
 478  381.5438
 479  227.3509
 480  233.7302
 481  338.5039
 482  314.8078
 483  423.5614
 484  432.2122
 485  467.9068
 486  435.5712
 487  254.7194
 488  259.6671
 489  427.4459
 490  413.3544
 491  330.7678
 492  287.2831
 493  373.2146
 494  454.6349
 495  391.449
 496  391.3552
 497  489.2196
 498  535.4835
 499  482.7181
 500  435.8489
 501  406.1098
 502  476.1878
 503  435.7668
 504  550.0634
 505  467.2555
 506  380.0466
 507  349.7471
 508  446.4845
 509  636.0032
 510  871.7796
 511  914.2319
