# Input file       =  1208096954.114999_cleaned.dat
# Candidate        =  PSR_0332+5434
# Telescope        =  AR
# Epoch_topo       =  58226.603427256930
# Epoch_bary       =  N/A
# T_sample         =  0.002
# Data Folded      =  7340032
# Data Avg         =  0.027292612580836
# Data StdDev      =  1.00008203724922 
# Profile Bins     =  512
# Profile Avg      =  391.279235011025 
# Profile StdDev   =  119.742858945712 
# Reduced chi-sqr  =  1.111
# Prob(Noise)      <  0.0417   (~1.7 sigma)
# P_topo (ms)      =  714.557673316137  +/- 0.000258
# P'_topo (s/s)    =  -0                +/- 1.36e-10
# P''_topo (s/s^2) =  0                 +/- 6.01e-14
# P_bary (ms)      =  N/A
# P'_bary (s/s)    =  N/A
# P''_bary (s/s^2) =  N/A
# P_orb (s)        =  N/A
# asin(i)/c (s)    =  N/A
# eccentricity     =  N/A
# w (rad)          =  N/A
# T_peri           =  N/A
######################################################
   0  950.9567
   1  842.8519
   2  627.6807
   3  467.4207
   4  399.0904
   5  334.6134
   6  312.9562
   7  248.8808
   8  275.0404
   9  403.2732
  10  367.826
  11  449.2201
  12  444.4651
  13  541.3744
  14  342.1856
  15  366.8586
  16  380.1312
  17  351.9414
  18  396.1008
  19  430.9939
  20  454.0658
  21  414.9771
  22  373.6402
  23  348.4053
  24  360.5361
  25  375.4131
  26  515.6917
  27  535.7253
  28  467.1443
  29  320.4359
  30  454.1255
  31  486.9229
  32  471.4445
  33  446.5174
  34  365.0315
  35  397.722
  36  457.9659
  37  444.1307
  38  375.0002
  39  433.0598
  40  451.945
  41  474.1062
  42  331.004
  43  302.5711
  44  365.7178
  45  311.1097
  46  257.0206
  47  363.9065
  48  378.5012
  49  449.8941
  50  455.2794
  51  398.2946
  52  390.2233
  53  382.557
  54  333.4546
  55  300.8601
  56  378.387
  57  374.853
  58  428.2117
  59  418.9832
  60  422.3778
  61  431.1035
  62  416.8074
  63  448.1228
  64  326.3321
  65  347.4699
  66  369.613
  67  242.9478
  68  345.6473
  69  314.1791
  70  345.0721
  71  383.1649
  72  342.5544
  73  411.144
  74  404.4249
  75  347.0613
  76  341.0382
  77  310.5451
  78  333.8866
  79  271.9338
  80  320.9984
  81  458.9163
  82  377.3336
  83  357.4582
  84  335.4789
  85  354.6664
  86  382.7917
  87  320.2977
  88  327.5946
  89  323.7771
  90  356.9073
  91  383.117
  92  393.6264
  93  432.1616
  94  316.1572
  95  239.9114
  96  389.4017
  97  342.8063
  98  400.9836
  99  395.4843
 100  341.2638
 101  348.6384
 102  376.4869
 103  335.547
 104  315.2176
 105  433.3911
 106  453.567
 107  413.2036
 108  389.2158
 109  246.9441
 110  330.4042
 111  311.6274
 112  354.0339
 113  422.6211
 114  362.1797
 115  553.5565
 116  517.8118
 117  391.5831
 118  428.5186
 119  318.3946
 120  326.0038
 121  300.3951
 122  331.4976
 123  320.165
 124  272.3146
 125  299.2953
 126  290.7803
 127  335.4697
 128  384.905
 129  378.5159
 130  386.0887
 131  309.5895
 132  255.6264
 133  373.5939
 134  351.839
 135  315.3338
 136  395.4975
 137  345.0453
 138  397.0052
 139  352.997
 140  417.1856
 141  334.5975
 142  411.6706
 143  476.7833
 144  364.7394
 145  334.9904
 146  313.8014
 147  265.8946
 148  382.8711
 149  441.2446
 150  372.6
 151  445.5422
 152  413.864
 153  369.124
 154  456.1247
 155  462.1515
 156  275.5929
 157  426.3808
 158  394.4752
 159  424.7632
 160  346.6935
 161  341.4147
 162  264.364
 163  350.2149
 164  424.722
 165  477.4319
 166  417.0665
 167  390.2394
 168  471.6001
 169  443.4917
 170  463.9701
 171  411.8822
 172  262.197
 173  263.0573
 174  371.0722
 175  430.3923
 176  390.7989
 177  441.3881
 178  362.4728
 179  357.3199
 180  296.4339
 181  315.7218
 182  484.7348
 183  405.3131
 184  284.6081
 185  341.2811
 186  375.937
 187  294.0647
 188  305.2933
 189  343.3605
 190  332.5674
 191  296.0634
 192  333.2668
 193  416.7119
 194  315.4662
 195  283.0714
 196  237.8301
 197  299.2567
 198  201.5847
 199  276.7421
 200  337.4665
 201  332.1235
 202  334.9518
 203  395.459
 204  372.3302
 205  330.9361
 206  304.0542
 207  316.6546
 208  306.1818
 209  296.8324
 210  358.7201
 211  406.09
 212  317.0609
 213  324.0047
 214  358.5084
 215  292.9337
 216  274.3571
 217  351.6585
 218  477.3603
 219  383.5998
 220  356.4164
 221  438.1894
 222  368.3277
 223  405.2128
 224  360.1617
 225  463.3679
 226  391.8582
 227  456.7134
 228  513.1068
 229  409.1086
 230  243.7632
 231  316.6312
 232  354.0831
 233  455.9103
 234  455.9152
 235  389.1675
 236  386.7651
 237  408.8123
 238  338.5238
 239  325.4291
 240  294.7004
 241  325.4336
 242  433.536
 243  452.0586
 244  416.4297
 245  394.5882
 246  466.6858
 247  469.2522
 248  490.4117
 249  445.2808
 250  395.3585
 251  398.534
 252  423.4696
 253  430.813
 254  403.1538
 255  367.9079
 256  426.3208
 257  522.7817
 258  484.0569
 259  393.7364
 260  544.854
 261  474.8863
 262  399.9234
 263  325.793
 264  315.2505
 265  488.2903
 266  626.9321
 267  509.9873
 268  372.9054
 269  338
 270  385.5153
 271  378.196
 272  531.5994
 273  537.6383
 274  356.4199
 275  413.8537
 276  480.6701
 277  420.3486
 278  362.2478
 279  275.3095
 280  361.0863
 281  458.8845
 282  249.7528
 283  251.4026
 284  244.1138
 285  295.5959
 286  324.0705
 287  299.0738
 288  246.7326
 289  259.4023
 290  261.7485
 291  336.7411
 292  176.3063
 293  202.6901
 294  286.9201
 295  268.5934
 296  200.8446
 297  164.335
 298  132.2383
 299  271.7652
 300  328.8434
 301  356.2256
 302  327.9701
 303  331.7357
 304  322.3069
 305  411.0986
 306  358.1447
 307  351.2075
 308  325.0409
 309  288.9763
 310  394.1053
 311  426.9706
 312  556.7262
 313  513.4398
 314  395.0483
 315  395.7371
 316  435.7802
 317  508.5678
 318  539.1216
 319  363.8557
 320  492.6356
 321  611.7455
 322  424.0545
 323  348.9427
 324  345.977
 325  294.5054
 326  290.6974
 327  396.3737
 328  439.6074
 329  283.8367
 330  420.0942
 331  396.6631
 332  377.5088
 333  371.0433
 334  328.3575
 335  374.125
 336  283.848
 337  305.1522
 338  247.1643
 339  389.9581
 340  417.5212
 341  344.0378
 342  374.5011
 343  376.7736
 344  442.4025
 345  415.6477
 346  373.8264
 347  408.9702
 348  356.203
 349  285.3585
 350  273.4564
 351  348.9084
 352  443.7278
 353  320.7892
 354  372.3966
 355  513.4675
 356  474.9925
 357  489.49
 358  616.5425
 359  546.7931
 360  520.6536
 361  433.5258
 362  366.022
 363  381.7345
 364  423.4805
 365  440.0922
 366  376.5389
 367  422.0311
 368  404.7787
 369  374.5867
 370  372.7702
 371  341.1776
 372  366.5677
 373  361.4709
 374  423.4207
 375  464.7957
 376  353.7885
 377  334.6494
 378  318.0414
 379  343.4029
 380  293.179
 381  407.0167
 382  513.2011
 383  503.0493
 384  395.7228
 385  326.6118
 386  355.2447
 387  566.1682
 388  499.8219
 389  471.2639
 390  377.1286
 391  357.7229
 392  345.9886
 393  368.3869
 394  329.0612
 395  401.1624
 396  375.6696
 397  366.9229
 398  457.6575
 399  476.2893
 400  427.6313
 401  516.9669
 402  370.3643
 403  316.3388
 404  305.0843
 405  310.072
 406  291.6752
 407  501.9115
 408  477.3152
 409  459.0504
 410  417.9601
 411  481.8172
 412  415.3586
 413  363.9673
 414  424.2773
 415  415.0635
 416  434.8536
 417  405.1967
 418  430.2663
 419  540.163
 420  585.3795
 421  477.2852
 422  583.6556
 423  518.4522
 424  434.5739
 425  475.6031
 426  424.0115
 427  456.0174
 428  530.7964
 429  426.1559
 430  495.2115
 431  509.2345
 432  443.9409
 433  425.6094
 434  489.369
 435  468.3083
 436  366.9117
 437  422.7957
 438  452.7506
 439  403.1093
 440  402.6248
 441  349.2356
 442  457.7857
 443  534.0217
 444  460.318
 445  441.5814
 446  363.345
 447  358.34
 448  433.9748
 449  436.0539
 450  367.7008
 451  435.6336
 452  419.3946
 453  426.3227
 454  443.911
 455  484.5567
 456  440.646
 457  370.5518
 458  383.8293
 459  438.4121
 460  352.8214
 461  398.7419
 462  474.9512
 463  372.4406
 464  484.0139
 465  519.5291
 466  425.1487
 467  442.9073
 468  400.6169
 469  400.2288
 470  413.8261
 471  447.5909
 472  464.168
 473  380.1498
 474  316.8162
 475  371.4226
 476  331.5638
 477  346.7746
 478  292.6999
 479  261.9156
 480  330.9634
 481  414.5742
 482  433.8258
 483  443.8851
 484  409.0236
 485  406.3728
 486  339.3689
 487  346.8019
 488  341.2322
 489  368.6426
 490  406.7889
 491  398.522
 492  310.7149
 493  348.2328
 494  257.0717
 495  244.2096
 496  371.2428
 497  421.6534
 498  534.8533
 499  406.5247
 500  319.9757
 501  437.9095
 502  528.3131
 503  457.9677
 504  385.524
 505  386.9461
 506  367.4191
 507  385.3326
 508  610.8877
 509  822.0931
 510  929.1672
 511  978.2308
