# Input file       =  1208269331.106611_cleaned.dat
# Candidate        =  PSR_0332+5434
# Telescope        =  AR
# Epoch_topo       =  58228.598531326519
# Epoch_bary       =  N/A
# T_sample         =  0.002
# Data Folded      =  7340032
# Data Avg         =  0.0288453425964468
# Data StdDev      =  1.00006970454748 
# Profile Bins     =  512
# Profile Avg      =  413.450429020036 
# Profile StdDev   =  119.741382313886 
# Reduced chi-sqr  =  1.603
# Prob(Noise)      <  1.14e-16   (~8.2 sigma)
# P_topo (ms)      =  714.556048272997  +/- 0.000268
# P'_topo (s/s)    =  -0                +/- 1.41e-10
# P''_topo (s/s^2) =  0                 +/- 6.24e-14
# P_bary (ms)      =  N/A
# P'_bary (s/s)    =  N/A
# P''_bary (s/s^2) =  N/A
# P_orb (s)        =  N/A
# asin(i)/c (s)    =  N/A
# eccentricity     =  N/A
# w (rad)          =  N/A
# T_peri           =  N/A
######################################################
   0  896.0814
   1  839.5378
   2  818.5551
   3  571.1913
   4  463.6484
   5  376.9601
   6  256.0315
   7  337.642
   8  444.0664
   9  384.4318
  10  341.4398
  11  304.355
  12  331.3474
  13  459.5499
  14  534.8409
  15  389.4737
  16  275.8144
  17  280.7354
  18  268.8989
  19  434.2823
  20  432.7662
  21  409.0392
  22  411.3649
  23  494.591
  24  543.7084
  25  439.7023
  26  525.3347
  27  408.5512
  28  289.1841
  29  433.3637
  30  421.3398
  31  548.3001
  32  520.2955
  33  524.2965
  34  445.4845
  35  426.1949
  36  421.0701
  37  499.096
  38  562.1383
  39  451.7231
  40  381.5613
  41  458.8318
  42  454.4728
  43  492.7466
  44  455.8397
  45  452.154
  46  521.9583
  47  529.9728
  48  487.6904
  49  475.488
  50  430.0081
  51  355.6304
  52  333.8049
  53  328.0512
  54  408.7253
  55  441.582
  56  444.5815
  57  421.9131
  58  377.2502
  59  427.7543
  60  510.1913
  61  520.2599
  62  416.2555
  63  510.739
  64  520.9664
  65  554.2728
  66  450.3842
  67  366.3738
  68  289.1674
  69  170.8977
  70  298.731
  71  314.1084
  72  349.1699
  73  305.0875
  74  286.6639
  75  361.6887
  76  432.0838
  77  463.1744
  78  159.3714
  79  307.1967
  80  353.6238
  81  282.2661
  82  247.5
  83  307.1753
  84  347.7036
  85  262.1142
  86  342.4998
  87  319.7417
  88  320.7711
  89  374.1295
  90  358.8382
  91  310.7612
  92  365.0869
  93  386.0797
  94  349.6758
  95  362.3067
  96  431.9195
  97  369.5104
  98  421.3367
  99  403.8782
 100  494.5999
 101  452.717
 102  333.5249
 103  339.7404
 104  514.975
 105  528.5123
 106  510.1475
 107  534.4663
 108  542.3536
 109  435.2847
 110  460.9661
 111  478.8433
 112  438.9792
 113  314.346
 114  400.5872
 115  424.3528
 116  458.2851
 117  456.7283
 118  404.3479
 119  421.8192
 120  430.7471
 121  502.683
 122  531.113
 123  523.788
 124  463.2261
 125  473.717
 126  511.1987
 127  542.3649
 128  545.405
 129  605.8505
 130  631.9982
 131  524.5026
 132  619.5236
 133  555.1306
 134  520.4366
 135  596.9246
 136  562.3043
 137  514.6041
 138  379.2123
 139  379.1027
 140  486.5931
 141  497.4859
 142  479.3148
 143  289.4488
 144  276.0449
 145  287.8249
 146  303.8982
 147  317.1335
 148  311.5854
 149  378.3319
 150  258.6031
 151  295.1914
 152  379.8293
 153  324.9042
 154  249.3419
 155  271.7426
 156  312.4191
 157  367.1201
 158  404.5321
 159  319.3525
 160  240.6392
 161  330.7599
 162  461.6727
 163  486.0421
 164  439.5011
 165  391.4021
 166  215.2674
 167  157.8909
 168  311.1207
 169  352.3637
 170  358.0287
 171  415.4728
 172  451.0104
 173  260.7641
 174  97.04575
 175  103.7544
 176  237.9692
 177  270.0829
 178  288.2247
 179  388.8403
 180  341.0315
 181  306.0776
 182  345.3109
 183  314.3668
 184  330.3553
 185  364.0757
 186  303.1991
 187  399.1548
 188  374.1825
 189  403.8999
 190  311.489
 191  344.5094
 192  448.9276
 193  430.6747
 194  519.1042
 195  472.9812
 196  470.0622
 197  538.8905
 198  566.4979
 199  514.2036
 200  628.7343
 201  642.9249
 202  530.1095
 203  388.1881
 204  489.1151
 205  638.8918
 206  623.8621
 207  700.432
 208  515.7098
 209  515.4456
 210  506.9287
 211  367.4571
 212  427.025
 213  493.2419
 214  513.2136
 215  394.093
 216  391.6167
 217  387.3616
 218  383.7188
 219  301.9583
 220  287.1791
 221  244.2092
 222  299.3176
 223  263.343
 224  341.8551
 225  321.9385
 226  297.2212
 227  379.9608
 228  345.4737
 229  345.2868
 230  310.2051
 231  331.1737
 232  472.0967
 233  550.8063
 234  445.7487
 235  416.7479
 236  396.5208
 237  437.2573
 238  403.773
 239  435.7087
 240  380.3422
 241  400.8763
 242  298.306
 243  248.8723
 244  359.1854
 245  427.0265
 246  329.0502
 247  386.2943
 248  448.7014
 249  507.0867
 250  397.1444
 251  491.0878
 252  481.7895
 253  382.669
 254  334.181
 255  403.5117
 256  460.2551
 257  364.8409
 258  387.5898
 259  448.8606
 260  444.9319
 261  440.3996
 262  528.2565
 263  530.6841
 264  437.8947
 265  437.0098
 266  485.0184
 267  536.1273
 268  576.1288
 269  524.241
 270  525.8189
 271  582.2057
 272  636.0789
 273  602.8074
 274  533.1244
 275  541.5225
 276  605.2021
 277  526.3378
 278  539.3997
 279  544.4104
 280  544.6486
 281  605.2192
 282  543.0452
 283  442.942
 284  355.0391
 285  428.0491
 286  455.8199
 287  433.9183
 288  398.3567
 289  395.275
 290  338.4345
 291  335.0761
 292  454.552
 293  449.7304
 294  357.8031
 295  235.5815
 296  302.654
 297  355.6165
 298  327.9669
 299  342.7818
 300  409.5357
 301  534.907
 302  390.8568
 303  289.2003
 304  258.1453
 305  417.3918
 306  482.474
 307  473.3176
 308  404.5736
 309  429.3796
 310  516.8013
 311  529.4589
 312  497.6632
 313  599.6309
 314  527.7486
 315  511.5913
 316  467.5034
 317  407.2969
 318  387.8336
 319  442.7336
 320  399.4775
 321  336.705
 322  305.7449
 323  496.2681
 324  568.0067
 325  491.6859
 326  457.9087
 327  357.2856
 328  360.0143
 329  446.0469
 330  461.6063
 331  406.2892
 332  364.1806
 333  401.8774
 334  358.4124
 335  382.613
 336  467.135
 337  412.8491
 338  370.614
 339  431.9088
 340  363.1534
 341  376.7669
 342  499.5702
 343  459.5278
 344  439.0465
 345  439.601
 346  471.6889
 347  506.3474
 348  497.4304
 349  540.5941
 350  433.8221
 351  407.2469
 352  312.7228
 353  416.5228
 354  386.9109
 355  295.3575
 356  234.3586
 357  256.0184
 358  305.4444
 359  316.95
 360  210.4869
 361  272.8515
 362  311.3023
 363  305.9517
 364  316.6867
 365  301.9291
 366  312.2784
 367  216.8712
 368  239.7769
 369  242.1251
 370  251.2161
 371  161.696
 372  98.63661
 373  238.3663
 374  253.6131
 375  233.3338
 376  273.8973
 377  322.9008
 378  280.1499
 379  311.628
 380  313.709
 381  249.4974
 382  294.6503
 383  361.7533
 384  335.1307
 385  267.1611
 386  211.4412
 387  256.2068
 388  278.3922
 389  256.0826
 390  363.2626
 391  271.7614
 392  158.7608
 393  269.9988
 394  279.4873
 395  408.3865
 396  482.9398
 397  448.5269
 398  353.8561
 399  351.7855
 400  413.325
 401  319.9216
 402  450.572
 403  369.4079
 404  373.9086
 405  340.3758
 406  333.3204
 407  410.1574
 408  474.7864
 409  485.458
 410  470.1244
 411  462.0537
 412  485.2306
 413  481.3924
 414  528.9561
 415  366.1878
 416  406.9111
 417  457.4034
 418  536.2972
 419  566.975
 420  594.8315
 421  480.1854
 422  495.3489
 423  450.8987
 424  485.8201
 425  426.6353
 426  472.642
 427  431.5308
 428  411.6406
 429  393.8386
 430  336.4385
 431  330.9105
 432  413.1248
 433  370.9816
 434  457.5548
 435  401.0033
 436  160.0033
 437  231.4832
 438  359.7983
 439  464.4043
 440  411.5149
 441  239.9196
 442  299.9382
 443  366.0873
 444  423.2605
 445  409.0688
 446  445.5621
 447  431.0351
 448  416.472
 449  373.8589
 450  392.8883
 451  325.6341
 452  329.484
 453  341.8204
 454  352.7645
 455  559.5734
 456  517.088
 457  384.7057
 458  392.3882
 459  337.9789
 460  344.1172
 461  294.6652
 462  312.9995
 463  457.8104
 464  603.4515
 465  507.0798
 466  409.503
 467  378.8562
 468  420.9123
 469  491.8542
 470  514.2631
 471  569.4988
 472  428.5872
 473  320.3112
 474  335.8189
 475  391.843
 476  362.6934
 477  403.9688
 478  353.6718
 479  470.8516
 480  353.9518
 481  320.2948
 482  367.0642
 483  359.2861
 484  415.7046
 485  465.1633
 486  572.0042
 487  531.8386
 488  483.9343
 489  501.4709
 490  577.733
 491  576.9553
 492  473.6577
 493  508.4435
 494  534.7028
 495  595.3741
 496  518.8755
 497  500.7179
 498  507.9839
 499  394.7107
 500  430.736
 501  574.2292
 502  539.4752
 503  477.3799
 504  400.8419
 505  462.1109
 506  504.1484
 507  468.0888
 508  525.6246
 509  749.7271
 510  817.7007
 511  858.074
