# Input file       =  1208614060.115285_cleaned.dat
# Candidate        =  PSR_0332+5434
# Telescope        =  AR
# Epoch_topo       =  58232.588450408388
# Epoch_bary       =  N/A
# T_sample         =  0.002
# Data Folded      =  7340032
# Data Avg         =  0.0339105423044897
# Data StdDev      =  1.00006015921408 
# Profile Bins     =  512
# Profile Avg      =  486.023568761915 
# Profile StdDev   =  119.740239422134 
# Reduced chi-sqr  =  1.496
# Prob(Noise)      <  2.16e-12   (~6.9 sigma)
# P_topo (ms)      =  714.552696855309  +/- 0.000241
# P'_topo (s/s)    =  -0                +/- 1.27e-10
# P''_topo (s/s^2) =  0                 +/- 5.62e-14
# P_bary (ms)      =  N/A
# P'_bary (s/s)    =  N/A
# P''_bary (s/s^2) =  N/A
# P_orb (s)        =  N/A
# asin(i)/c (s)    =  N/A
# eccentricity     =  N/A
# w (rad)          =  N/A
# T_peri           =  N/A
######################################################
   0  1214.985
   1  1037.564
   2  1013.719
   3  815.8491
   4  667.7173
   5  552.4017
   6  420.6082
   7  464.9194
   8  540.4736
   9  549.3205
  10  396.5343
  11  470.4515
  12  657.8408
  13  661.0461
  14  620.7845
  15  618.3276
  16  521.735
  17  489.6028
  18  582.9765
  19  602.7775
  20  596.1631
  21  563.4948
  22  478.8964
  23  336.7773
  24  441.5717
  25  377.7616
  26  399.0818
  27  379.8445
  28  363.5336
  29  392.6891
  30  381.7536
  31  304.2131
  32  306.0558
  33  400.7861
  34  450.2187
  35  450.909
  36  421.236
  37  516.1122
  38  477.9388
  39  538.6726
  40  499.3138
  41  434.5037
  42  395.9537
  43  412.777
  44  360.9675
  45  418.2767
  46  582.3047
  47  543.6442
  48  471.7449
  49  446.5608
  50  365.7285
  51  379.7426
  52  418.223
  53  439.537
  54  417.5142
  55  473.3542
  56  494.8452
  57  420.7284
  58  416.1084
  59  313.8263
  60  344.2119
  61  376.7039
  62  434.1848
  63  487.4245
  64  508.5342
  65  532.9136
  66  398.2762
  67  345.9309
  68  353.9063
  69  450.3159
  70  286.3049
  71  346.2583
  72  336.794
  73  479.5054
  74  498.227
  75  506.3937
  76  387.4039
  77  452.4149
  78  424.2652
  79  375.0562
  80  506.4265
  81  384.9222
  82  376.3114
  83  346.6463
  84  402.3053
  85  515.9216
  86  562.22
  87  473.324
  88  486.0482
  89  541.0719
  90  522.243
  91  472.4731
  92  433.0455
  93  486.0211
  94  466.5063
  95  427.9396
  96  518.4085
  97  568.0751
  98  565.3467
  99  513.6707
 100  504.4286
 101  483.0339
 102  427.763
 103  332.6486
 104  454.1158
 105  541.576
 106  489.6553
 107  579.735
 108  553.7153
 109  503.8478
 110  355.021
 111  422.5164
 112  548.249
 113  510.7039
 114  401.3643
 115  406.868
 116  430.9838
 117  530.0082
 118  488.2068
 119  377.4582
 120  342.6066
 121  397.8647
 122  490.6931
 123  471.6758
 124  462.5565
 125  517.4228
 126  393.7288
 127  422.4431
 128  519.6314
 129  444.3945
 130  500.7099
 131  547.2967
 132  396.2525
 133  273.0191
 134  385.4307
 135  430.8084
 136  419.3192
 137  463.15
 138  511.6022
 139  523.8412
 140  494.374
 141  420.2711
 142  401.5954
 143  321.756
 144  291.571
 145  409.705
 146  424.787
 147  431.4551
 148  343.2392
 149  351.7629
 150  492.0779
 151  396.0763
 152  428.3602
 153  343.0631
 154  322.0598
 155  271.455
 156  223.8221
 157  308.5246
 158  382.756
 159  463.8243
 160  609.6006
 161  568.1163
 162  419.86
 163  322.6197
 164  430.9159
 165  422.7807
 166  382.0018
 167  420.4816
 168  475.7103
 169  445.7388
 170  439.6964
 171  600.5292
 172  494.5721
 173  525.6599
 174  419.1883
 175  409.3026
 176  490.8548
 177  414.066
 178  509.7399
 179  538.2927
 180  482.9868
 181  506.0714
 182  427.9589
 183  359.9014
 184  403.7902
 185  427.4494
 186  413.1034
 187  554.0396
 188  559.4933
 189  520.9305
 190  442.1578
 191  464.1007
 192  625.1702
 193  604.0682
 194  580.2044
 195  606.4091
 196  542.801
 197  623.4561
 198  612.1419
 199  594.0312
 200  538.6904
 201  475.9518
 202  441.071
 203  460.3449
 204  540.2164
 205  568.9606
 206  440.3346
 207  471.8354
 208  370.155
 209  267.8546
 210  337.1406
 211  473.1591
 212  395.5119
 213  394.6821
 214  350.7405
 215  334.4577
 216  359.7751
 217  312.4605
 218  236.0816
 219  375.9337
 220  430.8407
 221  362.1803
 222  362.2775
 223  458.442
 224  435.1039
 225  470.6544
 226  454.7856
 227  415.0739
 228  400.1858
 229  291.3186
 230  402.924
 231  480.3238
 232  466.271
 233  538.7875
 234  476.6056
 235  505.6966
 236  478.2027
 237  575.1673
 238  508.9921
 239  473.616
 240  445.2747
 241  461.8861
 242  566.3012
 243  548.5728
 244  535.4676
 245  566.4937
 246  577.1163
 247  602.6139
 248  598.4763
 249  460.8317
 250  451.1672
 251  520.1593
 252  694.3122
 253  651.9138
 254  449.0614
 255  467.2904
 256  536.3012
 257  572.6743
 258  556.8191
 259  514.6107
 260  429.2671
 261  402.1897
 262  303.3919
 263  277.9079
 264  310.2217
 265  339.1393
 266  321.4624
 267  336.2519
 268  384.555
 269  412.1502
 270  478.7637
 271  549.9142
 272  444.3286
 273  468.1938
 274  450.2257
 275  431.4858
 276  533.9121
 277  451.7988
 278  417.945
 279  467.485
 280  553.0737
 281  595.3011
 282  560.2025
 283  564.6122
 284  498.8255
 285  443.4093
 286  458.8363
 287  501.0414
 288  568.4456
 289  619.8344
 290  588.4462
 291  624.1887
 292  621.3083
 293  652.6335
 294  706.431
 295  666.4521
 296  590.0535
 297  512.6102
 298  472.829
 299  391.1913
 300  391.386
 301  464.442
 302  554.7985
 303  466.7982
 304  364.7452
 305  460.0078
 306  464.4731
 307  430.8883
 308  455.808
 309  479.1328
 310  494.7294
 311  435.5711
 312  495.0879
 313  560.5081
 314  480.2275
 315  404.6754
 316  538.0802
 317  568.6039
 318  642.5447
 319  555.9968
 320  416.8359
 321  382.361
 322  506.8199
 323  491.1002
 324  523.0877
 325  638.04
 326  669.1486
 327  513.7951
 328  524.5367
 329  497.1504
 330  418.619
 331  508.4255
 332  500.3505
 333  507.8807
 334  582.4608
 335  667.7681
 336  575.4955
 337  570.5546
 338  602.6208
 339  519.6578
 340  545.7253
 341  533.3058
 342  365.4633
 343  472.8108
 344  603.507
 345  553.908
 346  474.7411
 347  431.6737
 348  473.6265
 349  547.672
 350  592.0858
 351  707.2567
 352  560.2089
 353  465.1114
 354  605.0173
 355  557.4334
 356  564.7325
 357  535.1023
 358  429.8908
 359  496.8127
 360  426.3009
 361  423.8262
 362  589.5566
 363  554.5938
 364  518.6081
 365  575.1082
 366  563.8636
 367  468.4342
 368  516.015
 369  534.3666
 370  457.5038
 371  427.2052
 372  466.6634
 373  555.192
 374  535.5178
 375  555.243
 376  452.9939
 377  341.856
 378  364.9854
 379  381.0371
 380  415.7897
 381  481.0006
 382  486.9763
 383  575.1952
 384  519.5505
 385  436.0341
 386  490.5263
 387  467.3776
 388  412.8558
 389  394.2711
 390  586.9653
 391  626.164
 392  580.7674
 393  477.1195
 394  373.8297
 395  293.2148
 396  420.9884
 397  441.0756
 398  412.8006
 399  429.5966
 400  519.9281
 401  405.842
 402  452.4947
 403  505.1253
 404  491.0526
 405  538.6926
 406  568.6964
 407  472.377
 408  452.6443
 409  464.4619
 410  378.5626
 411  374.812
 412  489.6422
 413  537.1924
 414  533.6556
 415  551.589
 416  486.7658
 417  588.8187
 418  587.5575
 419  388.22
 420  430.6752
 421  554.7067
 422  576.5024
 423  484.2236
 424  407.8107
 425  385.5172
 426  456.2706
 427  427.3318
 428  426.5564
 429  457.3054
 430  473.8499
 431  435.3748
 432  526.6093
 433  530.8474
 434  489.5152
 435  400.2291
 436  441.624
 437  452.3412
 438  503.2628
 439  528.6826
 440  580.5428
 441  577.9828
 442  637.4753
 443  481.7026
 444  406.9899
 445  448.9334
 446  507.0211
 447  515.8574
 448  452.9999
 449  438.9274
 450  533.4439
 451  717.5745
 452  619.3798
 453  539.4111
 454  565.1253
 455  563.8942
 456  524.7878
 457  434.1025
 458  584.7383
 459  555.4747
 460  408.3847
 461  480.8929
 462  532.8239
 463  564.0574
 464  553.153
 465  519.344
 466  529.3492
 467  462.4806
 468  451.2595
 469  489.4314
 470  476.0602
 471  419.9139
 472  376.1758
 473  476.1122
 474  520.5896
 475  446.9712
 476  431.5763
 477  492.502
 478  550.8369
 479  450.0839
 480  435.6713
 481  524.6988
 482  451.3431
 483  502.4422
 484  577.9439
 485  578.6004
 486  459.4786
 487  526.8469
 488  604.0903
 489  499.4191
 490  499.2563
 491  508.1974
 492  656.3429
 493  633.4512
 494  637.6084
 495  565.511
 496  560.9252
 497  507.7543
 498  449.3972
 499  484.9861
 500  543.3774
 501  579.1903
 502  530.7172
 503  490.2455
 504  511.6833
 505  568.9337
 506  658.8405
 507  593.1494
 508  558.2021
 509  726.1163
 510  1003.217
 511  1192.137
