# Input file       =  1209374171.10886_cleaned.dat
# Candidate        =  PSR_0332+5434
# Telescope        =  AR
# Epoch_topo       =  58241.386031352544
# Epoch_bary       =  N/A
# T_sample         =  0.002
# Data Folded      =  7340032
# Data Avg         =  0.0269091859050152
# Data StdDev      =  1.00006788766757 
# Profile Bins     =  512
# Profile Avg      =  385.769931293806 
# Profile StdDev   =  119.741164773336 
# Reduced chi-sqr  =  0.838
# Prob(Noise)      <  0.997   (~0.0 sigma)
# P_topo (ms)      =  714.544572445704  +/- 0.00101
# P'_topo (s/s)    =  -0                +/- 5.31e-10
# P''_topo (s/s^2) =  0                 +/- 2.34e-13
# P_bary (ms)      =  N/A
# P'_bary (s/s)    =  N/A
# P''_bary (s/s^2) =  N/A
# P_orb (s)        =  N/A
# asin(i)/c (s)    =  N/A
# eccentricity     =  N/A
# w (rad)          =  N/A
# T_peri           =  N/A
######################################################
   0  812.0372
   1  783.7279
   2  780.8253
   3  607.5121
   4  480.4808
   5  445.2972
   6  440.6671
   7  427.206
   8  409.8916
   9  452.0009
  10  512.8287
  11  467.8505
  12  462.373
  13  468.4156
  14  481.1561
  15  527.7578
  16  475.4032
  17  473.2238
  18  460.8766
  19  420.5394
  20  470.2184
  21  428.7699
  22  426.7307
  23  400.8121
  24  377.36
  25  461.7109
  26  491.2316
  27  415.3047
  28  340.2997
  29  371.5728
  30  412.428
  31  394.2601
  32  415.2297
  33  368.7014
  34  401.4033
  35  410.6826
  36  394.6429
  37  437.1085
  38  438.1062
  39  462.6664
  40  427.6225
  41  446.0096
  42  455.3564
  43  424.9382
  44  356.8259
  45  337.3787
  46  387.1783
  47  462.7589
  48  490.2645
  49  412.6718
  50  399.9524
  51  387.6109
  52  425.6073
  53  440.4693
  54  449.6718
  55  403.2383
  56  459.6103
  57  392.6197
  58  394.8362
  59  442.748
  60  413.7475
  61  395.5475
  62  374.9328
  63  426.4751
  64  333.0764
  65  374.4675
  66  381.9216
  67  378.346
  68  389.0559
  69  388.5218
  70  371.4868
  71  328.7152
  72  440.6612
  73  481.5152
  74  444.2101
  75  382.1719
  76  377.015
  77  365.0391
  78  437.8632
  79  418.3744
  80  382.3846
  81  406.7144
  82  398.8502
  83  446.4272
  84  502.0057
  85  424.2159
  86  451.1778
  87  463.6609
  88  384.6314
  89  378.2683
  90  454.2535
  91  487.9343
  92  469.0232
  93  386.1649
  94  400.3952
  95  434.0288
  96  437.9536
  97  432.5783
  98  476.5173
  99  492.4658
 100  505.8296
 101  493.2531
 102  458.3216
 103  418.2991
 104  426.9964
 105  410.1283
 106  373.8778
 107  400.0336
 108  411.2522
 109  395.9112
 110  436.5839
 111  417.3003
 112  347.2718
 113  382.5176
 114  379.9716
 115  453.5725
 116  415.433
 117  361.7054
 118  356.9067
 119  272.8341
 120  328.1941
 121  421.493
 122  427.5796
 123  423.1012
 124  325.9926
 125  330.95
 126  372.2419
 127  386.5707
 128  374.9154
 129  334.9214
 130  336.5867
 131  419.6691
 132  415.1944
 133  370.0456
 134  404.5814
 135  419.5628
 136  442.8083
 137  393.772
 138  435.012
 139  454.7691
 140  435.5978
 141  392.3675
 142  387.5035
 143  442.3151
 144  494.0857
 145  487.9326
 146  454.7825
 147  521.2299
 148  542.0216
 149  457.4835
 150  506.2521
 151  515.3682
 152  508.0847
 153  567.2073
 154  419.8145
 155  415.202
 156  391.1805
 157  436.5978
 158  384.3275
 159  392.976
 160  452.7534
 161  496.0517
 162  469.6411
 163  460.838
 164  456.7062
 165  484.9812
 166  469.9103
 167  442.8105
 168  460.2764
 169  485.1203
 170  447.1699
 171  417.2982
 172  462.3704
 173  464.1296
 174  461.8846
 175  484.5801
 176  522.2404
 177  487.8698
 178  467.9713
 179  433.9659
 180  419.284
 181  401.8251
 182  379.1849
 183  423.05
 184  342.938
 185  323.51
 186  422.5439
 187  430.3641
 188  345.5727
 189  389.7581
 190  433.8283
 191  386.5571
 192  398.2531
 193  429.3862
 194  454.5392
 195  339.8033
 196  350.6433
 197  414.2151
 198  421.5424
 199  416.9417
 200  370.1611
 201  393.2206
 202  394.4976
 203  336.7585
 204  401.9066
 205  447.2575
 206  440.4355
 207  444.3496
 208  399.3036
 209  388.9257
 210  370.1661
 211  362.499
 212  357.5442
 213  344.5954
 214  323.5852
 215  335.4658
 216  291.1935
 217  333.4901
 218  291.4326
 219  330.0093
 220  345.3107
 221  328.7202
 222  324.053
 223  306.3
 224  382.3605
 225  307.3089
 226  332.978
 227  334.4167
 228  329.0418
 229  342.7066
 230  365.642
 231  308.7371
 232  266.4091
 233  317.6796
 234  336.885
 235  323.9154
 236  350.3853
 237  292.4438
 238  316.7018
 239  272.5728
 240  297.179
 241  286.7578
 242  281.8138
 243  326.2372
 244  337.9623
 245  320.5313
 246  326.0008
 247  322.0814
 248  383.7307
 249  395.9801
 250  350.2304
 251  330.5026
 252  335.7736
 253  325.6268
 254  386.9155
 255  415.0898
 256  418.034
 257  405.0605
 258  370.4344
 259  319.6783
 260  310.5273
 261  346.0622
 262  355.3576
 263  341.7413
 264  287.5044
 265  301.5225
 266  295.8306
 267  304.1913
 268  395.2219
 269  355.3653
 270  306.0278
 271  311.31
 272  360.5557
 273  378.3014
 274  341.5411
 275  305.144
 276  267.7967
 277  291.494
 278  280.9277
 279  295.4793
 280  296.5455
 281  290.61
 282  349.9926
 283  381.7901
 284  341.7569
 285  291.9756
 286  262.6781
 287  280.166
 288  299.3633
 289  346.6339
 290  322.0424
 291  317.8648
 292  294.5059
 293  305.022
 294  295.7712
 295  270.0908
 296  295.2218
 297  317.3961
 298  327.9245
 299  244.0709
 300  238.412
 301  203.5265
 302  278.9954
 303  293.5026
 304  246.8019
 305  293.3765
 306  269.8512
 307  264.6485
 308  301.8787
 309  351.06
 310  315.7269
 311  232.6744
 312  287.5559
 313  295.5364
 314  276.1671
 315  281.4734
 316  336.6132
 317  322.5247
 318  298.855
 319  265.7585
 320  285.9297
 321  263.4193
 322  279.565
 323  311.3627
 324  314.3091
 325  348.3795
 326  331.9945
 327  370.8509
 328  326.3142
 329  245.8501
 330  337.4023
 331  409.468
 332  396.5615
 333  382.1523
 334  331.6261
 335  343.9483
 336  312.5285
 337  327.0454
 338  354.5723
 339  390.3029
 340  326.7595
 341  348.0445
 342  427.1551
 343  445.0732
 344  357.5911
 345  340.7131
 346  431.0904
 347  455.5543
 348  446.4742
 349  488.6366
 350  443.535
 351  416.5433
 352  444.8808
 353  452.1955
 354  506.8677
 355  544.4787
 356  517.608
 357  397.1072
 358  431.0086
 359  507.9424
 360  474.8516
 361  451.0137
 362  460.2093
 363  436.873
 364  450.7139
 365  443.0073
 366  431.7368
 367  431.3313
 368  462.8142
 369  458.0535
 370  416.9067
 371  452.4894
 372  480.7301
 373  475.6269
 374  415.3699
 375  448.5799
 376  470.3267
 377  472.5699
 378  415.0623
 379  443.151
 380  508.1083
 381  512.4232
 382  467.4484
 383  454.1543
 384  456.7386
 385  453.4916
 386  478.8611
 387  422.7773
 388  442.154
 389  464.664
 390  429.769
 391  355.6044
 392  397.1374
 393  380.8185
 394  367.8331
 395  346.1916
 396  331.1504
 397  311.6113
 398  338.9614
 399  367.6086
 400  362.4434
 401  375.2372
 402  416.1945
 403  328.2428
 404  281.0718
 405  290.3649
 406  297.9933
 407  321.9129
 408  293.2605
 409  284.176
 410  322.7259
 411  310.5134
 412  290.1427
 413  321.4512
 414  332.8812
 415  311.4879
 416  301.1384
 417  294.7679
 418  306.6419
 419  291.1017
 420  279.857
 421  319.8177
 422  275.5341
 423  290.2703
 424  282.0795
 425  274.6039
 426  224.335
 427  221.7003
 428  280.9108
 429  293.9647
 430  232.5255
 431  231.0995
 432  245.737
 433  323.5011
 434  335.2696
 435  297.0521
 436  269.5229
 437  286.8386
 438  283.3406
 439  265.2221
 440  267.5046
 441  252.9642
 442  239.2488
 443  260.6662
 444  288.9027
 445  298.0409
 446  317.5464
 447  341.2817
 448  295.218
 449  300.1625
 450  296.2711
 451  268.1949
 452  336.0056
 453  407.5703
 454  389.2647
 455  326.3245
 456  313.7459
 457  339.7862
 458  319.4115
 459  292.8659
 460  338.6208
 461  350.9297
 462  374.9587
 463  416.8104
 464  456.0648
 465  437.7444
 466  347.0194
 467  411.1993
 468  472.1283
 469  417.4219
 470  429.985
 471  416.7063
 472  404.2557
 473  424.5445
 474  427.8307
 475  405.467
 476  340.5186
 477  394.4867
 478  382.686
 479  352.4102
 480  380.4942
 481  344.318
 482  353.324
 483  340.8985
 484  392.6218
 485  389.1817
 486  387.8882
 487  324.936
 488  349.6248
 489  401.0136
 490  448.438
 491  421.1057
 492  475.9117
 493  460.7628
 494  442.2089
 495  432.5721
 496  447.5014
 497  394.53
 498  375.5397
 499  443.2282
 500  477.4528
 501  394.7076
 502  382.943
 503  342.5215
 504  379.1341
 505  364.2153
 506  470.0081
 507  459.969
 508  507.8172
 509  609.4218
 510  657.3873
 511  735.7398
