# Input file       =  1209733729.112785_cleaned.dat
# Candidate        =  PSR_0332+5434
# Telescope        =  AR
# Epoch_topo       =  58245.547582323903
# Epoch_bary       =  N/A
# T_sample         =  0.002
# Data Folded      =  7340032
# Data Avg         =  0.0323346054097842
# Data StdDev      =  1.00006539171108 
# Profile Bins     =  512
# Profile Avg      =  463.483043843798 
# Profile StdDev   =  119.740865924887 
# Reduced chi-sqr  =  1.381
# Prob(Noise)      <  2.19e-08   (~5.5 sigma)
# P_topo (ms)      =  714.541055609694  +/- 0.000301
# P'_topo (s/s)    =  -0                +/- 1.59e-10
# P''_topo (s/s^2) =  0                 +/- 7.02e-14
# P_bary (ms)      =  N/A
# P'_bary (s/s)    =  N/A
# P''_bary (s/s^2) =  N/A
# P_orb (s)        =  N/A
# asin(i)/c (s)    =  N/A
# eccentricity     =  N/A
# w (rad)          =  N/A
# T_peri           =  N/A
######################################################
   0  1079.451
   1  1074.907
   2  1073.365
   3  781.6101
   4  684.109
   5  646.6569
   6  571.617
   7  498.932
   8  398.502
   9  314.3105
  10  382.4154
  11  569.4385
  12  561.9783
  13  443.6451
  14  480.8511
  15  567.5034
  16  454.1138
  17  478.1086
  18  453.7785
  19  456.2373
  20  478.7404
  21  407.9662
  22  345.4537
  23  442.6234
  24  362.6284
  25  300.5148
  26  398.8297
  27  463.5261
  28  425.0538
  29  376.6407
  30  381.9761
  31  371.6232
  32  436.5281
  33  478.3292
  34  480.5163
  35  398.7776
  36  484.032
  37  489.892
  38  507.9883
  39  558.7621
  40  570.3044
  41  447.14
  42  370.5445
  43  462.5868
  44  540.7005
  45  581.5173
  46  543.7772
  47  406.2173
  48  471.951
  49  430.4579
  50  537.0753
  51  512.43
  52  514.2415
  53  628.3412
  54  554.1053
  55  336.3371
  56  388.9756
  57  452.6805
  58  401.8318
  59  366.0387
  60  423.4135
  61  559.6265
  62  496.3259
  63  432.8958
  64  472.8978
  65  436.8361
  66  394.6414
  67  457.5054
  68  518.8375
  69  456.111
  70  396.9692
  71  475.3381
  72  540.0214
  73  528.3822
  74  397.5574
  75  248.6725
  76  315.7418
  77  523.1676
  78  364.14
  79  345.0817
  80  428.5673
  81  404.9113
  82  475.772
  83  422.1245
  84  447.4175
  85  318.5038
  86  479.0467
  87  528.062
  88  556.023
  89  479.6796
  90  474.7507
  91  382.072
  92  418.846
  93  514.9048
  94  440.4197
  95  366.8273
  96  378.5696
  97  363.442
  98  439.0999
  99  516.3104
 100  549.9101
 101  395.8944
 102  493.9996
 103  464.8416
 104  471.9892
 105  460.9388
 106  509.5558
 107  549.924
 108  407.1175
 109  427.9263
 110  314.3042
 111  311.4225
 112  427.5301
 113  364.7233
 114  490.1869
 115  473.8658
 116  454.6765
 117  412.3917
 118  395.1461
 119  466.2754
 120  373.3563
 121  434.8138
 122  549.4294
 123  461.4768
 124  456.1283
 125  519.3769
 126  507.0758
 127  503.2404
 128  430.4886
 129  258.3483
 130  339.8726
 131  431.2246
 132  503.1537
 133  500.39
 134  569.5418
 135  477.4867
 136  416.826
 137  539.0836
 138  567.3232
 139  527.4383
 140  530.2538
 141  632.2366
 142  526.8935
 143  474.2046
 144  547.465
 145  677.7319
 146  657.6388
 147  538.3708
 148  477.3647
 149  483.3454
 150  448.9687
 151  474.4719
 152  486.373
 153  468.5717
 154  442.447
 155  504.8958
 156  503.9503
 157  497.9522
 158  495.0331
 159  488.0917
 160  575.8469
 161  502.6462
 162  443.0086
 163  511.4549
 164  515.8774
 165  456.3861
 166  480.6561
 167  437.182
 168  488.1444
 169  473.3489
 170  449.0582
 171  422.2203
 172  417.9879
 173  403.8335
 174  524.9517
 175  501.5038
 176  384.9405
 177  360.9253
 178  405.0279
 179  459.3911
 180  526.0465
 181  510.6336
 182  475.5462
 183  368.2352
 184  441.2408
 185  523.811
 186  511.746
 187  412.8664
 188  437.1394
 189  485.8779
 190  522.2388
 191  441.17
 192  289.8968
 193  224.9086
 194  309.8746
 195  343.0901
 196  454.43
 197  496.0256
 198  475.6671
 199  404.6763
 200  384.453
 201  451.4384
 202  340.951
 203  420.6899
 204  470.6785
 205  463.621
 206  371.464
 207  467.2455
 208  509.7365
 209  495.6707
 210  559.8932
 211  550.6108
 212  493.8077
 213  442.6812
 214  492.616
 215  438.8556
 216  432.8961
 217  355.8279
 218  417.5562
 219  410.1749
 220  432.5755
 221  480.5445
 222  488.2261
 223  547.341
 224  491.2446
 225  455.2182
 226  418.7717
 227  465.1625
 228  488.374
 229  391.3532
 230  474.8241
 231  492.7105
 232  518.3696
 233  411.1215
 234  417.266
 235  519.8108
 236  526.9177
 237  348.6458
 238  462.5033
 239  471.1997
 240  511.8837
 241  456.1834
 242  396.0737
 243  524.9327
 244  507.1526
 245  593.0843
 246  526.0703
 247  453.8948
 248  436.9671
 249  525.0003
 250  517.4344
 251  408.3833
 252  397.438
 253  378.2308
 254  521.957
 255  461.6683
 256  540.4354
 257  540.0682
 258  490.1671
 259  472.3893
 260  389.6225
 261  338.2075
 262  344.585
 263  464.4688
 264  480.4269
 265  477.7424
 266  588.4401
 267  649.6904
 268  596.2508
 269  482.6548
 270  507.92
 271  465.0516
 272  439.6795
 273  391.624
 274  396.6957
 275  344.6765
 276  363.9269
 277  461.8387
 278  445.3725
 279  538.1873
 280  413.1388
 281  280.1931
 282  349.4862
 283  380.0557
 284  314.3875
 285  393.5585
 286  324.3381
 287  378.3294
 288  450.8316
 289  317.536
 290  294.403
 291  261.6559
 292  403.0367
 293  423.2842
 294  368.4039
 295  408.1985
 296  411.3659
 297  459.0966
 298  358.5183
 299  239.0376
 300  296.755
 301  463.0679
 302  315.6396
 303  441.9583
 304  483.3459
 305  337.2798
 306  280.6276
 307  363.9045
 308  406.8449
 309  345.806
 310  315.0985
 311  373.064
 312  363.2774
 313  466.2001
 314  376.4155
 315  416.1621
 316  480.7398
 317  391.068
 318  318.7681
 319  335.3084
 320  410.5752
 321  463.739
 322  402.5636
 323  351.188
 324  255.3097
 325  266.5447
 326  357.4076
 327  461.5822
 328  434.4195
 329  382.8487
 330  380.0244
 331  405.1649
 332  452.1059
 333  418.0298
 334  531.6407
 335  495.568
 336  507.8411
 337  476.584
 338  546.7303
 339  623.1664
 340  451.654
 341  456.7184
 342  466.1695
 343  476.6884
 344  451.8141
 345  329.6038
 346  375.3634
 347  387.1766
 348  387.3973
 349  475.0602
 350  498.0484
 351  498.5118
 352  523.4322
 353  498.9999
 354  377.1978
 355  244.2425
 356  402.9662
 357  415.2948
 358  435.1217
 359  469.8198
 360  545.5232
 361  522.1503
 362  633.4611
 363  572.6183
 364  518.389
 365  472.0971
 366  408.0013
 367  416.0737
 368  499.3676
 369  556.5667
 370  591.463
 371  388.7299
 372  423.3069
 373  420.0735
 374  379.5107
 375  395.8195
 376  396.3888
 377  424.3916
 378  339.9237
 379  362.4882
 380  421.2256
 381  330.9781
 382  272.9977
 383  419.7074
 384  442.7081
 385  382.2771
 386  407.8763
 387  384.2317
 388  383.5047
 389  344.5954
 390  488.3112
 391  478.4359
 392  548.0117
 393  431.5718
 394  402.1087
 395  417.693
 396  513.906
 397  430.2068
 398  407.0982
 399  306.3347
 400  304.948
 401  331.6647
 402  397.0081
 403  505.0102
 404  463.4892
 405  493.4821
 406  433.9247
 407  381.5021
 408  352.4608
 409  422.8495
 410  513.5016
 411  440.66
 412  371.3321
 413  455.3709
 414  560.4102
 415  462.6966
 416  398.1765
 417  378.3361
 418  457.8382
 419  479.3687
 420  432.7263
 421  458.4795
 422  542.4674
 423  522.4701
 424  451.2776
 425  498.861
 426  395.0428
 427  523.5267
 428  584.9992
 429  431.3562
 430  455.9865
 431  510.9683
 432  488.4363
 433  541.2052
 434  583.055
 435  493.8662
 436  522.2844
 437  529.2244
 438  456.073
 439  494.054
 440  569.4209
 441  496.1984
 442  454.0496
 443  438.5465
 444  441.9851
 445  349.8824
 446  467.205
 447  536.8763
 448  484.8101
 449  495.501
 450  528.4361
 451  611.8715
 452  623.2194
 453  621.9496
 454  426.8069
 455  317.2708
 456  451.3789
 457  395.5323
 458  470.8991
 459  606.8712
 460  500.9036
 461  462.8341
 462  427.1831
 463  534.9874
 464  498.6376
 465  446.8396
 466  404.9915
 467  525.065
 468  436.278
 469  511.1728
 470  395.6678
 471  434.1802
 472  486.0334
 473  569.5267
 474  596.7753
 475  641.3791
 476  638.2598
 477  580.1451
 478  555.6435
 479  422.864
 480  507.812
 481  378.4214
 482  528.369
 483  575.9581
 484  571.9109
 485  508.3204
 486  386.6833
 487  418.9446
 488  490.4269
 489  517.9185
 490  594.0751
 491  603.5583
 492  530.879
 493  444.6951
 494  445.2498
 495  596.3424
 496  700.4693
 497  554.1958
 498  454.6129
 499  533.3164
 500  491.254
 501  544.7892
 502  436.7475
 503  468.3286
 504  508.2954
 505  583.3008
 506  536.3839
 507  643.8309
 508  714.6429
 509  814.9256
 510  1040.175
 511  1042.697
