# Input file       =  1209876521.110726_cleaned.dat
# Candidate        =  PSR_0332+5434
# Telescope        =  AR
# Epoch_topo       =  58247.200267485256
# Epoch_bary       =  N/A
# T_sample         =  0.002
# Data Folded      =  7208960
# Data Avg         =  -0.010149030532502
# Data StdDev      =  1.00005576612812 
# Profile Bins     =  512
# Profile Avg      =  -142.874657623888
# Profile StdDev   =  118.66579295633  
# Reduced chi-sqr  =  1.484
# Prob(Noise)      <  6.29e-12   (~6.8 sigma)
# P_topo (ms)      =  714.539153966978  +/- 0.000102
# P'_topo (s/s)    =  -0                +/- 5.46e-11
# P''_topo (s/s^2) =  0                 +/- 2.46e-14
# P_bary (ms)      =  N/A
# P'_bary (s/s)    =  N/A
# P''_bary (s/s^2) =  N/A
# P_orb (s)        =  N/A
# asin(i)/c (s)    =  N/A
# eccentricity     =  N/A
# w (rad)          =  N/A
# T_peri           =  N/A
######################################################
   0  536.9932
   1  335.7957
   2  206.3998
   3  33.40108
   4  -53.8421
   5  -126.9739
   6  -49.86964
   7  -103.0107
   8  -248.8379
   9  -233.9067
  10  -158.0477
  11  -99.74325
  12  -10.80074
  13  -6.055095
  14  47.20129
  15  -95.47276
  16  -159.9834
  17  -160.3617
  18  -109.1093
  19  -175.4828
  20  -201.8624
  21  -285.6477
  22  -238.4157
  23  -265.7797
  24  -281.3776
  25  -144.7669
  26  -192.8203
  27  -128.6153
  28  -131.9443
  29  -88.52773
  30  -167.8551
  31  -200.8481
  32  -174.1756
  33  -242.4567
  34  -218.0407
  35  -67.15624
  36  -102.1963
  37  -160.9213
  38  -157.1308
  39  -122.6186
  40  -156.3837
  41  -127.9765
  42  -249.8977
  43  -114.2811
  44  -155.8053
  45  -150.8835
  46  -118.8556
  47  -110.8968
  48  -58.53613
  49  -244.1077
  50  -280.9313
  51  -134.8595
  52  -130.9622
  53  -141.9083
  54  -172.8447
  55  -121.3164
  56  -112.944
  57  -237.3071
  58  -247.1733
  59  -140.5141
  60  -119.397
  61  -174.1315
  62  -268.329
  63  -113.4076
  64  -158.4084
  65  -60.21376
  66  -125.1474
  67  -187.3167
  68  -163.7559
  69  -157.7151
  70  -86.72032
  71  -146.5954
  72  -174.1407
  73  -171.3642
  74  -101.0666
  75  -127.4268
  76  -70.65017
  77  -129.1219
  78  -112.6772
  79  -152.2383
  80  -160.2173
  81  -114.7464
  82  -174.722
  83  -162.8133
  84  -189.9221
  85  -270.4549
  86  -175.017
  87  -146.4636
  88  -113.388
  89  -108.5263
  90  -130.8306
  91  -181.2091
  92  -158.6499
  93  -186.6435
  94  -161.9378
  95  -98.57188
  96  -47.86815
  97  -62.61595
  98  -84.97708
  99  -53.06744
 100  -20.79696
 101  -23.51188
 102  -103.6283
 103  -120.5426
 104  -190.9849
 105  -107.6492
 106  -14.78732
 107  -152.4658
 108  -103.4159
 109  -128.4113
 110  -59.15793
 111  3.601538
 112  68.3082
 113  -55.19464
 114  -98.3138
 115  -80.35218
 116  -63.7285
 117  -80.69257
 118  -38.00141
 119  -17.73069
 120  -102.6239
 121  -107.7432
 122  -147.9352
 123  -189.7931
 124  -154.0871
 125  -49.83843
 126  49.99742
 127  40.1205
 128  112.2632
 129  13.80884
 130  -32.47189
 131  -123.3782
 132  -117.1395
 133  52.14989
 134  40.4722
 135  88.77894
 136  -131.2831
 137  -138.8458
 138  -37.31736
 139  -37.92802
 140  -154.1267
 141  -174.5999
 142  -125.2291
 143  -105.9188
 144  -131.5579
 145  -66.60416
 146  -35.57182
 147  -113.5475
 148  -45.04901
 149  -65.04765
 150  -126.6003
 151  -130.2241
 152  -70.08456
 153  -141.8613
 154  -124.4298
 155  -110.3014
 156  -119.1759
 157  -161.9698
 158  -153.3539
 159  -28.38315
 160  12.63057
 161  -23.32343
 162  -162.9107
 163  -203.0831
 164  -126.3623
 165  -196.2298
 166  -271.5704
 167  -244.7153
 168  -78.6792
 169  -163.7757
 170  -259.4207
 171  -249.2396
 172  -283.6076
 173  -221.8535
 174  -257.6338
 175  -145.2342
 176  -135.098
 177  -130.8264
 178  -217.9663
 179  -314.8136
 180  -156.064
 181  -188.3826
 182  -155.2106
 183  -254.9961
 184  -228.7881
 185  -199.8309
 186  -90.31088
 187  -66.90519
 188  -129.582
 189  -284.9454
 190  -223.9335
 191  -93.73375
 192  -129.0765
 193  -42.69149
 194  -8.966326
 195  -31.87531
 196  -150.9247
 197  -132.3989
 198  -65.19142
 199  -245.3849
 200  -137.341
 201  -107.6273
 202  -100.5885
 203  -198.3866
 204  -185.3071
 205  -148.8351
 206  -160.3398
 207  -184.8574
 208  -38.92128
 209  -2.426977
 210  -201.5752
 211  -110.2618
 212  -60.89288
 213  -57.09122
 214  -185.1662
 215  -207.4912
 216  -114.489
 217  -79.4622
 218  -102.224
 219  -163.7272
 220  -19.82166
 221  -22.34489
 222  -253.1384
 223  -241.6149
 224  -145.3873
 225  -111.8723
 226  -139.14
 227  -148.1603
 228  -147.172
 229  -179.0766
 230  -265.0736
 231  -210.15
 232  -191.0335
 233  -132.1262
 234  -37.48648
 235  -121.2564
 236  -186.9144
 237  -196.7562
 238  -178.7797
 239  -276.7884
 240  -142.8891
 241  -130.4284
 242  -122.1361
 243  -118.731
 244  -108.495
 245  -57.89933
 246  -171.4366
 247  -172.2401
 248  -260.8353
 249  -199.3411
 250  -110.1919
 251  -132.6851
 252  -248.0176
 253  -175.9137
 254  -104.6527
 255  -198.1673
 256  -164.3219
 257  -143.0416
 258  -81.19482
 259  -174.3673
 260  -196.0512
 261  -232.1017
 262  -228.4984
 263  -160.8365
 264  -284.079
 265  -327.0149
 266  -243.5434
 267  -47.57264
 268  -41.99998
 269  -78.47961
 270  -190.0251
 271  -192.7135
 272  -267.3934
 273  -413.4624
 274  -251.7721
 275  -190.1919
 276  -89.56136
 277  -102.2853
 278  -61.12137
 279  48.48418
 280  -179.1065
 281  -249.0851
 282  -230.7841
 283  -101.341
 284  -98.94473
 285  -64.30721
 286  -263.841
 287  -253.0835
 288  -36.24906
 289  8.66285
 290  -81.78914
 291  -142.6304
 292  -44.86983
 293  -98.24329
 294  -103.24
 295  -48.1193
 296  45.24247
 297  -71.38393
 298  -163.1422
 299  -46.21695
 300  -134.852
 301  -136.2391
 302  -139.9202
 303  -134.7851
 304  -35.52683
 305  -94.82719
 306  -157.2004
 307  -144.9758
 308  -121.7123
 309  -205.7825
 310  -221.3586
 311  -171.6681
 312  -188.334
 313  -209.3977
 314  -164.1093
 315  -125.9872
 316  -108.8884
 317  -62.74526
 318  -115.8899
 319  -106.6942
 320  -253.8444
 321  -300.8898
 322  -218.0245
 323  -273.9095
 324  -160.7079
 325  -102.7179
 326  -103.4129
 327  -163.7575
 328  -260.5848
 329  -321.4606
 330  -214.137
 331  -284.9684
 332  -140.5303
 333  2.19916
 334  -70.87328
 335  -81.17076
 336  -132.1836
 337  -199.6003
 338  -251.3797
 339  -247.571
 340  -264.0087
 341  -152.5222
 342  -87.79718
 343  -119.3288
 344  -243.4122
 345  -222.1617
 346  -222.0442
 347  -352.9675
 348  -144.4198
 349  -71.68044
 350  -39.85863
 351  -181.53
 352  -164.7843
 353  -97.76236
 354  -259.068
 355  -241.4927
 356  -347.6512
 357  -275.636
 358  -158.8357
 359  -217.3416
 360  -166.5331
 361  -59.44048
 362  -100.9517
 363  -268.4864
 364  -271.2511
 365  -211.8149
 366  -123.3284
 367  -217.8029
 368  -219.9222
 369  -246.0192
 370  -234.177
 371  -159.5031
 372  -265.5529
 373  -207.133
 374  -238.3704
 375  -155.7024
 376  -131.2964
 377  -181.2737
 378  -209.0655
 379  -324.5738
 380  -274.196
 381  -288.0591
 382  -260.2518
 383  -241.9797
 384  -194.38
 385  -141.3427
 386  -234.8874
 387  -239.9072
 388  -293.8377
 389  -308.8174
 390  -206.4606
 391  -112.3092
 392  -50.98027
 393  -17.24994
 394  -121.6168
 395  -206.9331
 396  -247.0612
 397  -213.7737
 398  -288.0229
 399  -276.4611
 400  -179.9833
 401  -167.4967
 402  -230.7026
 403  -335.1703
 404  -326.5587
 405  -297.8466
 406  -215.8387
 407  -30.1458
 408  -178.1371
 409  -168.4106
 410  -236.4039
 411  -240.4506
 412  -242.8287
 413  -294.7913
 414  -187.4014
 415  -121.8388
 416  -99.66885
 417  -214.5673
 418  -291.6706
 419  -294.5831
 420  -301.1721
 421  -306.135
 422  -235.4988
 423  -130.9356
 424  -60.93954
 425  -134.9456
 426  -167.4228
 427  -56.54922
 428  -170.7061
 429  -229.9078
 430  -245.1613
 431  -97.77407
 432  -201.8673
 433  -207.035
 434  -96.6334
 435  -205.2707
 436  -246.6004
 437  -420.7752
 438  -220.0526
 439  -138.3242
 440  -77.08878
 441  -117.6297
 442  -166.8897
 443  -57.56779
 444  -167.6211
 445  -199.13
 446  -202.2729
 447  -119.9724
 448  -125.5204
 449  -58.96788
 450  -108.6471
 451  -171.8386
 452  -291.4643
 453  -158.1729
 454  -28.08205
 455  -131.692
 456  -63.41668
 457  -93.3325
 458  7.70528
 459  -57.12116
 460  -92.91608
 461  -101.3033
 462  -147.3682
 463  -181.437
 464  -264.8734
 465  -167.4554
 466  -121.4504
 467  -159.9623
 468  -221.6919
 469  -81.28147
 470  -189.4606
 471  -304.0641
 472  -194.27
 473  -185.0806
 474  -107.4774
 475  -110.0216
 476  -176.2033
 477  -246.2821
 478  -328.4991
 479  -310.8956
 480  -238.8664
 481  -174.3551
 482  -157.0045
 483  -158.8973
 484  -34.61686
 485  -87.33007
 486  -93.01691
 487  -189.6406
 488  -233.876
 489  -149.3169
 490  -54.97375
 491  34.99285
 492  76.22653
 493  35.98799
 494  -174.8045
 495  -232.4051
 496  -113.3774
 497  -122.1514
 498  -95.06165
 499  -197.429
 500  -246.7409
 501  -71.83846
 502  -107.4636
 503  -139.6333
 504  -26.40057
 505  -58.73675
 506  -42.68629
 507  -61.12828
 508  185.6279
 509  307.8623
 510  486.3031
 511  560.5832
