# Input file       =  1209632602.116271_cleaned.dat
# Candidate        =  PSR_0332+5434
# Telescope        =  AR
# Epoch_topo       =  58244.377130975357
# Epoch_bary       =  N/A
# T_sample         =  0.002
# Data Folded      =  7340032
# Data Avg         =  0.0222110667098642
# Data StdDev      =  1.00007823033536 
# Profile Bins     =  512
# Profile Avg      =  318.327628934217 
# Profile StdDev   =  119.742403132355 
# Reduced chi-sqr  =  1.417
# Prob(Noise)      <  1.53e-09   (~5.9 sigma)
# P_topo (ms)      =  714.541814742182  +/- 0.000379
# P'_topo (s/s)    =  -0                +/- 2e-10
# P''_topo (s/s^2) =  0                 +/- 8.82e-14
# P_bary (ms)      =  N/A
# P'_bary (s/s)    =  N/A
# P''_bary (s/s^2) =  N/A
# P_orb (s)        =  N/A
# asin(i)/c (s)    =  N/A
# eccentricity     =  N/A
# w (rad)          =  N/A
# T_peri           =  N/A
######################################################
   0  1015.052
   1  977.5573
   2  869.0607
   3  739.0392
   4  547.3422
   5  524.0245
   6  376.1078
   7  436.8801
   8  456.7494
   9  431.9327
  10  329.4918
  11  325.3111
  12  404.3181
  13  501.817
  14  412.2631
  15  405.7107
  16  515.0161
  17  423.7625
  18  340.0025
  19  296.6476
  20  343.7679
  21  313.3328
  22  366.977
  23  420.229
  24  275.8843
  25  289.8798
  26  384.6114
  27  405.0228
  28  345.2899
  29  353.9987
  30  335.8114
  31  392.4546
  32  364.7929
  33  353.105
  34  314.1646
  35  334.7624
  36  335.6015
  37  331.8777
  38  348.9612
  39  391.1323
  40  447.3264
  41  311.3853
  42  268.3291
  43  294.0744
  44  330.6428
  45  287.3591
  46  300.1506
  47  204.0081
  48  241.9361
  49  310.1062
  50  369.6638
  51  266.0197
  52  259.4802
  53  272.2705
  54  371.2542
  55  406.0466
  56  368.9034
  57  304.2604
  58  230.2354
  59  354.1789
  60  411.2184
  61  359.9318
  62  339.7102
  63  356.7841
  64  300.9624
  65  205.9681
  66  211.7911
  67  210.8569
  68  228.642
  69  185.6019
  70  115.1276
  71  67.2507
  72  214.8837
  73  206.8739
  74  230.7893
  75  229.5022
  76  206.4096
  77  228.2129
  78  209.209
  79  248.3675
  80  326.4366
  81  340.6844
  82  230.7859
  83  81.8931
  84  104.6888
  85  203.4218
  86  269.3105
  87  145.7615
  88  194.3519
  89  285.4802
  90  232.7852
  91  130.2402
  92  202.3611
  93  260.9861
  94  309.0306
  95  315.9569
  96  360.5002
  97  376.0178
  98  407.264
  99  390.8394
 100  236.0743
 101  285.8298
 102  323.0011
 103  295.3425
 104  320.314
 105  325.45
 106  298.041
 107  353.5712
 108  300.1254
 109  378.037
 110  396.0714
 111  469.5397
 112  324.7773
 113  223.2455
 114  362.3919
 115  331.0835
 116  347.92
 117  346.4502
 118  246.5635
 119  259.5138
 120  261.5615
 121  441.6712
 122  423.7965
 123  327.2425
 124  298.5399
 125  280.9149
 126  351.5791
 127  336.7433
 128  354.1214
 129  450.5504
 130  412.0602
 131  369.0222
 132  308.1543
 133  338.3775
 134  348.3155
 135  419.6335
 136  442.5413
 137  395.7774
 138  380.757
 139  395.3805
 140  457.8147
 141  342.6442
 142  368.455
 143  388.2315
 144  511.4439
 145  466.9947
 146  452.3469
 147  329.7209
 148  374.7868
 149  436.0696
 150  359.372
 151  321.1162
 152  325.1515
 153  408.1573
 154  432.9554
 155  394.4292
 156  405.5982
 157  367.2511
 158  365.462
 159  367.1805
 160  429.2166
 161  469.2414
 162  461.5085
 163  325.9232
 164  302.0573
 165  359.1655
 166  400.8176
 167  297.4901
 168  228.4411
 169  251.667
 170  359.6749
 171  378.2952
 172  319.6923
 173  335.3729
 174  321.0029
 175  338.4594
 176  362.3098
 177  372.2478
 178  293.1103
 179  339.9278
 180  352.782
 181  333.2242
 182  255.3792
 183  313.6779
 184  318.2651
 185  179.4125
 186  187.6447
 187  311.0203
 188  371.2675
 189  416.4719
 190  378.984
 191  354.8842
 192  341.6111
 193  346.2921
 194  291.2747
 195  297.603
 196  352.9259
 197  322.4032
 198  271.2427
 199  264.6175
 200  289.1829
 201  235.1512
 202  261.709
 203  315.523
 204  237.3569
 205  317.0401
 206  233.8714
 207  242.2121
 208  297.6239
 209  325.9886
 210  259.0499
 211  269.3939
 212  298.2065
 213  337.1214
 214  372.4763
 215  341.8423
 216  310.364
 217  317.7404
 218  231.6971
 219  189.5165
 220  326.1685
 221  372.2857
 222  297.1456
 223  349.4053
 224  404.503
 225  411.4261
 226  408.0354
 227  371.055
 228  432.667
 229  428.1269
 230  441.6863
 231  404.264
 232  360.5863
 233  276.1607
 234  239.8975
 235  335.6727
 236  383.2474
 237  357.3615
 238  387.1936
 239  373.364
 240  354.0634
 241  300.9109
 242  283.7088
 243  228.1443
 244  196.2663
 245  219.1208
 246  205.0207
 247  223.3108
 248  265.0775
 249  252.5992
 250  272.0125
 251  307.3066
 252  243.0393
 253  215.0922
 254  199.2832
 255  250.3908
 256  308.5561
 257  318.6716
 258  323.2751
 259  287.8389
 260  284.2264
 261  346.1561
 262  332.4168
 263  283.0953
 264  253.5758
 265  255.4505
 266  283.3596
 267  301.5667
 268  278.979
 269  337.9402
 270  419.1145
 271  382.9316
 272  361.739
 273  303.6839
 274  311.5686
 275  264.407
 276  253.0119
 277  287.2301
 278  278.1456
 279  234.6243
 280  146.3321
 281  185.1973
 282  337.5966
 283  238.5872
 284  196.9185
 285  206.6658
 286  234.5418
 287  257.6191
 288  215.9824
 289  280.2939
 290  350.9007
 291  338.1713
 292  309.5845
 293  322.9818
 294  328.7393
 295  299.3267
 296  251.1845
 297  377.7906
 298  293.1373
 299  189.3028
 300  173.8049
 301  194.6597
 302  222.8994
 303  299.8964
 304  381.0286
 305  397.1124
 306  347.664
 307  337.0663
 308  262.8832
 309  287.3487
 310  318.4507
 311  384.42
 312  383.1512
 313  300.3815
 314  403.4658
 315  338.0218
 316  201.3933
 317  260.2581
 318  378.0849
 319  345.7099
 320  377.8704
 321  418.2649
 322  419.5363
 323  538.1088
 324  569.1317
 325  453.8685
 326  416.1264
 327  460.6391
 328  523.5223
 329  487.2758
 330  422.1733
 331  376.2148
 332  364.6572
 333  325.2039
 334  320.4138
 335  353.2829
 336  381.0404
 337  425.6431
 338  436.9945
 339  328.5702
 340  375.7184
 341  396.0015
 342  372.8185
 343  357.9092
 344  328.3855
 345  345.0865
 346  281.4655
 347  291.0026
 348  269.0215
 349  242.1777
 350  270.1753
 351  318.9944
 352  346.1852
 353  301.1324
 354  282.9811
 355  327.0132
 356  413.7956
 357  401.8683
 358  355.5008
 359  405.1473
 360  356.4073
 361  277.4171
 362  197.8453
 363  228.3386
 364  263.859
 365  215.8569
 366  211.3342
 367  248.3318
 368  213.0254
 369  170.3736
 370  175.1408
 371  251.5265
 372  222.9541
 373  219.4047
 374  258.5975
 375  265.8216
 376  184.3203
 377  217.1646
 378  244.141
 379  206.5454
 380  257.7971
 381  251.5761
 382  266.758
 383  244.3451
 384  279.0327
 385  197.8945
 386  170.1185
 387  280.3511
 388  249.8828
 389  389.6866
 390  350.4956
 391  391.3148
 392  359.8287
 393  242.3094
 394  305.9009
 395  310.682
 396  395.5695
 397  448.6347
 398  360.2649
 399  293.575
 400  234.4141
 401  332.8406
 402  262.9208
 403  193.6902
 404  288.9295
 405  325.9347
 406  292.6266
 407  256.9437
 408  228.4471
 409  279.4949
 410  260.8492
 411  285.5216
 412  256.5319
 413  282.9699
 414  285.5509
 415  283.0288
 416  292.5243
 417  292.3352
 418  304.0222
 419  333.1093
 420  276.6934
 421  291.8665
 422  353.2511
 423  363.3593
 424  312.194
 425  351.7192
 426  363.7084
 427  277.833
 428  246.9871
 429  195.3914
 430  334.4909
 431  314.6907
 432  243.4184
 433  203.9155
 434  313.0929
 435  262.674
 436  279.8789
 437  372.9819
 438  332.6329
 439  307.8049
 440  237.4163
 441  231.0266
 442  216.4115
 443  247.6959
 444  324.8349
 445  333.9236
 446  334.8088
 447  282.7998
 448  233.9033
 449  133.3993
 450  140.99
 451  265.0504
 452  279.5396
 453  209.6545
 454  253.7556
 455  239.4601
 456  293.9069
 457  226.6689
 458  246.5838
 459  179.5443
 460  223.8804
 461  188.103
 462  149.2541
 463  238.0727
 464  191.7237
 465  153.6184
 466  172.8355
 467  231.8331
 468  223.4742
 469  165.6771
 470  178.4205
 471  239.1048
 472  281.644
 473  244.5185
 474  264.754
 475  241.4086
 476  211.6281
 477  276.567
 478  296.8419
 479  292.461
 480  277.9572
 481  236.3849
 482  229.3137
 483  147.5246
 484  109.7658
 485  120.7976
 486  236.3949
 487  341.0152
 488  393.7459
 489  381.172
 490  349.544
 491  324.8976
 492  368.7496
 493  394.8403
 494  413.6842
 495  475.1866
 496  349.23
 497  267.0294
 498  371.4676
 499  377.3298
 500  220.4905
 501  346.0162
 502  398.5584
 503  333.0278
 504  408.0323
 505  382.5159
 506  417.494
 507  440.2421
 508  539.7658
 509  611.7094
 510  830.7865
 511  950.3471
