# Input file       =  1209819896.111669_cleaned.dat
# Candidate        =  PSR_0332+5434
# Telescope        =  AR
# Epoch_topo       =  58246.544885551724
# Epoch_bary       =  N/A
# T_sample         =  0.002
# Data Folded      =  7340032
# Data Avg         =  0.0357103168149831
# Data StdDev      =  1.00009473517028 
# Profile Bins     =  512
# Profile Avg      =  512.138799549096 
# Profile StdDev   =  119.744379306355 
# Reduced chi-sqr  =  1.150
# Prob(Noise)      <  0.0105   (~2.3 sigma)
# P_topo (ms)      =  714.540117935613  +/- 0.000318
# P'_topo (s/s)    =  -0                +/- 1.68e-10
# P''_topo (s/s^2) =  0                 +/- 7.41e-14
# P_bary (ms)      =  N/A
# P'_bary (s/s)    =  N/A
# P''_bary (s/s^2) =  N/A
# P_orb (s)        =  N/A
# asin(i)/c (s)    =  N/A
# eccentricity     =  N/A
# w (rad)          =  N/A
# T_peri           =  N/A
######################################################
   0  1027.783
   1  1058.081
   2  870.0994
   3  647.1506
   4  520.555
   5  574.4852
   6  582.3258
   7  496.9145
   8  530.2086
   9  504.7793
  10  502.4966
  11  522.67
  12  640.259
  13  553.0115
  14  643.1036
  15  631.8616
  16  435.5461
  17  458.4272
  18  395.8581
  19  400.792
  20  406.4953
  21  494.7075
  22  473.2374
  23  380.2937
  24  391.5181
  25  575.0352
  26  524.081
  27  519.157
  28  556.012
  29  519.0341
  30  501.6082
  31  566.5691
  32  493.7513
  33  496.1552
  34  586.0395
  35  518.5085
  36  411.4323
  37  398.1302
  38  548.4396
  39  597.1075
  40  558.4172
  41  534.8627
  42  555.7238
  43  511.6017
  44  483.9741
  45  506.9104
  46  562.8232
  47  595.618
  48  572.4477
  49  549.9907
  50  511.8487
  51  528.3557
  52  534.1014
  53  521.9684
  54  568.7861
  55  548.335
  56  498.7331
  57  585.8013
  58  625.9689
  59  510.7034
  60  493.364
  61  513.5635
  62  514.4154
  63  439.4962
  64  441.769
  65  437.7183
  66  479.6513
  67  485.1676
  68  483.8568
  69  442.6003
  70  386.4046
  71  511.0432
  72  508.1961
  73  423.6136
  74  523.2513
  75  532.8944
  76  483.5631
  77  383.7552
  78  340.2243
  79  317.173
  80  378.3528
  81  489.9245
  82  337.8018
  83  385.983
  84  443.8819
  85  460.4354
  86  525.1648
  87  491.1019
  88  403.0205
  89  378.447
  90  470.951
  91  489.7551
  92  491.0936
  93  450.6787
  94  455.929
  95  529.8153
  96  384.7647
  97  360.606
  98  278.4898
  99  266.0645
 100  498.4781
 101  541.65
 102  537.171
 103  375.5151
 104  384.973
 105  363.7915
 106  388.9495
 107  462.593
 108  512.2938
 109  546.7044
 110  551.0198
 111  541.8065
 112  474.407
 113  503.6932
 114  407.3908
 115  479.5109
 116  494.9395
 117  426.2478
 118  418.0582
 119  423.6392
 120  423.9538
 121  471.9727
 122  518.8734
 123  418.0508
 124  456.8361
 125  487.9229
 126  511.3307
 127  398.0415
 128  443.2698
 129  361.8567
 130  463.6541
 131  465.1003
 132  371.7759
 133  392.4189
 134  484.6022
 135  483.4691
 136  511.886
 137  398.6261
 138  373.1302
 139  319.738
 140  324.8007
 141  391.2895
 142  525.4074
 143  593.4328
 144  548.2054
 145  444.9732
 146  512.0842
 147  478.4887
 148  412.1564
 149  384.1308
 150  383.8981
 151  398.7716
 152  492.4958
 153  401.3765
 154  378.7446
 155  524.8356
 156  633.7529
 157  607.2983
 158  548.1344
 159  590.1663
 160  613.7991
 161  531.1324
 162  658.9796
 163  637.3563
 164  512.7913
 165  522.0604
 166  558.6674
 167  631.6202
 168  604.1668
 169  505.7408
 170  554.9911
 171  497.3307
 172  428.2305
 173  496.28
 174  583.5328
 175  436.3167
 176  586.5281
 177  669.3389
 178  672.63
 179  611.2896
 180  573.5272
 181  561.9436
 182  599.0829
 183  581.4697
 184  607.6313
 185  444.6349
 186  431.6918
 187  448.0402
 188  513.2968
 189  593.1505
 190  583.6233
 191  589.1909
 192  592.8687
 193  582.9353
 194  522.3745
 195  513.0984
 196  600.1411
 197  608.5587
 198  613.0884
 199  553.3234
 200  496.1172
 201  483.8147
 202  630.7003
 203  701.2117
 204  717.5319
 205  730.4343
 206  749.3327
 207  633.1049
 208  560.076
 209  647.7318
 210  564.9805
 211  594.8022
 212  630.126
 213  539.3312
 214  553.5469
 215  572.064
 216  570.5322
 217  591.4373
 218  598.4204
 219  510.1026
 220  514.464
 221  564.8229
 222  711.0702
 223  496.5002
 224  414.3068
 225  627.0134
 226  673.2504
 227  628.7391
 228  616.1262
 229  516.2137
 230  462.6608
 231  453.3507
 232  455.3535
 233  574.0472
 234  490.4655
 235  444.8098
 236  566.1869
 237  585.2274
 238  599.9814
 239  656.9633
 240  602.2358
 241  610.2623
 242  500.2614
 243  350.6062
 244  479.8893
 245  465.9314
 246  520.1135
 247  478.4287
 248  499.0294
 249  582.7338
 250  540.6738
 251  542.0472
 252  615.8537
 253  656.4001
 254  629.1123
 255  531.0726
 256  491.0514
 257  392.3712
 258  419.8618
 259  536.0233
 260  542.2886
 261  553.1807
 262  535.0378
 263  503.482
 264  484.9005
 265  397.1775
 266  351.1828
 267  350.9893
 268  475.812
 269  502.8867
 270  474.8017
 271  500.3132
 272  478.137
 273  455.0211
 274  431.6446
 275  464.6255
 276  610.348
 277  461.4308
 278  460.4286
 279  548.5029
 280  595.4435
 281  515.3597
 282  504.0536
 283  442.9382
 284  573.743
 285  490.4078
 286  400.4325
 287  309.191
 288  320.0708
 289  420.9506
 290  416.3323
 291  572.3343
 292  514.4707
 293  495.3247
 294  516.8381
 295  438.1946
 296  370.5403
 297  335.4548
 298  407.1772
 299  460.7923
 300  620.5341
 301  680.9604
 302  478.8074
 303  436.6115
 304  534.3652
 305  518.9761
 306  500.969
 307  452.8849
 308  359.2301
 309  582.4403
 310  567.3619
 311  424.9413
 312  501.6895
 313  492.3218
 314  455.5929
 315  431.8264
 316  416.821
 317  513.5435
 318  558.7805
 319  634.0535
 320  479.6108
 321  430.3292
 322  516.0154
 323  487.0823
 324  478.8444
 325  572.2337
 326  551.5609
 327  435.4126
 328  454.9444
 329  462.2819
 330  482.9846
 331  538.7156
 332  553.2184
 333  528.7656
 334  556.2682
 335  598.6111
 336  532.6645
 337  488.3065
 338  431.4062
 339  425.0406
 340  471.6246
 341  431.3632
 342  439.9334
 343  522.4694
 344  410.9322
 345  436.2342
 346  489.297
 347  439.4779
 348  497.8304
 349  474.6814
 350  387.2162
 351  411.2969
 352  422.5041
 353  474.7562
 354  483.4514
 355  317.6842
 356  336.7826
 357  472.8107
 358  458.0233
 359  452.7387
 360  358.8806
 361  439.2279
 362  518.3141
 363  444.9524
 364  525.7275
 365  518.0264
 366  503.1437
 367  594.9337
 368  543.7877
 369  518.689
 370  490.618
 371  454.5851
 372  458.5069
 373  541.3713
 374  558.2314
 375  444.202
 376  555.8179
 377  630.224
 378  609.1912
 379  437.6556
 380  483.7687
 381  587.7256
 382  510.8716
 383  666.9078
 384  646.3868
 385  572.4721
 386  455.343
 387  397.5164
 388  397.575
 389  533.5515
 390  372.6987
 391  366.7484
 392  441.1438
 393  532.2939
 394  471.5264
 395  542.6052
 396  506.7885
 397  465.577
 398  417.7116
 399  471.0246
 400  492.1842
 401  488.9132
 402  564.9119
 403  527.8781
 404  497.8854
 405  495
 406  531.1597
 407  568.4929
 408  554.5178
 409  642.2357
 410  540.4716
 411  427.733
 412  473.3159
 413  517.1342
 414  529.1995
 415  492.9803
 416  526.0629
 417  653.6584
 418  636.9875
 419  664.904
 420  715.2134
 421  623.8593
 422  668.5294
 423  579.5682
 424  519.8294
 425  704.6567
 426  725.4199
 427  582.5137
 428  500.4854
 429  477.1299
 430  448.9456
 431  538.6947
 432  480.7874
 433  501.7235
 434  508.0924
 435  523.6803
 436  502.5405
 437  572.0103
 438  495.4541
 439  464.5834
 440  412.1208
 441  478.7435
 442  582.2805
 443  574.2572
 444  543.5855
 445  451.7138
 446  482.874
 447  557.4959
 448  616.3543
 449  602.8229
 450  586.0689
 451  620.9292
 452  629.9717
 453  492.347
 454  512.6816
 455  576.2912
 456  533.7227
 457  491.9372
 458  537.9506
 459  544.4307
 460  496.3867
 461  584.5503
 462  594.5833
 463  546.7812
 464  517.7297
 465  595.8271
 466  600.5504
 467  594.1469
 468  630.5689
 469  602.5498
 470  427.749
 471  347.1679
 472  457.6542
 473  509.0656
 474  513.1202
 475  499.9609
 476  507.3845
 477  412.9874
 478  356.6915
 479  470.8473
 480  457.8911
 481  410.3886
 482  544.8358
 483  671.4474
 484  593.2689
 485  560.4193
 486  502.728
 487  527.9363
 488  477.2814
 489  498.0805
 490  472.3819
 491  550.846
 492  624.5468
 493  556.101
 494  441.2075
 495  464.1748
 496  507.4046
 497  408.9913
 498  327.9706
 499  376.2684
 500  470.3602
 501  492.8717
 502  516.3242
 503  652.5121
 504  618.9672
 505  443.6752
 506  583.7784
 507  621.6434
 508  619.439
 509  712.9924
 510  790.9915
 511  900.6106
