# Input file       =  1209288028.114244_cleaned.dat
# Candidate        =  PSR_0332+5434
# Telescope        =  AR
# Epoch_topo       =  58240.389005951896
# Epoch_bary       =  N/A
# T_sample         =  0.002
# Data Folded      =  7340032
# Data Avg         =  0.0242933583064965
# Data StdDev      =  1.00006468937142 
# Profile Bins     =  512
# Profile Avg      =  348.31032506366  
# Profile StdDev   =  119.740781831628 
# Reduced chi-sqr  =  1.064
# Prob(Noise)      <  0.153   (~1.0 sigma)
# P_topo (ms)      =  714.545479395225  +/- 0.00059
# P'_topo (s/s)    =  -0                +/- 3.11e-10
# P''_topo (s/s^2) =  0                 +/- 1.38e-13
# P_bary (ms)      =  N/A
# P'_bary (s/s)    =  N/A
# P''_bary (s/s^2) =  N/A
# P_orb (s)        =  N/A
# asin(i)/c (s)    =  N/A
# eccentricity     =  N/A
# w (rad)          =  N/A
# T_peri           =  N/A
######################################################
   0  681.2639
   1  629.0397
   2  540.6401
   3  439.601
   4  352.516
   5  332.7134
   6  335.2973
   7  371.0092
   8  362.5084
   9  326.698
  10  294.4313
  11  339.4472
  12  372.0453
  13  382.2596
  14  300.9242
  15  319.8877
  16  374.2285
  17  350.8409
  18  337.6568
  19  356.68
  20  379.7374
  21  390.4571
  22  333.0617
  23  389.0263
  24  388.7736
  25  372.4821
  26  370.3007
  27  317.2784
  28  308.6359
  29  330.3027
  30  363.836
  31  289.0475
  32  274.5063
  33  320.2308
  34  328.0804
  35  286.7683
  36  323.9662
  37  271.9255
  38  339.1197
  39  365.9444
  40  379.5432
  41  395.8047
  42  434.5168
  43  457.7097
  44  432.8762
  45  481.3453
  46  471.3428
  47  427.7947
  48  437.2714
  49  540.8593
  50  542.3284
  51  476.0341
  52  520.0718
  53  505.8759
  54  414.9446
  55  424.1709
  56  418.6349
  57  456.4059
  58  521.5948
  59  499.9338
  60  508.2999
  61  509.3342
  62  521.3154
  63  450.4328
  64  536.5206
  65  508.1123
  66  465.3168
  67  487.876
  68  504.7263
  69  502.0999
  70  494.6779
  71  446.0993
  72  381.0506
  73  413.0341
  74  382.0721
  75  402.0449
  76  454.6313
  77  450.3003
  78  370.6846
  79  383.419
  80  346.7618
  81  349.8195
  82  359.001
  83  374.5744
  84  351.812
  85  347.4018
  86  342.3581
  87  337.5039
  88  338.0868
  89  345.4607
  90  381.3679
  91  318.7663
  92  296.8772
  93  312.8679
  94  264.1352
  95  203.0688
  96  235.6807
  97  287.1825
  98  270.2091
  99  234.0208
 100  279.9351
 101  341.8336
 102  241.4503
 103  172.5531
 104  172.2937
 105  211.629
 106  264.8631
 107  292.3247
 108  267.7183
 109  246.7437
 110  319.006
 111  307.3929
 112  303.9848
 113  329.0218
 114  411.6454
 115  294.8449
 116  233.339
 117  245.7751
 118  186.1899
 119  245.8997
 120  244.579
 121  228.3913
 122  273.7746
 123  325.174
 124  259.3211
 125  254.8504
 126  223.1166
 127  195.5368
 128  282.6133
 129  291.3802
 130  280.0785
 131  197.3403
 132  229.9143
 133  227.2867
 134  261.2096
 135  269.7478
 136  262.5771
 137  328.9326
 138  333.3191
 139  257.6577
 140  248.6147
 141  273.3975
 142  257.6691
 143  262.9326
 144  305.2884
 145  342.9094
 146  312.3618
 147  389.2355
 148  424.3952
 149  435.6
 150  430.6722
 151  377.8897
 152  330.0231
 153  349.4397
 154  367.3152
 155  365.9189
 156  318.9134
 157  433.4014
 158  445.6955
 159  330.9964
 160  337.8516
 161  335.7895
 162  385.8024
 163  341.6773
 164  412.95
 165  394.4733
 166  462.0012
 167  471.7373
 168  462.0727
 169  404.3296
 170  364.2737
 171  323.3367
 172  318.6874
 173  419.6735
 174  473.4897
 175  438.8582
 176  434.4192
 177  480.3552
 178  502.5188
 179  485.5255
 180  512.1185
 181  496.9614
 182  447.7042
 183  538.1907
 184  562.9916
 185  585.011
 186  587.8185
 187  587.5043
 188  554.387
 189  533.0747
 190  507.3461
 191  446.011
 192  400.9058
 193  421.8212
 194  459.3795
 195  504.5299
 196  523.6121
 197  533.1472
 198  440.1908
 199  489.4673
 200  514.6026
 201  492.0225
 202  417.2458
 203  398.3633
 204  431.4418
 205  383.3055
 206  267.1963
 207  308.0751
 208  377.3179
 209  332.0591
 210  359.6594
 211  423.5761
 212  383.7434
 213  393.4419
 214  372.4116
 215  334.9334
 216  275.6504
 217  223.8832
 218  307.6328
 219  243.2683
 220  271.5941
 221  267.9414
 222  214.3692
 223  216.853
 224  196.3573
 225  290.0004
 226  270.4389
 227  302.0195
 228  307.8709
 229  247.2614
 230  258.0498
 231  268.5293
 232  267.4612
 233  278.7775
 234  229.4556
 235  235.6482
 236  236.6364
 237  164.733
 238  221.0679
 239  154.1701
 240  174.7753
 241  205.9025
 242  174.389
 243  236.9759
 244  208.6499
 245  255.1531
 246  224.807
 247  191.8568
 248  209.6827
 249  213.7432
 250  228.7895
 251  222.0835
 252  281.4268
 253  287.5946
 254  289.4268
 255  312.059
 256  273.9509
 257  247.9385
 258  246.1246
 259  282.6569
 260  226.7862
 261  172.0848
 262  272.836
 263  257.47
 264  297.9876
 265  277.6294
 266  306.6931
 267  318.5097
 268  347.0434
 269  315.8105
 270  295.7526
 271  301.3587
 272  306.2387
 273  327.129
 274  350.0474
 275  296.424
 276  330.864
 277  325.9417
 278  336.5457
 279  323.9316
 280  310.0712
 281  333.2648
 282  379.989
 283  360.9775
 284  355.4158
 285  368.0238
 286  333.7499
 287  452.101
 288  440.9466
 289  456.3372
 290  384.5629
 291  332.1204
 292  403.5451
 293  369.2666
 294  397.6586
 295  347.853
 296  292.1252
 297  303.0025
 298  319.3642
 299  407.7163
 300  434.0813
 301  384.7491
 302  418.0805
 303  487.5586
 304  423.5508
 305  394.0158
 306  393.6637
 307  384.8745
 308  403.6004
 309  330.3607
 310  380.8977
 311  439.7934
 312  401.0727
 313  377.9442
 314  363.7315
 315  359.5179
 316  376.8954
 317  401.4008
 318  367.4554
 319  314.6749
 320  316.4305
 321  356.9556
 322  335.3115
 323  330.9929
 324  305.3559
 325  349.2572
 326  415.0494
 327  320.4389
 328  257.0836
 329  260.5525
 330  296.0089
 331  350.4194
 332  330.2108
 333  373.8161
 334  433.0912
 335  454.2688
 336  449.8391
 337  417.1074
 338  364.5119
 339  414.8362
 340  319.9456
 341  357.0418
 342  361.0575
 343  375.1477
 344  296.4736
 345  332.8825
 346  375.5973
 347  418.9649
 348  450.1012
 349  407.2258
 350  436.0741
 351  432.6907
 352  391.9974
 353  366.4619
 354  438.7979
 355  349.1004
 356  353.1844
 357  333.2865
 358  321.7214
 359  371.6311
 360  487.0446
 361  417.936
 362  334.2253
 363  329.6434
 364  312.4917
 365  363.0395
 366  403.4542
 367  403.2531
 368  429.7529
 369  411.292
 370  327.6534
 371  278.5772
 372  271.0862
 373  221.2542
 374  235.426
 375  302.5045
 376  307.6734
 377  257.3969
 378  222.1891
 379  232.796
 380  272.7241
 381  306.8186
 382  273.9649
 383  286.6111
 384  295.2951
 385  268.8569
 386  219.2377
 387  223.5838
 388  270.2944
 389  256.0634
 390  269.0603
 391  263.6457
 392  296.3893
 393  337.3653
 394  285.3344
 395  299.1201
 396  310.4557
 397  358.7061
 398  360.7092
 399  351.6467
 400  363.8483
 401  287.1841
 402  308.0782
 403  306.8285
 404  254.8449
 405  208.7454
 406  279.6975
 407  376.0687
 408  339.8139
 409  406.9227
 410  426.1882
 411  442.4622
 412  455.467
 413  448.0052
 414  416.6288
 415  402.8424
 416  457.486
 417  385.7859
 418  393.2575
 419  506.9352
 420  420.8025
 421  376.073
 422  351.7699
 423  377.2058
 424  314.3943
 425  336.4683
 426  356.6201
 427  358.8828
 428  386.6547
 429  376.4058
 430  386.5776
 431  268.9896
 432  430.8482
 433  484.9951
 434  429.0295
 435  427.9176
 436  461.0477
 437  393.8342
 438  391.6582
 439  396.0583
 440  390.4187
 441  400.3358
 442  387.778
 443  401.8095
 444  387.9256
 445  298.589
 446  235.9929
 447  254.0753
 448  216.9789
 449  212.7042
 450  280.0543
 451  334.5011
 452  280.1941
 453  331.0795
 454  352.9054
 455  412.493
 456  329.5472
 457  317.9903
 458  325.2371
 459  298.4959
 460  346.4464
 461  351.6117
 462  327.0071
 463  324.7824
 464  299.1158
 465  268.8911
 466  321.8542
 467  251.6676
 468  333.8659
 469  312.071
 470  231.9526
 471  293.447
 472  265.8544
 473  251.5477
 474  319.2238
 475  355.8841
 476  322.8062
 477  286.3249
 478  265.2077
 479  250.4656
 480  238.4784
 481  237.9837
 482  166.8413
 483  250.7521
 484  284.9476
 485  206.2448
 486  183.5648
 487  143.9561
 488  241.7766
 489  313.6182
 490  353.1424
 491  354.8635
 492  324.0066
 493  286.4356
 494  325.1219
 495  324.9847
 496  313.0535
 497  235.3473
 498  270.3356
 499  263.4772
 500  272.5679
 501  280.4721
 502  325.1134
 503  380.8376
 504  405.7895
 505  374.1003
 506  355.8571
 507  407.78
 508  424.7203
 509  513.8713
 510  639.6833
 511  725.9202
