# Input file       =  1209130620.106693_cleaned.dat
# Candidate        =  PSR_0332+5434
# Telescope        =  AR
# Epoch_topo       =  58238.567154012650
# Epoch_bary       =  N/A
# T_sample         =  0.002
# Data Folded      =  7340032
# Data Avg         =  0.0342302061148756
# Data StdDev      =  1.000032371349   
# Profile Bins     =  512
# Profile Avg      =  490.697898478409 
# Profile StdDev   =  119.736912296674 
# Reduced chi-sqr  =  1.396
# Prob(Noise)      <  7.02e-09   (~5.7 sigma)
# P_topo (ms)      =  714.547453669414  +/- 0.000312
# P'_topo (s/s)    =  -0                +/- 1.65e-10
# P''_topo (s/s^2) =  0                 +/- 7.27e-14
# P_bary (ms)      =  N/A
# P'_bary (s/s)    =  N/A
# P''_bary (s/s^2) =  N/A
# P_orb (s)        =  N/A
# asin(i)/c (s)    =  N/A
# eccentricity     =  N/A
# w (rad)          =  N/A
# T_peri           =  N/A
######################################################
   0  1105.017
   1  1146.105
   2  972.4202
   3  557.2926
   4  444.4055
   5  422.8884
   6  526.3685
   7  429.2069
   8  306.4128
   9  301.1355
  10  343.3867
  11  352.3538
  12  454.1355
  13  414.9756
  14  441.9519
  15  481.4682
  16  481.1389
  17  390.1791
  18  441.0111
  19  466.8466
  20  422.198
  21  485.807
  22  525.7872
  23  495.6794
  24  411.5644
  25  434.2874
  26  515.4312
  27  514.8508
  28  524.0881
  29  666.6115
  30  509.293
  31  427.8768
  32  522.973
  33  597.065
  34  632.9156
  35  579.9504
  36  560.2261
  37  491.5398
  38  582.0372
  39  584.3523
  40  504.744
  41  524.3907
  42  482.5192
  43  472.5432
  44  377.764
  45  409.116
  46  499.5518
  47  509.088
  48  523.6509
  49  545.1138
  50  454.2364
  51  412.4941
  52  415.9519
  53  466.0579
  54  530.282
  55  561.1434
  56  459.7511
  57  433.1738
  58  580.8508
  59  510.0106
  60  429.0547
  61  421.2343
  62  433.6294
  63  445.8541
  64  522.5652
  65  410.0445
  66  514.6186
  67  531.6872
  68  472.9723
  69  356.5215
  70  483.5097
  71  625.7589
  72  505.8856
  73  427.4958
  74  501.3232
  75  526.6728
  76  595.9534
  77  584.6969
  78  598.5149
  79  414.3677
  80  477.7314
  81  508.3844
  82  442.9586
  83  438.7161
  84  434.4411
  85  330.4738
  86  396.9447
  87  511.5142
  88  446.2811
  89  445.8522
  90  454.5172
  91  519.1993
  92  513.0561
  93  587.9874
  94  589.1815
  95  450.9837
  96  477.4066
  97  537.5723
  98  488.5986
  99  482.4788
 100  455.5056
 101  464.9076
 102  438.2515
 103  456.239
 104  611.6318
 105  623.5316
 106  460.6431
 107  420.294
 108  369.7148
 109  560.7808
 110  501.0412
 111  399.0088
 112  505.6738
 113  509.9242
 114  470.0379
 115  451.4859
 116  403.6622
 117  452.2069
 118  510.7447
 119  513.6619
 120  482.2024
 121  485.916
 122  366.066
 123  442.5518
 124  345.578
 125  465.4523
 126  435.6023
 127  336.825
 128  343.6802
 129  540.2126
 130  490.7139
 131  441.9034
 132  407.0704
 133  375.1277
 134  452.6905
 135  619.8223
 136  684.3717
 137  616.8441
 138  502.6748
 139  544.8309
 140  486.8882
 141  430.1683
 142  530.7188
 143  546.1094
 144  518.2908
 145  652.285
 146  602.564
 147  591.9448
 148  532.9645
 149  542.5115
 150  470.7624
 151  513.2823
 152  425.1252
 153  408.9134
 154  493.7509
 155  400.877
 156  411.1166
 157  402.5894
 158  504.0132
 159  493.8569
 160  368.9509
 161  349.7448
 162  443.2341
 163  453.9804
 164  345.7924
 165  267.0891
 166  450.1704
 167  480.8514
 168  461.7278
 169  474.5468
 170  470.4912
 171  529.267
 172  542.1907
 173  458.9247
 174  539.4429
 175  593.795
 176  603.2102
 177  572.1179
 178  645.4562
 179  554.1658
 180  561.3523
 181  578.0651
 182  567.3951
 183  444.8763
 184  396.5027
 185  455.901
 186  531.2352
 187  448.7611
 188  413.2948
 189  458.3815
 190  552.9014
 191  567.0666
 192  573.5281
 193  622.3602
 194  543.5751
 195  497.8893
 196  492.0337
 197  491.7302
 198  521.4512
 199  450.3575
 200  412.5441
 201  513.3857
 202  517.6276
 203  551.4438
 204  565.7091
 205  416.9422
 206  415.8112
 207  577.4855
 208  568.0703
 209  512.5743
 210  533.3909
 211  527.5038
 212  508.3457
 213  478.2924
 214  450.4606
 215  401.236
 216  540.8396
 217  534.3423
 218  442.426
 219  365.2551
 220  434.9094
 221  521.5814
 222  424.2462
 223  483.9087
 224  533.678
 225  538.1489
 226  514.0125
 227  371.341
 228  364.0707
 229  458.8329
 230  467.9746
 231  457.4478
 232  427.2949
 233  443.8435
 234  482.3224
 235  454.8881
 236  439.8691
 237  507.0222
 238  664.3562
 239  559.6622
 240  456.9169
 241  362.3849
 242  468.1137
 243  470.5793
 244  478.6167
 245  516.046
 246  536.2975
 247  575.5355
 248  543.4778
 249  569.1553
 250  577.3217
 251  565.7181
 252  531.8782
 253  553.6124
 254  501.7697
 255  538.1149
 256  576.4231
 257  628.8506
 258  529.3769
 259  519.6217
 260  586.1306
 261  614.1207
 262  460.473
 263  470.129
 264  560.8039
 265  571.2833
 266  549.1983
 267  629.5143
 268  585.379
 269  511.0503
 270  452.7724
 271  411.3044
 272  520.2486
 273  441.5819
 274  503.978
 275  452.3523
 276  488.1447
 277  466.972
 278  473.958
 279  479.855
 280  394.4879
 281  427.0429
 282  503.1212
 283  535.2051
 284  460.5181
 285  469.343
 286  430.2465
 287  362.5679
 288  290.0831
 289  407.1111
 290  623.1285
 291  744.5095
 292  611.1011
 293  403.8485
 294  301.6312
 295  346.5605
 296  465.1147
 297  542.7571
 298  498.9467
 299  376.3793
 300  357.6606
 301  447.1824
 302  396.3272
 303  388.7473
 304  287.9024
 305  259.4875
 306  367.4992
 307  398.8307
 308  411.9559
 309  474.0418
 310  473.7213
 311  502.8734
 312  572.1685
 313  603.3669
 314  660.0656
 315  542.2929
 316  562.0964
 317  645.8252
 318  574.1148
 319  549.5894
 320  570.3549
 321  578.0776
 322  603.7288
 323  664.0062
 324  650.7625
 325  618.8418
 326  531.3403
 327  536.5265
 328  522.0063
 329  552.6062
 330  565.175
 331  368.5642
 332  496.1996
 333  609.8174
 334  603.5486
 335  573.5192
 336  478.7271
 337  466.6505
 338  515.8446
 339  547.4494
 340  591.8955
 341  614.7737
 342  641.3907
 343  455.5468
 344  523.7272
 345  540.677
 346  533.0614
 347  522.908
 348  586.0073
 349  649.9734
 350  561.2286
 351  509.0003
 352  544.5388
 353  500.2725
 354  456.3264
 355  451.2158
 356  415.6058
 357  467.5704
 358  512.1494
 359  459.5754
 360  515.363
 361  438.2359
 362  321.2456
 363  388.2509
 364  428.1716
 365  432.924
 366  520.7791
 367  539.6085
 368  427.0898
 369  355.1578
 370  418.8902
 371  322.0168
 372  278.2454
 373  269.1205
 374  285.3461
 375  246.7547
 376  368.3997
 377  364.5154
 378  435.4122
 379  411.0599
 380  371.191
 381  504.7712
 382  619.8107
 383  484.3564
 384  427.9158
 385  384.3195
 386  475.5906
 387  454.0389
 388  552.5593
 389  543.5627
 390  596.5726
 391  582.8416
 392  542.4069
 393  538.3271
 394  467.1398
 395  484.6101
 396  629.8762
 397  653.0351
 398  559.7806
 399  531.8279
 400  524.3569
 401  466.8208
 402  526.571
 403  521.1194
 404  470.8422
 405  455.8098
 406  555.2573
 407  580.2999
 408  566.7575
 409  628.3181
 410  471.1681
 411  409.0049
 412  410.2568
 413  367.7299
 414  452.4127
 415  435.2569
 416  505.8586
 417  471.0432
 418  444.019
 419  383.8478
 420  503.5146
 421  560.1751
 422  485.0875
 423  381.3495
 424  507.7104
 425  482.2995
 426  386.1373
 427  364.0228
 428  447.5236
 429  457.7498
 430  311.1924
 431  384.4251
 432  343.7674
 433  455.3004
 434  544.3715
 435  463.1659
 436  320.4807
 437  379.0542
 438  406.3637
 439  453.0614
 440  489.8784
 441  530.5533
 442  531.6283
 443  471.8765
 444  381.4426
 445  312.8719
 446  413.9359
 447  373.6741
 448  254.237
 449  299.6145
 450  349.1971
 451  360.5359
 452  351.8253
 453  239.8145
 454  308.6996
 455  389.3338
 456  327.1243
 457  353.3152
 458  373.0847
 459  387.0848
 460  381.6244
 461  397.9265
 462  578.544
 463  539.7061
 464  431.4298
 465  441.2426
 466  401.882
 467  360.661
 468  389.3775
 469  518.448
 470  521.755
 471  399.2084
 472  406.7569
 473  481.8061
 474  510.3671
 475  596.2976
 476  645.2613
 477  568.498
 478  475.2979
 479  422.7441
 480  473.6059
 481  457.0381
 482  538.0975
 483  596.5396
 484  596.0928
 485  508.9724
 486  410.0007
 487  449.7018
 488  536.4819
 489  425.3893
 490  507.1074
 491  489.9974
 492  508.5924
 493  491.0178
 494  511.3316
 495  597.0396
 496  608.5681
 497  502.1461
 498  508.2302
 499  514.5853
 500  616.451
 501  633.8522
 502  597.9526
 503  613.7881
 504  626.3621
 505  617.2434
 506  718.4918
 507  651.4786
 508  683.9515
 509  828.8041
 510  962.3131
 511  996.1796
