# Input file       =  1209733729.112785_cleaned.dat
# Candidate        =  PSR_0332+5434
# Telescope        =  AR
# Epoch_topo       =  58245.547582323903
# Epoch_bary       =  N/A
# T_sample         =  0.002
# Data Folded      =  7340032
# Data Avg         =  0.0323346054097842
# Data StdDev      =  1.00006539171108 
# Profile Bins     =  512
# Profile Avg      =  463.483043815995 
# Profile StdDev   =  119.740865924887 
# Reduced chi-sqr  =  1.388
# Prob(Noise)      <  1.29e-08   (~5.6 sigma)
# P_topo (ms)      =  714.541055678859  +/- 0.000349
# P'_topo (s/s)    =  -0                +/- 1.84e-10
# P''_topo (s/s^2) =  0                 +/- 8.14e-14
# P_bary (ms)      =  N/A
# P'_bary (s/s)    =  N/A
# P''_bary (s/s^2) =  N/A
# P_orb (s)        =  N/A
# asin(i)/c (s)    =  N/A
# eccentricity     =  N/A
# w (rad)          =  N/A
# T_peri           =  N/A
######################################################
   0  1066.743
   1  1094.957
   2  924.5635
   3  686.7297
   4  684.2697
   5  595.1647
   6  535.405
   7  458.5631
   8  327.2441
   9  328.1979
  10  479.4819
  11  621.8444
  12  475.4036
  13  456.4778
  14  529.8032
  15  518.843
  16  452.9226
  17  478.5931
  18  450.8092
  19  469.3025
  20  460.8661
  21  337.6591
  22  411.9876
  23  413.487
  24  312.5781
  25  343.7562
  26  450.3742
  27  444.5718
  28  391.5473
  29  369.4559
  30  370.7982
  31  418.5341
  32  458.1787
  33  491.821
  34  416.9272
  35  435.6607
  36  518.647
  37  476.6724
  38  547.0998
  39  575.8
  40  504.1979
  41  383.6393
  42  412.301
  43  517.4117
  44  577.7823
  45  569.6809
  46  458.6582
  47  419.2628
  48  472.5764
  49  458.3412
  50  571.799
  51  475.1938
  52  585.7385
  53  614.5954
  54  416.0744
  55  329.2484
  56  455.7901
  57  409.3372
  58  395.1773
  59  375.5135
  60  514.6396
  61  543.7094
  62  439.9247
  63  462.6
  64  456.6535
  65  408.5421
  66  411.2126
  67  506.0233
  68  495.1161
  69  412.0808
  70  424.7719
  71  523.7437
  72  555.4299
  73  455.0502
  74  321.6739
  75  231.6534
  76  466.2668
  77  464.8414
  78  301.319
  79  408.0286
  80  407.6031
  81  447.3185
  82  459.6049
  83  436.3785
  84  380.181
  85  362.2755
  86  547.8322
  87  532.0013
  88  534.1586
  89  457.553
  90  436.6635
  91  367.5457
  92  497.1522
  93  503.6487
  94  365.8757
  95  397.8222
  96  344.1175
  97  412.2471
  98  460.1822
  99  565.6684
 100  458.439
 101  436.9383
 102  505.9657
 103  457.1151
 104  481.3456
 105  456.9051
 106  564.7748
 107  464.794
 108  396.4374
 109  406.5981
 110  250.6794
 111  410.3293
 112  379.2396
 113  428.4802
 114  500.7622
 115  444.8333
 116  443.9362
 117  378.171
 118  464.6374
 119  406.5839
 120  391.5422
 121  504.8141
 122  525.1071
 123  437.262
 124  489.7929
 125  516.6689
 126  494.8553
 127  501.166
 128  311.7466
 129  269.2435
 130  408.6016
 131  483.5066
 132  509.033
 133  534.6083
 134  528.5153
 135  425.544
 136  469.2375
 137  589.4655
 138  534.558
 139  518.6023
 140  584.2668
 141  614.9138
 142  458.2715
 143  521.6691
 144  600.7255
 145  712.3901
 146  564.6645
 147  514.0425
 148  465.9131
 149  478.4621
 150  444.9277
 151  488.1186
 152  481.5695
 153  451.4753
 154  473.8687
 155  522.2237
 156  490.9657
 157  506.372
 158  471.8755
 159  546.2572
 160  552.8433
 161  449.1712
 162  474.2172
 163  537.3271
 164  467.1799
 165  483.2026
 166  433.151
 167  476.5708
 168  465.9852
 169  490.2829
 170  397.2358
 171  450.1873
 172  379.1668
 173  502.3578
 174  513.2122
 175  460.1396
 176  319.761
 177  410.4951
 178  414.9369
 179  502.8553
 180  526.3512
 181  493.3837
 182  425.6665
 183  379.0251
 184  503.9933
 185  518.4713
 186  458.2665
 187  409.7878
 188  469.817
 189  511.2329
 190  494.4093
 191  348.5848
 192  240.9861
 193  252.2866
 194  349.3904
 195  385.1566
 196  498.6172
 197  486.7446
 198  438.8098
 199  382.8531
 200  434.5599
 201  396.2914
 202  364.9097
 203  458.6956
 204  473.1446
 205  406.4789
 206  391.0742
 207  516.4604
 208  488.6306
 209  539.5069
 210  567.3068
 211  523.7989
 212  454.1793
 213  476.3731
 214  470.5493
 215  436.368
 216  385.5628
 217  386.2267
 218  413.8669
 219  430.8513
 220  432.9377
 221  501.2427
 222  522.1404
 223  520.5257
 224  477.1564
 225  416.0323
 226  451.0109
 227  496.7029
 228  432.1984
 229  415.4085
 230  496.2112
 231  504.6495
 232  467.5975
 233  393.0989
 234  474.1523
 235  567.2867
 236  404.988
 237  393.9308
 238  481.6962
 239  483.2141
 240  506.5183
 241  378.6817
 242  473.5217
 243  510.6262
 244  564.1103
 245  581.173
 246  487.5916
 247  422.4724
 248  484.8325
 249  539.3182
 250  453.6219
 251  403.1035
 252  367.4055
 253  455.9324
 254  503.954
 255  486.6674
 256  567.6316
 257  507.572
 258  476.9409
 259  425.2294
 260  354.2315
 261  344.7868
 262  401.1219
 263  501.4674
 264  456.4315
 265  534.9175
 266  645.8921
 267  623.7484
 268  537.17
 269  471.9666
 270  507.7439
 271  436.4001
 272  420.9674
 273  378.9473
 274  379.2289
 275  321.7543
 276  442.4207
 277  441.4265
 278  512.6946
 279  484.2289
 280  323.6236
 281  280.8175
 282  407.2318
 283  322.9507
 284  369.4123
 285  370.1656
 286  323.535
 287  447.5765
 288  385.4138
 289  286.3206
 290  285.9927
 291  303.5363
 292  455.093
 293  360.1908
 294  410.2727
 295  407.7061
 296  443.1215
 297  428.1521
 298  272.1274
 299  232.0325
 300  426.6376
 301  380.911
 302  360.1844
 303  489.1281
 304  413.173
 305  281.2934
 306  316.4539
 307  412.7363
 308  382.0201
 309  317.1754
 310  335.1551
 311  372.9482
 312  420.536
 313  444.6347
 314  349.364
 315  492.3404
 316  431.936
 317  345.8376
 318  309.5937
 319  384.3135
 320  441.2695
 321  422.9191
 322  376.6647
 323  293.678
 324  257.8585
 325  312.5404
 326  406.8067
 327  482.4079
 328  384.3851
 329  402.3776
 330  362.6081
 331  460.2399
 332  413.9467
 333  489.4614
 334  529.1474
 335  476.8781
 336  511.8332
 337  471.2425
 338  646.7532
 339  510.386
 340  438.8392
 341  462.3683
 342  477.3008
 343  472.5707
 344  397.0677
 345  325.5753
 346  404.9476
 347  355.5843
 348  447.7865
 349  480.3403
 350  511.0189
 351  498.6757
 352  543.0168
 353  440.4726
 354  261.114
 355  323.4882
 356  427.7976
 357  427.6572
 358  445.54
 359  526.5471
 360  512.1099
 361  597.6407
 362  621.0757
 363  538.1844
 364  490.903
 365  422.4741
 366  403.3901
 367  460.2762
 368  540.5228
 369  598.4094
 370  482.0468
 371  372.7862
 372  442.5899
 373  387.3139
 374  394.0176
 375  393.5563
 376  407.2313
 377  393.5364
 378  328.7805
 379  406.1284
 380  386.802
 381  267.7404
 382  356.6254
 383  468.6203
 384  395.2266
 385  397.9777
 386  380.9164
 387  413.1835
 388  330.1331
 389  436.7563
 390  463.5446
 391  531.1198
 392  492.6841
 393  413.8368
 394  397.1664
 395  476.268
 396  477.7922
 397  412.6852
 398  365.4037
 399  273.4568
 400  326.2554
 401  335.3049
 402  487.515
 403  458.2381
 404  510.4162
 405  453.5265
 406  430.551
 407  340.248
 408  381.3913
 409  491.4909
 410  482.9895
 411  400.548
 412  377.5682
 413  548.646
 414  514.5038
 415  409.6512
 416  398.3691
 417  395.676
 418  507.4293
 419  427.764
 420  450.2334
 421  496.4986
 422  560.4307
 423  467.6418
 424  484.4096
 425  446.9667
 426  423.4854
 427  627.9309
 428  471.9663
 429  432.6938
 430  478.5031
 431  521.2469
 432  476.5889
 433  615.4634
 434  505.2014
 435  514.5649
 436  521.7482
 437  505.3576
 438  445.1272
 439  563.0562
 440  519.0005
 441  473.8272
 442  430.9557
 443  466.6761
 444  385.7771
 445  402.8648
 446  517.9038
 447  508.4204
 448  480.2932
 449  515.4991
 450  576.0616
 451  620.527
 452  629.4923
 453  543.2674
 454  312.4399
 455  407.0716
 456  424.787
 457  408.9815
 458  566.8795
 459  570.2341
 460  467.7367
 461  437.2818
 462  485.1151
 463  524.0471
 464  488.0862
 465  390.1714
 466  485.8274
 467  458.7799
 468  473.7184
 469  465.4653
 470  403.988
 471  470.664
 472  526.7123
 473  584.8107
 474  620.3171
 475  649.2659
 476  612.1744
 477  584.3068
 478  456.8643
 479  469.0827
 480  438.9797
 481  442.5608
 482  583.3169
 483  576.0469
 484  528.7507
 485  441.9458
 486  365.3116
 487  500.588
 488  492.9135
 489  565.6851
 490  614.4455
 491  563.9064
 492  485.054
 493  409.5188
 494  524.7394
 495  681.1916
 496  646.2839
 497  466.9444
 498  491.7623
 499  503.443
 500  531.8558
 501  486.174
 502  451.8355
 503  473.8503
 504  570.3928
 505  551.9688
 506  563.6251
 507  721.2507
 508  731.5856
 509  979.6255
 510  1031.903
 511  1077.059
