# Input file       =  1209718813.113208_cleaned.dat
# Candidate        =  PSR_0332+5434
# Telescope        =  AR
# Epoch_topo       =  58245.374943439907
# Epoch_bary       =  N/A
# T_sample         =  0.002
# Data Folded      =  7340032
# Data Avg         =  0.0241559728520228
# Data StdDev      =  1.00003779726981 
# Profile Bins     =  512
# Profile Avg      =  346.291298207907 
# Profile StdDev   =  119.737561958647 
# Reduced chi-sqr  =  1.241
# Prob(Noise)      <  0.000162   (~3.6 sigma)
# P_topo (ms)      =  714.540883779544  +/- 0.000402
# P'_topo (s/s)    =  -0                +/- 2.12e-10
# P''_topo (s/s^2) =  0                 +/- 9.36e-14
# P_bary (ms)      =  N/A
# P'_bary (s/s)    =  N/A
# P''_bary (s/s^2) =  N/A
# P_orb (s)        =  N/A
# asin(i)/c (s)    =  N/A
# eccentricity     =  N/A
# w (rad)          =  N/A
# T_peri           =  N/A
######################################################
   0  970.1366
   1  850.74
   2  797.2531
   3  616.8945
   4  398.7264
   5  312.2038
   6  313.9342
   7  436.3311
   8  408.6801
   9  370.4241
  10  342.7582
  11  351.545
  12  381.226
  13  404.124
  14  427.0892
  15  488.4977
  16  473.233
  17  457.9811
  18  470.0429
  19  346.4759
  20  329.5339
  21  340.6765
  22  323.254
  23  370.2854
  24  425.019
  25  351.342
  26  424.7591
  27  312.9174
  28  200.1199
  29  259.5168
  30  395.5092
  31  388.3965
  32  305.2572
  33  309.4138
  34  387.7688
  35  441.437
  36  353.3923
  37  427.2305
  38  358.2664
  39  347.5376
  40  374.8601
  41  370.3471
  42  410.398
  43  275.4962
  44  271.4423
  45  253.6315
  46  338.1422
  47  386.4098
  48  327.2443
  49  286.0139
  50  330.0556
  51  326.9701
  52  456.1024
  53  475.4045
  54  402.2508
  55  428.8004
  56  404.5544
  57  282.8964
  58  314.1503
  59  289.0282
  60  299.49
  61  365.9643
  62  360.6689
  63  297.9313
  64  260.043
  65  221.8545
  66  279.2521
  67  313.6671
  68  299.1298
  69  298.5124
  70  280.7831
  71  313.9709
  72  321.6492
  73  423.9482
  74  427.1501
  75  435.4115
  76  414.8091
  77  449.4205
  78  388.7698
  79  318.5456
  80  394.8363
  81  497.0354
  82  406.2578
  83  377.4596
  84  344.0216
  85  307.6938
  86  333.4342
  87  306.6313
  88  120.7977
  89  219.6985
  90  275.0989
  91  212.0736
  92  225.8829
  93  250.2952
  94  204.3142
  95  189.0855
  96  248.0269
  97  290.8653
  98  381.3479
  99  346.3169
 100  355.4386
 101  283.562
 102  318.8966
 103  291.1272
 104  266.4802
 105  236.3767
 106  311.705
 107  221.4547
 108  269.1658
 109  183.6215
 110  147.2082
 111  111.0213
 112  110.7406
 113  132.7117
 114  164.5554
 115  244.9565
 116  175.2412
 117  127.767
 118  180.4667
 119  183.6256
 120  314.1805
 121  254.0276
 122  110.7217
 123  172.1637
 124  306.6936
 125  222.7729
 126  187.0316
 127  197.6739
 128  223.6154
 129  219.7214
 130  187.5932
 131  166.0295
 132  246.3858
 133  190.5326
 134  164.1421
 135  185.9654
 136  271.9254
 137  208.3078
 138  159.021
 139  302.3086
 140  318.0021
 141  357.8076
 142  334.7287
 143  311.1884
 144  381.1036
 145  319.4272
 146  320.6815
 147  314.8007
 148  220.6956
 149  156.3745
 150  138.188
 151  156.9423
 152  196.0409
 153  222.261
 154  267.0898
 155  365.9266
 156  311.4358
 157  175.1954
 158  282.5275
 159  276.2758
 160  263.6876
 161  334.5881
 162  367.6954
 163  373.36
 164  350.0511
 165  266.7221
 166  177.1119
 167  211.1311
 168  312.4343
 169  282.7972
 170  234.0475
 171  269.6346
 172  332.5036
 173  266.9712
 174  260.3682
 175  286.5802
 176  320.8391
 177  315.8703
 178  192.1078
 179  242.1435
 180  368.6344
 181  405.7815
 182  350.0638
 183  206.3157
 184  313.2296
 185  320.5051
 186  287.6557
 187  316.7401
 188  310.3351
 189  358.9374
 190  312.0498
 191  344.2353
 192  400.568
 193  385.0883
 194  392.1569
 195  396.0753
 196  339.3797
 197  263.3547
 198  283.2633
 199  203.8967
 200  223.527
 201  292.5691
 202  297.3062
 203  341.7453
 204  434.2766
 205  415.2444
 206  380.4766
 207  338.1412
 208  277.848
 209  387.4434
 210  428.2072
 211  325.5235
 212  402.7712
 213  428.4542
 214  448.6298
 215  451.2579
 216  419.8319
 217  437.5023
 218  362.1068
 219  297.1233
 220  353.8461
 221  411.8202
 222  459.94
 223  358.6241
 224  338.1791
 225  279.0423
 226  301.8015
 227  288.2159
 228  339.5944
 229  284.5493
 230  251.3609
 231  372.2374
 232  362.817
 233  318.5518
 234  386.2467
 235  508.304
 236  561.9837
 237  548.6174
 238  429.1685
 239  352.5916
 240  293.3379
 241  374.2326
 242  367.1757
 243  433.3562
 244  469.0778
 245  548.2189
 246  428.0576
 247  341.0305
 248  434.0903
 249  432.8198
 250  431.5942
 251  459.1924
 252  425.4036
 253  313.5961
 254  335.764
 255  330.0721
 256  399.5376
 257  380.3636
 258  406.636
 259  301.5602
 260  341.8757
 261  358.4784
 262  457.027
 263  405.0049
 264  326.131
 265  433.9998
 266  418.0312
 267  332.6204
 268  303.763
 269  423.1995
 270  442.7516
 271  347.3919
 272  317.8002
 273  369.8769
 274  291.1182
 275  348.3332
 276  360.1284
 277  452.4187
 278  514.2532
 279  489.9649
 280  372.4575
 281  219.4151
 282  283.3435
 283  324.1352
 284  296.6219
 285  328.944
 286  385.8437
 287  474.673
 288  394.6424
 289  380.3903
 290  343.1952
 291  381.3577
 292  411.3614
 293  371.1987
 294  394.6436
 295  389.1352
 296  359.9636
 297  329.8583
 298  347.6587
 299  375.5179
 300  390.834
 301  434.5324
 302  487.6032
 303  457.3995
 304  299.2217
 305  397.3367
 306  455.9534
 307  474.5466
 308  418.4833
 309  426.5583
 310  447.4051
 311  332.8322
 312  367.7011
 313  397.5884
 314  455.7156
 315  345.5532
 316  354.4895
 317  375.3693
 318  373.5032
 319  399.9235
 320  341.2724
 321  345.5852
 322  327.1282
 323  341.1455
 324  271.3572
 325  258.5955
 326  330.5065
 327  293.0803
 328  321.7459
 329  386.6124
 330  412.061
 331  338.9188
 332  363.6304
 333  481.3343
 334  458.7336
 335  361.5237
 336  319.0731
 337  406.154
 338  442.5591
 339  350.2719
 340  349.1519
 341  291.0082
 342  282.8818
 343  260.9079
 344  300.6367
 345  321.7665
 346  327.355
 347  314.952
 348  248.5842
 349  195.6074
 350  271.7546
 351  297.5948
 352  334.5862
 353  425.2052
 354  362.6325
 355  340.5648
 356  254.8864
 357  333.6951
 358  346.3025
 359  376.8555
 360  366.4411
 361  330.9419
 362  408.7118
 363  346.9366
 364  314.3483
 365  298.2289
 366  240.8046
 367  329.3872
 368  457.767
 369  433.8123
 370  450.1301
 371  362.9769
 372  354.5035
 373  333.7523
 374  324.7124
 375  404.3833
 376  470.8338
 377  552.5933
 378  497.9493
 379  392.8026
 380  308.0981
 381  299.7566
 382  296.9652
 383  410.2301
 384  387.6259
 385  419.9382
 386  370.4302
 387  433.4977
 388  341.2924
 389  276.0708
 390  360.7952
 391  440.9191
 392  429.8337
 393  404.5645
 394  369.8777
 395  346.1731
 396  273.3858
 397  305.6929
 398  333.6245
 399  403.6778
 400  390.511
 401  338.9475
 402  422.5486
 403  350.3299
 404  305.7723
 405  346.6606
 406  416.897
 407  360.7116
 408  399.6953
 409  443.0647
 410  379.3103
 411  299.7318
 412  300.6846
 413  365.4278
 414  282.8568
 415  304.545
 416  328.7335
 417  308.2007
 418  303.7998
 419  354.1923
 420  344.8152
 421  366.3561
 422  314.3298
 423  322.8792
 424  227.0992
 425  193.9647
 426  312.1549
 427  402.5028
 428  448.205
 429  368.5227
 430  275.0217
 431  343.3929
 432  361.574
 433  295.0898
 434  250.1934
 435  269.7284
 436  308.114
 437  446.3447
 438  378.0785
 439  367.2441
 440  342.0539
 441  380.669
 442  304.9783
 443  326.6484
 444  353.3675
 445  351.8134
 446  402.98
 447  365.3682
 448  408.3932
 449  360.2072
 450  394.9454
 451  342.9069
 452  344.097
 453  345.0467
 454  384.4402
 455  407.0318
 456  333.8584
 457  234.1666
 458  204.4446
 459  279.2033
 460  391.5416
 461  372.9948
 462  332.7451
 463  269.3866
 464  324.0727
 465  295.1535
 466  335.6241
 467  325.8144
 468  314.3768
 469  318.9234
 470  238.5396
 471  231.336
 472  245.085
 473  259.5857
 474  261.3882
 475  282.4926
 476  233.9328
 477  335.178
 478  412.573
 479  330.1987
 480  429.266
 481  428.4245
 482  423.7989
 483  379.3475
 484  398.7736
 485  401.0922
 486  367.3401
 487  463.4194
 488  421.5403
 489  339.248
 490  307.2096
 491  349.6838
 492  429.0128
 493  387.5649
 494  421.4402
 495  364.1011
 496  342.0248
 497  425.8602
 498  392.5679
 499  417.2635
 500  423.4306
 501  416.8467
 502  359.4387
 503  334.3763
 504  498.8885
 505  433.1427
 506  360.4174
 507  402.0334
 508  508.0297
 509  661.9155
 510  810.3333
 511  932.3492
