# Input file       =  1209632602.116271_cleaned.dat
# Candidate        =  PSR_0332+5434
# Telescope        =  AR
# Epoch_topo       =  58244.377130975357
# Epoch_bary       =  N/A
# T_sample         =  0.002
# Data Folded      =  7340032
# Data Avg         =  0.0222110667098642
# Data StdDev      =  1.00007823033536 
# Profile Bins     =  512
# Profile Avg      =  318.327628934226 
# Profile StdDev   =  119.742403132355 
# Reduced chi-sqr  =  1.411
# Prob(Noise)      <  2.27e-09   (~5.9 sigma)
# P_topo (ms)      =  714.54181472172   +/- 0.000381
# P'_topo (s/s)    =  -0                +/- 2.01e-10
# P''_topo (s/s^2) =  0                 +/- 8.88e-14
# P_bary (ms)      =  N/A
# P'_bary (s/s)    =  N/A
# P''_bary (s/s^2) =  N/A
# P_orb (s)        =  N/A
# asin(i)/c (s)    =  N/A
# eccentricity     =  N/A
# w (rad)          =  N/A
# T_peri           =  N/A
######################################################
   0  1016.774
   1  914.8442
   2  812.7681
   3  616.3152
   4  535.3473
   5  447.467
   6  376.7464
   7  469.4294
   8  450.5603
   9  379.7604
  10  320.2826
  11  340.0631
  12  482.6491
  13  454.0502
  14  383.3541
  15  475.4558
  16  491.9356
  17  368.3134
  18  310.6213
  19  310.9341
  20  350.4132
  21  318.4859
  22  422.4398
  23  343.5044
  24  240.5518
  25  359.9245
  26  405.5342
  27  367.7848
  28  343.1303
  29  345.9835
  30  367.501
  31  392.5137
  32  353.886
  33  333.294
  34  315.0369
  35  342.9495
  36  324.4839
  37  354.1428
  38  348.6392
  39  454.4026
  40  371.6427
  41  272.375
  42  275.3079
  43  331.145
  44  299.158
  45  300.1463
  46  242.5773
  47  220.5501
  48  270.8915
  49  364.8099
  50  310.6314
  51  257.8557
  52  253.1817
  53  330.3763
  54  401.3631
  55  386.8017
  56  344.1317
  57  226.5082
  58  293.3476
  59  413.103
  60  376.8199
  61  348.305
  62  333.6848
  63  357.6405
  64  234.2428
  65  210.0578
  66  205.6697
  67  229.8064
  68  212.8496
  69  154.2729
  70  62.05078
  71  146.5212
  72  221.2048
  73  218.1989
  74  236.753
  75  207.1794
  76  222.6489
  77  201.7404
  78  230.7165
  79  277.6351
  80  366.2721
  81  286.4298
  82  145.4444
  83  78.12846
  84  147.1735
  85  279.2065
  86  185.0939
  87  158.7752
  88  240.3894
  89  289.5454
  90  157.779
  91  159.042
  92  245.3635
  93  276.2947
  94  326.0537
  95  336.7322
  96  378.6281
  97  382.1436
  98  421.5361
  99  305.1353
 100  221.699
 101  334.2055
 102  305.9011
 103  305.8949
 104  332.7587
 105  293.3766
 106  344.2123
 107  321.662
 108  330.1528
 109  391.5453
 110  436.8151
 111  429.1088
 112  223.0762
 113  297.4769
 114  363.1454
 115  321.6048
 116  374.7143
 117  275.9085
 118  257.0684
 119  237.1516
 120  363.2186
 121  463.1466
 122  364.0895
 123  309.2438
 124  292.313
 125  311.7878
 126  363.286
 127  313.9094
 128  419.1202
 129  440.2702
 130  384.0516
 131  336.9789
 132  312.5095
 133  352.6121
 134  369.2326
 135  451.2874
 136  410.047
 137  396.7704
 138  363.9175
 139  451.0352
 140  398.3209
 141  347.245
 142  379.3693
 143  455.8364
 144  502.7002
 145  453.8625
 146  391.6593
 147  315.0238
 148  445.3168
 149  387.6463
 150  344.7132
 151  301.1981
 152  370.9028
 153  442.4528
 154  410.103
 155  405.3904
 156  385.451
 157  351.7468
 158  360.7521
 159  396.3375
 160  450.4703
 161  486.9906
 162  388.5255
 163  298.9029
 164  333.1514
 165  392.6682
 166  350.6496
 167  255.313
 168  222.7177
 169  312.5602
 170  384.6322
 171  340.7056
 172  335.5861
 173  318.1618
 174  319.558
 175  349.4482
 176  380.5151
 177  339.0326
 178  304.846
 179  353.1863
 180  351.0835
 181  279.0583
 182  267.9019
 183  340.5949
 184  251.1379
 185  148.3571
 186  276.3889
 187  318.9427
 188  431.904
 189  375.0843
 190  376.0089
 191  333.3694
 192  365.285
 193  310.0839
 194  297.5258
 195  325.7943
 196  347.8752
 197  284.2958
 198  263.0619
 199  277.8129
 200  268.0855
 201  218.6296
 202  328.0815
 203  255.4209
 204  290.0146
 205  272.9027
 206  227.5967
 207  269.0825
 208  328.4219
 209  285.7049
 210  250.4062
 211  296.5663
 212  320.5113
 213  363.7683
 214  365.2664
 215  305.784
 216  325.7275
 217  267.3634
 218  194.8575
 219  265.3978
 220  362.6544
 221  338.8788
 222  297.7335
 223  400.7551
 224  398.0051
 225  424.6584
 226  369.7761
 227  408.025
 228  440.0516
 229  420.8183
 230  435.2368
 231  376.5389
 232  326.8913
 233  242.8604
 234  280.4003
 235  368.5494
 236  374.039
 237  375.5172
 238  384.1975
 239  363.0984
 240  315.7983
 241  292.7195
 242  257.3352
 243  205.3068
 244  211.6886
 245  219.7406
 246  201.5163
 247  246.9092
 248  265.1741
 249  253.3855
 250  300.255
 251  278.9453
 252  214.0162
 253  203.705
 254  220.8089
 255  293.1203
 256  325.7896
 257  312.4514
 258  313.9982
 259  264.9714
 260  321.8011
 261  344.0481
 262  305.5613
 263  268.2434
 264  241.9615
 265  279.2314
 266  299.2145
 267  291.8626
 268  292.0044
 269  396.174
 270  402.3006
 271  379.6285
 272  323.7915
 273  300.3688
 274  303.8131
 275  245.5354
 276  269.1734
 277  292.9468
 278  247.6151
 279  190.9046
 280  131.6396
 281  292.6926
 282  299.7583
 283  196.1946
 284  211.7849
 285  216.9152
 286  248.3337
 287  232.5964
 288  232.0392
 289  345.3946
 290  348.1397
 291  321.02
 292  313.735
 293  318.489
 294  323.5161
 295  246.4417
 296  327.951
 297  364.1941
 298  222.1864
 299  177.4965
 300  181.5911
 301  211.5108
 302  255.8682
 303  342.9891
 304  411.6546
 305  363.1211
 306  347.783
 307  281.4529
 308  277.7664
 309  297.7721
 310  366.8051
 311  394.908
 312  319.9747
 313  349.3508
 314  397.1095
 315  257.5171
 316  207.1817
 317  339.2401
 318  364.6258
 319  342.66
 320  421.5322
 321  395.5887
 322  492.3224
 323  574.905
 324  513.6058
 325  422.5887
 326  425.0465
 327  514.255
 328  503.1013
 329  451.667
 330  383.0871
 331  373.0816
 332  350.4856
 333  309.59
 334  337.4334
 335  371.6163
 336  404.0907
 337  449.4107
 338  376.0026
 339  337.0453
 340  403.7706
 341  368.6719
 342  373.3934
 343  330.2348
 344  346.5281
 345  315.7052
 346  281.9665
 347  296.8493
 348  232.6349
 349  249.759
 350  307.2627
 351  339.4977
 352  332.701
 353  282.5591
 354  291.3894
 355  379.484
 356  416.4724
 357  362.6449
 358  389.2226
 359  393.0811
 360  298.4332
 361  237.6348
 362  200.5654
 363  260.5795
 364  238.0624
 365  202.6924
 366  237.9748
 367  230.0501
 368  193.7846
 369  156.7038
 370  232.4262
 371  230.3782
 372  206.1369
 373  250.7126
 374  272.3535
 375  221.0492
 376  185.8946
 377  256.2061
 378  215.1762
 379  241.002
 380  245.7582
 381  264.0798
 382  258.603
 383  251.2002
 384  255.0052
 385  154.5653
 386  246.6362
 387  265.2733
 388  314.6662
 389  383.0085
 390  349.9442
 391  406.1587
 392  275.1742
 393  275.8095
 394  308.5503
 395  347.1849
 396  443.7744
 397  401.3581
 398  326.916
 399  234.6198
 400  297.6244
 401  322.6617
 402  201.7223
 403  239.5785
 404  319.9435
 405  309.4401
 406  275.2867
 407  218.5063
 408  270.4743
 409  264.5536
 410  288.7996
 411  260.0356
 412  268.7745
 413  286.9591
 414  281.8142
 415  294.3565
 416  290.0973
 417  296.9355
 418  328.6733
 419  298.5782
 420  281.0185
 421  323.6068
 422  371.8205
 423  330.4963
 424  314.2279
 425  383.1982
 426  309.8307
 427  269.8806
 428  192.9253
 429  270.2981
 430  347.5945
 431  271.8401
 432  213.1792
 433  252.4092
 434  315.5142
 435  237.8969
 436  357.3065
 437  348.5397
 438  324.7893
 439  267.8797
 440  221.8122
 441  233.492
 442  213.9954
 443  302.3874
 444  325.3661
 445  339.4016
 446  302.2057
 447  267.8735
 448  180.6421
 449  114.9591
 450  207.9527
 451  291.4177
 452  241.8983
 453  217.732
 454  263.5013
 455  249.716
 456  273.536
 457  222.3129
 458  217.6202
 459  198.0259
 460  228.3991
 461  144.8736
 462  203.0862
 463  213.8333
 464  174.2962
 465  143.4567
 466  219.1258
 467  226.5407
 468  202.1149
 469  156.8138
 470  213.5539
 471  268.1999
 472  261.6365
 473  254.2774
 474  270.9145
 475  208.9858
 476  246.8624
 477  288.8721
 478  293.1335
 479  283.4282
 480  245.2576
 481  245.2933
 482  194.0716
 483  122.6317
 484  97.42688
 485  182.2383
 486  297.2675
 487  373.9536
 488  392.3613
 489  366.2556
 490  338.9041
 491  340.9475
 492  387.3465
 493  385.2125
 494  477.3857
 495  406.7437
 496  290.428
 497  301.9952
 498  422.3666
 499  272.6237
 500  260.6411
 501  402.7829
 502  352.0749
 503  371.8228
 504  400.1646
 505  401.2456
 506  427.2122
 507  484.9906
 508  580.9532
 509  711.972
 510  924.8754
 511  984.2363
