# Input file       =  1209992232.11647_cleaned.dat
# Candidate        =  PSR_0332+5434
# Telescope        =  AR
# Epoch_topo       =  58248.539515236924
# Epoch_bary       =  N/A
# T_sample         =  0.002
# Data Folded      =  7340032
# Data Avg         =  0.0319532944798131
# Data StdDev      =  0.999827855625638
# Profile Bins     =  512
# Profile Avg      =  458.086404697943 
# Profile StdDev   =  119.712425008129 
# Reduced chi-sqr  =  1.925
# Prob(Noise)      <  2.91e-32   (~11.8 sigma)
# P_topo (ms)      =  714.538225787612  +/- 0.000272
# P'_topo (s/s)    =  -0                +/- 1.44e-10
# P''_topo (s/s^2) =  0                 +/- 6.35e-14
# P_bary (ms)      =  N/A
# P'_bary (s/s)    =  N/A
# P''_bary (s/s^2) =  N/A
# P_orb (s)        =  N/A
# asin(i)/c (s)    =  N/A
# eccentricity     =  N/A
# w (rad)          =  N/A
# T_peri           =  N/A
######################################################
   0  1402.664
   1  1335.029
   2  1186.237
   3  938.7434
   4  670.5167
   5  587.9139
   6  516.2695
   7  362.0643
   8  392.8726
   9  517.2115
  10  533.5316
  11  493.4216
  12  604.7877
  13  613.0422
  14  553.8411
  15  557.1355
  16  546.7434
  17  423.8802
  18  566.1125
  19  621.3937
  20  433.1254
  21  369.5466
  22  472.3512
  23  410.4385
  24  368.9645
  25  383.1108
  26  452.6881
  27  483.8323
  28  419.2482
  29  376.9794
  30  436.8208
  31  354.2253
  32  430.7809
  33  430.5409
  34  386.4287
  35  477.0472
  36  495.1409
  37  509.0255
  38  438.5714
  39  513.9724
  40  607.9818
  41  592.2242
  42  569.6668
  43  634.37
  44  611.725
  45  656.7255
  46  634.0717
  47  509.7809
  48  459.1597
  49  534.8571
  50  588.0426
  51  528.7859
  52  583.5991
  53  570.3364
  54  420.3553
  55  510.5093
  56  493.7027
  57  542.0869
  58  562.5866
  59  556.6126
  60  561.3128
  61  429.2542
  62  487.8852
  63  547.2902
  64  487.8821
  65  523.1243
  66  543.4644
  67  544.3187
  68  489.4336
  69  503.5169
  70  598.1337
  71  438.9439
  72  504.2509
  73  593.4415
  74  529.4931
  75  457.817
  76  578.9147
  77  514.2456
  78  489.8326
  79  430.0351
  80  372.9013
  81  427.1508
  82  334.1571
  83  443.9729
  84  411.6667
  85  342.0562
  86  472.5517
  87  518.6289
  88  428.4167
  89  500.6776
  90  534.1066
  91  384.2541
  92  557.0032
  93  502.118
  94  477.6683
  95  408.2425
  96  382.267
  97  469.6781
  98  348.503
  99  417.1801
 100  476.4063
 101  444.7773
 102  531.0641
 103  612.4688
 104  498.4972
 105  391.6492
 106  386.2797
 107  412.904
 108  508.377
 109  359.0512
 110  452.2936
 111  511.436
 112  554.8786
 113  617.5117
 114  529.3526
 115  535.7756
 116  567.7139
 117  560.324
 118  462.448
 119  403.0404
 120  443.6328
 121  520.6303
 122  404.2297
 123  440.3536
 124  531.8768
 125  421.7133
 126  460.969
 127  462.0805
 128  495.8487
 129  259.3597
 130  310.1528
 131  492.3537
 132  483.7357
 133  441.7234
 134  550.267
 135  574.3663
 136  608.9888
 137  564.7264
 138  547.4203
 139  511.3365
 140  437.7812
 141  419.3283
 142  492.5203
 143  418.6923
 144  450.8204
 145  470.1991
 146  448.333
 147  439.3691
 148  429.2429
 149  364.9486
 150  434.1933
 151  417.4885
 152  431.1639
 153  517.6276
 154  472.6873
 155  419.8193
 156  404.3979
 157  488.8732
 158  460.9052
 159  395.1577
 160  329.5551
 161  401.8495
 162  509.3393
 163  534.7275
 164  472.0617
 165  465.2227
 166  503.5369
 167  479.923
 168  480.143
 169  532.037
 170  581.2605
 171  482.6728
 172  349.6998
 173  420.0784
 174  480.1625
 175  456.918
 176  469.8481
 177  438.4347
 178  333.7716
 179  359.0093
 180  331.454
 181  413.9318
 182  421.4497
 183  400.4212
 184  458.2453
 185  421.46
 186  469.9659
 187  490.9423
 188  481.106
 189  472.7998
 190  287.4398
 191  301.0285
 192  428.4706
 193  432.5213
 194  363.9506
 195  331.0454
 196  440.3293
 197  523.2153
 198  527.545
 199  470.0697
 200  348.6693
 201  314.8494
 202  493.8038
 203  357.2027
 204  388.4561
 205  450.565
 206  435.715
 207  469.3441
 208  410.9447
 209  376.3949
 210  481.7889
 211  467.5091
 212  469.7009
 213  426.8158
 214  394.8028
 215  517.3983
 216  469.2376
 217  374.7099
 218  478.2941
 219  355.8316
 220  408.9426
 221  425.1709
 222  389.8615
 223  420.7415
 224  422.6406
 225  419.4478
 226  431.8784
 227  275.6443
 228  345.7683
 229  391.8145
 230  396.8612
 231  402.4401
 232  391.3993
 233  309.7199
 234  316.3041
 235  339.0399
 236  342.2993
 237  258.1074
 238  302.7138
 239  283.9485
 240  195.4395
 241  257.3515
 242  235.6857
 243  286.4128
 244  290.6999
 245  435.8578
 246  440.5938
 247  373.0246
 248  322.741
 249  346.9792
 250  448.881
 251  429.9113
 252  381.7156
 253  259.3013
 254  329.9982
 255  341.3354
 256  458.6844
 257  388.2379
 258  291.7646
 259  410.2208
 260  339.7586
 261  320.9593
 262  361.9506
 263  459.2685
 264  416.993
 265  382.0627
 266  537.4941
 267  452.9384
 268  433.7264
 269  467.5938
 270  415.674
 271  508.3293
 272  454.761
 273  463.2646
 274  486.5856
 275  378.72
 276  402.1736
 277  381.2612
 278  445.9456
 279  363.5865
 280  323.2357
 281  411.3938
 282  419.394
 283  518.2443
 284  556.1227
 285  478.4774
 286  376.5812
 287  434.3634
 288  471.6509
 289  530.508
 290  382.0436
 291  394.4289
 292  420.4927
 293  366.6148
 294  365.0688
 295  466.468
 296  476.8831
 297  349.8017
 298  394.42
 299  472.5471
 300  382.8512
 301  346.8114
 302  479.3835
 303  427.7342
 304  392.6634
 305  439.0432
 306  460.5214
 307  434.4973
 308  444.4918
 309  497.6783
 310  461.184
 311  458.7357
 312  450.3607
 313  404.9427
 314  392.5071
 315  396.2733
 316  518.741
 317  481.8054
 318  334.8289
 319  259.6699
 320  349.1882
 321  426.0964
 322  332.5605
 323  298.6064
 324  359.7789
 325  331.4661
 326  340.9872
 327  491.8367
 328  523.6434
 329  451.2736
 330  377.8322
 331  362.9532
 332  393.5095
 333  373.946
 334  421.0732
 335  355.8612
 336  429.2556
 337  333.3306
 338  307.2301
 339  339.1794
 340  303.7297
 341  355.0017
 342  318.0104
 343  313.3867
 344  542.3422
 345  445.3146
 346  426.0501
 347  454.6308
 348  517.8417
 349  456.056
 350  423.1048
 351  419.8589
 352  335.7521
 353  284.1322
 354  335.1579
 355  510.4315
 356  500.416
 357  526.3713
 358  494.9903
 359  446.9909
 360  350.224
 361  280.5405
 362  284.1995
 363  412.3767
 364  465.2708
 365  396.3149
 366  342.8677
 367  365.3529
 368  392.9831
 369  449.5849
 370  430.2873
 371  518.1216
 372  515.2146
 373  605.5688
 374  566.6421
 375  584.2057
 376  560.4771
 377  561.0075
 378  450.9375
 379  400.9699
 380  358.3281
 381  362.2782
 382  570.526
 383  613.175
 384  657.1296
 385  483.6211
 386  478.686
 387  471.3528
 388  458.1068
 389  407.4832
 390  497.8585
 391  530.2886
 392  348.221
 393  316.1946
 394  396.6075
 395  390.5654
 396  303.8011
 397  404.7513
 398  328.4837
 399  368.6553
 400  429.1833
 401  496.465
 402  462.0417
 403  442.9973
 404  406.7885
 405  390.9366
 406  405.6979
 407  456.7364
 408  391.9701
 409  482.1168
 410  437.5977
 411  466.7155
 412  406.5207
 413  315.6464
 414  434.8421
 415  555.4568
 416  551.3136
 417  542.1625
 418  528.6069
 419  481.5188
 420  310.0093
 421  386.4676
 422  532.7515
 423  444.2966
 424  494.8085
 425  479.515
 426  407.3216
 427  356.8603
 428  352.7769
 429  419.037
 430  489.6464
 431  512.3309
 432  507.5081
 433  514.4538
 434  340.3824
 435  213.0819
 436  359.293
 437  444.8212
 438  443.5156
 439  474.8353
 440  558.3311
 441  543.2347
 442  517.5137
 443  532.7626
 444  532.8264
 445  526.8491
 446  526.1302
 447  476.8006
 448  418.5009
 449  487.2818
 450  611.2603
 451  604.0721
 452  423.9378
 453  558.591
 454  623.5034
 455  503.0817
 456  425.6684
 457  376.1934
 458  314.2919
 459  417.0644
 460  381.2952
 461  430.5774
 462  416.0169
 463  424.6679
 464  487.1331
 465  408.7541
 466  438.1633
 467  473.066
 468  446.0693
 469  502.9077
 470  627.8014
 471  546.35
 472  437.5221
 473  444.7811
 474  633.7838
 475  505.3162
 476  489.8526
 477  678.7361
 478  577.4953
 479  538.6534
 480  484.4997
 481  439.4188
 482  450.3702
 483  517.1414
 484  497.4532
 485  295.2788
 486  305.9872
 487  404.9584
 488  337.0665
 489  428.1492
 490  401.2392
 491  447.1165
 492  493.7752
 493  408.9525
 494  532.2634
 495  459.6866
 496  442.1604
 497  403.7966
 498  453.6284
 499  475.0942
 500  541.9868
 501  610.3998
 502  619.2735
 503  554.7808
 504  537.3752
 505  509.5508
 506  580.6289
 507  580.8001
 508  788.9794
 509  924.9777
 510  1030.094
 511  1308.496
