# Input file       =  1209044432.11521_cleaned.dat
# Candidate        =  PSR_0332+5434
# Telescope        =  AR
# Epoch_topo       =  58237.569607814934
# Epoch_bary       =  N/A
# T_sample         =  0.002
# Data Folded      =  7340032
# Data Avg         =  0.0330978555025357
# Data StdDev      =  1.0000805095325  
# Profile Bins     =  512
# Profile Avg      =  474.53795440561  
# Profile StdDev   =  119.74267602755  
# Reduced chi-sqr  =  1.358
# Prob(Noise)      <  1.15e-07   (~5.2 sigma)
# P_topo (ms)      =  714.548342109244  +/- 0.000213
# P'_topo (s/s)    =  -0                +/- 1.12e-10
# P''_topo (s/s^2) =  0                 +/- 4.96e-14
# P_bary (ms)      =  N/A
# P'_bary (s/s)    =  N/A
# P''_bary (s/s^2) =  N/A
# P_orb (s)        =  N/A
# asin(i)/c (s)    =  N/A
# eccentricity     =  N/A
# w (rad)          =  N/A
# T_peri           =  N/A
######################################################
   0  1200.01
   1  1199.121
   2  1005.92
   3  682.8816
   4  406.8968
   5  273.5215
   6  391.3253
   7  410.6562
   8  404.4471
   9  374.7019
  10  421.8081
  11  388.7052
  12  516.2914
  13  371.359
  14  395.6935
  15  511.0761
  16  568.6794
  17  612.7735
  18  505.5409
  19  451.9091
  20  383.582
  21  368.734
  22  376.7054
  23  384.19
  24  377.8611
  25  436.3249
  26  451.1376
  27  427.5708
  28  397.7799
  29  374.8753
  30  366.3488
  31  491.6174
  32  474.9194
  33  365.8104
  34  389.813
  35  463.5115
  36  575.6407
  37  565.0864
  38  527.2216
  39  506.0722
  40  428.7076
  41  503.3883
  42  550.7296
  43  621.3228
  44  559.1581
  45  469.4713
  46  448.6068
  47  383.7701
  48  348.4604
  49  468.2189
  50  550.4008
  51  501.3488
  52  474.9325
  53  557.8712
  54  658.4407
  55  712.0784
  56  563.302
  57  490.4483
  58  504.9909
  59  578.518
  60  641.2309
  61  578.7273
  62  535.1914
  63  568.1285
  64  575.02
  65  523.1547
  66  474.4999
  67  508.8495
  68  600.4529
  69  614.7886
  70  632.6823
  71  423.9115
  72  501.5986
  73  543.562
  74  527.6497
  75  492.0594
  76  515.2509
  77  566.7231
  78  441.2951
  79  327.6251
  80  407.7439
  81  459.0667
  82  577.3924
  83  572.6855
  84  519.1104
  85  501.0629
  86  389.9081
  87  398.1742
  88  454.7239
  89  392.7977
  90  295.5612
  91  483.4381
  92  451.3825
  93  340.5888
  94  423.2384
  95  457.1838
  96  357.6322
  97  404.0234
  98  463.088
  99  298.6225
 100  397.2317
 101  497.8405
 102  557.4896
 103  507.5026
 104  507.3492
 105  601.8269
 106  463.3179
 107  453.2249
 108  550.2603
 109  518.2703
 110  462.3763
 111  508.8937
 112  430.3644
 113  533.7017
 114  410.7246
 115  498.4588
 116  522.4717
 117  375.5662
 118  463.0677
 119  514.7496
 120  417.3484
 121  474.4803
 122  535.24
 123  635.0134
 124  463.7552
 125  439.6798
 126  411.4979
 127  456.0218
 128  578.9963
 129  564.3064
 130  605.0861
 131  534.1122
 132  550.3384
 133  615.1208
 134  518.902
 135  556.2505
 136  495.8587
 137  620.7563
 138  582.7408
 139  649.8409
 140  496.3712
 141  475.0414
 142  506.743
 143  593.3014
 144  521.7155
 145  484.8487
 146  477.8196
 147  511.796
 148  454.3577
 149  529.2838
 150  508.895
 151  389.6485
 152  440.5402
 153  364.402
 154  481.1601
 155  495.6264
 156  506.8393
 157  534.7294
 158  605.1378
 159  492.7836
 160  337.3466
 161  395.181
 162  504.1226
 163  419.1071
 164  391.2491
 165  512.168
 166  510.2099
 167  524.9354
 168  487.613
 169  434.7871
 170  396.4349
 171  424.7525
 172  417.7317
 173  482.2834
 174  330.9655
 175  444.7581
 176  540.3167
 177  534.129
 178  484.1231
 179  420.2554
 180  421.5157
 181  329.8079
 182  548.2513
 183  439.5291
 184  380.6499
 185  490.476
 186  383.4195
 187  380.7417
 188  450.558
 189  459.9919
 190  400.4618
 191  429.3863
 192  435.9958
 193  489.1476
 194  599.1405
 195  554.8177
 196  469.2554
 197  517.3478
 198  521.5844
 199  520.5099
 200  481.4572
 201  535.7393
 202  433.4935
 203  410.3574
 204  464.3031
 205  459.9039
 206  574.0293
 207  439.3026
 208  385.7961
 209  392.4379
 210  376.8583
 211  386.0288
 212  467.794
 213  470.5223
 214  541.4257
 215  622.0278
 216  535.3585
 217  329.4391
 218  353.9266
 219  599.7969
 220  630.8842
 221  621.5295
 222  546.3945
 223  393.6324
 224  438.9974
 225  520.0256
 226  462.9119
 227  438.0297
 228  453.8214
 229  516.3235
 230  520.3179
 231  489.5849
 232  324.9446
 233  387.2726
 234  469.7793
 235  444.4883
 236  350.3073
 237  330.2725
 238  452.2856
 239  403.8659
 240  413.9271
 241  451.3175
 242  347.9217
 243  377.9988
 244  442.8222
 245  415.772
 246  442.2065
 247  426.1902
 248  409.1638
 249  337.6253
 250  388.1448
 251  453.8417
 252  385.6132
 253  480.8042
 254  466.4251
 255  474.9425
 256  470.0149
 257  405.6223
 258  539.6939
 259  569.8777
 260  490.1366
 261  606.6321
 262  575.73
 263  596.1002
 264  564.7942
 265  505.1144
 266  566.6633
 267  602.4035
 268  506.4094
 269  536.1854
 270  568.4551
 271  504.8764
 272  491.2711
 273  517.7283
 274  592.2499
 275  584.3715
 276  568.6801
 277  457.498
 278  410.6471
 279  542.4433
 280  593.4172
 281  446.7665
 282  459.2862
 283  479.8642
 284  584.4547
 285  671.4284
 286  460.6527
 287  512.6047
 288  539.6402
 289  545.8548
 290  475.944
 291  379.5764
 292  402.2572
 293  464.2306
 294  421.5149
 295  492.0638
 296  600.8051
 297  577.4969
 298  500.3275
 299  490.8834
 300  367.2748
 301  422.1622
 302  474.6153
 303  416.121
 304  503.3448
 305  499.0612
 306  493.8309
 307  531.1116
 308  521.0624
 309  574.899
 310  498.8923
 311  481.9876
 312  489.818
 313  330.3807
 314  395.6222
 315  451.7019
 316  370.3901
 317  377.356
 318  487.8615
 319  394.508
 320  447.7363
 321  409.5645
 322  422.2164
 323  436.6384
 324  483.6485
 325  511.0719
 326  463.4703
 327  452.7966
 328  485.3731
 329  424.5985
 330  526.8225
 331  546.3992
 332  465.6428
 333  461.7083
 334  492.5095
 335  416.3829
 336  372.1144
 337  545.4004
 338  592.7646
 339  522.875
 340  473.1508
 341  511.7594
 342  640.2297
 343  669.6124
 344  526.9409
 345  519.3076
 346  614.1052
 347  538.8486
 348  448.9388
 349  477.4969
 350  549.4093
 351  438.1239
 352  473.3315
 353  481.661
 354  445.7084
 355  467.0445
 356  558.4167
 357  480.2058
 358  411.987
 359  454.6334
 360  395.197
 361  403.4941
 362  408.8415
 363  411.2274
 364  384.7862
 365  430.5447
 366  421.4512
 367  411.3681
 368  478.1378
 369  563.5905
 370  473.8866
 371  439.9311
 372  509.8827
 373  602.0126
 374  498.7955
 375  430.6705
 376  551.6194
 377  431.474
 378  342.0904
 379  384.961
 380  451.1828
 381  503.6019
 382  488.6695
 383  480.0792
 384  591.326
 385  528.4684
 386  436.4178
 387  387.106
 388  322.7704
 389  287.5946
 390  477.4667
 391  485.7449
 392  503.0111
 393  418.489
 394  461.7469
 395  298.8041
 396  319.5507
 397  456.7713
 398  397.2499
 399  377.4883
 400  487.1565
 401  529.6761
 402  489.0832
 403  420.1507
 404  401.5641
 405  468.8328
 406  415.3386
 407  369.9432
 408  349.9698
 409  441.8841
 410  346.6567
 411  389.5523
 412  507.6633
 413  429.5972
 414  340.952
 415  312.6523
 416  372.4813
 417  515.2753
 418  554.5132
 419  561.243
 420  479.7288
 421  429.6228
 422  472.3183
 423  440.6796
 424  362.1394
 425  422.1879
 426  515.6557
 427  581.0565
 428  563.0007
 429  552.3615
 430  520.9227
 431  498.2166
 432  463.3413
 433  457.0354
 434  453.4921
 435  475.2149
 436  481.4182
 437  479.1143
 438  504.3147
 439  366.8925
 440  309.3411
 441  396.8382
 442  485.8522
 443  386.9585
 444  319.6662
 445  317.861
 446  461.3179
 447  371.8324
 448  253.6185
 449  313.7632
 450  270.1325
 451  276.1797
 452  296.8307
 453  358.7075
 454  417.9763
 455  295.5023
 456  362.294
 457  314.6797
 458  294.7842
 459  365.5352
 460  504.9229
 461  477.4147
 462  396.5194
 463  458.8591
 464  452.2401
 465  556.1237
 466  483.7856
 467  418.523
 468  420.1028
 469  401.9568
 470  422.2698
 471  436.0432
 472  435.9385
 473  500.1032
 474  477.2369
 475  381.4945
 476  508.9697
 477  539.8572
 478  470.6958
 479  422.7779
 480  414.3567
 481  399.3312
 482  421.1273
 483  470.3958
 484  452.4227
 485  527.3993
 486  502.2355
 487  472.6713
 488  480.6928
 489  403.4812
 490  450.5196
 491  471.6893
 492  464.5204
 493  546.5536
 494  561.5231
 495  534.2878
 496  483.8174
 497  442.9169
 498  425.5953
 499  428.9227
 500  443.5869
 501  390.8319
 502  388.1772
 503  337.065
 504  354.4402
 505  532.507
 506  585.6931
 507  538.7169
 508  561.6621
 509  720.9024
 510  962.1506
 511  1123.387
