# Input file       =  1209992232.11647_cleaned.dat
# Candidate        =  PSR_0332+5434
# Telescope        =  AR
# Epoch_topo       =  58248.539515236924
# Epoch_bary       =  N/A
# T_sample         =  0.002
# Data Folded      =  7340032
# Data Avg         =  0.0319532944798131
# Data StdDev      =  0.999827855625638
# Profile Bins     =  512
# Profile Avg      =  458.08640469494  
# Profile StdDev   =  119.712425008129 
# Reduced chi-sqr  =  1.925
# Prob(Noise)      <  2.93e-32   (~11.8 sigma)
# P_topo (ms)      =  714.538225867221  +/- 0.000273
# P'_topo (s/s)    =  -0                +/- 1.44e-10
# P''_topo (s/s^2) =  0                 +/- 6.35e-14
# P_bary (ms)      =  N/A
# P'_bary (s/s)    =  N/A
# P''_bary (s/s^2) =  N/A
# P_orb (s)        =  N/A
# asin(i)/c (s)    =  N/A
# eccentricity     =  N/A
# w (rad)          =  N/A
# T_peri           =  N/A
######################################################
   0  1374.527
   1  1270.013
   2  1058.36
   3  784.762
   4  606.7507
   5  559.0894
   6  425.9176
   7  348.7296
   8  467.3082
   9  554.6011
  10  481.1999
  11  556.5038
  12  633.0516
  13  588.038
  14  530.4064
  15  584.7349
  16  453.235
  17  469.3746
  18  643.616
  19  510.863
  20  388.9844
  21  418.8437
  22  468.2874
  23  353.6512
  24  385.0716
  25  402.1626
  26  495.99
  27  451.564
  28  389.1801
  29  412.9628
  30  391.1234
  31  364.8937
  32  469.6464
  33  370.3864
  34  453.4889
  35  494.1934
  36  513.8287
  37  475.4799
  38  450.7318
  39  582.7697
  40  607.9166
  41  559.4262
  42  612.3259
  43  619.7675
  44  629.1337
  45  662.0721
  46  574.7255
  47  461.0338
  48  489.1351
  49  578.2574
  50  555.1935
  51  545.7404
  52  623.9021
  53  441.5953
  54  473.7067
  55  495.4738
  56  515.3174
  57  568.1967
  58  555.1758
  59  569.0634
  60  490.5596
  61  445.7507
  62  547.8228
  63  506.0225
  64  496.7375
  65  536.1937
  66  549.8426
  67  509.3829
  68  475.9295
  69  595.2689
  70  529.4258
  71  420.6619
  72  575.3738
  73  583.3578
  74  459.4229
  75  519.0361
  76  550.5128
  77  487.7171
  78  487.5162
  79  375.5291
  80  419.2312
  81  355.8313
  82  389.5556
  83  466.8491
  84  341.3091
  85  399.9542
  86  516.3388
  87  476.1234
  88  434.0056
  89  579.2524
  90  412.8442
  91  485.7243
  92  535.9776
  93  482.8173
  94  449.6502
  95  372.7072
  96  445.0476
  97  415.2415
  98  344.0586
  99  482.1011
 100  440.6302
 101  476.215
 102  595.124
 103  570.5379
 104  433.7656
 105  388.167
 106  380.7531
 107  494.1226
 108  422.1924
 109  391.3426
 110  492.5989
 111  532.9246
 112  587.8297
 113  583.8521
 114  506.0232
 115  570.418
 116  577.0853
 117  515.4025
 118  417.0531
 119  400.8868
 120  499.4665
 121  469.9444
 122  387.759
 123  524.1503
 124  462.3573
 125  432.5614
 126  458.4615
 127  503.7239
 128  361.6571
 129  256.1311
 130  401.3553
 131  540.1544
 132  410.6345
 133  529.9408
 134  561.6671
 135  597.3096
 136  589.8301
 137  551.4954
 138  542.6883
 139  471.6562
 140  395.905
 141  471.5641
 142  462.2393
 143  418.9946
 144  485.4936
 145  456.5462
 146  428.5844
 147  449.2399
 148  357.7975
 149  417.3681
 150  427.9614
 151  423.5872
 152  474.9135
 153  516.2343
 154  424.2887
 155  408.0594
 156  448.8881
 157  498.9333
 158  418.5955
 159  360.4164
 160  344.1985
 161  472.5951
 162  523.9615
 163  511.3049
 164  453.737
 165  501.6212
 166  486.1611
 167  476.0948
 168  481.5998
 169  583.0245
 170  550.7836
 171  386.2283
 172  380.95
 173  454.929
 174  491.3972
 175  449.5942
 176  459.9485
 177  364.4642
 178  353.9384
 179  338.7975
 180  359.3354
 181  438.7912
 182  401.2984
 183  457.1718
 184  421.6755
 185  453.831
 186  482.0743
 187  490.28
 188  472.9666
 189  389.7285
 190  245.7234
 191  399.1795
 192  440.3439
 193  394.1622
 194  325.1035
 195  384.8535
 196  492.672
 197  538.0576
 198  492.7047
 199  425.6383
 200  287.3704
 201  423.6927
 202  454.6911
 203  317.4876
 204  465.3697
 205  424.4179
 206  468.8093
 207  440.6359
 208  362.6651
 209  446.5899
 210  479.9328
 211  475.7908
 212  439.2202
 213  404.5216
 214  443.2357
 215  538.153
 216  373.1464
 217  450.5317
 218  417.9384
 219  366.0627
 220  456.9317
 221  378.9847
 222  412.8234
 223  407.8601
 224  429.4161
 225  437.4554
 226  350.0359
 227  275.3537
 228  393.4499
 229  395.3535
 230  391.7918
 231  409.0656
 232  342.6923
 233  296.4799
 234  339.4372
 235  362.1866
 236  295.1053
 237  255.3393
 238  328.7326
 239  189.2625
 240  252.4435
 241  225.1371
 242  294.1585
 243  268.4455
 244  376.1114
 245  454.0865
 246  409.1792
 247  330.6374
 248  324.2095
 249  396.6351
 250  459.0227
 251  416.0314
 252  294.7886
 253  279.3096
 254  350.3106
 255  406.1756
 256  456.0213
 257  292.0353
 258  361.3095
 259  407.2135
 260  298.5237
 261  338.6333
 262  398.7533
 263  472.9038
 264  355.203
 265  491.2379
 266  509.2568
 267  421.3209
 268  466.4047
 269  435.9072
 270  451.7038
 271  502.0439
 272  444.5499
 273  505.7813
 274  409.3025
 275  384.065
 276  381.6374
 277  425.158
 278  413.1238
 279  322.2361
 280  369.8693
 281  419.0437
 282  463.8098
 283  566.1643
 284  527.4504
 285  391.185
 286  404.3623
 287  444.7174
 288  538.3416
 289  453.4586
 290  364.8192
 291  425.5913
 292  394.1837
 293  344.5285
 294  430.33
 295  490.196
 296  412.2245
 297  333.1548
 298  460.8142
 299  430.5359
 300  347.183
 301  422.6037
 302  466.7209
 303  393.5804
 304  392.4352
 305  484.184
 306  430.9783
 307  445.5808
 308  478.6162
 309  471.9167
 310  466.815
 311  450.1475
 312  428.839
 313  409.7256
 314  365.6986
 315  476.1309
 316  507.3483
 317  418.8305
 318  264.3318
 319  296.7312
 320  406.8093
 321  394.0046
 322  283.1721
 323  352.59
 324  344.2717
 325  320.1255
 326  425.8974
 327  517.9647
 328  504.0379
 329  382.8099
 330  372.1306
 331  377.7942
 332  396.9775
 333  410.4495
 334  376.1054
 335  387.0702
 336  389.6097
 337  306.4991
 338  328.2158
 339  318.0257
 340  324.5258
 341  347.9817
 342  282.3868
 343  441.6962
 344  521.9118
 345  410.7471
 346  444.8697
 347  488.8329
 348  512.9498
 349  400.1105
 350  453.7681
 351  352.5834
 352  308.6536
 353  289.0173
 354  451.969
 355  516.3352
 356  508.5527
 357  507.7449
 358  487.253
 359  385.5863
 360  317.0152
 361  247.3672
 362  371.0462
 363  438.7878
 364  452.8453
 365  340.1716
 366  360.5067
 367  373.6643
 368  433.0987
 369  437.5232
 370  485.0605
 371  506.8495
 372  562.1461
 373  595.3911
 374  570.4855
 375  574.4016
 376  566.3092
 377  505.8076
 378  412.6194
 379  386.8985
 380  338.7612
 381  482.6008
 382  594.178
 383  649.7318
 384  573.4186
 385  455.1454
 386  495.7143
 387  463.8939
 388  435.0197
 389  428.1598
 390  545.3069
 391  428.8427
 392  305.5798
 393  355.7125
 394  423.6333
 395  313.7888
 396  367.1061
 397  378.5047
 398  331.8651
 399  404.4201
 400  463.3868
 401  490.8376
 402  442.5201
 403  436.3821
 404  393.6421
 405  397.5992
 406  425.1013
 407  439.2753
 408  418.7812
 409  479.6413
 410  428.4745
 411  452.2452
 412  354.7187
 413  350.1179
 414  544.3091
 415  532.9207
 416  571.4753
 417  499.3085
 418  534.3577
 419  383.6427
 420  308.1645
 421  512.9174
 422  470.7808
 423  456.2034
 424  502.5643
 425  433.0847
 426  382.6323
 427  344.3462
 428  390.5075
 429  458.4898
 430  517.0107
 431  500.3174
 432  523.8327
 433  433.2844
 434  241.8769
 435  280.2341
 436  440.9418
 437  431.8218
 438  452.9576
 439  518.6883
 440  568.2378
 441  514.439
 442  536.042
 443  530.8798
 444  525.5843
 445  539.3949
 446  490.6171
 447  451.3892
 448  420.6357
 449  584.2331
 450  624.7298
 451  500.5479
 452  449.0179
 453  637.7273
 454  559.4445
 455  442.7427
 456  410.2044
 457  326.528
 458  367.8486
 459  408.2219
 460  405.0688
 461  421.8697
 462  425.3105
 463  442.2573
 464  481.0565
 465  379.1476
 466  491.6488
 467  455.1774
 468  455.3866
 469  589.3918
 470  593.6976
 471  479.4102
 472  418.1375
 473  550.9432
 474  616.1089
 475  422.8137
 476  627.1972
 477  624.7904
 478  561.0258
 479  505.3154
 480  465.4374
 481  424.6931
 482  491.347
 483  533.4174
 484  393.0548
 485  249.9393
 486  392.5206
 487  348.3983
 488  387.6385
 489  445.5189
 490  391.958
 491  499.6996
 492  425.1798
 493  478.6087
 494  524.1038
 495  433.8102
 496  424.9668
 497  425.5454
 498  465.3398
 499  493.7076
 500  584.5468
 501  628.9218
 502  575.8775
 503  555.0754
 504  508.4371
 505  562.6118
 506  557.1111
 507  678.4938
 508  885.7156
 509  970.2039
 510  1172.824
 511  1393.733
