# Input file       =  1209302938.11285_cleaned.dat
# Candidate        =  PSR_0332+5434
# Telescope        =  AR
# Epoch_topo       =  58240.561575380205
# Epoch_bary       =  N/A
# T_sample         =  0.002
# Data Folded      =  7340032
# Data Avg         =  0.0341044888562762
# Data StdDev      =  1.00009114179039 
# Profile Bins     =  512
# Profile Avg      =  488.956224472543 
# Profile StdDev   =  119.74394906007  
# Reduced chi-sqr  =  1.078
# Prob(Noise)      <  0.108   (~1.2 sigma)
# P_topo (ms)      =  714.54565689585   +/- 0.000398
# P'_topo (s/s)    =  -0                +/- 2.1e-10
# P''_topo (s/s^2) =  0                 +/- 9.28e-14
# P_bary (ms)      =  N/A
# P'_bary (s/s)    =  N/A
# P''_bary (s/s^2) =  N/A
# P_orb (s)        =  N/A
# asin(i)/c (s)    =  N/A
# eccentricity     =  N/A
# w (rad)          =  N/A
# T_peri           =  N/A
######################################################
   0  1060.713
   1  1133.157
   2  970.5615
   3  746.9175
   4  626.8883
   5  678.283
   6  699.4405
   7  522.9797
   8  403.7481
   9  462.1599
  10  644.0248
  11  580.4658
  12  468.2003
  13  468.6335
  14  476.5591
  15  586.6014
  16  602.8239
  17  511.8639
  18  393.6753
  19  468.1392
  20  466.4895
  21  455.5013
  22  547.3184
  23  602.2556
  24  573.9219
  25  538.8439
  26  524.8023
  27  462.7544
  28  427.2754
  29  497.8827
  30  419.4528
  31  468.4435
  32  578.3922
  33  520.5889
  34  466.2526
  35  435.5014
  36  348.4311
  37  473.5562
  38  572.5248
  39  457.4076
  40  438.7469
  41  442.6543
  42  452.7928
  43  615.1681
  44  617.9393
  45  494.9339
  46  524.6096
  47  523.9437
  48  547.8008
  49  565.392
  50  526.4363
  51  460.959
  52  501.6426
  53  468.5159
  54  379.1088
  55  379.6207
  56  491.0518
  57  446.2953
  58  463.797
  59  507.0316
  60  413.7754
  61  472.9059
  62  473.2606
  63  401.9073
  64  419.2954
  65  487.4241
  66  508.1866
  67  487.3501
  68  505.4312
  69  497.0518
  70  488.7127
  71  556.7118
  72  478.3442
  73  433.7519
  74  489.659
  75  392.8688
  76  504.8901
  77  459.3389
  78  537.1823
  79  505.471
  80  521.0012
  81  581.0905
  82  475.6441
  83  394.8458
  84  450.1785
  85  494.0665
  86  485.5504
  87  470.9179
  88  440.491
  89  503.0907
  90  469.3996
  91  474.1161
  92  514.6918
  93  494.4681
  94  521.2352
  95  552.147
  96  486.8753
  97  466.0837
  98  547.7886
  99  593.3455
 100  495.946
 101  442.1287
 102  512.9694
 103  539.0366
 104  462.5611
 105  435.0286
 106  508.7968
 107  497.1984
 108  471.8308
 109  429.5273
 110  452.8603
 111  571.0737
 112  557.1821
 113  474.8794
 114  470.0685
 115  506.4204
 116  441.5856
 117  501.2401
 118  637.8125
 119  559.8453
 120  461.359
 121  556.3681
 122  596.3231
 123  617.0542
 124  652.3562
 125  592.2542
 126  560.7468
 127  555.5268
 128  609.525
 129  517.3238
 130  581.7166
 131  532.5544
 132  443.2256
 133  333.5062
 134  448.4089
 135  576.8036
 136  558.7266
 137  484.1569
 138  500.3934
 139  508.5702
 140  516.7972
 141  562.2164
 142  588.7615
 143  600.4514
 144  477.3791
 145  513.7552
 146  428.6257
 147  435.9043
 148  305.2607
 149  341.8346
 150  524.4509
 151  470.5211
 152  411.9146
 153  392.074
 154  400.5051
 155  429.0271
 156  434.8117
 157  536.6365
 158  526.81
 159  359.2815
 160  353.3933
 161  268.1426
 162  277.3086
 163  458.4775
 164  483.3249
 165  467.7686
 166  403.6089
 167  524.1655
 168  514.1033
 169  443.8811
 170  480.5152
 171  508.3747
 172  457.4405
 173  423.5564
 174  372.7722
 175  504.1549
 176  557.2563
 177  495.9872
 178  546.7492
 179  492.3293
 180  540.9714
 181  427.5274
 182  483.8795
 183  449.4206
 184  432.7816
 185  457.4621
 186  472.7926
 187  440.768
 188  398.4516
 189  502.5809
 190  515.0443
 191  597.1151
 192  581.1638
 193  461.28
 194  460.5917
 195  580.7582
 196  551.7646
 197  516.9277
 198  522.4145
 199  422.9375
 200  422.5479
 201  506.3041
 202  464.6904
 203  444.1146
 204  418.327
 205  414.3958
 206  505.7313
 207  476.8976
 208  556.4799
 209  506.4278
 210  474.6129
 211  583.35
 212  541.8339
 213  499.1675
 214  511.1689
 215  450.7294
 216  447.9507
 217  428.0176
 218  476.0601
 219  490.6034
 220  458.2661
 221  579.9663
 222  519.4857
 223  565.0646
 224  587.2465
 225  585.8101
 226  541.7172
 227  623.5429
 228  563.5834
 229  509.6844
 230  581.1207
 231  578.3733
 232  542.8716
 233  467.1254
 234  510.1887
 235  456.3585
 236  442.8941
 237  437.6122
 238  554.9933
 239  565.7717
 240  580.0042
 241  543.2249
 242  684.47
 243  623.874
 244  474.1393
 245  476.8375
 246  433.1268
 247  564.5435
 248  702.9203
 249  639.0493
 250  482.5808
 251  503.6926
 252  434.1537
 253  506.1364
 254  591.2402
 255  616.5112
 256  627.9845
 257  498.4786
 258  526.5986
 259  501.5287
 260  550.3932
 261  510.2803
 262  483.4036
 263  552.7957
 264  512.0898
 265  546.574
 266  541.3109
 267  482.5296
 268  389.1121
 269  413.8779
 270  382.1424
 271  411.0185
 272  459.5745
 273  542.9077
 274  443.0691
 275  425.5922
 276  475.9913
 277  450.2605
 278  469.8612
 279  574.98
 280  456.1891
 281  557.0952
 282  618.8149
 283  570.2297
 284  480.1149
 285  456.4338
 286  613.2731
 287  485.2629
 288  499.7302
 289  682.1809
 290  569.4594
 291  532.3414
 292  554.7929
 293  468.2722
 294  434.1442
 295  448.9149
 296  526.4816
 297  526.7326
 298  397.5107
 299  386.6835
 300  426.4284
 301  477.5427
 302  386.9483
 303  428.9081
 304  620.1017
 305  621.3445
 306  560.0342
 307  508.7233
 308  429.7093
 309  386.1222
 310  481.7412
 311  492.0588
 312  486.8502
 313  383.7641
 314  461.4352
 315  522.7659
 316  416.7268
 317  403.5527
 318  463.404
 319  553.0395
 320  433.5129
 321  493.0094
 322  506.2302
 323  461.4887
 324  421.1223
 325  418.288
 326  487.398
 327  450.434
 328  474.8206
 329  421.801
 330  430.544
 331  319.8982
 332  445.8266
 333  639.381
 334  635.827
 335  539.0693
 336  409.8757
 337  437.1897
 338  540.5239
 339  542.9704
 340  529.2536
 341  468.1004
 342  542.9357
 343  489.0405
 344  449.8878
 345  515.7977
 346  564.2698
 347  535.9846
 348  405.5449
 349  430.1888
 350  530.6871
 351  444.9221
 352  448.5438
 353  584.6889
 354  494.2944
 355  466.753
 356  454.5382
 357  447.7446
 358  322.1102
 359  357.912
 360  473.8352
 361  436.8936
 362  375.9352
 363  463.7798
 364  558.0325
 365  458.0825
 366  429.8195
 367  486.5201
 368  546.2557
 369  529.1165
 370  502.3871
 371  451.0505
 372  463.758
 373  429.762
 374  487.6646
 375  532.4268
 376  401.3344
 377  430.5607
 378  407.3409
 379  401.8183
 380  368.6802
 381  405.9513
 382  339.3206
 383  318.0577
 384  313.1382
 385  447.0218
 386  447.0608
 387  428.6636
 388  528.5297
 389  421.9395
 390  369.3378
 391  485.3313
 392  514.9947
 393  562.9592
 394  559.4562
 395  582.3768
 396  619.9801
 397  544.2812
 398  468.0193
 399  538.8571
 400  513.9166
 401  497.2718
 402  469.5574
 403  435.8299
 404  453.2123
 405  369.1041
 406  446.4989
 407  428.9575
 408  435.8481
 409  461.6517
 410  446.5367
 411  581.5591
 412  463.3923
 413  458.3317
 414  432.6275
 415  464.1272
 416  491.6778
 417  470.9045
 418  462.915
 419  413.5138
 420  382.6174
 421  399.9368
 422  386.1648
 423  446.9771
 424  327.359
 425  343.12
 426  399.87
 427  392.568
 428  302.7803
 429  434.8843
 430  416.941
 431  390.4784
 432  384.896
 433  510.4951
 434  562.7523
 435  438.7289
 436  414.3799
 437  429.3128
 438  394.2265
 439  439.5365
 440  325.6577
 441  319.6202
 442  407.5778
 443  466.1823
 444  395.2508
 445  383.8322
 446  374.05
 447  437.6875
 448  428.1339
 449  378.4154
 450  434.2783
 451  373.0956
 452  372.9889
 453  413.8017
 454  467.7272
 455  475.853
 456  413.9792
 457  410.833
 458  460.4227
 459  458.7227
 460  454.8846
 461  448.8936
 462  475.8754
 463  454.6755
 464  537.0292
 465  411.4528
 466  452.3065
 467  467.69
 468  524.3837
 469  580.175
 470  464.5578
 471  384.097
 472  415.6008
 473  477.3385
 474  520.1119
 475  513.9862
 476  432.6932
 477  410.4
 478  374.0721
 479  476.1128
 480  478.8073
 481  417.4316
 482  384.8613
 483  395.2926
 484  413.3091
 485  437.4538
 486  388.6063
 487  516.5242
 488  518.2908
 489  430.7903
 490  441.0668
 491  488.8463
 492  525.5807
 493  501.9857
 494  441.3971
 495  471.031
 496  428.1491
 497  540.2852
 498  565.1518
 499  522.0181
 500  500.1004
 501  498.1421
 502  464.1119
 503  491.6448
 504  561.8828
 505  587.4729
 506  530.6508
 507  602.3062
 508  631.4211
 509  784.7402
 510  883.9039
 511  1009.607
