# Input file       =  1209288028.114244_cleaned.dat
# Candidate        =  PSR_0332+5434
# Telescope        =  AR
# Epoch_topo       =  58240.389005951896
# Epoch_bary       =  N/A
# T_sample         =  0.002
# Data Folded      =  7340032
# Data Avg         =  0.0242933583064965
# Data StdDev      =  1.00006468937142 
# Profile Bins     =  512
# Profile Avg      =  348.310325111948 
# Profile StdDev   =  119.740781831628 
# Reduced chi-sqr  =  1.056
# Prob(Noise)      <  0.182   (~0.9 sigma)
# P_topo (ms)      =  714.545479516267  +/- 0.00059
# P'_topo (s/s)    =  -0                +/- 3.11e-10
# P''_topo (s/s^2) =  0                 +/- 1.38e-13
# P_bary (ms)      =  N/A
# P'_bary (s/s)    =  N/A
# P''_bary (s/s^2) =  N/A
# P_orb (s)        =  N/A
# asin(i)/c (s)    =  N/A
# eccentricity     =  N/A
# w (rad)          =  N/A
# T_peri           =  N/A
######################################################
   0  652.0544
   1  592.3421
   2  469.5107
   3  392.5954
   4  341.1206
   5  334.7081
   6  344.759
   7  359.7509
   8  360.9857
   9  305.023
  10  314.1221
  11  345.9557
  12  392.1684
  13  348.7881
  14  298.7116
  15  340.8192
  16  370.7267
  17  336.0824
  18  364.7541
  19  349.9542
  20  399.9877
  21  349.1642
  22  372.3543
  23  388.3718
  24  371.5478
  25  368.8071
  26  368.465
  27  298.0845
  28  302.692
  29  363.9928
  30  325.6232
  31  281.9128
  32  281.9897
  33  340.9847
  34  290.5908
  35  328.4019
  36  285.4012
  37  285.3515
  38  379.1577
  39  371.9047
  40  394.818
  41  398.0329
  42  456.1157
  43  448.1453
  44  466.9601
  45  472.8343
  46  442.8113
  47  426.1353
  48  500.3237
  49  552.347
  50  492.1202
  51  492.7929
  52  546.2851
  53  433.5193
  54  417.3112
  55  414.5186
  56  451.0188
  57  488.0103
  58  506.7296
  59  500.0825
  60  515.3652
  61  534.6544
  62  461.505
  63  483.3282
  64  547.9741
  65  489.0228
  66  459.6556
  67  494.4608
  68  505.7976
  69  511.9611
  70  481.0522
  71  388.1488
  72  391.1648
  73  410.0637
  74  395.3991
  75  415.1765
  76  471.5193
  77  390.1843
  78  385.5924
  79  355.8028
  80  341.9204
  81  355.0818
  82  383.2475
  83  364.1715
  84  333.0965
  85  336.877
  86  349.8087
  87  343.6546
  88  334.5941
  89  366.056
  90  360.8568
  91  299.1512
  92  312.0941
  93  276.1164
  94  234.6066
  95  210.2616
  96  277.191
  97  269.9893
  98  257.8109
  99  252.6825
 100  334.3813
 101  281.989
 102  195.4301
 103  166.601
 104  204.7428
 105  228.7755
 106  280.7447
 107  294.2064
 108  242.179
 109  290.2851
 110  300.4202
 111  316.9501
 112  313.7857
 113  388.843
 114  347.2524
 115  240.6569
 116  256.0305
 117  216.8588
 118  202.5424
 119  251.6433
 120  232.6954
 121  253.3288
 122  312.2427
 123  279.7249
 124  245.2825
 125  265.5102
 126  184.6909
 127  240.2615
 128  291.7797
 129  299.5118
 130  238.1384
 131  188.992
 132  244.1538
 133  241.8425
 134  286.0379
 135  241.0671
 136  287.4163
 137  350.438
 138  297.0756
 139  240.7912
 140  259.8463
 141  268.382
 142  266.0411
 143  281.9358
 144  326.1318
 145  320.0003
 146  349.2395
 147  438.5752
 148  412.3997
 149  437.8109
 150  407.595
 151  351.911
 152  329.9171
 153  349.7585
 154  382.3807
 155  344.2789
 156  364.1693
 157  462.3739
 158  366.4039
 159  342.5589
 160  329.0208
 161  374.1156
 162  341.125
 163  399.2985
 164  405.464
 165  420.1952
 166  464.457
 167  474.7021
 168  440.3881
 169  378.8427
 170  329.6064
 171  316.5289
 172  375.0192
 173  465.5388
 174  445.9631
 175  419.1171
 176  475.8307
 177  498.3991
 178  492.6928
 179  486.8668
 180  522.9537
 181  465.9321
 182  494.5129
 183  543.5444
 184  576.5413
 185  591.1795
 186  601.6703
 187  557.9639
 188  537.8419
 189  519.8403
 190  492.8327
 191  399.7493
 192  408.1822
 193  437.0933
 194  500.9336
 195  498.5464
 196  547.4199
 197  470.6609
 198  479.6985
 199  498.5467
 200  505.4026
 201  441.9806
 202  414.2482
 203  417.7988
 204  408.7323
 205  316.6062
 206  265.6169
 207  388.0327
 208  330.4778
 209  331.5144
 210  405.6561
 211  413.9494
 212  386.2793
 213  381.8712
 214  339.6366
 215  330.4644
 216  217.3188
 217  279.7274
 218  260.6973
 219  264.7694
 220  285.8375
 221  228.6534
 222  206.9595
 223  198.8838
 224  265.5308
 225  272.5236
 226  280.4016
 227  301.3969
 228  300.6509
 229  235.0122
 230  275.6947
 231  248.5777
 232  297.5102
 233  247.3934
 234  221.2974
 235  243.907
 236  201.1039
 237  188.684
 238  194.7162
 239  130.8234
 240  225.4044
 241  182.8364
 242  220.6667
 243  196.1558
 244  237.9165
 245  251.1098
 246  203.633
 247  198.9603
 248  202.7596
 249  224.1182
 250  231.0881
 251  246.2798
 252  284.8786
 253  288.5013
 254  324.3733
 255  286.2298
 256  252.7863
 257  233.8844
 258  278.7199
 259  274.0392
 260  161.447
 261  235.5593
 262  263.0984
 263  292.6945
 264  278.0969
 265  292.2779
 266  307.9121
 267  348.9293
 268  328.7916
 269  291.3419
 270  295.4606
 271  316.7829
 272  308.2198
 273  351.5033
 274  308.1523
 275  319.9291
 276  338.8706
 277  335.6462
 278  307.0761
 279  333.2253
 280  320.1247
 281  363.6563
 282  354.8611
 283  349.4241
 284  383.4166
 285  342.3156
 286  384.6451
 287  460.7275
 288  447.4142
 289  457.6573
 290  306.4396
 291  381.2033
 292  374.0775
 293  397.8471
 294  372.3057
 295  303.0082
 296  299.6115
 297  315.547
 298  370.1158
 299  425.0875
 300  406.2234
 301  392.9803
 302  475.8384
 303  453.893
 304  393.277
 305  402.2724
 306  389.549
 307  396.5919
 308  359.0318
 309  342.0943
 310  440.5626
 311  418.3305
 312  368.019
 313  370.6373
 314  374.4591
 315  367.8996
 316  389.8885
 317  373.3749
 318  350.0725
 319  308.1666
 320  345.0186
 321  342.9938
 322  329.1248
 323  329.3655
 324  316.263
 325  379.3483
 326  385.9872
 327  270.2397
 328  263.8857
 329  267.5796
 330  322.916
 331  358.0435
 332  334.6813
 333  417.2456
 334  428.0109
 335  469.2836
 336  441.3498
 337  371.7884
 338  401.3591
 339  357.6778
 340  344.4407
 341  354.1185
 342  372.2899
 343  324.7817
 344  322.362
 345  356.5251
 346  395.8772
 347  439.4384
 348  438.4119
 349  418.2888
 350  436.4236
 351  398.8269
 352  368.6998
 353  418.9629
 354  405.8849
 355  325.3487
 356  349.968
 357  329.6151
 358  347.624
 359  426.3773
 360  464.4628
 361  362.4021
 362  339.8999
 363  311.7595
 364  330.4668
 365  398.9512
 366  403.5427
 367  415.7604
 368  421.6483
 369  369.2356
 370  303.8952
 371  282.8358
 372  228.9269
 373  214.2488
 374  281.6078
 375  321.6004
 376  274.8738
 377  225.5884
 378  223.8751
 379  268.1917
 380  281.5821
 381  295.5353
 382  261.0746
 383  327.7574
 384  273.718
 385  232.2151
 386  205.0117
 387  256.5651
 388  280.0903
 389  244.9509
 390  268.996
 391  263.68
 392  350.4553
 393  298.2632
 394  285.7393
 395  309.1784
 396  339.2024
 397  373.9941
 398  336.0121
 399  371.3808
 400  319.802
 401  306.5001
 402  299.1721
 403  284.8697
 404  225.9016
 405  236.9712
 406  345.887
 407  338.6401
 408  379.5356
 409  428.7394
 410  443.4196
 411  425.5443
 412  466.8918
 413  433.8777
 414  407.2992
 415  421.2567
 416  436.5243
 417  360.2007
 418  480.2541
 419  467.828
 420  382.4134
 421  364.7119
 422  375.9752
 423  337.0285
 424  300.2875
 425  360.8914
 426  362.6099
 427  387.9744
 428  359.5053
 429  396.2083
 430  316.831
 431  343.828
 432  487.1453
 433  455.226
 434  406.5993
 435  469.9261
 436  410.1791
 437  382.0605
 438  397.9655
 439  404.5741
 440  395.483
 441  391.585
 442  389.8659
 443  402.4485
 444  350.2346
 445  241.4942
 446  239.5157
 447  242.4914
 448  220.4001
 449  236.4752
 450  319.7941
 451  308.3146
 452  306.2178
 453  342.7076
 454  376.6765
 455  381.4861
 456  318.7339
 457  331.6877
 458  296.8639
 459  309.7993
 460  366.7747
 461  344.9572
 462  325.1082
 463  304.7164
 464  273.3372
 465  313.6957
 466  287.0137
 467  265.3364
 468  346.2839
 469  265.2784
 470  260.7467
 471  290.6279
 472  231.1639
 473  301.5787
 474  343.0302
 475  345.9388
 476  286.5016
 477  279.5696
 478  265.2472
 479  237.8508
 480  238.9506
 481  191.1796
 482  208.2137
 483  286.8352
 484  242.8709
 485  183.4512
 486  178.3793
 487  173.3374
 488  291.1192
 489  323.2782
 490  373.1881
 491  340.9841
 492  295.963
 493  294.0314
 494  331.4713
 495  342.2251
 496  260.232
 497  242.8424
 498  260.7902
 499  284.1112
 500  273.8475
 501  300.4933
 502  346.0732
 503  400.8127
 504  409.7639
 505  344.7028
 506  376.8338
 507  425.4801
 508  463.6855
 509  588.8268
 510  690.2955
 511  715.0322
