# Input file       =  1210250771.112735_cleaned.dat
# Candidate        =  PSR_0332+5434
# Telescope        =  AR
# Epoch_topo       =  58251.531864730729
# Epoch_bary       =  N/A
# T_sample         =  0.002
# Data Folded      =  7340032
# Data Avg         =  0.0311693048197865
# Data StdDev      =  1.0000666502102  
# Profile Bins     =  512
# Profile Avg      =  446.706619710501 
# Profile StdDev   =  119.741016608808 
# Reduced chi-sqr  =  1.465
# Prob(Noise)      <  3.2e-11   (~6.5 sigma)
# P_topo (ms)      =  714.535350462789  +/- 0.000459
# P'_topo (s/s)    =  -0                +/- 2.42e-10
# P''_topo (s/s^2) =  0                 +/- 1.07e-13
# P_bary (ms)      =  N/A
# P'_bary (s/s)    =  N/A
# P''_bary (s/s^2) =  N/A
# P_orb (s)        =  N/A
# asin(i)/c (s)    =  N/A
# eccentricity     =  N/A
# w (rad)          =  N/A
# T_peri           =  N/A
######################################################
   0  1180.519
   1  1061.134
   2  899.6046
   3  620.9514
   4  518.3645
   5  432.1153
   6  376.5674
   7  467.3364
   8  572.0179
   9  601.0244
  10  522.767
  11  524.6191
  12  564.0541
  13  680.8323
  14  545.0477
  15  476.581
  16  553.3527
  17  518.2578
  18  432.4998
  19  472.8403
  20  500.5654
  21  501.805
  22  461.7084
  23  399.3704
  24  353.7835
  25  388.2586
  26  420.7144
  27  354.221
  28  430.9327
  29  422.5983
  30  382.5591
  31  428.7586
  32  328.3585
  33  374.4322
  34  421.1351
  35  477.9457
  36  432.0211
  37  418.7876
  38  492.3142
  39  488.4014
  40  475.1317
  41  447.2262
  42  398.4548
  43  469.6255
  44  519.8412
  45  478.0926
  46  493.3184
  47  633.5887
  48  458.7722
  49  442.2115
  50  421.8351
  51  495.1091
  52  467.8294
  53  442.3317
  54  423.2933
  55  459.8959
  56  446.4809
  57  537.264
  58  534.0912
  59  458.496
  60  439.3805
  61  331.4646
  62  452.749
  63  435.9933
  64  304.0854
  65  367.1521
  66  462.4721
  67  423.3373
  68  327.9568
  69  346.4268
  70  405.5782
  71  348.6296
  72  307.769
  73  200.0704
  74  289.9023
  75  319.5623
  76  455.9767
  77  444.3882
  78  362.3547
  79  403.9672
  80  305.8988
  81  307.4053
  82  319.4866
  83  267.335
  84  325.0571
  85  314.9008
  86  324.5853
  87  442.1028
  88  378.346
  89  341.6201
  90  505.3684
  91  452.4487
  92  350.3189
  93  391.2588
  94  445.942
  95  496.0177
  96  407.8053
  97  433.9289
  98  495.3476
  99  530.8318
 100  588.5876
 101  504.3911
 102  450.452
 103  511.3778
 104  507.5837
 105  442.5207
 106  460.7878
 107  518.9762
 108  521.5906
 109  500.5574
 110  379.2305
 111  306.2999
 112  384.5003
 113  477.7907
 114  460.5962
 115  378.387
 116  368.5084
 117  410.1354
 118  393.6142
 119  451.3177
 120  446.3175
 121  411.8515
 122  318.2132
 123  347.1807
 124  442.4895
 125  438.5317
 126  458.3224
 127  508.6898
 128  354.5545
 129  303.1818
 130  523.6547
 131  637.21
 132  529.2833
 133  443.3083
 134  400.8036
 135  409.1254
 136  533.0327
 137  522.6268
 138  492.5164
 139  461.1462
 140  532.1012
 141  566.0862
 142  407.5002
 143  521.4886
 144  555.6644
 145  489.8603
 146  544.0873
 147  475.7127
 148  388.042
 149  461.4258
 150  482.8432
 151  441.6212
 152  301.1365
 153  410.0196
 154  449.3336
 155  437.1969
 156  415.3777
 157  360.6687
 158  344.8574
 159  354.3283
 160  394.0164
 161  369.3888
 162  340.0745
 163  406.9435
 164  353.5148
 165  363.8211
 166  470.9238
 167  361.2459
 168  368.7462
 169  449.9073
 170  450.5906
 171  458.0973
 172  325.3454
 173  403.3382
 174  448.8952
 175  434.8067
 176  389.3178
 177  496.4465
 178  592.2433
 179  639.6418
 180  513.1547
 181  421.2315
 182  361.7831
 183  413.504
 184  453.1144
 185  512.7923
 186  456.6795
 187  456.9344
 188  394.3239
 189  459.0649
 190  485.8435
 191  409.3198
 192  422.5934
 193  485.9956
 194  389.755
 195  413.9582
 196  506.3115
 197  535.3758
 198  514.1472
 199  515.4306
 200  639.4113
 201  599.864
 202  447.0644
 203  436.3751
 204  463.1968
 205  518.473
 206  489.0062
 207  336.9174
 208  353.2803
 209  366.8265
 210  427.4242
 211  347.4423
 212  440.2445
 213  352.2875
 214  250.9664
 215  365.2188
 216  412.6801
 217  384.1581
 218  285.8839
 219  500.5649
 220  583.6884
 221  472.5251
 222  431.485
 223  492.5082
 224  471.8948
 225  474.3995
 226  497.8477
 227  401.4536
 228  463.637
 229  594.262
 230  567.3558
 231  508.1504
 232  482.9643
 233  497.4004
 234  481.6399
 235  477.5211
 236  483.6537
 237  552.6874
 238  572.5325
 239  491.628
 240  568.9574
 241  567.4769
 242  517.9166
 243  509.3583
 244  483.3525
 245  561.8199
 246  406.6096
 247  271.2884
 248  226.8634
 249  382.4152
 250  451.6417
 251  412.4161
 252  378.9009
 253  472.0878
 254  406.4164
 255  245.6567
 256  331.3579
 257  460.5467
 258  437.5365
 259  434.1733
 260  409.2789
 261  405.187
 262  437.9283
 263  479.0144
 264  576.0612
 265  614.5517
 266  550.6989
 267  513.1291
 268  461.479
 269  405.1026
 270  499.1331
 271  547.8646
 272  417.3012
 273  446.0061
 274  423.7778
 275  531.9197
 276  422.7765
 277  427.7208
 278  417.075
 279  501.86
 280  565.8519
 281  476.3617
 282  505.9401
 283  292.6057
 284  393.9932
 285  422.6095
 286  381.1863
 287  404.6589
 288  424.9927
 289  414.9471
 290  496.6006
 291  534.0906
 292  547.2544
 293  465.6816
 294  598.1747
 295  488.0819
 296  401.1517
 297  442.808
 298  405.3191
 299  400.7048
 300  481.9563
 301  565.23
 302  477.1308
 303  396.5982
 304  553.1087
 305  444.5897
 306  486.33
 307  557.5588
 308  474.2978
 309  411.7491
 310  440.5236
 311  458.2654
 312  432.2007
 313  468.6748
 314  614.7309
 315  544.614
 316  524.6665
 317  532.9511
 318  568.4087
 319  510.6445
 320  550.2665
 321  505.9011
 322  533.214
 323  587.6788
 324  525.9579
 325  369.8291
 326  421.9195
 327  488.3194
 328  435.0685
 329  455.4527
 330  512.0925
 331  426.0714
 332  423.2576
 333  390.5839
 334  336.1132
 335  244.8273
 336  403.2327
 337  529.4437
 338  292.3722
 339  323.5335
 340  520.2678
 341  505.2855
 342  409.8188
 343  294.7184
 344  336.4921
 345  404.3901
 346  363.6884
 347  413.0815
 348  403.0333
 349  429.3405
 350  452.2687
 351  443.0057
 352  451.6775
 353  460.8474
 354  454.6479
 355  560.4964
 356  570.0839
 357  430.4668
 358  318.9107
 359  358.2934
 360  497.0016
 361  521.2648
 362  487.1361
 363  497.5903
 364  473.9371
 365  491.3156
 366  483.4032
 367  398.9181
 368  314.9485
 369  318.8302
 370  308.5292
 371  331.1745
 372  413.3391
 373  335.4757
 374  289.5176
 375  384.5149
 376  291.3891
 377  283.6226
 378  356.7691
 379  329.369
 380  323.5425
 381  373.2805
 382  319.8759
 383  265.0172
 384  310.1952
 385  318.8401
 386  329.5878
 387  304.8581
 388  286.1909
 389  222.1508
 390  326.6314
 391  468.1164
 392  324.7762
 393  392.9902
 394  503.1168
 395  488.6242
 396  412.7079
 397  444.5035
 398  440.921
 399  380.8384
 400  394.8736
 401  536.8553
 402  388.0151
 403  306.1407
 404  411.0728
 405  465.6546
 406  406.556
 407  361.8326
 408  375.7962
 409  333.3218
 410  265.0085
 411  318.9756
 412  291.7488
 413  411.423
 414  338.0696
 415  486.0779
 416  469.5897
 417  364.2987
 418  416.3006
 419  394.1259
 420  344.1625
 421  335.882
 422  340.9527
 423  394.2621
 424  363.5868
 425  391.2173
 426  327.6844
 427  311.7016
 428  343.0225
 429  399.0605
 430  466.5458
 431  477.2229
 432  475.4569
 433  620.2396
 434  574.8755
 435  559.2394
 436  463.1936
 437  427.5784
 438  430.3954
 439  462.934
 440  558.7121
 441  567.1879
 442  579.3525
 443  497.8317
 444  405.4846
 445  405.8977
 446  474.7095
 447  496.0665
 448  484.2821
 449  450.8823
 450  449.9719
 451  448.1873
 452  385.2743
 453  541.3985
 454  487.4815
 455  458.8344
 456  522.463
 457  543.3499
 458  493.4642
 459  401.1031
 460  413.8603
 461  433.2519
 462  328.9802
 463  407.0769
 464  640.291
 465  483.2142
 466  486.2658
 467  365.6293
 468  370.9598
 469  408.253
 470  396.8313
 471  453.6576
 472  335.7927
 473  451.0738
 474  470.7043
 475  403.5747
 476  310.252
 477  402.5613
 478  351.2866
 479  378.843
 480  478.1728
 481  361.9448
 482  419.6986
 483  368.157
 484  396.9865
 485  397.09
 486  416.4129
 487  432.7829
 488  565.9533
 489  550.1212
 490  440.1196
 491  384.6085
 492  508.3866
 493  555.7344
 494  473.4748
 495  488.6049
 496  432.8784
 497  497.3064
 498  401.9232
 499  339.1574
 500  414.4999
 501  586.4288
 502  625.6125
 503  534.814
 504  482.7362
 505  407.2097
 506  561.1672
 507  597.032
 508  689.954
 509  816.1634
 510  1045.74
 511  1190.003
