# Input file       =  1210752853.118745_cleaned.dat
# Candidate        =  PSR_0332+5434
# Telescope        =  AR
# Epoch_topo       =  58257.342999059547
# Epoch_bary       =  N/A
# T_sample         =  0.002
# Data Folded      =  7340032
# Data Avg         =  0.0144849221044234
# Data StdDev      =  1.0000173575572  
# Profile Bins     =  512
# Profile Avg      =  207.631348906901 
# Profile StdDev   =  119.735114649794 
# Reduced chi-sqr  =  1.263
# Prob(Noise)      <  4.81e-05   (~3.9 sigma)
# P_topo (ms)      =  714.529337691561  +/- 0.00046
# P'_topo (s/s)    =  -0                +/- 2.43e-10
# P''_topo (s/s^2) =  0                 +/- 1.07e-13
# P_bary (ms)      =  N/A
# P'_bary (s/s)    =  N/A
# P''_bary (s/s^2) =  N/A
# P_orb (s)        =  N/A
# asin(i)/c (s)    =  N/A
# eccentricity     =  N/A
# w (rad)          =  N/A
# T_peri           =  N/A
######################################################
   0  731.3052
   1  610.5463
   2  536.9424
   3  412.3809
   4  227.0791
   5  212.3103
   6  226.7218
   7  128.6677
   8  161.8895
   9  252.8327
  10  317.9748
  11  314.2557
  12  271.4021
  13  324.472
  14  303.104
  15  316.0462
  16  379.2564
  17  388.5941
  18  337.8927
  19  327.3496
  20  286.9349
  21  285.0536
  22  279.7029
  23  290.1084
  24  245.1185
  25  269.8672
  26  281.8246
  27  280.9228
  28  348.6145
  29  320.0357
  30  223.9058
  31  252.9113
  32  254.686
  33  150.6872
  34  160.4998
  35  229.075
  36  277.6539
  37  278.8394
  38  263.5875
  39  236.7534
  40  203.675
  41  254.568
  42  230.2067
  43  179.3131
  44  193.0065
  45  203.4271
  46  252.5861
  47  260.453
  48  235.9276
  49  194.8092
  50  216.3625
  51  226.993
  52  177.3849
  53  232.3482
  54  339.5908
  55  302.678
  56  256.606
  57  273.4662
  58  318.2218
  59  263.9687
  60  262.6094
  61  255.5544
  62  197.1802
  63  193.3764
  64  167.0741
  65  270.0609
  66  184.8427
  67  66.49899
  68  87.77747
  69  108.5683
  70  110.0048
  71  68.5645
  72  172.7057
  73  205.7526
  74  127.3588
  75  130.479
  76  140.1723
  77  46.59225
  78  -35.0276
  79  0.5778732
  80  38.06544
  81  70.51057
  82  -56.91776
  83  3.348712
  84  -0.696117
  85  -18.17526
  86  27.37874
  87  22.03725
  88  109.5137
  89  105.176
  90  40.68101
  91  53.32376
  92  45.94999
  93  62.4049
  94  10.01598
  95  94.40998
  96  58.60719
  97  40.78895
  98  96.50463
  99  76.87503
 100  95.14927
 101  116.637
 102  120.2835
 103  160.1115
 104  211.5766
 105  175.3614
 106  149.58
 107  104.2833
 108  134.7782
 109  139.3472
 110  205.0314
 111  206.1737
 112  137.1308
 113  123.0595
 114  137.2062
 115  133.6867
 116  230.7126
 117  215.1271
 118  79.05688
 119  1.691751
 120  47.46679
 121  108.466
 122  118.1791
 123  131.5138
 124  198.0335
 125  165.6576
 126  131.2338
 127  131.9456
 128  211.4617
 129  198.7901
 130  156.323
 131  128.6855
 132  186.1754
 133  198.7484
 134  246.0543
 135  204.2469
 136  219.3108
 137  166.5681
 138  185.4983
 139  235.3706
 140  249.8861
 141  172.8002
 142  250.3348
 143  194.912
 144  268.358
 145  286.136
 146  318.1018
 147  298.712
 148  267.3707
 149  296.7619
 150  302.5152
 151  215.3945
 152  217.2044
 153  252.4435
 154  192.9862
 155  234.0151
 156  264.8492
 157  251.143
 158  228.7473
 159  201.9037
 160  205.0083
 161  206.6613
 162  230.6826
 163  261.3884
 164  285.7268
 165  206.1125
 166  183.062
 167  171.1109
 168  221.7391
 169  145.2634
 170  149.0339
 171  169.4604
 172  251.5372
 173  218.7665
 174  172.8204
 175  188.7933
 176  221.7552
 177  193.1179
 178  215.0741
 179  261.1929
 180  316.2174
 181  282.6981
 182  179.681
 183  130.3718
 184  198.6601
 185  234.3189
 186  241.1976
 187  192.1761
 188  344.4465
 189  344.1785
 190  266.3452
 191  262.4919
 192  274.0661
 193  285.5549
 194  292.9487
 195  339.7735
 196  321.8258
 197  239.0938
 198  301.9092
 199  333.2465
 200  255.0631
 201  137.9436
 202  100.7609
 203  116.6232
 204  129.1779
 205  144.7335
 206  74.019
 207  77.42223
 208  108.1237
 209  53.89021
 210  73.58913
 211  227.212
 212  213.5372
 213  191.6019
 214  146.3065
 215  181.0735
 216  120.0087
 217  146.8379
 218  148.8508
 219  217.8874
 220  172.4719
 221  168.0452
 222  181.8472
 223  256.1165
 224  274.0071
 225  320.6965
 226  258.659
 227  215.2605
 228  218.5437
 229  222.0741
 230  249.6337
 231  219.8132
 232  261.254
 233  246.9261
 234  188.4261
 235  247.5779
 236  254.7615
 237  224.9633
 238  217.108
 239  125.2233
 240  161.3598
 241  224.8074
 242  135.3286
 243  121.4731
 244  214.879
 245  127.9103
 246  35.22159
 247  122.8308
 248  154.4351
 249  116.3332
 250  128.3613
 251  144.4482
 252  127.8936
 253  62.76119
 254  138.5715
 255  171.678
 256  200.0224
 257  19.04865
 258  0.4095
 259  92.42842
 260  91.09128
 261  77.23796
 262  95.57873
 263  146.3593
 264  136.199
 265  195.3906
 266  239.1299
 267  230.7549
 268  179.3546
 269  184.7565
 270  252.2366
 271  277.743
 272  232.8453
 273  117.9767
 274  73.56996
 275  199.1323
 276  298.2617
 277  188.3827
 278  171.3346
 279  249.3967
 280  204.0005
 281  107.176
 282  176.6556
 283  167.7932
 284  211.7943
 285  136.1049
 286  126.9866
 287  163.4534
 288  138.6744
 289  74.98448
 290  105.8575
 291  130.9021
 292  233.8569
 293  263.6751
 294  201.8199
 295  209.9274
 296  137.8954
 297  108.9689
 298  127.2981
 299  175.5144
 300  159.3512
 301  200.2954
 302  189.8484
 303  200.2289
 304  245.9429
 305  314.0159
 306  229.7478
 307  264.1211
 308  294.0853
 309  258.1868
 310  195.6406
 311  233.7431
 312  287.4704
 313  333.7338
 314  311.3801
 315  233.1841
 316  279.768
 317  304.3611
 318  252.7823
 319  229.6298
 320  232.0591
 321  372.6062
 322  380.3445
 323  351.6388
 324  304.0353
 325  270.1588
 326  229.2242
 327  229.8275
 328  267.8051
 329  225.6257
 330  213.9186
 331  239.3679
 332  277.2972
 333  187.5097
 334  123.5864
 335  242.4954
 336  212.9861
 337  144.0892
 338  161.5227
 339  69.45005
 340  19.95609
 341  123.8175
 342  228.8016
 343  218.7062
 344  226.983
 345  234.1016
 346  140.6508
 347  181.553
 348  64.658
 349  100.9607
 350  101.3701
 351  174.8399
 352  126.2546
 353  96.35531
 354  210.5886
 355  150.1557
 356  134.3763
 357  137.4473
 358  138.4639
 359  115.621
 360  209.5506
 361  267.2043
 362  250.2675
 363  211.9616
 364  129.4031
 365  82.79324
 366  82.95397
 367  55.38123
 368  169.0828
 369  209.8123
 370  96.70842
 371  68.94917
 372  107.5082
 373  127.9398
 374  134.9143
 375  173.0995
 376  117.1969
 377  105.31
 378  154.265
 379  71.30283
 380  53.61193
 381  160.8645
 382  156.373
 383  90.05273
 384  180.0719
 385  127.5766
 386  133.7719
 387  240.2004
 388  271.9226
 389  286.4776
 390  196.1544
 391  219.1402
 392  213.1578
 393  297.7764
 394  368.0761
 395  313.0962
 396  307.6009
 397  321.6621
 398  301.6208
 399  329.8418
 400  211.8002
 401  308.4675
 402  302.1165
 403  307.4491
 404  251.0691
 405  214.396
 406  365.3135
 407  346.3083
 408  403.3978
 409  370.3949
 410  186.0345
 411  206.6187
 412  264.1513
 413  241.8744
 414  332.5346
 415  295.1115
 416  270.9404
 417  267.3958
 418  254.4066
 419  321.4319
 420  232.1924
 421  362.8056
 422  278.7945
 423  284.3846
 424  354.8508
 425  297.4556
 426  301.3431
 427  411.9565
 428  410.6524
 429  344.49
 430  314.898
 431  367.548
 432  432.5958
 433  379.016
 434  382.7872
 435  306.547
 436  470.0566
 437  431.0994
 438  331.4989
 439  316.3236
 440  375.0266
 441  320.3159
 442  225.0229
 443  234.5076
 444  311.6801
 445  316.3984
 446  319.4349
 447  321.1822
 448  318.924
 449  291.3708
 450  197.7189
 451  256.7821
 452  320.3697
 453  217.0205
 454  185.1863
 455  326.9951
 456  307.451
 457  268.0342
 458  252.5379
 459  199.3145
 460  212.0967
 461  268.8857
 462  199.0041
 463  192.9096
 464  157.2629
 465  155.5075
 466  203.687
 467  147.7659
 468  155.9518
 469  169.755
 470  204.6804
 471  154.6875
 472  88.68212
 473  156.3432
 474  165.0762
 475  212.5402
 476  206.4693
 477  239.9643
 478  163.1518
 479  97.32152
 480  122.9273
 481  119.7427
 482  187.993
 483  190.9916
 484  207.4209
 485  173.7797
 486  103.6639
 487  46.45801
 488  105.2642
 489  123.3624
 490  195.2286
 491  210.7052
 492  282.3629
 493  255.5172
 494  291.438
 495  206.742
 496  84.60899
 497  129.1785
 498  185.1334
 499  140.7294
 500  98.30302
 501  102.1509
 502  55.34688
 503  205.6586
 504  218.2667
 505  169.2377
 506  117.1697
 507  116.5072
 508  290.3247
 509  453.5515
 510  576.8867
 511  685.6265
