# Input file       =  1210509309.128302_cleaned.dat
# Candidate        =  PSR_0332+5434
# Telescope        =  AR
# Epoch_topo       =  58254.524202873865
# Epoch_bary       =  N/A
# T_sample         =  0.002
# Data Folded      =  7340032
# Data Avg         =  0.0303035161832183
# Data StdDev      =  1.00009877422424 
# Profile Bins     =  512
# Profile Avg      =  434.569873815057 
# Profile StdDev   =  119.74486291455  
# Reduced chi-sqr  =  1.499
# Prob(Noise)      <  1.71e-12   (~7.0 sigma)
# P_topo (ms)      =  714.532437966302  +/- 0.000296
# P'_topo (s/s)    =  -0                +/- 1.56e-10
# P''_topo (s/s^2) =  0                 +/- 6.9e-14
# P_bary (ms)      =  N/A
# P'_bary (s/s)    =  N/A
# P''_bary (s/s^2) =  N/A
# P_orb (s)        =  N/A
# asin(i)/c (s)    =  N/A
# eccentricity     =  N/A
# w (rad)          =  N/A
# T_peri           =  N/A
######################################################
   0  1231.418
   1  1086.443
   2  864.1656
   3  615.9048
   4  455.2777
   5  403.3289
   6  436.7867
   7  445.535
   8  609.0354
   9  639.7774
  10  454.9419
  11  405.354
  12  415.3558
  13  424.6167
  14  432.5145
  15  402.526
  16  508.4077
  17  431.3832
  18  399.3938
  19  429.7234
  20  366.0675
  21  263.5037
  22  347.8677
  23  342.4952
  24  376.8879
  25  402.571
  26  433.3257
  27  282.5184
  28  418.6697
  29  475.0986
  30  417.8114
  31  332.385
  32  369.3185
  33  320.5706
  34  293.3389
  35  314.5382
  36  419.746
  37  378.2212
  38  465.4589
  39  523.6361
  40  459.5276
  41  479.2008
  42  527.4166
  43  394.9151
  44  385.0841
  45  404.9999
  46  319.3575
  47  364.2079
  48  378.8757
  49  411.7055
  50  386.67
  51  348.4998
  52  302.0902
  53  358.8348
  54  524.5424
  55  451.1736
  56  387.6004
  57  464.7449
  58  475.5298
  59  462.5794
  60  552.4643
  61  424.7916
  62  351.0581
  63  383.68
  64  444.3181
  65  349.0081
  66  398.19
  67  421.8104
  68  380.1951
  69  488.2097
  70  454.897
  71  341.3894
  72  400.6692
  73  473.8855
  74  293.2179
  75  371.8141
  76  387.6463
  77  475.3845
  78  465.7077
  79  417.9044
  80  272.4202
  81  331.5632
  82  378.4488
  83  290.2703
  84  395.5336
  85  421.3688
  86  410.4655
  87  469.6126
  88  430.0327
  89  299.9209
  90  286.4368
  91  346.2953
  92  527.5341
  93  439.2207
  94  443.4473
  95  472.7177
  96  440.375
  97  408.6145
  98  380.5888
  99  442.9756
 100  451.0328
 101  459.465
 102  469.289
 103  437.202
 104  287.4065
 105  407.671
 106  527.2571
 107  476.2323
 108  396.5967
 109  381.796
 110  427.3517
 111  431.4886
 112  400.7372
 113  473.6416
 114  483.094
 115  424.477
 116  408.8145
 117  400.8414
 118  361.9524
 119  373.4602
 120  478.0422
 121  525.1637
 122  426.8935
 123  452.4202
 124  512.3853
 125  547.0076
 126  553.8778
 127  449.088
 128  376.5981
 129  365.3608
 130  440.6187
 131  384.2356
 132  407.9242
 133  395.4717
 134  255.1248
 135  360.6765
 136  318.1443
 137  260.2384
 138  339.6581
 139  378.4255
 140  406.1056
 141  442.2936
 142  418.0217
 143  436.0805
 144  420.0179
 145  362.4587
 146  308.7871
 147  378.0609
 148  414.2423
 149  505.3846
 150  453.296
 151  346.1542
 152  248.9526
 153  247.0831
 154  206.5802
 155  316.2249
 156  355.4047
 157  327.8594
 158  361.528
 159  411.9314
 160  442.5173
 161  354.2098
 162  364.7011
 163  353.284
 164  376.6913
 165  389.4949
 166  471.3972
 167  385.4904
 168  477.9442
 169  615.0283
 170  583.3207
 171  537.0472
 172  464.5433
 173  453.1636
 174  401.9741
 175  379.6351
 176  477.4203
 177  448.2836
 178  376.5141
 179  451.3062
 180  565.6091
 181  479.3658
 182  427.2497
 183  413.002
 184  392.9138
 185  426.8209
 186  493.6592
 187  395.1997
 188  316.705
 189  405.1997
 190  425.0733
 191  360.1629
 192  318.2989
 193  348.0839
 194  293.4655
 195  355.5095
 196  496.1639
 197  502.0442
 198  457.6651
 199  550.4592
 200  433.8731
 201  447.6413
 202  480.0269
 203  498.3865
 204  493.4873
 205  361.3014
 206  339.2655
 207  456.3516
 208  528.2584
 209  500.5434
 210  511.1588
 211  374.9783
 212  545.1444
 213  505.6041
 214  411.766
 215  458.0566
 216  535.7862
 217  495.4964
 218  474.9206
 219  477.613
 220  480.437
 221  406.9002
 222  352.4343
 223  335.2132
 224  433.6413
 225  416.9334
 226  442.3599
 227  509.2042
 228  506.8001
 229  454.4786
 230  380.5049
 231  408.4222
 232  482.5352
 233  454.5263
 234  513.6147
 235  581.1657
 236  570.6018
 237  515.6138
 238  482.0904
 239  416.1993
 240  345.8234
 241  369.7806
 242  383.7127
 243  412.9967
 244  459.1562
 245  574.3416
 246  497.532
 247  417.7422
 248  461.0205
 249  462.7555
 250  598.633
 251  562.3859
 252  496.2151
 253  429.5035
 254  361.1945
 255  442.6186
 256  424.8001
 257  564.2469
 258  527.8533
 259  474.4802
 260  498.9456
 261  508.4021
 262  590.3643
 263  504.4474
 264  420.4436
 265  521.5912
 266  497.088
 267  495.8925
 268  394.3932
 269  453.185
 270  446.6704
 271  513.7171
 272  526.674
 273  426.5616
 274  427.5677
 275  530.569
 276  556.4132
 277  452.6478
 278  507.1773
 279  637.9342
 280  549.5983
 281  478.3094
 282  505.712
 283  573.6533
 284  565.6742
 285  562.2857
 286  545.9927
 287  491.4687
 288  574.7905
 289  568.4372
 290  575.8796
 291  549.9131
 292  413.0167
 293  368.1342
 294  458.3399
 295  505.692
 296  498.6531
 297  448.7655
 298  526.2231
 299  544.4046
 300  620.4716
 301  532.6379
 302  432.3232
 303  388.1805
 304  450.1459
 305  385.1554
 306  402.985
 307  402.9235
 308  380.014
 309  495.2683
 310  501.7255
 311  542.4385
 312  473.8523
 313  404.9709
 314  464.5934
 315  425.6642
 316  446.1891
 317  417.1165
 318  315.7262
 319  381.7384
 320  449.2385
 321  332.0307
 322  379.3245
 323  337.0788
 324  420.9239
 325  489.1215
 326  423.8
 327  409.7284
 328  317.404
 329  444.5733
 330  477.9911
 331  436.9791
 332  477.1075
 333  521.145
 334  531.7002
 335  430.1667
 336  442.9486
 337  476.5665
 338  476.8578
 339  474.8553
 340  440.4362
 341  530.5595
 342  564.5664
 343  556.3151
 344  424.4912
 345  436.5461
 346  424.7749
 347  379.0543
 348  504.2722
 349  467.1136
 350  446.3271
 351  355.3538
 352  350.6867
 353  382.1193
 354  317.9507
 355  363.9549
 356  446.746
 357  492.1421
 358  369.9848
 359  341.2907
 360  298.6769
 361  397.7001
 362  354.0451
 363  410.9826
 364  269.8456
 365  353.6038
 366  346.6246
 367  532.6752
 368  406.8989
 369  291.7419
 370  289.2502
 371  290.9708
 372  412.1464
 373  388.0587
 374  211.4986
 375  256.0084
 376  319.1112
 377  305.4918
 378  297.1626
 379  322.2186
 380  346.5186
 381  368.3316
 382  324.072
 383  318.7829
 384  411.1432
 385  358.5206
 386  402.3432
 387  403.2873
 388  298.0529
 389  295.4846
 390  264.4543
 391  320.9299
 392  217.6775
 393  292.98
 394  357.5756
 395  277.1255
 396  343.6918
 397  388.7973
 398  291.705
 399  300.7813
 400  335.9273
 401  497.4497
 402  526.8694
 403  448.4041
 404  367.7971
 405  436.7055
 406  501.9154
 407  439.0612
 408  490.9821
 409  380.722
 410  338.1152
 411  403.8039
 412  455.1176
 413  532.3268
 414  510.0862
 415  566.2705
 416  494.2451
 417  454.0231
 418  435.326
 419  537.6752
 420  526.9933
 421  422.2988
 422  505.5665
 423  496.3868
 424  513.886
 425  462.2853
 426  463.9662
 427  311.9824
 428  254.8324
 429  435.8905
 430  415.3824
 431  430.1712
 432  532.2032
 433  334.5561
 434  324.0597
 435  328.6419
 436  355.1383
 437  428.0567
 438  471.8756
 439  505.5719
 440  344.9413
 441  390.9345
 442  414.6927
 443  435.3726
 444  380.3604
 445  367.4338
 446  283.941
 447  327.5132
 448  407.0453
 449  515.012
 450  533.2855
 451  424.6127
 452  369.0986
 453  440.4786
 454  536.2914
 455  466.7861
 456  410.2561
 457  387.1933
 458  406.0159
 459  384.2238
 460  369.7404
 461  338.1093
 462  347.7198
 463  392.6386
 464  460.878
 465  365.1744
 466  371.1155
 467  541.5573
 468  513.4231
 469  545.9332
 470  487.416
 471  410.4644
 472  381.3601
 473  364.5175
 474  430.2732
 475  493.043
 476  478.9677
 477  348.9052
 478  342.1497
 479  455.948
 480  440.1225
 481  410.0742
 482  428.8686
 483  373.252
 484  252.61
 485  342.8055
 486  417.2257
 487  472.936
 488  466.8101
 489  500.6392
 490  452.6062
 491  566.6295
 492  498.1337
 493  393.4709
 494  489.709
 495  569.2754
 496  472.2415
 497  326.7128
 498  332.9725
 499  341.8512
 500  385.6826
 501  455.8782
 502  412.652
 503  421.979
 504  461.3416
 505  489.7972
 506  458.5486
 507  629.3026
 508  799.0878
 509  995.0871
 510  1051.36
 511  1163.84
