# Input file       =  1210509309.128302_cleaned.dat
# Candidate        =  PSR_0332+5434
# Telescope        =  AR
# Epoch_topo       =  58254.524202873865
# Epoch_bary       =  N/A
# T_sample         =  0.002
# Data Folded      =  7340032
# Data Avg         =  0.0303035161832183
# Data StdDev      =  1.00009877422424 
# Profile Bins     =  512
# Profile Avg      =  434.569873832941 
# Profile StdDev   =  119.74486291455  
# Reduced chi-sqr  =  1.506
# Prob(Noise)      <  9.08e-13   (~7.0 sigma)
# P_topo (ms)      =  714.532438008468  +/- 0.000216
# P'_topo (s/s)    =  -0                +/- 1.14e-10
# P''_topo (s/s^2) =  0                 +/- 5.02e-14
# P_bary (ms)      =  N/A
# P'_bary (s/s)    =  N/A
# P''_bary (s/s^2) =  N/A
# P_orb (s)        =  N/A
# asin(i)/c (s)    =  N/A
# eccentricity     =  N/A
# w (rad)          =  N/A
# T_peri           =  N/A
######################################################
   0  1229.645
   1  1177.116
   2  996.0157
   3  743.5994
   4  524.551
   5  421.0742
   6  417.4514
   7  444.1678
   8  482.7609
   9  687.0572
  10  543.481
  11  426.3619
  12  396.7447
  13  430.3514
  14  431.8387
  15  419.9009
  16  415.9495
  17  521.8323
  18  384.9884
  19  434.3213
  20  415.7734
  21  300.3874
  22  289.2466
  23  356.6791
  24  345.7062
  25  388.7039
  26  443.7809
  27  353.5703
  28  315.825
  29  455.6842
  30  465.4813
  31  363.7426
  32  360.0512
  33  344.5988
  34  317.7062
  35  281.1785
  36  371.8312
  37  405.1472
  38  382.2583
  39  526.2406
  40  491.4679
  41  456.1306
  42  514.0137
  43  479.1503
  44  362.946
  45  417.3925
  46  375.2829
  47  312.5387
  48  390.7645
  49  380.6857
  50  418.3835
  51  357.6644
  52  339.5587
  53  281.7926
  54  467.1882
  55  502.2289
  56  408.5883
  57  404.6624
  58  495.795
  59  453.0697
  60  503.5248
  61  525.1121
  62  356.1667
  63  368.7199
  64  418.0881
  65  419.7172
  66  349.7065
  67  424.3764
  68  399.757
  69  406.8217
  70  508.5572
  71  388.3439
  72  346.0865
  73  475.3734
  74  384.7289
  75  305.1436
  76  382.8642
  77  417.1118
  78  492.4333
  79  442.6707
  80  366.4835
  81  244.7132
  82  405.5159
  83  321.7227
  84  332.2619
  85  423.9274
  86  399.9284
  87  437.7841
  88  473.4017
  89  364.6197
  90  286.9334
  91  273.6668
  92  457.4682
  93  511.7664
  94  424.8203
  95  460.7884
  96  449.5233
  97  426.7468
  98  389.7911
  99  405.4119
 100  459.4958
 101  441.5269
 102  470.7639
 103  467.7249
 104  378.4239
 105  293.2057
 106  507.0713
 107  497.7572
 108  436.3722
 109  368.0372
 110  399.4309
 111  446.6747
 112  414.6182
 113  432.2822
 114  509.6214
 115  429.9802
 116  424.864
 117  398.5866
 118  394.3802
 119  355.8397
 120  409.8967
 121  522.6412
 122  478.2368
 123  431.7758
 124  464.1965
 125  546.4736
 126  539.0558
 127  526.6984
 128  405.8537
 129  363.1611
 130  406.6739
 131  425.0815
 132  368.7747
 133  440.2032
 134  303.8092
 135  311.2638
 136  353.9596
 137  285.4289
 138  267.2617
 139  379.7046
 140  382.5555
 141  441.7485
 142  420.2353
 143  430.7421
 144  424.2169
 145  407.7808
 146  315.9038
 147  340.1129
 148  393.5216
 149  461.2221
 150  503.5576
 151  409.9362
 152  284.5104
 153  250.6512
 154  207.2251
 155  249.1955
 156  354.1432
 157  341.6147
 158  333.9134
 159  370.6736
 160  445.3262
 161  404.0206
 162  361.602
 163  351.9677
 164  366.2307
 165  372.5816
 166  442.9713
 167  436.0502
 168  392.9516
 169  555.9106
 170  621.342
 171  565.595
 172  513.5049
 173  429.4503
 174  447.1069
 175  361.7211
 176  438.5934
 177  481.6726
 178  411.461
 179  363.9183
 180  555.1589
 181  520.9456
 182  464.3944
 183  402.4401
 184  421.3388
 185  377.6184
 186  484.8294
 187  451.3954
 188  330.4371
 189  362.7176
 190  420.0368
 191  412.9216
 192  314.5124
 193  345.5186
 194  314.1875
 195  318.7539
 196  411.8312
 197  531.2433
 198  453.2836
 199  525.9389
 200  507.4825
 201  401.6661
 202  481.9896
 203  463.3704
 204  532.1186
 205  423.2257
 206  339.9052
 207  378.9084
 208  517.7564
 209  492.0598
 210  531.0245
 211  426.2438
 212  445.3913
 213  563.4584
 214  450.4776
 215  413.0188
 216  510.2495
 217  514.973
 218  500.0698
 219  456.2133
 220  501.0422
 221  433.0021
 222  397.2962
 223  311.8752
 224  403.4678
 225  431.0768
 226  414.3001
 227  474.2223
 228  492.1154
 229  496.6026
 230  420.7586
 231  382.3614
 232  462.686
 233  464.6469
 234  472.8163
 235  546.6826
 236  591.8256
 237  533.3446
 238  504.6164
 239  454.0009
 240  383.9786
 241  351.9971
 242  370.2311
 243  402.9604
 244  409.1879
 245  536.7983
 246  560.9058
 247  436.3199
 248  431.1981
 249  458.3494
 250  515.6457
 251  610.157
 252  521.6164
 253  474.3443
 254  389.0618
 255  397.8728
 256  442.2884
 257  472.7608
 258  580.4589
 259  476.2092
 260  482.6758
 261  505.0788
 262  543.4324
 263  589.6883
 264  423.1343
 265  481.0789
 266  495.6079
 267  540.8221
 268  414.8957
 269  442.1702
 270  427.8955
 271  489.4564
 272  513.6674
 273  508.3146
 274  392.672
 275  487.0087
 276  555.6133
 277  506.3979
 278  438.3828
 279  579.0523
 280  627.077
 281  503.0774
 282  491.715
 283  536.8727
 284  580.056
 285  553.5243
 286  568.7001
 287  499.5327
 288  518.4013
 289  589.186
 290  569.6245
 291  576.5579
 292  503.6568
 293  366.44
 294  407.9736
 295  473.1789
 296  509.1473
 297  468.8093
 298  483.7886
 299  545.26
 300  565.7075
 301  609.6479
 302  481.5577
 303  397.4809
 304  422.0187
 305  420.59
 306  401.7256
 307  402.1339
 308  375.4508
 309  426.2681
 310  505.0996
 311  520.3048
 312  519.5879
 313  444.652
 314  424.7615
 315  453.9394
 316  415.776
 317  447.5564
 318  380.403
 319  315.2005
 320  440.8812
 321  405.727
 322  332.7966
 323  394.273
 324  318.3111
 325  491.8149
 326  434.1148
 327  435.9662
 328  355.95
 329  356.3243
 330  497.7763
 331  444.103
 332  449.6125
 333  491.9661
 334  546.4321
 335  483.2143
 336  425.3624
 337  473.2713
 338  460.3812
 339  497.0546
 340  431.2657
 341  486.1821
 342  546.3333
 343  581.3925
 344  488.2165
 345  416.2017
 346  457.1344
 347  376.3405
 348  436.653
 349  503.9277
 350  467.5222
 351  409.0593
 352  337.9435
 353  358.776
 354  361.8481
 355  312.857
 356  417.7365
 357  482.6914
 358  445.0603
 359  348.4466
 360  303.4695
 361  345.1718
 362  389.9081
 363  378.9258
 364  357.6626
 365  274.0727
 366  364.2876
 367  426.3963
 368  523.7029
 369  313.3678
 370  297.0666
 371  273.6317
 372  327.5571
 373  452.957
 374  291.8696
 375  207.1095
 376  301.3881
 377  308.4442
 378  309.9431
 379  301.3257
 380  340.3682
 381  355.4586
 382  361.7079
 383  308.3493
 384  356.3768
 385  397.6246
 386  347.2447
 387  431.6057
 388  343.94
 389  298.5992
 390  283.228
 391  283.5605
 392  297.8092
 393  202.3248
 394  374.4477
 395  305.0681
 396  295.978
 397  369.8795
 398  353.2349
 399  279.3589
 400  319.4393
 401  395.6203
 402  536.9984
 403  500.877
 404  391.9762
 405  389.2858
 406  481.8665
 407  482.4973
 408  452.9024
 409  467.2856
 410  325.5273
 411  370.3274
 412  415.5293
 413  501.6784
 414  518.7468
 415  546.3788
 416  534.3054
 417  477.0176
 418  438.6797
 419  454.8055
 420  575.1828
 421  453.5569
 422  464.752
 423  510.2801
 424  499.4443
 425  496.795
 426  464.6405
 427  411.4137
 428  247.6686
 429  342.6735
 430  454.3846
 431  386.826
 432  509.0436
 433  451.7534
 434  310.6017
 435  330.7921
 436  324.5543
 437  394.1197
 438  447.8015
 439  510.2686
 440  438.9086
 441  337.584
 442  419.3209
 443  409.4892
 444  431.6873
 445  351.7988
 446  346.9868
 447  254.6204
 448  388.4905
 449  450.1584
 450  552.932
 451  490.1358
 452  376.9168
 453  383.7418
 454  510.4426
 455  499.9287
 456  455.7757
 457  373.3959
 458  421.6205
 459  378.3027
 460  398.5478
 461  327.2407
 462  344.7415
 463  356.5118
 464  443.3845
 465  425.8629
 466  332.9305
 467  461.3535
 468  546.837
 469  521.7114
 470  540.4935
 471  440.8327
 472  398.1745
 473  362.4629
 474  384.0671
 475  457.7414
 476  511.9205
 477  413.3749
 478  334.5376
 479  398.2664
 480  464.571
 481  421.0614
 482  398.6189
 483  447.9877
 484  294.2314
 485  282.2839
 486  367.0487
 487  444.1523
 488  473.7804
 489  492.4118
 490  481.7603
 491  480.1477
 492  583.6295
 493  413.4756
 494  450.7639
 495  518.2531
 496  561.4182
 497  368.8689
 498  329.5113
 499  344.3407
 500  347.4018
 501  428.1726
 502  442.2024
 503  418.4777
 504  421.2218
 505  489.3554
 506  442.5717
 507  542.8542
 508  697.3572
 509  903.6614
 510  1021.7
 511  1091.004
