# Input file       =  1210322039.121345_cleaned.dat
# Candidate        =  PSR_0332+5434
# Telescope        =  AR
# Epoch_topo       =  58252.356725941492
# Epoch_bary       =  N/A
# T_sample         =  0.002
# Data Folded      =  7340032
# Data Avg         =  0.0215254493994191
# Data StdDev      =  1.00018505979531 
# Profile Bins     =  512
# Profile Avg      =  308.576398674716 
# Profile StdDev   =  119.75519414797  
# Reduced chi-sqr  =  1.897
# Prob(Noise)      <  8.63e-31   (~11.5 sigma)
# P_topo (ms)      =  714.534216450741  +/- 0.0005
# P'_topo (s/s)    =  -0                +/- 2.64e-10
# P''_topo (s/s^2) =  0                 +/- 1.17e-13
# P_bary (ms)      =  N/A
# P'_bary (s/s)    =  N/A
# P''_bary (s/s^2) =  N/A
# P_orb (s)        =  N/A
# asin(i)/c (s)    =  N/A
# eccentricity     =  N/A
# w (rad)          =  N/A
# T_peri           =  N/A
######################################################
   0  985.06
   1  949.9557
   2  758.5767
   3  609.4476
   4  442.1937
   5  336.1456
   6  301.172
   7  280.8565
   8  299.5654
   9  350.3976
  10  415.4161
  11  377.045
  12  366.402
  13  357.977
  14  479.0121
  15  437.8403
  16  364.7241
  17  347.3347
  18  274.4183
  19  236.4905
  20  324.6264
  21  295.9905
  22  237.513
  23  203.9093
  24  288.7061
  25  296.6363
  26  277.0573
  27  256.6064
  28  348.5857
  29  278.7606
  30  352.4978
  31  333.5255
  32  307.4042
  33  342.4562
  34  380.2589
  35  368.317
  36  349.2589
  37  306.5287
  38  281.0482
  39  282.3298
  40  252.2892
  41  324.0397
  42  347.8758
  43  357.1287
  44  326.964
  45  200.9637
  46  318.9896
  47  360.3597
  48  277.4857
  49  285.7992
  50  260.143
  51  205.9334
  52  176.5979
  53  252.345
  54  310.7375
  55  273.4909
  56  191.5937
  57  257.1617
  58  298.7158
  59  301.1537
  60  293.2746
  61  280.1336
  62  285.0763
  63  285.6292
  64  198.5443
  65  237.5983
  66  254.1144
  67  318.3893
  68  344.2884
  69  271.805
  70  293.5932
  71  344.6499
  72  316.3654
  73  364.7163
  74  264.5768
  75  274.0752
  76  316.6143
  77  336.5658
  78  399.0234
  79  299.1212
  80  335.6678
  81  305.3884
  82  372.8506
  83  369.198
  84  381.7002
  85  346.9868
  86  351.5842
  87  292.8763
  88  287.4574
  89  265.4162
  90  327.8695
  91  336.8158
  92  373.5511
  93  438.5868
  94  392.9425
  95  308.7853
  96  280.3347
  97  378.4015
  98  342.8032
  99  309.157
 100  384.4759
 101  417.3627
 102  398.4289
 103  429.7396
 104  423.0362
 105  410.7534
 106  420.82
 107  388.1984
 108  396.8842
 109  404.2142
 110  478.2913
 111  566.1981
 112  491.5382
 113  401.0887
 114  453.2408
 115  453.5413
 116  506.9106
 117  521.2769
 118  522.2795
 119  480.2495
 120  501.5084
 121  495.7249
 122  522.8875
 123  547.05
 124  531.2664
 125  540.5479
 126  454.504
 127  503.782
 128  548.5247
 129  590.8069
 130  639.9926
 131  541.0281
 132  506.2867
 133  456.0622
 134  459.5651
 135  520.9296
 136  464.4385
 137  460.1703
 138  445.1647
 139  467.6775
 140  450.616
 141  484.9137
 142  516.653
 143  501.8738
 144  359.4345
 145  380.4618
 146  395.1404
 147  427.381
 148  439.7132
 149  424.8838
 150  371.9068
 151  401.0712
 152  466.0182
 153  499.5117
 154  492.1414
 155  403.4971
 156  360.7105
 157  400.9658
 158  504.6803
 159  501.1069
 160  473.1577
 161  496.6939
 162  455.2386
 163  477.0756
 164  445.6413
 165  420.9167
 166  442.6527
 167  502.7873
 168  442.1971
 169  379.5542
 170  393.1197
 171  447.6164
 172  423.5239
 173  355.702
 174  375.4654
 175  373.8887
 176  402.769
 177  413.1364
 178  385.1438
 179  340.5461
 180  321.8439
 181  390.8772
 182  414.5031
 183  369.986
 184  355.7837
 185  259.3828
 186  258.1972
 187  335.1318
 188  343.554
 189  312.9524
 190  305.9997
 191  358.9885
 192  307.2183
 193  287.3068
 194  264.0985
 195  245.6865
 196  363.6349
 197  335.6136
 198  350.5608
 199  350.3044
 200  368.7375
 201  315.2241
 202  337.9134
 203  380.3672
 204  322.4582
 205  375.1872
 206  388.3554
 207  374.0638
 208  338.2642
 209  432.869
 210  455.761
 211  460.4104
 212  438.8687
 213  403.8996
 214  320.291
 215  426.5291
 216  356.3708
 217  424.9655
 218  364.7318
 219  340.1518
 220  303.2024
 221  311.5177
 222  315.48
 223  269.4718
 224  264.4282
 225  209.4875
 226  228.6677
 227  240.6107
 228  302.4095
 229  383.8932
 230  346.9477
 231  274.6351
 232  202.2318
 233  251.0601
 234  261.4355
 235  303.4286
 236  219.4012
 237  256.2831
 238  351.3069
 239  275.6116
 240  228.8291
 241  350.7198
 242  444.4558
 243  456.8007
 244  394.3698
 245  235.3855
 246  276.4067
 247  306.0513
 248  249.1913
 249  254.2797
 250  369.9053
 251  305.0536
 252  257.4982
 253  234.142
 254  280.8812
 255  321.8527
 256  332.7055
 257  296.264
 258  201.1317
 259  257.7798
 260  326.6315
 261  377.2843
 262  391.8226
 263  358.2426
 264  277.6327
 265  238.6627
 266  238.9984
 267  248.6837
 268  251.9161
 269  317.9369
 270  387.4974
 271  279.5841
 272  227.6693
 273  290.5035
 274  279.9759
 275  275.0152
 276  409.9273
 277  363.7445
 278  309.632
 279  270.4876
 280  270.917
 281  311.2791
 282  306.2993
 283  363.6597
 284  346.0928
 285  363.5642
 286  372.8322
 287  288.8335
 288  224.8304
 289  273.9123
 290  264.6584
 291  296.7561
 292  358.8983
 293  342.8733
 294  332.4687
 295  292.5701
 296  176.1044
 297  194.1377
 298  222.357
 299  300.7549
 300  284.5465
 301  305.9072
 302  207.115
 303  105.4395
 304  87.7179
 305  109.5294
 306  161.9078
 307  210.2709
 308  228.2788
 309  290.4747
 310  240.8991
 311  209.921
 312  158.7534
 313  188.9181
 314  180.4893
 315  146.6503
 316  206.0274
 317  180.8328
 318  207.8012
 319  249.0651
 320  188.6132
 321  59.89713
 322  123.7228
 323  98.22341
 324  133.8752
 325  310.1598
 326  408.3429
 327  219.4125
 328  189.7502
 329  192.4468
 330  201.934
 331  243.0467
 332  174.1684
 333  207.07
 334  276.8222
 335  245.0009
 336  309.8339
 337  305.265
 338  286.605
 339  243.8256
 340  254.0816
 341  310.1449
 342  390.2472
 343  391.8046
 344  290.4862
 345  178.3302
 346  115.6779
 347  124.1561
 348  164.4586
 349  294.1695
 350  276.8333
 351  278.5359
 352  217.0146
 353  251.7802
 354  188.7942
 355  181.7649
 356  187.4593
 357  228.8998
 358  238.7491
 359  260.8898
 360  223.977
 361  286.2415
 362  302.6018
 363  225.8254
 364  170.153
 365  186.0124
 366  283.5949
 367  306.2728
 368  329.8593
 369  401.4845
 370  297.8868
 371  234.664
 372  267.5911
 373  382.7216
 374  396.4491
 375  406.2511
 376  279.8446
 377  293.1929
 378  330.2815
 379  304.8052
 380  315.4046
 381  289.249
 382  288.6034
 383  333.6071
 384  341.9801
 385  298.7343
 386  250.3919
 387  280.1236
 388  204.9961
 389  180.0506
 390  200.5521
 391  185.6817
 392  187.5779
 393  204.4606
 394  221.4119
 395  124.7008
 396  134.3113
 397  77.04138
 398  113.3006
 399  256.7799
 400  195.4085
 401  116.4227
 402  113.2832
 403  149.7949
 404  140.9173
 405  192.7988
 406  248.5112
 407  196.6514
 408  205.9794
 409  155.7032
 410  197.7933
 411  303.6262
 412  224.3804
 413  197.7721
 414  160.5777
 415  166.1718
 416  170.7389
 417  203.3317
 418  219.1873
 419  177.8635
 420  159.289
 421  125.2051
 422  202.1874
 423  202.8749
 424  215.9148
 425  204.4335
 426  178.5045
 427  219.5208
 428  247.902
 429  266.347
 430  240.581
 431  208.9875
 432  188.6857
 433  174.5057
 434  193.8786
 435  187.9868
 436  205.697
 437  200.1396
 438  163.6083
 439  140.822
 440  82.45469
 441  119.8085
 442  142.2803
 443  131.3932
 444  116.343
 445  143.3167
 446  113.5084
 447  146.9971
 448  170.2623
 449  128.0892
 450  160.3001
 451  101.2185
 452  108.9099
 453  143.6253
 454  58.18797
 455  113.7605
 456  150.1185
 457  238.8791
 458  194.5382
 459  138.6332
 460  173.6116
 461  214.2607
 462  238.9926
 463  273.1003
 464  239.8902
 465  258.7167
 466  277.1638
 467  224.6525
 468  208.6336
 469  220.0045
 470  168.8598
 471  130.0498
 472  137.1014
 473  198.8454
 474  235.0432
 475  249.0056
 476  324.6029
 477  314.1142
 478  196.8089
 479  273.8788
 480  304.5468
 481  305.5431
 482  267.6933
 483  242.9917
 484  299.7679
 485  250.8542
 486  259.966
 487  233.5248
 488  315.38
 489  338.0912
 490  368.2099
 491  384.4793
 492  258.1629
 493  222.2278
 494  234.261
 495  288.3658
 496  355.6819
 497  370.8535
 498  311.8336
 499  361.0139
 500  374.0784
 501  314.1457
 502  349.9448
 503  410.4606
 504  408.1463
 505  416.2356
 506  422.8492
 507  448.4686
 508  420.3065
 509  525.7678
 510  798.8488
 511  980.7584
