# Input file       =  1210494378.115824_cleaned.dat
# Candidate        =  PSR_0332+5434
# Telescope        =  AR
# Epoch_topo       =  58254.351390229443
# Epoch_bary       =  N/A
# T_sample         =  0.002
# Data Folded      =  7340032
# Data Avg         =  0.0194965607123802
# Data StdDev      =  1.00018000614184 
# Profile Bins     =  512
# Profile Avg      =  279.516748426003 
# Profile StdDev   =  119.754589058695 
# Reduced chi-sqr  =  1.685
# Prob(Noise)      <  2.63e-20   (~9.2 sigma)
# P_topo (ms)      =  714.532271769268  +/- 0.000498
# P'_topo (s/s)    =  -0                +/- 2.63e-10
# P''_topo (s/s^2) =  0                 +/- 1.16e-13
# P_bary (ms)      =  N/A
# P'_bary (s/s)    =  N/A
# P''_bary (s/s^2) =  N/A
# P_orb (s)        =  N/A
# asin(i)/c (s)    =  N/A
# eccentricity     =  N/A
# w (rad)          =  N/A
# T_peri           =  N/A
######################################################
   0  1001.732
   1  965.9445
   2  749.5146
   3  503.5266
   4  285.8016
   5  351.7624
   6  395.6501
   7  249.3918
   8  277.893
   9  296.4004
  10  268.3799
  11  254.5258
  12  297.7389
  13  343.5474
  14  377.3508
  15  349.5285
  16  343.6317
  17  287.0161
  18  238.2436
  19  194.9723
  20  173.9388
  21  234.863
  22  289.9727
  23  212.4415
  24  174.939
  25  275.6801
  26  333.6526
  27  274.7766
  28  221.9003
  29  172.4221
  30  188.72
  31  199.994
  32  243.8417
  33  213.7571
  34  249.4602
  35  286.5389
  36  219.3733
  37  119.4847
  38  26.24001
  39  80.30804
  40  191.8381
  41  208.1389
  42  226.8032
  43  264.138
  44  160.3287
  45  139.0161
  46  165.3345
  47  216.353
  48  268.4686
  49  187.2718
  50  165.7747
  51  118.6422
  52  178.8406
  53  234.2713
  54  168.65
  55  171.8788
  56  196.1633
  57  282.4878
  58  329.2351
  59  270.3625
  60  257.0805
  61  174.7154
  62  177.2603
  63  263.8653
  64  287.0542
  65  249.4833
  66  275.9127
  67  314.694
  68  321.7993
  69  226.6198
  70  246.7321
  71  198.2534
  72  201.9621
  73  266.6306
  74  341.333
  75  317.6763
  76  222.2697
  77  310.497
  78  369.8722
  79  300.2599
  80  367.2377
  81  415.1286
  82  340.9167
  83  295.0737
  84  257.4853
  85  328.0524
  86  323.5624
  87  281.6115
  88  363.4167
  89  432.7523
  90  387.2942
  91  390.2583
  92  365.6604
  93  400.2679
  94  406.6357
  95  396.2246
  96  425.6046
  97  418.1022
  98  361.7405
  99  374.1205
 100  366.2878
 101  324.36
 102  369.2355
 103  383.8207
 104  318.4969
 105  313.1067
 106  350.8919
 107  396.4785
 108  305.3524
 109  239.1708
 110  276.9419
 111  357.6446
 112  207.5836
 113  236.3348
 114  264.6474
 115  270.5127
 116  249.432
 117  301.1353
 118  210.5036
 119  229.7274
 120  302.2644
 121  335.8536
 122  289.4677
 123  306.839
 124  373.1216
 125  417.5671
 126  379.0591
 127  329.0746
 128  344.3434
 129  340.3912
 130  287.8122
 131  360.683
 132  384.7675
 133  346.9588
 134  407.7992
 135  428.2979
 136  326.1931
 137  309.1712
 138  275.324
 139  338.5003
 140  315.386
 141  323.5514
 142  345.1049
 143  281.4086
 144  321.0745
 145  317.4095
 146  323.464
 147  313.0864
 148  328.7291
 149  411.6921
 150  325.0013
 151  248.5757
 152  321.2651
 153  366.7353
 154  237.9861
 155  276.1212
 156  391.6545
 157  390.9751
 158  378.6802
 159  346.7531
 160  311.3919
 161  327.1651
 162  356.9596
 163  338.6391
 164  284.5135
 165  299.459
 166  344.5922
 167  319.464
 168  291.5127
 169  326.8213
 170  334.5128
 171  361.3997
 172  335.7411
 173  345.2875
 174  347.4018
 175  319.8393
 176  310.1136
 177  357.3517
 178  308.0131
 179  363.228
 180  350.1929
 181  278.8232
 182  253.2858
 183  343.8225
 184  405.818
 185  263.8504
 186  303.1814
 187  329.0612
 188  344.4859
 189  323.7759
 190  390.1882
 191  397.5893
 192  306.8465
 193  303.8955
 194  295.7832
 195  328.2935
 196  282.7961
 197  249.7626
 198  240.341
 199  269.1528
 200  287.9264
 201  298.9056
 202  335.6139
 203  372.7871
 204  363.0959
 205  321.0714
 206  305.8048
 207  244.2541
 208  235.5537
 209  317.9233
 210  277.8858
 211  257.4306
 212  260.5946
 213  335.2416
 214  299.008
 215  370.8805
 216  311.6756
 217  298.2639
 218  297.0074
 219  410.3037
 220  372.584
 221  373.0267
 222  378.9183
 223  351.5805
 224  342.7267
 225  392.5489
 226  344.9817
 227  295.3293
 228  270.5423
 229  293.7692
 230  291.5726
 231  311.6155
 232  435.3329
 233  445.0087
 234  402.4541
 235  350.3573
 236  390.4319
 237  368.5877
 238  285.6019
 239  263.905
 240  365.1159
 241  285.6382
 242  259.8937
 243  304.1908
 244  312.9247
 245  308.3524
 246  367.5251
 247  299.4518
 248  308.7906
 249  341.0942
 250  402.7046
 251  450.481
 252  403.2477
 253  442.0658
 254  366.3782
 255  364.4034
 256  364.363
 257  368.8872
 258  349.8951
 259  363.3162
 260  341.2725
 261  389.7685
 262  436.7885
 263  451.9473
 264  358.3551
 265  358.656
 266  417.5083
 267  414.1379
 268  418.5648
 269  457.2467
 270  364.933
 271  389.3131
 272  326.1966
 273  285.962
 274  217.1868
 275  312.0469
 276  349.5711
 277  330.7842
 278  302.031
 279  297.4992
 280  364.8506
 281  392.2524
 282  303.5223
 283  289.4893
 284  317.3229
 285  327.8323
 286  282.2147
 287  305.9542
 288  264.1794
 289  273.076
 290  282.8093
 291  243.4633
 292  311.8667
 293  330.2581
 294  291.6928
 295  262.9014
 296  180.6956
 297  224.268
 298  312.0534
 299  308.5802
 300  420.1558
 301  285.1084
 302  192.0397
 303  248.9604
 304  278.2711
 305  268.6828
 306  366.0431
 307  257.554
 308  177.5054
 309  153.6952
 310  230.0432
 311  244.1468
 312  216.361
 313  222.26
 314  154.8696
 315  114.2903
 316  161.7406
 317  150.6566
 318  68.38786
 319  13.16102
 320  7.870686
 321  -16.07677
 322  32.25877
 323  124.5281
 324  166.9736
 325  163.6515
 326  210.063
 327  192.2757
 328  169.2114
 329  168.3066
 330  231.1422
 331  211.6343
 332  174.5742
 333  155.0155
 334  92.12719
 335  85.76818
 336  122.1438
 337  54.65937
 338  43.09513
 339  86.41612
 340  47.20744
 341  178.0843
 342  234.0313
 343  163.1541
 344  202.4641
 345  189.3386
 346  244.4254
 347  200.9085
 348  151.4368
 349  157.2691
 350  72.49145
 351  45.92174
 352  57.03775
 353  92.89104
 354  125.0541
 355  235.1679
 356  226.7049
 357  216.2812
 358  57.92581
 359  116.1077
 360  163.3557
 361  104.766
 362  101.1826
 363  122.1744
 364  115.6967
 365  144.2105
 366  34.54949
 367  28.30233
 368  142.338
 369  159.3169
 370  97.73755
 371  108.6496
 372  155.9981
 373  177.4447
 374  149.0426
 375  251.0587
 376  254.528
 377  191.5428
 378  152.1514
 379  192.0139
 380  175.3639
 381  214.7198
 382  221.4969
 383  248.6378
 384  225.8214
 385  183.2991
 386  248.7175
 387  192.4488
 388  87.89346
 389  117.3819
 390  200.3472
 391  258.6065
 392  203.4413
 393  141.2066
 394  197.4474
 395  203.6711
 396  142.1741
 397  140.4157
 398  292.822
 399  252.6151
 400  189.1762
 401  174.5898
 402  128.5016
 403  182.0974
 404  188.2057
 405  139.5505
 406  74.0629
 407  128.8531
 408  165.9317
 409  193.8268
 410  186.0908
 411  128.1945
 412  136.2105
 413  215.817
 414  268.667
 415  195.8659
 416  170.9931
 417  120.9023
 418  107.5354
 419  190.9261
 420  212.7585
 421  172.1673
 422  100.9418
 423  115.4314
 424  149.3651
 425  275.9922
 426  269.8867
 427  260.8453
 428  277.3297
 429  301.4778
 430  251.4389
 431  281.2291
 432  285.9556
 433  253.292
 434  294.5775
 435  289.7947
 436  285.6975
 437  304.8658
 438  319.8175
 439  270.3644
 440  218.6063
 441  224.4966
 442  259.2881
 443  222.9444
 444  261.7849
 445  269.2801
 446  314.4451
 447  308.9893
 448  265.1265
 449  286.4561
 450  366.9052
 451  337.0621
 452  276.3897
 453  336.3049
 454  361.508
 455  304.3748
 456  349.9008
 457  410.9669
 458  364.8134
 459  348.8781
 460  384.8501
 461  333.1832
 462  234.3044
 463  308.0092
 464  291.3319
 465  289.6978
 466  293.8146
 467  284.9102
 468  277.7734
 469  290.7816
 470  260.5839
 471  286.7448
 472  372.5083
 473  332.334
 474  294.2409
 475  268.198
 476  279.7311
 477  230.5441
 478  218.7804
 479  265.6892
 480  263.5953
 481  289.5739
 482  261.5045
 483  303.058
 484  359.7899
 485  319.7455
 486  253.4269
 487  217.8208
 488  216.3513
 489  283.6198
 490  367.4825
 491  369.4402
 492  280.6293
 493  336.9547
 494  346.686
 495  344.2106
 496  294.0898
 497  257.8126
 498  263.4408
 499  307.5186
 500  331.1871
 501  340.8667
 502  339.3681
 503  328.0219
 504  321.6805
 505  361.9513
 506  381.7173
 507  465.2283
 508  513.3051
 509  709.9662
 510  881.7364
 511  978.9672
