# Input file       =  1210164609.112019_cleaned.dat
# Candidate        =  PSR_0332+5434
# Telescope        =  AR
# Epoch_topo       =  58250.534619352075
# Epoch_bary       =  N/A
# T_sample         =  0.002
# Data Folded      =  7340032
# Data Avg         =  0.0224740997110608
# Data StdDev      =  1.00007457046363 
# Profile Bins     =  512
# Profile Avg      =  322.131992977125 
# Profile StdDev   =  119.7419649248   
# Reduced chi-sqr  =  1.707
# Prob(Noise)      <  2.63e-21   (~9.4 sigma)
# P_topo (ms)      =  714.536313889038  +/- 0.000279
# P'_topo (s/s)    =  -0                +/- 1.47e-10
# P''_topo (s/s^2) =  0                 +/- 6.5e-14
# P_bary (ms)      =  N/A
# P'_bary (s/s)    =  N/A
# P''_bary (s/s^2) =  N/A
# P_orb (s)        =  N/A
# asin(i)/c (s)    =  N/A
# eccentricity     =  N/A
# w (rad)          =  N/A
# T_peri           =  N/A
######################################################
   0  1069.661
   1  1064.365
   2  867.4934
   3  621.0153
   4  525.1728
   5  428.6242
   6  348.5733
   7  328.8227
   8  378.6267
   9  330.8365
  10  253.4733
  11  327.6293
  12  379.7119
  13  356.5877
  14  344.5882
  15  275.3705
  16  291.8735
  17  223.7838
  18  313.0793
  19  359.4737
  20  317.8704
  21  310.268
  22  317.6689
  23  187.8034
  24  245.4612
  25  308.1177
  26  224.6068
  27  202.1945
  28  291.9052
  29  255.8907
  30  264.4057
  31  209.4168
  32  229.3061
  33  322.3493
  34  315.7329
  35  288.5934
  36  267.2555
  37  359.1502
  38  333.0214
  39  260.924
  40  290.4862
  41  243.7453
  42  200.8257
  43  368.9865
  44  422.9486
  45  313.3815
  46  260.7319
  47  257.1684
  48  295.7749
  49  350.802
  50  362.1516
  51  326.4319
  52  301.9056
  53  345.3406
  54  446.5544
  55  409.4547
  56  357.7259
  57  235.4021
  58  143.0445
  59  248.4721
  60  316.7678
  61  158.369
  62  273.9628
  63  275.7846
  64  235.4973
  65  131.8295
  66  126.2097
  67  243.7481
  68  480.8441
  69  376.8586
  70  207.2527
  71  325.5146
  72  371.5579
  73  427.7521
  74  319.8913
  75  313.3828
  76  394.8027
  77  407.8643
  78  403.0496
  79  349.4513
  80  305.6838
  81  402.0987
  82  320.1986
  83  374.8911
  84  373.3869
  85  350.7121
  86  381.2186
  87  357.037
  88  401.2971
  89  339.257
  90  443.0261
  91  379.0133
  92  364.1009
  93  455.4
  94  452.226
  95  506.068
  96  531.6376
  97  409.4359
  98  358.7752
  99  307.7538
 100  357.5382
 101  430.2337
 102  392.6217
 103  490.5916
 104  449.2509
 105  456.6913
 106  444.3097
 107  458.9066
 108  536.9559
 109  488.9164
 110  366.5058
 111  427.1624
 112  424.0833
 113  451.2883
 114  437.662
 115  368.7346
 116  423.172
 117  333.1398
 118  423.7334
 119  538.149
 120  506.8106
 121  412.6689
 122  346.9109
 123  337.0948
 124  331.5502
 125  282.8979
 126  365.3378
 127  422.0186
 128  235.4355
 129  210.3577
 130  272.988
 131  260.9492
 132  357.5408
 133  360.1556
 134  315.9882
 135  310.6632
 136  225.4705
 137  236.7296
 138  264.9341
 139  243.795
 140  432.555
 141  253.6292
 142  263.7313
 143  323.875
 144  354.1245
 145  330.6828
 146  202.479
 147  194.4113
 148  284.0457
 149  294.6122
 150  256.9164
 151  220.1255
 152  318.7505
 153  346.5936
 154  285.1296
 155  264.1177
 156  147.2913
 157  194.355
 158  241.161
 159  305.3041
 160  272.3156
 161  243.6282
 162  323.4317
 163  376.2056
 164  284.7938
 165  285.5747
 166  126.3367
 167  188.4545
 168  196.8293
 169  385.4081
 170  408.5246
 171  328.7274
 172  395.5136
 173  542.6585
 174  435.0367
 175  244.0638
 176  272.5536
 177  344.0478
 178  365.0938
 179  453.7205
 180  392.7988
 181  403.1909
 182  547.3159
 183  552.2993
 184  371.8278
 185  334.0709
 186  286.6334
 187  325.9161
 188  335.6461
 189  364.8516
 190  343.4515
 191  209.6703
 192  315.8521
 193  379.748
 194  296.5455
 195  250.6502
 196  333.2047
 197  298.9136
 198  282.2272
 199  319.614
 200  372.9454
 201  355.5415
 202  277.3416
 203  357.2977
 204  299.7744
 205  321.4336
 206  336.5748
 207  322.2288
 208  392.2343
 209  402.2411
 210  229.1981
 211  350.4366
 212  311.4798
 213  388.2286
 214  362.382
 215  247.0539
 216  195.6155
 217  207.3936
 218  130.8559
 219  188.9129
 220  408.3119
 221  460.7209
 222  359.2657
 223  367.3371
 224  329.2931
 225  157.2352
 226  161.2869
 227  306.4388
 228  371.335
 229  338.0379
 230  279.726
 231  240.088
 232  292.7293
 233  218.6624
 234  272.8272
 235  285.5631
 236  342.1563
 237  310.0264
 238  207.5958
 239  160.8596
 240  161.9244
 241  248.1463
 242  332.1372
 243  289.1447
 244  345.9474
 245  227.4197
 246  173.5088
 247  184.9171
 248  133.4028
 249  107.9441
 250  274.3576
 251  373.5513
 252  310.0944
 253  330.7057
 254  361.4132
 255  282.8026
 256  296.1824
 257  338.5897
 258  288.099
 259  303.3881
 260  374.3072
 261  291.0482
 262  328.6081
 263  251.4244
 264  261.5504
 265  220.9251
 266  250.3232
 267  311.4898
 268  330.6176
 269  193.6014
 270  308.6086
 271  296.8295
 272  326.7836
 273  455.9219
 274  422.9564
 275  264.7455
 276  154.858
 277  140.7075
 278  250.4607
 279  243.873
 280  312.9079
 281  371.8308
 282  395.1021
 283  435.1548
 284  299.2487
 285  215.2847
 286  206.1309
 287  246.0698
 288  358.8351
 289  303.3281
 290  429.5436
 291  309.825
 292  323.1651
 293  297.7818
 294  318.5186
 295  296.1003
 296  313.4654
 297  363.2764
 298  283.7738
 299  231.3977
 300  262.9328
 301  307.7662
 302  305.2415
 303  330.0394
 304  357.6306
 305  300.5898
 306  249.4956
 307  337.919
 308  335.7895
 309  290.2298
 310  239.0858
 311  217.3089
 312  262.5952
 313  261.2912
 314  355.6182
 315  370.4992
 316  374.5116
 317  356.321
 318  342.8753
 319  313.3866
 320  387.7108
 321  418.0805
 322  296.0278
 323  296.8367
 324  247.3826
 325  354.5038
 326  260.4705
 327  269.298
 328  332.1893
 329  325.643
 330  247.3139
 331  240.7088
 332  185.2501
 333  302.6694
 334  170.563
 335  144.9307
 336  245.5722
 337  435.967
 338  313.2527
 339  315.3951
 340  294.5948
 341  265.698
 342  229.7125
 343  319.0347
 344  348.8498
 345  401.3107
 346  407.3437
 347  415.037
 348  297.9849
 349  241.8683
 350  313.2103
 351  469.2699
 352  560.9863
 353  444.7387
 354  342.3197
 355  223.5649
 356  247.1366
 357  374.9787
 358  361.6214
 359  198.1012
 360  299.4889
 361  287.5487
 362  135.4276
 363  183.5123
 364  262.9602
 365  177.0256
 366  207.2398
 367  156.8818
 368  172.1588
 369  197.156
 370  233.5317
 371  280.6394
 372  142.2362
 373  187.8638
 374  270.7449
 375  209.4168
 376  354.0291
 377  141.6899
 378  148.7014
 379  224.3715
 380  144.2227
 381  170.916
 382  267.3428
 383  327.0323
 384  369.9747
 385  334.8109
 386  340.4762
 387  331.3877
 388  198.8319
 389  103.5899
 390  275.7431
 391  248.5735
 392  243.467
 393  125.8326
 394  127.0435
 395  283.4767
 396  296.8949
 397  320.5887
 398  284.0277
 399  285.9601
 400  286.6226
 401  252.0191
 402  259.4911
 403  271.1808
 404  262.9975
 405  317.9397
 406  300.6597
 407  245.4995
 408  321.0476
 409  276.0955
 410  326.6414
 411  406.4948
 412  357.2145
 413  329.1899
 414  240.7595
 415  198.7163
 416  219.1346
 417  220.7414
 418  267.6002
 419  380.4518
 420  329.223
 421  351.8064
 422  316.3141
 423  405.9088
 424  449.5957
 425  313.0971
 426  291.7431
 427  305.2523
 428  252.56
 429  314.9318
 430  323.5541
 431  352.7685
 432  429.9903
 433  396.4218
 434  371.4573
 435  241.5895
 436  316.0592
 437  304.2298
 438  358.1642
 439  354.5341
 440  345.6979
 441  418.4576
 442  284.8496
 443  288.6811
 444  281.22
 445  318.1766
 446  395.0655
 447  509.824
 448  482.45
 449  351.8094
 450  278.0356
 451  252.3324
 452  303.644
 453  250.2668
 454  270.129
 455  351.3852
 456  412.8618
 457  379.0653
 458  378.9991
 459  434.6865
 460  345.4064
 461  259.1344
 462  337.7094
 463  357.1345
 464  264.7236
 465  293.5083
 466  390.3949
 467  309.0088
 468  260.11
 469  288.8171
 470  242.5123
 471  287.6182
 472  398.9177
 473  464.0703
 474  446.6106
 475  341.5935
 476  331.2136
 477  292.8583
 478  253.3333
 479  377.2319
 480  373.4647
 481  388.1391
 482  394.6938
 483  376.5057
 484  326.0563
 485  260.5263
 486  179.2882
 487  274.0809
 488  317.8126
 489  353.5735
 490  313.7933
 491  414.9599
 492  444.0931
 493  396.7808
 494  298.8454
 495  337.0804
 496  369.4495
 497  279.0482
 498  248.8922
 499  214.4757
 500  232.9006
 501  329.6429
 502  355.6924
 503  314.7523
 504  229.8743
 505  266.5815
 506  339.8299
 507  589.5187
 508  683.9031
 509  787.7126
 510  1060.875
 511  1118.87
