# Input file       =  1210824426.118472_cleaned.dat
# Candidate        =  PSR_0332+5434
# Telescope        =  AR
# Epoch_topo       =  58258.171390260097
# Epoch_bary       =  N/A
# T_sample         =  0.002
# Data Folded      =  7143424
# Data Avg         =  0.0267155065128767
# Data StdDev      =  1.00003581362325 
# Profile Bins     =  512
# Profile Avg      =  372.683762608661 
# Profile StdDev   =  118.12281473635  
# Reduced chi-sqr  =  2.114
# Prob(Noise)      <  6e-43   (~13.7 sigma)
# P_topo (ms)      =  714.52851049131   +/- 8.96e-05
# P'_topo (s/s)    =  -0                +/- 4.86e-11
# P''_topo (s/s^2) =  0                 +/- 2.2e-14
# P_bary (ms)      =  N/A
# P'_bary (s/s)    =  N/A
# P''_bary (s/s^2) =  N/A
# P_orb (s)        =  N/A
# asin(i)/c (s)    =  N/A
# eccentricity     =  N/A
# w (rad)          =  N/A
# T_peri           =  N/A
######################################################
   0  1275.558
   1  1332.31
   2  1033.8
   3  776.1754
   4  569.9949
   5  566.3499
   6  554.1612
   7  565.6008
   8  653.5646
   9  420.201
  10  436.4463
  11  532.405
  12  456.9333
  13  476.9559
  14  405.3701
  15  592.2078
  16  547.0691
  17  441.102
  18  432.218
  19  440.9495
  20  276.6039
  21  144.9396
  22  258.8028
  23  347.288
  24  395.4587
  25  388.1827
  26  398.1715
  27  512.5062
  28  474.9225
  29  334.8119
  30  272.5205
  31  392.3322
  32  407.7292
  33  345.9049
  34  368.2539
  35  448.004
  36  519.6367
  37  211.9402
  38  289.2574
  39  361.9984
  40  493.5002
  41  547.5239
  42  520.3371
  43  473.313
  44  341.7997
  45  331.7129
  46  348.398
  47  348.4121
  48  428.2253
  49  442.2784
  50  432.4697
  51  432.1372
  52  370.0349
  53  254.1219
  54  246.026
  55  318.8168
  56  228.8643
  57  348.7803
  58  458.0625
  59  449.184
  60  513.9861
  61  429.131
  62  316.0692
  63  366.2319
  64  323.6709
  65  358.0256
  66  388.0426
  67  401.2625
  68  422.6608
  69  393.5134
  70  308.3989
  71  350.4736
  72  419.9563
  73  387.9391
  74  309.4457
  75  293.7255
  76  368.382
  77  441.4695
  78  296.3668
  79  158.8278
  80  241.717
  81  401.6575
  82  363.7924
  83  215.5037
  84  268.077
  85  394.7546
  86  246.8225
  87  198.0413
  88  266.57
  89  256.6624
  90  261.6318
  91  247.0491
  92  296.2934
  93  278.4579
  94  361.7678
  95  316.3476
  96  245.3222
  97  315.5746
  98  422.2917
  99  303.5095
 100  250.6947
 101  287.6891
 102  230.1926
 103  186.4701
 104  280.8075
 105  232.2831
 106  296.4247
 107  403.4398
 108  393.8229
 109  227.0387
 110  366.1848
 111  333.3795
 112  301.0052
 113  262.2348
 114  316.1838
 115  342.0404
 116  298.1439
 117  147.1476
 118  311.6255
 119  232.8708
 120  169.3813
 121  165.3043
 122  183.3826
 123  398.6517
 124  278.4466
 125  327.4976
 126  308.765
 127  225.4149
 128  198.7737
 129  189.2357
 130  280.8922
 131  340.8646
 132  174.7053
 133  305.6518
 134  381.2252
 135  326.8442
 136  185.0318
 137  210.6944
 138  271.795
 139  253.7681
 140  224.6616
 141  221.9229
 142  248.0726
 143  274.6441
 144  342.5455
 145  324.7337
 146  132.7765
 147  191.8817
 148  344.762
 149  278.7346
 150  244.0089
 151  257.1384
 152  216.5344
 153  269.5431
 154  308.4397
 155  332.4215
 156  358.6287
 157  202.5395
 158  364.6731
 159  400.0932
 160  198.6121
 161  167.7821
 162  210.354
 163  281.8529
 164  376.5263
 165  319.9133
 166  311.1787
 167  358.1864
 168  387.9126
 169  305.6683
 170  330.8676
 171  344.8123
 172  289.7166
 173  327.4822
 174  330.4139
 175  339.759
 176  392.8496
 177  398.018
 178  264.328
 179  229.9229
 180  373.7669
 181  376.0588
 182  318.5808
 183  310.9067
 184  337.5761
 185  274.8124
 186  229.5048
 187  369.6735
 188  504.1965
 189  314.526
 190  343.7842
 191  400.2311
 192  400.7367
 193  430.3254
 194  269.8488
 195  240.6436
 196  299.3426
 197  286.6794
 198  331.6174
 199  404.1362
 200  269.4647
 201  88.02005
 202  100.9087
 203  354.2794
 204  440.3413
 205  482.4154
 206  401.1906
 207  401.3452
 208  359.9891
 209  260.4726
 210  209.7181
 211  235.2807
 212  343.4729
 213  467.2216
 214  401.2128
 215  239.9961
 216  352.0318
 217  358.841
 218  315.8952
 219  281.762
 220  257.6631
 221  382.4768
 222  457.289
 223  398.1117
 224  349.6242
 225  326.7941
 226  321.3164
 227  285.3078
 228  175.5857
 229  194.6653
 230  277.3212
 231  362.3791
 232  369.9959
 233  280.8443
 234  265.1839
 235  355.3926
 236  258.0287
 237  359.2419
 238  389.7678
 239  413.8825
 240  536.0222
 241  519.6512
 242  373.6793
 243  382.2597
 244  313.0316
 245  301.8479
 246  330.6358
 247  365.6828
 248  419.4896
 249  297.7037
 250  367.1891
 251  470.0365
 252  450.5171
 253  428.535
 254  442.3909
 255  497.9536
 256  354.912
 257  418.6467
 258  427.4525
 259  423.3819
 260  369.2709
 261  379.7818
 262  248.0731
 263  341.6392
 264  342.3148
 265  321.6762
 266  238.5823
 267  348.7704
 268  341.1131
 269  417.6197
 270  311.7277
 271  508.4152
 272  498.4147
 273  395.0182
 274  377.1617
 275  405.8877
 276  346.8579
 277  328.7145
 278  405.3188
 279  534.078
 280  533.5211
 281  303.0783
 282  387.3737
 283  398.464
 284  274.9226
 285  293.2383
 286  279.3342
 287  407.4601
 288  528.1069
 289  544.3702
 290  504.1685
 291  435.3144
 292  391.9186
 293  277.1587
 294  254.8569
 295  339.5999
 296  290.7567
 297  371.1996
 298  422.4451
 299  402.3098
 300  347.6814
 301  320.0022
 302  246.1228
 303  341.3778
 304  445.5115
 305  427.5659
 306  340.8761
 307  431.9107
 308  457.8195
 309  400.3745
 310  429.9727
 311  398.6373
 312  454.0115
 313  464.1685
 314  337.8412
 315  367.5265
 316  473.578
 317  443.406
 318  393.2708
 319  415.7513
 320  404.6742
 321  485.426
 322  496.5242
 323  481.4726
 324  569.9325
 325  441.4282
 326  370.2319
 327  400.7576
 328  416.529
 329  329.539
 330  356.0291
 331  320.6741
 332  376.9209
 333  425.942
 334  376.555
 335  295.2004
 336  394.9714
 337  342.2916
 338  385.0916
 339  430.824
 340  285.4131
 341  310.7749
 342  408.2374
 343  322.6142
 344  399.9996
 345  413.2098
 346  379.0784
 347  388.1223
 348  430.5281
 349  554.4764
 350  382.1949
 351  442.8618
 352  410.4763
 353  395.4077
 354  634.3615
 355  521.4498
 356  428.2891
 357  507.0453
 358  415.9861
 359  415.8024
 360  354.8931
 361  401.8914
 362  423.8935
 363  465.3821
 364  508.4422
 365  444.5382
 366  338.0132
 367  344.9239
 368  311.2034
 369  263.5688
 370  357.6122
 371  450.6639
 372  366.3851
 373  431.4739
 374  454.0431
 375  399.8384
 376  302.329
 377  405.791
 378  424.9011
 379  442.1139
 380  502.4042
 381  368.6621
 382  368.8068
 383  397.9211
 384  300.7777
 385  343.017
 386  464.8039
 387  561.1721
 388  310.1505
 389  316.019
 390  539.6876
 391  466.9648
 392  362.131
 393  321.9573
 394  423.1945
 395  358.5778
 396  306.6747
 397  342.0431
 398  415.7014
 399  286.3245
 400  379.7455
 401  488.0575
 402  494.8905
 403  523.4309
 404  505.6804
 405  484.5342
 406  401.758
 407  481.241
 408  575.1672
 409  482.7601
 410  280.7275
 411  326.164
 412  446.7774
 413  542.5252
 414  471.2983
 415  419.5479
 416  428.5777
 417  362.4861
 418  521.4372
 419  421.7028
 420  263.7028
 421  392.4289
 422  427.3274
 423  403.9218
 424  384.35
 425  483.2119
 426  401.7071
 427  410.826
 428  350.0268
 429  240.9239
 430  171.444
 431  268.0014
 432  400.459
 433  267.9323
 434  235.362
 435  344.0116
 436  304.8864
 437  380.6988
 438  251.6313
 439  327.8023
 440  368.497
 441  261.299
 442  162.7615
 443  229.3557
 444  328.425
 445  228.2559
 446  227.4331
 447  225.4963
 448  384.4505
 449  473.8984
 450  313.8788
 451  342.604
 452  345.4909
 453  310.2168
 454  454.0158
 455  345.7961
 456  479.1152
 457  494.7338
 458  496.3494
 459  362.3192
 460  358.878
 461  430.606
 462  422.2486
 463  260.0487
 464  254.98
 465  350.3181
 466  385.6698
 467  376.6112
 468  368.5717
 469  405.4376
 470  417.4128
 471  395.0684
 472  291.5773
 473  315.4042
 474  419.9408
 475  290.1104
 476  250.7966
 477  350.0851
 478  495.6613
 479  535.0213
 480  371.9016
 481  480.1394
 482  347.4533
 483  263.3635
 484  245.6301
 485  249.9768
 486  368.3271
 487  430.3467
 488  415.4373
 489  433.5541
 490  575.2778
 491  567.785
 492  411.9387
 493  397.777
 494  446.7218
 495  452.1569
 496  441.2507
 497  368.8665
 498  289.5692
 499  289.5363
 500  261.4992
 501  261.712
 502  263.065
 503  513.3945
 504  584.3983
 505  371.4261
 506  537.6256
 507  608.9528
 508  688.7623
 509  663.2716
 510  921.5309
 511  1114.082
