# Input file       =  1210322039.121345_cleaned.dat
# Candidate        =  PSR_0332+5434
# Telescope        =  AR
# Epoch_topo       =  58252.356725941492
# Epoch_bary       =  N/A
# T_sample         =  0.002
# Data Folded      =  7340032
# Data Avg         =  0.0215254493994191
# Data StdDev      =  1.00018505979531 
# Profile Bins     =  512
# Profile Avg      =  308.57639869137  
# Profile StdDev   =  119.75519414797  
# Reduced chi-sqr  =  1.896
# Prob(Noise)      <  1.03e-30   (~11.5 sigma)
# P_topo (ms)      =  714.534216220888  +/- 0.000523
# P'_topo (s/s)    =  -0                +/- 2.76e-10
# P''_topo (s/s^2) =  0                 +/- 1.22e-13
# P_bary (ms)      =  N/A
# P'_bary (s/s)    =  N/A
# P''_bary (s/s^2) =  N/A
# P_orb (s)        =  N/A
# asin(i)/c (s)    =  N/A
# eccentricity     =  N/A
# w (rad)          =  N/A
# T_peri           =  N/A
######################################################
   0  970.1246
   1  862.3585
   2  662.2762
   3  530.595
   4  363.242
   5  327.1592
   6  272.2441
   7  302.5641
   8  305.7876
   9  406.4177
  10  391.8817
  11  380.7528
  12  339.5523
  13  430.1567
  14  462.3213
  15  401.1619
  16  353.0945
  17  322.51
  18  223.6422
  19  288.2007
  20  314.5085
  21  266.1534
  22  218.2054
  23  236.7954
  24  307.5336
  25  296.0315
  26  249.4572
  27  315.381
  28  305.9452
  29  307.3226
  30  363.2815
  31  323.7914
  32  313.4407
  33  378.6987
  34  361.2917
  35  362.5075
  36  325.0171
  37  294.0027
  38  284.6158
  39  253.3601
  40  290.8288
  41  341.8577
  42  349.4892
  43  356.1626
  44  238.3456
  45  252.4238
  46  365.9796
  47  313.7593
  48  267.2437
  49  296.5229
  50  219.8484
  51  188.8598
  52  208.0386
  53  290.5829
  54  309.7912
  55  206.6568
  56  223.285
  57  284.9015
  58  302.4987
  59  293.092
  60  291.4053
  61  269.9456
  62  307.5919
  63  228.1936
  64  210.7455
  65  244.6878
  66  285.9761
  67  351.1747
  68  311.0153
  69  258.7115
  70  338.305
  71  316.7244
  72  349.0511
  73  327.2621
  74  243.7935
  75  312.5762
  76  313.4697
  77  379.8647
  78  351.8487
  79  299.045
  80  333.7746
  81  333.2508
  82  384.6758
  83  375.824
  84  366.5394
  85  343.6583
  86  319.7179
  87  291.0657
  88  270.2909
  89  294.9295
  90  338.522
  91  349.1082
  92  410.929
  93  426.8465
  94  344.0892
  95  275.6856
  96  338.1381
  97  380.7421
  98  302.134
  99  357.1031
 100  406.6493
 101  410.6185
 102  404.0103
 103  442.9479
 104  409.1624
 105  419.949
 106  401.1789
 107  383.0388
 108  405.6616
 109  423.5216
 110  547.4603
 111  529.9861
 112  439.3078
 113  422.9249
 114  456.8038
 115  490.3136
 116  509.9802
 117  531.3675
 118  481.4419
 119  495.4155
 120  506.5261
 121  500.973
 122  534.8068
 123  543.9459
 124  538.2201
 125  501.142
 126  460.2478
 127  547.6638
 128  560.0392
 129  630.8059
 130  588.6425
 131  512.3596
 132  480.797
 133  452.7132
 134  492.6105
 135  505.4333
 136  442.7682
 137  455.5889
 138  461.7767
 139  457.7414
 140  465.4773
 141  500.2769
 142  532.5876
 143  413.3583
 144  356.8539
 145  387.4503
 146  418.2241
 147  440.166
 148  438.7266
 149  395.3853
 150  368.0753
 151  452.5172
 152  476.8381
 153  514.1602
 154  435.611
 155  374.9627
 156  359.9448
 157  467.0873
 158  513.2719
 159  485.0352
 160  497.6127
 161  467.7535
 162  463.1157
 163  463.0533
 164  432.8605
 165  411.074
 166  494.3191
 167  473.6581
 168  415.282
 169  358.8928
 170  431.0568
 171  450.7454
 172  372.3669
 173  368.2915
 174  369.3561
 175  400.3165
 176  403.439
 177  413.6595
 178  348.2037
 179  329.075
 180  344.4694
 181  423.6357
 182  384.3
 183  377.2131
 184  296.1003
 185  243.3597
 186  295.0127
 187  358.9734
 188  332.8229
 189  297.8268
 190  342.4125
 191  321.1453
 192  296.2014
 193  274.1896
 194  253.263
 195  295.3231
 196  381.7281
 197  318.7057
 198  369.8149
 199  346.8719
 200  349.3388
 201  310.7775
 202  379.5686
 203  351.5016
 204  318.7888
 205  405.3303
 206  372.6545
 207  350.9693
 208  385.3835
 209  459.1599
 210  459.9958
 211  452.9335
 212  427.0347
 213  341.4451
 214  376.0751
 215  398.4377
 216  383.6025
 217  409.5349
 218  341.9449
 219  322.5542
 220  308.9814
 221  307.1165
 222  291.9291
 223  257.9259
 224  250.7204
 225  202.7253
 226  243.5093
 227  252.9082
 228  371.0594
 229  364.382
 230  316.5558
 231  218.6999
 232  223.8652
 233  257.4998
 234  290.0039
 235  266.9146
 236  217.3425
 237  315.4477
 238  332.5392
 239  220.4331
 240  300.7732
 241  411.1633
 242  452.5207
 243  438.847
 244  286.0197
 245  248.9719
 246  304.861
 247  285.3394
 248  224.0186
 249  329.0589
 250  351.4809
 251  278.1993
 252  234.6693
 253  249.1553
 254  308.3946
 255  322.474
 256  340.0007
 257  231.1967
 258  220.5409
 259  297.7672
 260  352.0193
 261  393.5226
 262  387.0862
 263  316.278
 264  247.7195
 265  232.034
 266  243.9221
 267  252.2898
 268  275.2991
 269  375.4283
 270  328.0947
 271  235.6047
 272  251.8007
 273  324.6641
 274  240.2093
 275  363.5071
 276  394.7644
 277  331.0473
 278  285.5579
 279  251.4427
 280  311.76
 281  301.0755
 282  344.5913
 283  344.7945
 284  344.9833
 285  386.694
 286  329.8493
 287  252.3006
 288  238.7767
 289  278.6896
 290  263.3288
 291  350.161
 292  352.4547
 293  338.9785
 294  321.3748
 295  219.4422
 296  180.6459
 297  201.5766
 298  276.649
 299  281.7892
 300  308.3726
 301  254.5479
 302  161.5631
 303  76.47922
 304  100.0666
 305  127.4623
 306  196.3774
 307  216.7292
 308  253.4331
 309  292.7996
 310  202.919
 311  210.0944
 312  143.4396
 313  209.102
 314  140.3169
 315  189.1486
 316  190.7093
 317  200.1664
 318  210.4589
 319  258.4277
 320  81.75828
 321  105.906
 322  110.5583
 323  106.3399
 324  212.8814
 325  403.4545
 326  302.7864
 327  185.1839
 328  195.6599
 329  199.593
 330  232.0364
 331  208.5809
 332  174.7279
 333  255.6986
 334  264.0059
 335  256.8071
 336  316.8002
 337  311.8175
 338  249.7811
 339  259.0315
 340  260.852
 341  371.5769
 342  400.7312
 343  347.2506
 344  217.1856
 345  142.345
 346  107.7228
 347  142.3563
 348  233.5457
 349  304.2918
 350  271.3926
 351  251.258
 352  233.2809
 353  219.8309
 354  171.3867
 355  178.0062
 356  220.6628
 357  232.273
 358  253.8887
 359  243.4706
 360  240.4114
 361  312.2289
 362  267.7801
 363  181.1685
 364  176.2735
 365  222.7135
 366  335.5541
 367  285.8993
 368  396.2207
 369  342.628
 370  246.5822
 371  244.2859
 372  338.7679
 373  402.6012
 374  408.0661
 375  335.3428
 376  257.115
 377  335.1361
 378  314.6531
 379  310.9879
 380  309.1242
 381  280.9069
 382  313.7834
 383  341.0591
 384  332.9247
 385  247.0375
 386  288.3342
 387  233.6207
 388  186.5529
 389  187.4638
 390  199.6491
 391  183.6877
 392  187.7718
 393  228.7696
 394  168.5286
 395  123.0959
 396  112.8427
 397  62.73557
 398  216.3764
 399  231.2814
 400  157.0251
 401  91.00093
 402  139.9794
 403  145.0525
 404  154.4525
 405  250.5947
 406  206.0541
 407  221.8989
 408  167.4126
 409  167.6892
 410  260.8135
 411  274.5371
 412  194.7938
 413  183.4903
 414  150.2566
 415  181.4245
 416  173.8071
 417  229.7573
 418  184.7924
 419  176.707
 420  125.7995
 421  168.1036
 422  214.3918
 423  205.1812
 424  226.5871
 425  188.5029
 426  190.5936
 427  246.2348
 428  245.1146
 429  260.5335
 430  207.8311
 431  209.9556
 432  173.1078
 433  191.5658
 434  196.071
 435  179.0425
 436  226.7225
 437  159.094
 438  178.9121
 439  80.14108
 440  109.6934
 441  124.6276
 442  152.5591
 443  108.2955
 444  140.9898
 445  131.8424
 446  122.8878
 447  170.6004
 448  144.242
 449  136.0188
 450  151.162
 451  73.56949
 452  162.648
 453  68.9824
 454  92.8896
 455  115.5705
 456  216.9877
 457  227.4491
 458  159.4759
 459  150.7978
 460  201.3004
 461  202.3847
 462  294.9797
 463  229.7109
 464  261.0661
 465  262.2899
 466  253.1709
 467  214.5813
 468  213.8354
 469  212.5004
 470  125.0572
 471  136.6327
 472  155.3622
 473  237.3718
 474  225.5207
 475  299.2469
 476  333.7124
 477  238.6725
 478  217.5608
 479  307.8818
 480  313.427
 481  294.917
 482  233.1788
 483  281.4194
 484  274.8862
 485  255.1081
 486  249.6794
 487  254.6294
 488  350.0382
 489  330.7226
 490  411.303
 491  317.0792
 492  224.3242
 493  218.5252
 494  263.787
 495  321.6149
 496  379.9462
 497  328.1896
 498  333.035
 499  390.4962
 500  331.0652
 501  330.0419
 502  378.6829
 503  423.0444
 504  401.051
 505  421.7629
 506  437.3683
 507  443.9967
 508  437.6333
 509  681.516
 510  915.3738
 511  997.5579
