# Input file       =  1210767789.121276_cleaned.dat
# Candidate        =  PSR_0332+5434
# Telescope        =  AR
# Epoch_topo       =  58257.515869459210
# Epoch_bary       =  N/A
# T_sample         =  0.002
# Data Folded      =  7340032
# Data Avg         =  0.0318168063712321
# Data StdDev      =  1.0001275017691  
# Profile Bins     =  512
# Profile Avg      =  456.127038131682 
# Profile StdDev   =  119.748302550724 
# Reduced chi-sqr  =  1.148
# Prob(Noise)      <  0.0112   (~2.3 sigma)
# P_topo (ms)      =  714.52950297563   +/- 0.000273
# P'_topo (s/s)    =  -0                +/- 1.44e-10
# P''_topo (s/s^2) =  0                 +/- 6.35e-14
# P_bary (ms)      =  N/A
# P'_bary (s/s)    =  N/A
# P''_bary (s/s^2) =  N/A
# P_orb (s)        =  N/A
# asin(i)/c (s)    =  N/A
# eccentricity     =  N/A
# w (rad)          =  N/A
# T_peri           =  N/A
######################################################
   0  1058.541
   1  958.5019
   2  758.5175
   3  675.3297
   4  521.534
   5  452.3506
   6  411.253
   7  564.3028
   8  612.379
   9  620.4628
  10  602.744
  11  564.2344
  12  470.0025
  13  522.6926
  14  619.7365
  15  571.4752
  16  509.8703
  17  541.1714
  18  474.2558
  19  508.8859
  20  592.7339
  21  582.564
  22  603.6024
  23  574.9861
  24  615.2997
  25  500.4164
  26  549.8021
  27  629.9788
  28  522.7942
  29  398.5706
  30  476.0423
  31  540.686
  32  451.1008
  33  548.1259
  34  585.0569
  35  466.0479
  36  407.6924
  37  421.9272
  38  488.7988
  39  476.0134
  40  513.6017
  41  491.3262
  42  399.9459
  43  340.8818
  44  408.6807
  45  447.9284
  46  457.9334
  47  367.8797
  48  435.328
  49  442.3438
  50  403.1328
  51  510.0178
  52  498.6071
  53  476.998
  54  508.9113
  55  552.9742
  56  678.4612
  57  572.5697
  58  497.1534
  59  574.3226
  60  609.7328
  61  574.7363
  62  526.1968
  63  425.1987
  64  463.6502
  65  575.3633
  66  499.7892
  67  482.7958
  68  441.9555
  69  515.1099
  70  521.2955
  71  556.6295
  72  563.2514
  73  461.8431
  74  553.9059
  75  499.1325
  76  524.1122
  77  485.9067
  78  490.5901
  79  496.7356
  80  470.8061
  81  516.0894
  82  574.5216
  83  498.0727
  84  572.3015
  85  502.9731
  86  353.479
  87  533.8389
  88  599.3163
  89  478.1746
  90  513.6554
  91  477.7766
  92  604.5026
  93  561.6738
  94  483.5932
  95  412.5633
  96  502.933
  97  538.2299
  98  544.0779
  99  463.9013
 100  538.0068
 101  453.2018
 102  400.0094
 103  373.8568
 104  492.3956
 105  621.2013
 106  484.3802
 107  556.4776
 108  485.7395
 109  444.7887
 110  450.9043
 111  380.3325
 112  366.4437
 113  510.3185
 114  408.4825
 115  408.6478
 116  314.8382
 117  351.616
 118  402.9207
 119  446.3651
 120  444.046
 121  478.1017
 122  414.1266
 123  364.1913
 124  295.4066
 125  366.6878
 126  422.2693
 127  432.4962
 128  454.2394
 129  475.8799
 130  358.6622
 131  387.354
 132  315.6802
 133  295.3066
 134  334.9271
 135  364.9912
 136  420.3035
 137  609.5309
 138  597.9147
 139  511.3321
 140  449.2891
 141  351.8269
 142  408.0031
 143  546.1596
 144  523.5823
 145  483.9887
 146  450.0198
 147  405.0618
 148  312.8719
 149  337.0768
 150  540.1199
 151  529.8
 152  508.7291
 153  471.0575
 154  502.5776
 155  490.3244
 156  521.1191
 157  482.5876
 158  382.1794
 159  375.0366
 160  471.7601
 161  497.0439
 162  530.4789
 163  541.0721
 164  508.4665
 165  470.6855
 166  425.4441
 167  456.5941
 168  464.9235
 169  320.734
 170  428.44
 171  450.0785
 172  551.0474
 173  566.3255
 174  560.7349
 175  525.494
 176  398.6579
 177  414.8318
 178  392.8301
 179  429.709
 180  519.5631
 181  666.3352
 182  574.5515
 183  482.3197
 184  415.6451
 185  389.5239
 186  379.6974
 187  413.9631
 188  543.5073
 189  479.9971
 190  433.9577
 191  596.4409
 192  426.5639
 193  251.4742
 194  390.4297
 195  463.3694
 196  484.6571
 197  494.348
 198  489.4353
 199  420.2677
 200  351.038
 201  366.1294
 202  368.4583
 203  376.5824
 204  359.0898
 205  450.1852
 206  458.8839
 207  371.0632
 208  300.2518
 209  378.9034
 210  435.588
 211  514.5881
 212  466.7167
 213  412.4879
 214  411.8078
 215  345.5748
 216  370.6317
 217  411.8085
 218  463.3859
 219  457.1909
 220  436.8075
 221  426.7574
 222  572.3638
 223  506.2733
 224  526.3189
 225  536.8046
 226  520.5272
 227  405.7058
 228  382.6943
 229  361.6361
 230  344.4591
 231  402.6125
 232  570.0042
 233  478.2032
 234  395.7152
 235  361.7514
 236  415.6847
 237  469.5461
 238  454.0298
 239  520.4849
 240  446.2339
 241  469.6278
 242  517.1867
 243  496.0334
 244  432.3218
 245  467.7634
 246  338.9973
 247  353.9231
 248  382.061
 249  506.2692
 250  474.5219
 251  392.7053
 252  390.8658
 253  530.7048
 254  526.7715
 255  479.6055
 256  570.6421
 257  564.3263
 258  483.7649
 259  384.7023
 260  344.1952
 261  436.6568
 262  532.3755
 263  510.0516
 264  471.1063
 265  457.2077
 266  369.7634
 267  528.1242
 268  578.4046
 269  517.8906
 270  497.6496
 271  463.1224
 272  422.1243
 273  428.8145
 274  443.2164
 275  436.9532
 276  475.8518
 277  427.4763
 278  380.5143
 279  437.5056
 280  491.5811
 281  275.1935
 282  264.7897
 283  353.6879
 284  355.9773
 285  344.7018
 286  371.1501
 287  345.2328
 288  312.7203
 289  371.0614
 290  397.46
 291  459.1816
 292  426.9481
 293  305.6545
 294  353.6899
 295  376.4994
 296  363.9878
 297  375.5039
 298  383.5125
 299  448.7763
 300  406.5566
 301  344.8803
 302  420.4808
 303  541.723
 304  464.1738
 305  364.1858
 306  439.3038
 307  414.2789
 308  356.2686
 309  405.628
 310  496.2831
 311  529.7925
 312  567.295
 313  417.9066
 314  338.1449
 315  492.6714
 316  444.2128
 317  463.9257
 318  478.8763
 319  442.9598
 320  371.1907
 321  403.2814
 322  493.1145
 323  419.6096
 324  321.0485
 325  349.3698
 326  435.5983
 327  379.2763
 328  377.9049
 329  438.8226
 330  296.8785
 331  303.3808
 332  315.2497
 333  327.3907
 334  375.3948
 335  383.7192
 336  375.8459
 337  388.6102
 338  333.7529
 339  380.2427
 340  368.0886
 341  392.6075
 342  463.6227
 343  448.4936
 344  468.3499
 345  440.8122
 346  287.7022
 347  383.9994
 348  425.6579
 349  336.4476
 350  354.6185
 351  486.0647
 352  474.3645
 353  467.821
 354  503.6312
 355  406.2617
 356  353.4848
 357  391.0462
 358  446.9579
 359  376.9637
 360  364.3685
 361  479.8719
 362  517.0251
 363  476.6337
 364  369.14
 365  273.95
 366  311.7816
 367  339.4081
 368  445.1219
 369  458.8638
 370  427.2299
 371  393.6761
 372  476.6482
 373  550.0282
 374  510.315
 375  558.8508
 376  509.2314
 377  537.4876
 378  563.7191
 379  534.9385
 380  490.9071
 381  320.1397
 382  360.5865
 383  425.7094
 384  539.3832
 385  464.7758
 386  514.4059
 387  461.3483
 388  498.1572
 389  446.831
 390  333.3058
 391  368.6313
 392  331.6446
 393  262.8193
 394  331.5141
 395  342.7922
 396  420.5381
 397  464.0876
 398  530.9081
 399  520.6143
 400  443.8867
 401  537.0223
 402  567.4053
 403  561.5309
 404  551.6135
 405  482.6347
 406  438.9312
 407  520.9911
 408  539.9267
 409  512.303
 410  526.0468
 411  415.1026
 412  421.9282
 413  419.1481
 414  509.8548
 415  473.4595
 416  451.1057
 417  528.7318
 418  441.4714
 419  398.2014
 420  386.1164
 421  447.0145
 422  399.8586
 423  451.5158
 424  526.54
 425  501.8488
 426  488.9378
 427  405.0875
 428  387.5591
 429  513.0246
 430  532.5647
 431  419.1614
 432  315.0603
 433  486.8023
 434  456.9123
 435  303.8835
 436  297.7445
 437  308.6173
 438  304.0525
 439  349.9154
 440  501.7253
 441  505.6327
 442  442.7271
 443  496.8134
 444  502.1838
 445  453.7273
 446  430.8683
 447  481.0874
 448  521.166
 449  402.5416
 450  370.7879
 451  464.11
 452  484.738
 453  483.8539
 454  507.6732
 455  516.9058
 456  566.4774
 457  465.3218
 458  412.6915
 459  440.7831
 460  488.6283
 461  489.6576
 462  478.3243
 463  398.8615
 464  285.729
 465  381.9397
 466  529.9882
 467  410.5665
 468  499.2807
 469  485.9034
 470  386.14
 471  391.4858
 472  542.4619
 473  501.6838
 474  478.3899
 475  326.3245
 476  279.6878
 477  366.0501
 478  478.7967
 479  423.9034
 480  398.5608
 481  318.2032
 482  381.4319
 483  435.9601
 484  513.0894
 485  445.0976
 486  357.5388
 487  416.1219
 488  406.4543
 489  335.1396
 490  268.5805
 491  401.9507
 492  474.7708
 493  504.8311
 494  522.6582
 495  450.5629
 496  358.8966
 497  427.0683
 498  406.5731
 499  427.08
 500  300.5817
 501  357.6463
 502  371.2686
 503  428.95
 504  519.5475
 505  464.3829
 506  487.8802
 507  538.0195
 508  628.7983
 509  701.2549
 510  849.0779
 511  1005.157
