# Input file       =  1210666695.126441_cleaned.dat
# Candidate        =  PSR_0332+5434
# Telescope        =  AR
# Epoch_topo       =  58256.345800074552
# Epoch_bary       =  N/A
# T_sample         =  0.002
# Data Folded      =  7340032
# Data Avg         =  0.0324825835779106
# Data StdDev      =  1.00004335081552 
# Profile Bins     =  512
# Profile Avg      =  465.663419228548 
# Profile StdDev   =  119.738226901538 
# Reduced chi-sqr  =  0.885
# Prob(Noise)      <  0.971   (~0.0 sigma)
# P_topo (ms)      =  714.530317118866  +/- 0.000541
# P'_topo (s/s)    =  -0                +/- 2.85e-10
# P''_topo (s/s^2) =  0                 +/- 1.26e-13
# P_bary (ms)      =  N/A
# P'_bary (s/s)    =  N/A
# P''_bary (s/s^2) =  N/A
# P_orb (s)        =  N/A
# asin(i)/c (s)    =  N/A
# eccentricity     =  N/A
# w (rad)          =  N/A
# T_peri           =  N/A
######################################################
   0  1024.99
   1  914.8075
   2  749.0031
   3  654.8664
   4  481.841
   5  423.0181
   6  425.2885
   7  409.3406
   8  422.446
   9  395.6943
  10  405.069
  11  411.2283
  12  514.5788
  13  452.8532
  14  427.2226
  15  474.0831
  16  445.5372
  17  531.4057
  18  566.2134
  19  520.4892
  20  488.1764
  21  596.474
  22  599.5698
  23  517.7614
  24  448.7861
  25  493.1298
  26  556.1262
  27  573.2123
  28  554.739
  29  540.5734
  30  450.7944
  31  472.2709
  32  533.8989
  33  459.16
  34  528.9543
  35  558.4471
  36  499.4545
  37  538.7585
  38  519.4184
  39  544.2612
  40  524.3301
  41  527.9523
  42  488.47
  43  499.61
  44  537.5869
  45  481.4349
  46  506.6642
  47  574.9625
  48  550.1751
  49  470.7517
  50  431.5824
  51  405.5304
  52  362.9183
  53  430.6311
  54  492.1818
  55  493.0306
  56  491.3119
  57  488.407
  58  458.8177
  59  420.4544
  60  479.6749
  61  546.6152
  62  575.4601
  63  504.4335
  64  526.4858
  65  576.075
  66  545.2205
  67  557.9061
  68  545.747
  69  569.6942
  70  578.3806
  71  541.7872
  72  474.4724
  73  487.7249
  74  516.9523
  75  541.2856
  76  642.989
  77  656.8979
  78  520.2928
  79  440.0431
  80  494.1731
  81  603.4603
  82  572.3212
  83  601.9201
  84  567.8848
  85  568.5461
  86  539.8754
  87  582.0887
  88  576.5135
  89  581.0056
  90  566.2092
  91  541.4052
  92  531.9897
  93  553.0502
  94  409.1957
  95  503.5144
  96  617.2988
  97  524.1859
  98  552.5593
  99  542.0283
 100  572.6143
 101  520.7307
 102  462.6573
 103  482.5847
 104  530.2488
 105  556.3637
 106  546.0364
 107  570.1301
 108  442.3719
 109  420.4492
 110  373.1443
 111  494.6705
 112  531.4091
 113  478.0625
 114  431.2648
 115  480.6597
 116  525.4506
 117  515.6202
 118  480.5531
 119  403.3686
 120  381.4127
 121  427.1207
 122  446.0101
 123  454.4631
 124  413.5075
 125  532.2182
 126  475.4632
 127  522.0235
 128  494.4582
 129  453.6386
 130  498.7468
 131  494.4595
 132  508.1617
 133  429.2717
 134  449.0641
 135  534.0698
 136  444.2442
 137  511.0517
 138  591.5306
 139  473.8651
 140  463.0132
 141  509.9001
 142  577.181
 143  497.6007
 144  430.41
 145  384.2629
 146  451.2725
 147  455.609
 148  441.3766
 149  383.1684
 150  411.7212
 151  405.1283
 152  372.6203
 153  365.7506
 154  424.1246
 155  382.5971
 156  308.5456
 157  283.2596
 158  299.5009
 159  265.7053
 160  318.3813
 161  353.2957
 162  347.3398
 163  337.4839
 164  363.4492
 165  368.0671
 166  291.0043
 167  324.5957
 168  315.3849
 169  339.1573
 170  287.9285
 171  363.4795
 172  434.5236
 173  443.1152
 174  295.0583
 175  331.6848
 176  381.1158
 177  361.849
 178  387.6338
 179  375.0736
 180  423.3011
 181  417.9261
 182  410.365
 183  375.7023
 184  470.0874
 185  449.8222
 186  374.7094
 187  379.2091
 188  399.9457
 189  422.0532
 190  366.7894
 191  353.6583
 192  429.5331
 193  401.9674
 194  390.5431
 195  405.537
 196  384.2212
 197  493.4039
 198  465.3829
 199  373.4644
 200  329.4029
 201  442.0213
 202  402.5437
 203  448.9581
 204  530.7598
 205  485.2903
 206  373.5012
 207  436.3113
 208  436.9795
 209  440.52
 210  446.8597
 211  475.9109
 212  448.5762
 213  427.9098
 214  446.3361
 215  442.3218
 216  457.3941
 217  473.8307
 218  471.4623
 219  416.7717
 220  391.7551
 221  409.1994
 222  556.2762
 223  560.5876
 224  427.846
 225  458.1615
 226  470.509
 227  453.0648
 228  451.6141
 229  390.5044
 230  390.9402
 231  435.861
 232  446.4127
 233  390.9528
 234  381.6321
 235  353.8935
 236  299.0757
 237  313.7773
 238  434.9403
 239  376.9837
 240  352.9747
 241  323.795
 242  363.644
 243  394.6772
 244  372.8017
 245  413.5927
 246  431.5502
 247  405.6051
 248  454.3358
 249  433.8414
 250  329.0836
 251  426.3595
 252  398.99
 253  390.1176
 254  416.8398
 255  478.2271
 256  486.0279
 257  382.927
 258  390.593
 259  415.4855
 260  432.2335
 261  524.012
 262  466.6815
 263  500.7874
 264  511.2772
 265  434.2764
 266  487.5697
 267  464.4013
 268  443.1239
 269  547.0915
 270  544.9843
 271  546.423
 272  434.4593
 273  338.1841
 274  377.353
 275  505.1447
 276  517.7181
 277  423.4611
 278  502.2004
 279  460.2347
 280  389.7724
 281  459.3895
 282  429.432
 283  417.692
 284  452.5506
 285  445.6223
 286  411.021
 287  443.7903
 288  485.034
 289  601.2609
 290  578.3541
 291  552.9684
 292  527.5928
 293  616.8793
 294  628.0635
 295  615.5822
 296  553.0921
 297  544.0378
 298  468.1532
 299  479.79
 300  440.8843
 301  475.2002
 302  412.3528
 303  438.6625
 304  448.7996
 305  542.5798
 306  552.9421
 307  484.4414
 308  441.1866
 309  439.2708
 310  416.969
 311  474.7597
 312  422.2512
 313  350.8563
 314  413.7104
 315  499.1953
 316  509.7029
 317  574.7784
 318  491.8285
 319  501.5415
 320  500.3457
 321  532.3417
 322  437.5776
 323  416.7325
 324  456.2128
 325  421.8539
 326  405.2744
 327  423.8037
 328  340.1746
 329  432.7646
 330  401.1318
 331  351.4284
 332  415.4128
 333  426.9149
 334  338.1044
 335  286.3134
 336  361.4508
 337  383.1696
 338  413.4031
 339  408.6284
 340  454.6979
 341  446.9611
 342  375.6956
 343  428.0354
 344  489.4428
 345  562.1902
 346  489.5099
 347  409.4349
 348  425.8733
 349  463.4503
 350  467.1396
 351  475.801
 352  472.5095
 353  481.7509
 354  432.6058
 355  394.0682
 356  463.8621
 357  354.6071
 358  400.602
 359  423.3175
 360  453.8594
 361  442.6955
 362  441.7607
 363  450.597
 364  405.0611
 365  475.1309
 366  511.0703
 367  461.6997
 368  444.9106
 369  457.8511
 370  528.214
 371  493.6139
 372  441.9551
 373  424.3129
 374  447.5004
 375  468.8338
 376  433.8044
 377  431.9706
 378  450.5766
 379  513.9742
 380  474.7904
 381  437.9609
 382  414.6724
 383  342.6881
 384  304.4139
 385  425.0649
 386  484.5396
 387  516.418
 388  460.8651
 389  437.8776
 390  545.9507
 391  512.7573
 392  467.9033
 393  437.0403
 394  513.7407
 395  560.2948
 396  594.0941
 397  531.6436
 398  476.736
 399  519.0361
 400  487.4681
 401  530.003
 402  485.7213
 403  432.1161
 404  552.8113
 405  499.2475
 406  495.2526
 407  499.8772
 408  401.5232
 409  391.14
 410  467.8075
 411  487.3893
 412  573.3645
 413  471.972
 414  486.0128
 415  435.3197
 416  432.4008
 417  469.2981
 418  499.7837
 419  459.5643
 420  443.4303
 421  465.5376
 422  523.7157
 423  484.7336
 424  507.4715
 425  458.6008
 426  507.2428
 427  460.0418
 428  435.9878
 429  495.8513
 430  482.0663
 431  448.6857
 432  459.0988
 433  511.3465
 434  495.2203
 435  469.5096
 436  462.4621
 437  426.7834
 438  404.97
 439  460.8342
 440  473.5754
 441  393.5593
 442  435.7221
 443  504.1356
 444  482.8746
 445  436.5209
 446  428.1811
 447  494.3005
 448  472.0836
 449  424.6674
 450  464.7493
 451  517.6716
 452  482.0244
 453  489.7418
 454  472.3432
 455  448.8147
 456  484.7557
 457  483.5175
 458  445.8773
 459  433.2541
 460  443.5803
 461  520.7466
 462  564.8172
 463  591.4499
 464  522.894
 465  561.2078
 466  603.9569
 467  555.8739
 468  633.7399
 469  519.913
 470  455.5718
 471  529.5126
 472  553.7214
 473  505.955
 474  486.5548
 475  495.0445
 476  428.9817
 477  400.7196
 478  353.4609
 479  399.2001
 480  455.9439
 481  458.6268
 482  519.2933
 483  542.9691
 484  458.104
 485  368.4443
 486  320.1863
 487  409.1051
 488  368.0678
 489  366.4266
 490  357.6129
 491  433.1791
 492  412.9773
 493  424.5537
 494  405.7192
 495  405.0859
 496  479.9351
 497  469.7299
 498  492.5449
 499  406.9769
 500  348.5875
 501  413.9249
 502  392.61
 503  377.4348
 504  437.5985
 505  499.7539
 506  480.5077
 507  532.3754
 508  527.6107
 509  573.2018
 510  759.4689
 511  987.7078
