# Input file       =  1210565923.116018_cleaned.dat
# Candidate        =  PSR_0332+5434
# Telescope        =  AR
# Epoch_topo       =  58255.179457361322
# Epoch_bary       =  N/A
# T_sample         =  0.002
# Data Folded      =  7143424
# Data Avg         =  0.030802086039964
# Data StdDev      =  1.00003121231773 
# Profile Bins     =  512
# Profile Avg      =  429.747784706912 
# Profile StdDev   =  118.122271236656 
# Reduced chi-sqr  =  1.500
# Prob(Noise)      <  1.56e-12   (~7.0 sigma)
# P_topo (ms)      =  714.531447951671  +/- 0.00031
# P'_topo (s/s)    =  -0                +/- 1.68e-10
# P''_topo (s/s^2) =  0                 +/- 7.63e-14
# P_bary (ms)      =  N/A
# P'_bary (s/s)    =  N/A
# P''_bary (s/s^2) =  N/A
# P_orb (s)        =  N/A
# asin(i)/c (s)    =  N/A
# eccentricity     =  N/A
# w (rad)          =  N/A
# T_peri           =  N/A
######################################################
   0  1125.434
   1  1147.096
   2  1081.981
   3  805.6837
   4  639.0277
   5  526.6053
   6  418.6242
   7  360.8419
   8  465.1439
   9  531.2057
  10  423.3725
  11  447.3065
  12  449.1587
  13  431.3112
  14  543.5661
  15  657.3411
  16  499.3318
  17  469.3141
  18  455.0253
  19  427.8534
  20  388.9366
  21  339.5393
  22  435.0521
  23  439.8206
  24  264.7785
  25  421.9153
  26  573.0045
  27  519.5493
  28  293.9229
  29  301.7176
  30  328.1456
  31  317.8326
  32  335.3077
  33  387.0175
  34  394.5334
  35  376.2977
  36  388.7494
  37  366.3199
  38  410.8393
  39  416.5119
  40  304.6015
  41  501.9819
  42  404.1318
  43  340.2834
  44  374.6982
  45  387.0348
  46  247.7172
  47  222.0941
  48  266.1233
  49  389.3257
  50  413.4043
  51  402.1027
  52  334.8451
  53  252.7227
  54  385.7249
  55  302.065
  56  236.6344
  57  290.3822
  58  433.106
  59  441.6728
  60  474.9929
  61  268.3454
  62  187.7546
  63  508.9327
  64  518.4629
  65  395.7564
  66  320.0001
  67  399.3075
  68  416.1371
  69  394.5964
  70  316.8826
  71  284.5591
  72  341.4794
  73  335.9102
  74  310.9041
  75  336.0281
  76  463.3874
  77  418.9209
  78  401.6573
  79  375.3934
  80  303.2793
  81  361.7401
  82  395.4178
  83  341.9186
  84  322.4442
  85  296.5707
  86  330.0568
  87  360.614
  88  495.8753
  89  532.0297
  90  516.8777
  91  474.1324
  92  467.3085
  93  421.3822
  94  380.6158
  95  419.3902
  96  279.3969
  97  296.8455
  98  424.9274
  99  447.4091
 100  337.1535
 101  398.0804
 102  276.1563
 103  263.931
 104  319.1664
 105  401.4526
 106  435.2642
 107  403.3512
 108  375.3459
 109  314.4674
 110  242.1486
 111  327.5246
 112  321.2291
 113  376.8386
 114  441.4298
 115  372.3471
 116  405.9476
 117  388.3361
 118  368.896
 119  363.7454
 120  400.3647
 121  358.5239
 122  349.1382
 123  352.0551
 124  408.7454
 125  384.0425
 126  463.4209
 127  456.3811
 128  497.0088
 129  516.2668
 130  381.1563
 131  481.0352
 132  439.9439
 133  427.6075
 134  376.7764
 135  346.0196
 136  350.4044
 137  335.84
 138  480.0875
 139  481.178
 140  518.8756
 141  417.8691
 142  448.0814
 143  453.7175
 144  453.8761
 145  456.5686
 146  471.9753
 147  487.8501
 148  555.8022
 149  446.6671
 150  418.0957
 151  461.7398
 152  421.1557
 153  461.2505
 154  435.3281
 155  419.4333
 156  436.2236
 157  643.5168
 158  535.7486
 159  508.7462
 160  567.0159
 161  524.8441
 162  586.1791
 163  565.2594
 164  502.9753
 165  515.8817
 166  554.4789
 167  381.9151
 168  248.8318
 169  438.7965
 170  421.0765
 171  412.7341
 172  423.6136
 173  554.603
 174  521.2414
 175  485.9088
 176  460.9778
 177  498.101
 178  479.6026
 179  386.4456
 180  298.2637
 181  439.0944
 182  632.8964
 183  469.869
 184  299.5898
 185  431.0665
 186  464.3793
 187  515.9604
 188  437.0504
 189  532.6196
 190  432.0673
 191  487.0784
 192  540.269
 193  482.6989
 194  501.2174
 195  496.5044
 196  446.9887
 197  364.3479
 198  457.5678
 199  422.6407
 200  426.3356
 201  416.0121
 202  493.8529
 203  501.9284
 204  472.2271
 205  349.3412
 206  451.3536
 207  502.2869
 208  499.8146
 209  475.0323
 210  486.5831
 211  480.4382
 212  501.2672
 213  351.2946
 214  398.6562
 215  392.1222
 216  366.6068
 217  334.506
 218  335.8437
 219  386.4082
 220  368.6317
 221  343.4155
 222  456.6288
 223  470.9013
 224  430.9778
 225  482.9576
 226  442.0688
 227  295.3928
 228  417.7333
 229  477.0493
 230  442.6538
 231  441.1326
 232  428.8856
 233  545.7703
 234  446.6516
 235  386.0227
 236  439.8591
 237  471.5053
 238  455.8967
 239  462.9584
 240  436.4264
 241  503.1396
 242  588.233
 243  574.0893
 244  550.2391
 245  463.0408
 246  416.377
 247  307.6111
 248  381.7467
 249  557.3231
 250  565.6802
 251  519.9639
 252  449.654
 253  465.2714
 254  480.1799
 255  347.7071
 256  409.7
 257  406.8263
 258  477.4803
 259  491.0071
 260  340.458
 261  408.013
 262  430.0605
 263  439.194
 264  397.7995
 265  505.9695
 266  359.9216
 267  312.3489
 268  460.6304
 269  483.7057
 270  431.696
 271  421.0139
 272  381.0921
 273  462.612
 274  492.2535
 275  394.9306
 276  379.0868
 277  275.1614
 278  332.5925
 279  486.5573
 280  326.2527
 281  377.005
 282  483.3323
 283  360.1367
 284  312.8778
 285  393.0354
 286  421.5508
 287  360.6638
 288  443.55
 289  442.3048
 290  343.0185
 291  331.4893
 292  299.0554
 293  342.8652
 294  283.7459
 295  359.5406
 296  352.5863
 297  350.0222
 298  281.3676
 299  414.0156
 300  426.4059
 301  432.0698
 302  342.7054
 303  323.6371
 304  342.6978
 305  362.3294
 306  385.3688
 307  293.0523
 308  332.1305
 309  329.4019
 310  338.9033
 311  450.8005
 312  452.1961
 313  295.7077
 314  369.4993
 315  458.2019
 316  396.9673
 317  353.0729
 318  423.326
 319  478.8322
 320  398.3527
 321  321.5447
 322  452.6326
 323  542.4316
 324  532.6949
 325  388.5386
 326  357.6971
 327  420.5022
 328  491.58
 329  498.2285
 330  509.8637
 331  516.0187
 332  479.7874
 333  343.6628
 334  417.9373
 335  511.987
 336  407.5583
 337  307.406
 338  498.632
 339  531.1992
 340  413.4586
 341  374.1095
 342  356.9543
 343  338.9547
 344  485.6166
 345  340.1164
 346  396.9462
 347  392.361
 348  346.0771
 349  373.8387
 350  399.3821
 351  447.647
 352  341.0868
 353  322.7118
 354  408.4951
 355  435.0402
 356  497.665
 357  447.7113
 358  495.3672
 359  456.1888
 360  483.7607
 361  458.7001
 362  400.376
 363  454.872
 364  424.2467
 365  445.4869
 366  383.9574
 367  382.2614
 368  443.9592
 369  356.5513
 370  432.9313
 371  518.9484
 372  522.7005
 373  455.5751
 374  409.3744
 375  460.874
 376  481.3224
 377  530.926
 378  508.3596
 379  361.4343
 380  339.4985
 381  429.062
 382  439.5502
 383  351.353
 384  384.7122
 385  418.5851
 386  429.2725
 387  346.9441
 388  269.1564
 389  469.6564
 390  565.7204
 391  543.1359
 392  410.6692
 393  280.7491
 394  371.3674
 395  409.7773
 396  515.2518
 397  435.272
 398  538.6808
 399  467.9833
 400  533.8287
 401  471.3403
 402  439.6696
 403  478.5603
 404  443.1654
 405  373.1053
 406  430.4475
 407  486.6823
 408  511.9035
 409  543.0955
 410  489.8297
 411  565.5258
 412  471.162
 413  429.9541
 414  448.8298
 415  520.7137
 416  533.5403
 417  506.0857
 418  429.9487
 419  344.5137
 420  441.5644
 421  467.6696
 422  331.8739
 423  406.1549
 424  360.1017
 425  489.1809
 426  453.6058
 427  509.5591
 428  425.0364
 429  288.1698
 430  410.7363
 431  371.5916
 432  331.8826
 433  422.2651
 434  421.2773
 435  419.7238
 436  384.7216
 437  398.5682
 438  377.396
 439  433.116
 440  491.4193
 441  546.178
 442  473.8536
 443  396.9203
 444  406.8713
 445  324.0728
 446  272.9876
 447  338.1402
 448  335.7759
 449  272.4297
 450  286.4772
 451  297.3157
 452  300.3386
 453  399.6021
 454  559.674
 455  523.1676
 456  465.4579
 457  466.7538
 458  364.0669
 459  305.8753
 460  355.8642
 461  410.3694
 462  418.0421
 463  395.0633
 464  387.5803
 465  336.355
 466  453.1536
 467  476.8875
 468  411.3432
 469  428.7328
 470  464.0144
 471  468.65
 472  471.8712
 473  420.9114
 474  535.3022
 475  538.7932
 476  424.0157
 477  515.6178
 478  551.1902
 479  509.2535
 480  501.642
 481  327.3024
 482  449.146
 483  465.4457
 484  418.0443
 485  435.5204
 486  556.0161
 487  623.5886
 488  541.2411
 489  381.8286
 490  402.4185
 491  405.7328
 492  488.5204
 493  560.9254
 494  515.8187
 495  516.584
 496  433.1299
 497  377.2644
 498  438.9532
 499  375.1899
 500  348.5238
 501  344.2496
 502  253.3907
 503  410.3037
 504  441.945
 505  448.8245
 506  544.257
 507  604.4568
 508  601.9596
 509  738.8467
 510  1079.45
 511  1064.052
