# Input file       =  1210078414.113711_cleaned.dat
# Candidate        =  PSR_0332+5434
# Telescope        =  AR
# Epoch_topo       =  58249.536992056841
# Epoch_bary       =  N/A
# T_sample         =  0.002
# Data Folded      =  7340032
# Data Avg         =  0.0305143936674221
# Data StdDev      =  1.00010295514516 
# Profile Bins     =  512
# Profile Avg      =  437.326133871775 
# Profile StdDev   =  119.745363508907 
# Reduced chi-sqr  =  1.836
# Prob(Noise)      <  1.41e-27   (~10.8 sigma)
# P_topo (ms)      =  714.537272187518  +/- 0.0003
# P'_topo (s/s)    =  -0                +/- 1.59e-10
# P''_topo (s/s^2) =  0                 +/- 7e-14
# P_bary (ms)      =  N/A
# P'_bary (s/s)    =  N/A
# P''_bary (s/s^2) =  N/A
# P_orb (s)        =  N/A
# asin(i)/c (s)    =  N/A
# eccentricity     =  N/A
# w (rad)          =  N/A
# T_peri           =  N/A
######################################################
   0  1385.882
   1  1172.901
   2  884.6193
   3  775.8788
   4  660.6954
   5  447.345
   6  504.8684
   7  596.4476
   8  621.3293
   9  613.8237
  10  545.9437
  11  484.9669
  12  535.0752
  13  618.1875
  14  559.3826
  15  608.528
  16  639.733
  17  542.4742
  18  569.0289
  19  634.7931
  20  551.6345
  21  521.5747
  22  525.1777
  23  554.9508
  24  562.9298
  25  537.3273
  26  381.2443
  27  405.4893
  28  464.6458
  29  597.1411
  30  509.7467
  31  521.859
  32  503.2919
  33  514.45
  34  493.9329
  35  542.6083
  36  623.2817
  37  534.2376
  38  563.7687
  39  471.5868
  40  506.9406
  41  533.3257
  42  557.9272
  43  583.3726
  44  515.2414
  45  633.3898
  46  528.2095
  47  459.779
  48  573.532
  49  479.9049
  50  481.3933
  51  611.3182
  52  507.3526
  53  384.8287
  54  369.8283
  55  433.0638
  56  406.4739
  57  463.6658
  58  423.3566
  59  416.247
  60  381.3257
  61  456.8539
  62  374.0089
  63  399.8496
  64  426.4064
  65  397.7253
  66  366.4258
  67  256.4743
  68  257.6376
  69  332.5994
  70  447.5127
  71  426.745
  72  352.3293
  73  307.0894
  74  397.5504
  75  411.8658
  76  412.386
  77  393.496
  78  431.3987
  79  345.826
  80  324.1409
  81  441.0671
  82  466.8344
  83  362.4445
  84  326.3247
  85  350.9601
  86  349.9726
  87  313.1921
  88  223.4226
  89  296.7189
  90  326.8328
  91  307.2339
  92  297.3596
  93  335.5353
  94  384.1989
  95  359.3886
  96  225.5783
  97  311.9016
  98  427.0298
  99  597.2289
 100  360.315
 101  254.4984
 102  331.2348
 103  390.0442
 104  468.3016
 105  381.1235
 106  388.0848
 107  318.5939
 108  384.716
 109  417.3068
 110  317.2088
 111  335.7472
 112  346.3326
 113  372.2336
 114  410.7635
 115  348.8886
 116  381.528
 117  422.8267
 118  521.5726
 119  496.8893
 120  500.8461
 121  529.2639
 122  389.3918
 123  297.8641
 124  459.8588
 125  472.3638
 126  390.9586
 127  411.5801
 128  330.3026
 129  369.9731
 130  407.954
 131  375.9795
 132  440.2513
 133  509.8878
 134  542.9054
 135  547.5341
 136  577.4025
 137  487.4255
 138  476.7365
 139  422.9489
 140  378.9387
 141  332.0398
 142  367.9338
 143  386.5559
 144  422.9885
 145  483.3336
 146  458.8686
 147  452.4855
 148  374.2084
 149  402.2006
 150  406.0811
 151  348.2129
 152  416.3535
 153  519.7602
 154  542.1335
 155  554.4241
 156  488.846
 157  468.9202
 158  479.6939
 159  507.3699
 160  480.8856
 161  398.5291
 162  361.1977
 163  416.7244
 164  398.7077
 165  384.5734
 166  451.7377
 167  444.1396
 168  414.4445
 169  436.4322
 170  316.7212
 171  336.5668
 172  557.7554
 173  503.1733
 174  587.6514
 175  451.8751
 176  433.6503
 177  468.6931
 178  351.096
 179  365.802
 180  478.1133
 181  431.9684
 182  367.0373
 183  378.2992
 184  400.0365
 185  376.3582
 186  390.0188
 187  312.8659
 188  402.8987
 189  489.5195
 190  494.611
 191  388.3235
 192  305.3752
 193  315.6732
 194  488.3686
 195  407.4736
 196  365.7749
 197  441.72
 198  429.1936
 199  417.4953
 200  359.3403
 201  267.3157
 202  209.6839
 203  319.6386
 204  315.9813
 205  381.7333
 206  329.5474
 207  368.757
 208  311.5962
 209  333.0098
 210  408.5917
 211  448.7822
 212  374.6263
 213  420.157
 214  450.9094
 215  397.2833
 216  281.8336
 217  277.3041
 218  371.387
 219  419.8506
 220  351.9572
 221  527.0074
 222  563.355
 223  453.1306
 224  312.2553
 225  279.4512
 226  332.7108
 227  381.5288
 228  331.2585
 229  455.3341
 230  435.2133
 231  351.2674
 232  262.0924
 233  397.7708
 234  480.6568
 235  438.794
 236  344.2622
 237  346.2551
 238  408.8972
 239  370.7635
 240  398.2459
 241  367.6416
 242  260.1473
 243  357.2279
 244  457.8036
 245  503.3212
 246  560.7411
 247  479.3602
 248  489.4029
 249  513.5908
 250  402.2216
 251  551.5974
 252  529.9277
 253  488.9571
 254  449.2692
 255  515.6096
 256  545.6547
 257  527.5393
 258  432.9073
 259  404.7412
 260  448.9341
 261  470.4865
 262  484.2696
 263  506.6539
 264  482.6089
 265  403.9994
 266  392.0997
 267  401.4065
 268  381.5486
 269  423.7447
 270  446.7535
 271  360.6593
 272  376.8192
 273  418.209
 274  396.6498
 275  299.1672
 276  304.2369
 277  413.6894
 278  338.3676
 279  316.948
 280  318.6554
 281  416.6228
 282  432.488
 283  422.2918
 284  372.3212
 285  421.3122
 286  494.1841
 287  477.3338
 288  445.7966
 289  488.0624
 290  554.6758
 291  586.3359
 292  473.7486
 293  488.51
 294  438.6399
 295  347.0565
 296  505.5735
 297  514.5719
 298  402.9462
 299  530.7694
 300  525.2283
 301  479.6711
 302  500.3538
 303  438.9164
 304  415.1483
 305  384.8849
 306  258.0194
 307  293.5422
 308  528.8353
 309  547.7856
 310  425.4567
 311  477.701
 312  405.8704
 313  505.54
 314  418.0727
 315  382.4712
 316  449.9168
 317  392.738
 318  494.2262
 319  496.0621
 320  556.2264
 321  616.6321
 322  436.3123
 323  391.968
 324  212.8065
 325  305.2928
 326  307.4342
 327  361.4568
 328  467.6094
 329  429.0944
 330  408.7088
 331  438.5233
 332  464.9262
 333  325.4068
 334  408.4586
 335  428.1109
 336  290.0039
 337  375.4219
 338  288.9842
 339  270.5433
 340  253.0499
 341  238.723
 342  315.9524
 343  291.3585
 344  287.4091
 345  298.9864
 346  323.0813
 347  405.8263
 348  380.4514
 349  577.2479
 350  478.703
 351  348.4057
 352  403.059
 353  464.8683
 354  403.7179
 355  406.9587
 356  384.8662
 357  481.3805
 358  473.5663
 359  478.8167
 360  480.7009
 361  440.7065
 362  452.9497
 363  471.2043
 364  505.1214
 365  505.1972
 366  426.9754
 367  420.4454
 368  359.6366
 369  380.9098
 370  550.5547
 371  410.607
 372  455.2451
 373  410.8851
 374  397.3562
 375  468.4781
 376  454.9248
 377  501.7699
 378  579.6708
 379  479.4544
 380  443.4445
 381  389.6514
 382  367.2007
 383  486.4549
 384  413.1807
 385  385.25
 386  353.072
 387  343.8703
 388  356.5427
 389  321.0496
 390  357.5103
 391  413.0178
 392  396.0361
 393  324.4466
 394  455.914
 395  496.4489
 396  458.8828
 397  537.7825
 398  456.1843
 399  381.8586
 400  307.7348
 401  326.5424
 402  401.522
 403  247.825
 404  350.697
 405  366.9223
 406  392.2493
 407  471.4217
 408  430.8883
 409  458.3123
 410  489.6828
 411  459.8628
 412  375.5142
 413  353.2093
 414  415.0051
 415  392.8591
 416  368.8133
 417  487.9883
 418  431.1354
 419  532.8511
 420  448.4685
 421  468.6104
 422  489.6159
 423  485.8808
 424  387.0047
 425  392.0361
 426  400.9448
 427  519.1436
 428  502.6388
 429  461.4118
 430  432.4077
 431  544.2078
 432  451.6645
 433  391.9853
 434  431.5542
 435  420.4272
 436  338.2956
 437  285.8462
 438  380.5596
 439  459.6577
 440  514.507
 441  453.2
 442  437.5736
 443  450.943
 444  553.9135
 445  409.2802
 446  444.6113
 447  365.6741
 448  404.5271
 449  475.8884
 450  420.5727
 451  356.7029
 452  345.3047
 453  445.7854
 454  456.6723
 455  333.0132
 456  354.2932
 457  394.9485
 458  353.5394
 459  472.7699
 460  614.2733
 461  530.2042
 462  508.3409
 463  402.5998
 464  387.3091
 465  374.9637
 466  366.7104
 467  458.2211
 468  469.2494
 469  521.5652
 470  441.1626
 471  321.2305
 472  341.545
 473  370.9413
 474  369.4286
 475  344.5359
 476  364.8141
 477  369.9602
 478  392.3401
 479  425.1805
 480  442.6215
 481  430.1779
 482  397.7908
 483  417.0004
 484  465.3625
 485  396.6187
 486  421.3014
 487  348.2746
 488  409.3304
 489  412.7617
 490  658.7993
 491  624.1848
 492  482.2148
 493  500.5682
 494  618.1661
 495  447.6881
 496  319.4503
 497  374.538
 498  497.7758
 499  428.367
 500  413.6023
 501  409.5096
 502  341.7782
 503  414.589
 504  454.9373
 505  554.7833
 506  533.5284
 507  624.3052
 508  888.1384
 509  1025.693
 510  1145.046
 511  1265.381
