# Input file       =  1210494378.115824_cleaned.dat
# Candidate        =  PSR_0332+5434
# Telescope        =  AR
# Epoch_topo       =  58254.351390229443
# Epoch_bary       =  N/A
# T_sample         =  0.002
# Data Folded      =  7340032
# Data Avg         =  0.0194965607123802
# Data StdDev      =  1.00018000614184 
# Profile Bins     =  512
# Profile Avg      =  279.516748371702 
# Profile StdDev   =  119.754589058695 
# Reduced chi-sqr  =  1.687
# Prob(Noise)      <  2.22e-20   (~9.2 sigma)
# P_topo (ms)      =  714.532271788453  +/- 0.000492
# P'_topo (s/s)    =  -0                +/- 2.59e-10
# P''_topo (s/s^2) =  0                 +/- 1.15e-13
# P_bary (ms)      =  N/A
# P'_bary (s/s)    =  N/A
# P''_bary (s/s^2) =  N/A
# P_orb (s)        =  N/A
# asin(i)/c (s)    =  N/A
# eccentricity     =  N/A
# w (rad)          =  N/A
# T_peri           =  N/A
######################################################
   0  995.1794
   1  1011.258
   2  865.0869
   3  644.9735
   4  385.7809
   5  280.4039
   6  420.4213
   7  324.5336
   8  233.3034
   9  299.5885
  10  276.3751
  11  271.2148
  12  267.5197
  13  318.7383
  14  356.3372
  15  360.3492
  16  358.7993
  17  330.827
  18  259.2804
  19  215.0162
  20  169.1757
  21  197.7325
  22  267.4129
  23  280.2159
  24  165.6293
  25  220.7477
  26  298.2447
  27  327.7211
  28  244.1929
  29  211.2782
  30  159.2598
  31  198.4737
  32  209.5548
  33  252.7449
  34  205.0227
  35  286.6641
  36  252.5726
  37  176.9564
  38  76.48576
  39  30.27226
  40  136.7784
  41  207.9899
  42  202.7791
  43  264.7283
  44  224.5089
  45  134.6011
  46  146.6085
  47  175.6236
  48  253.4268
  49  242.0406
  50  182.6661
  51  138.342
  52  127.0455
  53  213.1143
  54  213.4538
  55  156.9755
  56  201.6281
  57  213.9256
  58  321.668
  59  292.2072
  60  271.061
  61  224.2917
  62  171.5182
  63  203.7413
  64  289.1119
  65  260.4008
  66  261.1505
  67  291.5889
  68  337.6399
  69  272.1113
  70  224.7374
  71  229.1042
  72  200.5935
  73  227.7518
  74  301.9938
  75  348.3031
  76  252.5232
  77  254.7035
  78  362.9367
  79  345.1876
  80  291.9521
  81  411.9247
  82  380.9065
  83  335.3945
  84  258.6771
  85  286.4313
  86  329.9966
  87  308.7928
  88  295.5793
  89  421.5844
  90  418.1376
  91  373.9451
  92  384.1397
  93  375.2828
  94  415.3358
  95  396.965
  96  391.2929
  97  434.8083
  98  384.7645
  99  374.47
 100  377.0737
 101  336.9404
 102  333.3831
 103  384.4073
 104  369.79
 105  304.1347
 106  338.1019
 107  369.011
 108  368.6534
 109  251.7355
 110  261.166
 111  335.2515
 112  297.8617
 113  183.0437
 114  257.132
 115  271.3139
 116  273.2758
 117  267.4021
 118  278.823
 119  179.7166
 120  271.6587
 121  330.6675
 122  321.6145
 123  281.4157
 124  334.4312
 125  399.4495
 126  416.1363
 127  352.1842
 128  324.1717
 129  347.6929
 130  291.339
 131  326.4313
 132  382.7209
 133  377.1675
 134  354.8589
 135  435.5471
 136  380.4653
 137  320.1624
 138  288.8261
 139  303.7732
 140  322.431
 141  314.9152
 142  345.9004
 143  322.176
 144  292.2361
 145  315.3772
 146  315.8567
 147  317.7681
 148  310.2921
 149  387.5756
 150  379.824
 151  293.9278
 152  245.0436
 153  385.3813
 154  297.3012
 155  233.46
 156  333.2166
 157  407.1313
 158  370.7318
 159  373.4268
 160  329.2306
 161  308.065
 162  353.4695
 163  340.4115
 164  339.323
 165  264.8201
 166  329.5408
 167  335.43
 168  299.9184
 169  298.8283
 170  340.0746
 171  338.0606
 172  364.7949
 173  329.3638
 174  340.7203
 175  351.0301
 176  298.4836
 177  352.4257
 178  318.0465
 179  331.1234
 180  370.9647
 181  328.3213
 182  248.5387
 183  270.1398
 184  404.7654
 185  333.3904
 186  278.0846
 187  309.8388
 188  350.2768
 189  315.5949
 190  349.3223
 191  422.3748
 192  364.039
 193  290.0064
 194  293.626
 195  309.6011
 196  306.9417
 197  281.4385
 198  229.1317
 199  266.3268
 200  260.7613
 201  310.8672
 202  305.0355
 203  366.4256
 204  365.1766
 205  340.3604
 206  312.6165
 207  291.2606
 208  231.4464
 209  283.3322
 210  303.2885
 211  251.6639
 212  236.6351
 213  318.6419
 214  309.398
 215  353.2303
 216  332.9582
 217  304.5194
 218  281.1515
 219  354.6572
 220  408.2488
 221  363.3269
 222  370.0623
 223  371.5282
 224  342.0812
 225  376.6005
 226  387.3535
 227  307.047
 228  275.8001
 229  279.9246
 230  297.7327
 231  298.2702
 232  349.2863
 233  454.2954
 234  430.7195
 235  380.178
 236  370.56
 237  384.8376
 238  338.292
 239  250.0704
 240  322.2561
 241  349.9747
 242  247.5034
 243  278.6654
 244  306.811
 245  311.8612
 246  351.2051
 247  352.9565
 248  268.7039
 249  339.5207
 250  338.5599
 251  460.5529
 252  412.98
 253  417.5322
 254  422.4609
 255  342.7215
 256  383.6834
 257  357.1436
 258  360.5812
 259  347.5136
 260  362.1779
 261  354.7101
 262  416.7745
 263  464.2497
 264  402.866
 265  344.0832
 266  374.3188
 267  431.0286
 268  403.9633
 269  461.5937
 270  413.1479
 271  367.5917
 272  358.8289
 273  318.7829
 274  240.6736
 275  258.7449
 276  325.0876
 277  351.1856
 278  316.4398
 279  305.7758
 280  320.6577
 281  377.0072
 282  352.7101
 283  287.8276
 284  316.2892
 285  327.7262
 286  305.8661
 287  279.511
 288  291.5547
 289  253.8662
 290  293.4188
 291  271.3862
 292  252.0822
 293  349.3631
 294  297.4136
 295  295.3468
 296  225.0911
 297  171.595
 298  275.9279
 299  305.3441
 300  357.1485
 301  398.6894
 302  207.5755
 303  212.9518
 304  276.481
 305  255.1065
 306  331.4455
 307  338.3622
 308  208.4335
 309  148.7357
 310  180.7936
 311  252.8453
 312  236.2818
 313  220.7821
 314  192.4484
 315  118.4222
 316  127.3892
 317  176.0394
 318  128.357
 319  18.29869
 320  15.266
 321  -8.00566
 322  3.893548
 323  71.59575
 324  159.2418
 325  149.2441
 326  187.685
 327  210.2748
 328  190.178
 329  169.0738
 330  189.2076
 331  232.8621
 332  180.0489
 333  179.1356
 334  128.1148
 335  74.73447
 336  105.4457
 337  94.90823
 338  32.67553
 339  87.29243
 340  65.52254
 341  78.30125
 342  237.9118
 343  182.2788
 344  191.4903
 345  189.0997
 346  210.3284
 347  241.24
 348  163.0457
 349  171.0719
 350  120.3552
 351  56.16513
 352  42.7639
 353  75.22901
 354  100.4412
 355  175.0729
 356  236.8021
 357  233.9607
 358  148.5254
 359  51.29125
 360  159.5937
 361  134.7255
 362  99.35829
 363  111.6655
 364  107.2347
 365  142.9351
 366  107.5808
 367  15.11881
 368  71.11839
 369  160.8753
 370  136.5875
 371  86.90076
 372  140.5016
 373  175.3005
 374  157.8544
 375  181.1845
 376  267.6197
 377  240.186
 378  155.6588
 379  168.2332
 380  176.0375
 381  188.5033
 382  228.7851
 383  241.4377
 384  245.4242
 385  190.7242
 386  203.3478
 387  254.1703
 388  139.4618
 389  86.78904
 390  149.7257
 391  226.2914
 392  254.3484
 393  158.5502
 394  160.4422
 395  210.8601
 396  186.7518
 397  109.8527
 398  225.249
 399  292.4446
 400  219.9294
 401  184.5983
 402  137.2052
 403  150.9086
 404  199.5643
 405  170.7707
 406  101.0396
 407  77.24309
 408  160.7598
 409  171.1828
 410  214.3442
 411  157.9737
 412  122.0495
 413  154.6371
 414  263.0312
 415  228.7083
 416  192.8993
 417  132.4899
 418  111.5685
 419  137.0855
 420  223.0512
 421  209.1276
 422  124.4666
 423  101.4227
 424  109.6783
 425  221.3597
 426  287.6133
 427  264.1396
 428  252.5573
 429  299.0988
 430  279.4599
 431  269.2176
 432  292.3743
 433  264.8915
 434  249.6134
 435  308.234
 436  280.0286
 437  306.665
 438  311.2717
 439  303.8942
 440  240.7316
 441  210.4066
 442  251.0621
 443  238.391
 444  228.6263
 445  270.243
 446  281.8841
 447  334.7069
 448  288.0089
 449  260.1416
 450  334.953
 451  355.5876
 452  312.2782
 453  282.8976
 454  382.0331
 455  321.6198
 456  302.0104
 457  390.3275
 458  393.2535
 459  360.306
 460  356.9149
 461  388.9343
 462  258.8806
 463  262.6969
 464  322.6355
 465  277.8832
 466  297.8083
 467  284.9071
 468  277.1073
 469  284.4502
 470  287.7976
 471  256.8494
 472  328.5283
 473  358.8867
 474  317.0276
 475  273.5266
 476  292.4617
 477  248.354
 478  223.8038
 479  233.6899
 480  270.8279
 481  282.282
 482  282.3326
 483  264.1128
 484  326.7313
 485  362.3848
 486  285.0325
 487  236.7959
 488  205.2852
 489  240.7056
 490  329.0733
 491  387.9243
 492  328.9593
 493  283.2428
 494  352.4903
 495  341.2772
 496  329.5306
 497  285.7018
 498  239.8086
 499  291.3401
 500  309.3972
 501  342.569
 502  339.2234
 503  345.0363
 504  310.1853
 505  331.0804
 506  360.3795
 507  435.5707
 508  492.7834
 509  581.2783
 510  798.5574
 511  932.2072
