# Input file       =  1210078414.113711_cleaned.dat
# Candidate        =  PSR_0332+5434
# Telescope        =  AR
# Epoch_topo       =  58249.536992056841
# Epoch_bary       =  N/A
# T_sample         =  0.002
# Data Folded      =  7340032
# Data Avg         =  0.0305143936674221
# Data StdDev      =  1.00010295514516 
# Profile Bins     =  512
# Profile Avg      =  437.326133935749 
# Profile StdDev   =  119.745363508907 
# Reduced chi-sqr  =  1.821
# Prob(Noise)      <  7.46e-27   (~10.7 sigma)
# P_topo (ms)      =  714.537272204105  +/- 0.000303
# P'_topo (s/s)    =  -0                +/- 1.6e-10
# P''_topo (s/s^2) =  0                 +/- 7.05e-14
# P_bary (ms)      =  N/A
# P'_bary (s/s)    =  N/A
# P''_bary (s/s^2) =  N/A
# P_orb (s)        =  N/A
# asin(i)/c (s)    =  N/A
# eccentricity     =  N/A
# w (rad)          =  N/A
# T_peri           =  N/A
######################################################
   0  1348.2
   1  1315.403
   2  1034.997
   3  807.0972
   4  756.4775
   5  548.1589
   6  449.1516
   7  544.89
   8  620.5055
   9  622.8773
  10  604.4006
  11  512.1433
  12  490.5131
  13  586.0144
  14  591.5042
  15  562.7008
  16  639.4949
  17  599.7932
  18  518.5617
  19  623.4466
  20  602.7659
  21  531.8217
  22  519.4421
  23  541.3049
  24  566.1816
  25  565.745
  26  464.5324
  27  368.7728
  28  421.8895
  29  540.6263
  30  559.9274
  31  524.4687
  32  507.7967
  33  504.3998
  34  505.3737
  35  489.9397
  36  613.2677
  37  569.0164
  38  550.8596
  39  520.8759
  40  465.9152
  41  529.4702
  42  554.4832
  43  584.386
  44  542.0437
  45  551.5041
  46  621.5172
  47  463.9863
  48  524.1221
  49  552.5133
  50  452.1748
  51  543.0502
  52  595.7596
  53  422.3079
  54  380.2836
  55  388.7473
  56  440.7965
  57  421.6319
  58  448.0479
  59  410.5159
  60  401.6605
  61  416.2965
  62  434.215
  63  363.4409
  64  414.5045
  65  426.2774
  66  390.4868
  67  322.479
  68  238.1405
  69  272.3967
  70  402.1907
  71  460.4348
  72  388.4658
  73  321.2241
  74  324.1999
  75  423.3824
  76  407.9359
  77  400.3902
  78  431.4805
  79  384.0708
  80  334.7088
  81  342.8877
  82  501.1725
  83  418.0846
  84  330.6719
  85  344.6789
  86  338.4398
  87  349.1292
  88  264.9665
  89  245.0692
  90  329.2579
  91  324.1285
  92  287.7002
  93  328.074
  94  332.9858
  95  420.0783
  96  260.2866
  97  266.5555
  98  334.1491
  99  537.7947
 100  518.6531
 101  271.4621
 102  291.6082
 103  361.8958
 104  422.5878
 105  452.6436
 106  357.059
 107  376.3869
 108  312.5782
 109  433.9451
 110  366.7249
 111  310.9319
 112  351.0337
 113  349.22
 114  396.0388
 115  399.7234
 116  345.3629
 117  391.2494
 118  472.7405
 119  519.2913
 120  492.3186
 121  522.1818
 122  484.7762
 123  317.3733
 124  364.0554
 125  494.3788
 126  427.3818
 127  396.3849
 128  380.0976
 129  313.705
 130  416.8514
 131  401.9854
 132  389.8765
 133  481.1436
 134  505.0779
 135  560.2931
 136  551.0308
 137  551.2375
 138  462.865
 139  481.5854
 140  396.622
 141  367.743
 142  323.0355
 143  397.3749
 144  379.5838
 145  476.9645
 146  453.6067
 147  474.6562
 148  398.9505
 149  389.6334
 150  403.218
 151  381.8409
 152  365.2164
 153  461.2916
 154  541.6232
 155  556.5624
 156  527.0482
 157  473.591
 158  465.0204
 159  501.9719
 160  493.5291
 161  473.9028
 162  329.8925
 163  417.0726
 164  384.4902
 165  410.2523
 166  383.3041
 167  487.7425
 168  400.7138
 169  440.4109
 170  404.359
 171  262.403
 172  467.6398
 173  532.6555
 174  546.98
 175  569.1635
 176  402.171
 177  455.2421
 178  421.7517
 179  321.631
 180  441.1222
 181  468.5909
 182  388.9704
 183  376.2125
 184  388.965
 185  389.4401
 186  396.7902
 187  350.649
 188  330.2971
 189  445.7827
 190  512.8722
 191  448.8107
 192  353.8253
 193  270.4763
 194  418.0872
 195  475.0021
 196  358.1375
 197  407.6693
 198  430.8623
 199  444.2335
 200  383.6115
 201  342.4024
 202  209.1426
 203  258.081
 204  315.1333
 205  347.0731
 206  362.9489
 207  339.4983
 208  358.4398
 209  299.4857
 210  370.0223
 211  428.523
 212  423.7766
 213  376.3401
 214  451.4406
 215  436.646
 216  359.1286
 217  262.4308
 218  301.4223
 219  419.5852
 220  362.2886
 221  424.8738
 222  576.5429
 223  525.0399
 224  371.799
 225  283.8618
 226  284.1083
 227  392.2926
 228  337.551
 229  391.7427
 230  457.2551
 231  407.9203
 232  292.8796
 233  302.8337
 234  458.5156
 235  473.4805
 236  396.6572
 237  331.7643
 238  373.4312
 239  397.7753
 240  367.0218
 241  406.3842
 242  307.7968
 243  282.2682
 244  434.4685
 245  461.7583
 246  543.5486
 247  527.0514
 248  468.4318
 249  511.5914
 250  449.4952
 251  450.2196
 252  569.2209
 253  517.1708
 254  453.1258
 255  494.5997
 256  508.6721
 257  564.9003
 258  471.6803
 259  433.0744
 260  413.725
 261  461.9938
 262  480.8689
 263  481.8751
 264  519.381
 265  432.7627
 266  400.5772
 267  387.377
 268  392.4491
 269  388.0101
 270  454.3708
 271  406.8643
 272  353.9706
 273  404.6524
 274  426.9834
 275  346.725
 276  278.4616
 277  359.9713
 278  393.2479
 279  328.0857
 280  302.5473
 281  358.925
 282  427.6345
 283  442.1443
 284  391.9847
 285  383.4255
 286  459.3067
 287  497.4973
 288  452.7597
 289  469.0624
 290  496.0273
 291  602.5696
 292  523.9916
 293  471.4107
 294  490.4625
 295  381.0727
 296  416.0777
 297  541.1723
 298  456.2326
 299  419.2435
 300  560.4029
 301  491.0432
 302  502.2193
 303  484.7491
 304  409.4144
 305  418.765
 306  325.3707
 307  234.0291
 308  399.8073
 309  583.903
 310  478.7958
 311  435.4425
 312  444.5142
 313  437.1977
 314  506.6132
 315  365.5112
 316  437.9202
 317  406.3026
 318  430.4432
 319  516.9322
 320  497.2432
 321  626.543
 322  517.0524
 323  420.8932
 324  302.0599
 325  224.7373
 326  345.1225
 327  295.2333
 328  435.8969
 329  449.3551
 330  430.2419
 331  403.2312
 332  468.1031
 333  407.013
 334  331.1778
 335  458.6755
 336  348.9704
 337  307.5465
 338  359.7844
 339  266.3411
 340  267.8846
 341  245.4785
 342  274.8239
 343  317.1014
 344  288.3895
 345  279.3333
 346  309.9346
 347  362.111
 348  392.3822
 349  442.1083
 350  588.0401
 351  390.2919
 352  351.6419
 353  456.8454
 354  426.9822
 355  420.1763
 356  392.0489
 357  428.0157
 358  483.7321
 359  463.8944
 360  499.4482
 361  448.049
 362  451.8279
 363  442.2974
 364  488.9967
 365  523.1187
 366  478.1617
 367  417.3102
 368  398.3177
 369  332.5285
 370  481.9744
 371  509.8342
 372  400.3192
 373  457.3933
 374  371.5063
 375  453.842
 376  453.3918
 377  474.0227
 378  536.1375
 379  553.0589
 380  447.652
 381  424.958
 382  365.2864
 383  429.3207
 384  481.4844
 385  385.703
 386  367.263
 387  339.0539
 388  345.6241
 389  355.2946
 390  325.1217
 391  390.6514
 392  419.5179
 393  342.9969
 394  361.5764
 395  503.8991
 396  469.3835
 397  505.1802
 398  508.1188
 399  412.6766
 400  353.295
 401  294.4894
 402  379.7071
 403  352.6002
 404  235.0159
 405  411.791
 406  329.4455
 407  459.4081
 408  451.6685
 409  430.2753
 410  486.4397
 411  473.6795
 412  434.7286
 413  338.9684
 414  398.9454
 415  407.9022
 416  374.9247
 417  418.4778
 418  461.8982
 419  475.284
 420  511.0407
 421  446.9171
 422  471.2112
 423  499.8049
 424  433.5288
 425  382.1492
 426  385.7343
 427  460.0935
 428  528.6904
 429  495.7061
 430  429.8834
 431  485.1699
 432  522.7374
 433  402.8464
 434  412.5436
 435  426.2276
 436  397.974
 437  303.2029
 438  318.6472
 439  425.3703
 440  481.3591
 441  500.7975
 442  429.6201
 443  436.5311
 444  507.2308
 445  501.7151
 446  408.6054
 447  419.5194
 448  364.575
 449  453.5454
 450  463.3033
 451  385.8676
 452  333.2647
 453  393.3423
 454  469.7221
 455  399.2115
 456  319.3579
 457  387.8071
 458  377.3448
 459  386.9518
 460  546.1994
 461  598.4575
 462  500.2907
 463  484.0801
 464  379.2025
 465  394.2075
 466  341.071
 467  425.7379
 468  445.7267
 469  517.7084
 470  494.8455
 471  381.0379
 472  315.8566
 473  354.8616
 474  378.9693
 475  355.3315
 476  353.968
 477  373.0503
 478  379.8908
 479  397.7157
 480  437.9115
 481  431.4613
 482  429.0473
 483  391.7716
 484  445.6982
 485  428.381
 486  414.4098
 487  386.4083
 488  384.4771
 489  381.4675
 490  521.3087
 491  681.585
 492  560.1119
 493  463.3995
 494  565.585
 495  563.6882
 496  366.2217
 497  316.2866
 498  457.5537
 499  475.0553
 500  401.8543
 501  437.2512
 502  350.4319
 503  386.5558
 504  416.8388
 505  518.2413
 506  539.3558
 507  571.4028
 508  719.2983
 509  982.535
 510  1065.248
 511  1183.112
