# Input file       =  1210408190.122714_cleaned.dat
# Candidate        =  PSR_0332+5434
# Telescope        =  AR
# Epoch_topo       =  58253.353844012890
# Epoch_bary       =  N/A
# T_sample         =  0.002
# Data Folded      =  7340032
# Data Avg         =  0.0271040067458186
# Data StdDev      =  1.00005167736972 
# Profile Bins     =  512
# Profile Avg      =  388.505237777512 
# Profile StdDev   =  119.739223865155 
# Reduced chi-sqr  =  1.448
# Prob(Noise)      <  1.3e-10   (~6.3 sigma)
# P_topo (ms)      =  714.533245714949  +/- 0.000526
# P'_topo (s/s)    =  -0                +/- 2.77e-10
# P''_topo (s/s^2) =  0                 +/- 1.23e-13
# P_bary (ms)      =  N/A
# P'_bary (s/s)    =  N/A
# P''_bary (s/s^2) =  N/A
# P_orb (s)        =  N/A
# asin(i)/c (s)    =  N/A
# eccentricity     =  N/A
# w (rad)          =  N/A
# T_peri           =  N/A
######################################################
   0  1083.809
   1  980.9516
   2  874.5958
   3  640.9152
   4  566.8331
   5  543.248
   6  474.4361
   7  503.0701
   8  506.8027
   9  575.132
  10  544.7866
  11  508.8613
  12  531.1461
  13  592.4077
  14  667.3117
  15  554.7758
  16  447.7215
  17  405.2255
  18  425.1178
  19  440.135
  20  422.0762
  21  431.3079
  22  412.6273
  23  436.6945
  24  362.3116
  25  367.8808
  26  408.7058
  27  397.0349
  28  407.3882
  29  410.0345
  30  478.4992
  31  433.5224
  32  448.76
  33  521.4348
  34  449.5901
  35  429.4041
  36  480.101
  37  404.0168
  38  379.0381
  39  420.3031
  40  427.0797
  41  308.7642
  42  369.2671
  43  469.9532
  44  467.6799
  45  449.4091
  46  518.8546
  47  455.4355
  48  323.3206
  49  327.4809
  50  404.6812
  51  464.8073
  52  413.3637
  53  413.3523
  54  484.7422
  55  485.8943
  56  467.5891
  57  477.7335
  58  475.2798
  59  450.9611
  60  489.4303
  61  402.2634
  62  396.3717
  63  308.2355
  64  356.8728
  65  396.8817
  66  357.5029
  67  329.0174
  68  356.9535
  69  494.6027
  70  506.5448
  71  373.0094
  72  391.9588
  73  488.353
  74  520.0934
  75  426.0669
  76  466.2422
  77  479.5605
  78  500.4471
  79  455.26
  80  428.5356
  81  348.7539
  82  377.204
  83  408.6426
  84  395.039
  85  424.3752
  86  409.5226
  87  385.7248
  88  394.0378
  89  344.0063
  90  345.386
  91  423.657
  92  334.162
  93  260.943
  94  269.8495
  95  328.614
  96  406.779
  97  414.9172
  98  378.5821
  99  321.4127
 100  374.7752
 101  343.6617
 102  329.2221
 103  350.9867
 104  362.627
 105  305.1575
 106  324.695
 107  321.4406
 108  346.9008
 109  479.8241
 110  363.771
 111  338.1419
 112  372.2157
 113  362.9304
 114  389.0771
 115  382.0645
 116  375.5323
 117  315.4789
 118  296.9607
 119  348.2674
 120  337.1683
 121  317.3672
 122  282.849
 123  247.4966
 124  255.0635
 125  286.1388
 126  337.8271
 127  278.9432
 128  316.5289
 129  351.7908
 130  369.5805
 131  374.7415
 132  333.2707
 133  307.5521
 134  370.3645
 135  362.5792
 136  367.7834
 137  337.0115
 138  237.558
 139  276.1242
 140  408.0049
 141  434.2202
 142  377.4006
 143  347.7431
 144  383.6021
 145  364.8313
 146  270.2089
 147  426.843
 148  498.5024
 149  382.5365
 150  438.3493
 151  393.8075
 152  370.2011
 153  458.8951
 154  412.8474
 155  366.5606
 156  359.7008
 157  369.4759
 158  387.5996
 159  386.4725
 160  461.9926
 161  417.1421
 162  406.2934
 163  398.2358
 164  427.2388
 165  546.3166
 166  440.8599
 167  432.6205
 168  299.5566
 169  285.1428
 170  317.4277
 171  332.1969
 172  440.7557
 173  428.6249
 174  409.0713
 175  431.4849
 176  482.9111
 177  423.0517
 178  390.2916
 179  487.4331
 180  509.1626
 181  445.6602
 182  397.7818
 183  369.3677
 184  423.3116
 185  440.3972
 186  407.6795
 187  514.8022
 188  437.041
 189  375.7444
 190  357.1599
 191  460.5549
 192  498.0617
 193  486.9209
 194  367.2769
 195  420.958
 196  424.0484
 197  496.0178
 198  479.1169
 199  423.2093
 200  401.026
 201  355.8701
 202  351.0629
 203  383.3039
 204  393.8709
 205  368.0978
 206  315.9789
 207  316.7266
 208  363.9933
 209  397.4936
 210  253.482
 211  249.0772
 212  309.5573
 213  362.9453
 214  387.8575
 215  350.8843
 216  399.9547
 217  310.8364
 218  271.3396
 219  349.1044
 220  266.8766
 221  302.8089
 222  321.8207
 223  289.2592
 224  230.3034
 225  312.8164
 226  387.3617
 227  320.4679
 228  330.9316
 229  324.2336
 230  276.0675
 231  269.0366
 232  233.7312
 233  294.6722
 234  359.7731
 235  320.6204
 236  359.5594
 237  319.8181
 238  270.1993
 239  363.1552
 240  342.2728
 241  307.3405
 242  310.0607
 243  298.2726
 244  359.6452
 245  227.107
 246  235.9269
 247  276.1015
 248  373.654
 249  370.0275
 250  355.9286
 251  362.3795
 252  279.6178
 253  183.806
 254  250.824
 255  395.9584
 256  362.7841
 257  323.8078
 258  323.6547
 259  317.1423
 260  262.7016
 261  254.8376
 262  241.7741
 263  282.5409
 264  295.5197
 265  265.741
 266  261.3444
 267  291.7491
 268  268.5175
 269  349.4271
 270  323.6695
 271  294.1482
 272  327.9526
 273  302.1049
 274  238.1877
 275  271.588
 276  212.5106
 277  217.0201
 278  348.199
 279  358.2436
 280  342.5702
 281  361.588
 282  391.3176
 283  385.7258
 284  364.1341
 285  414.1578
 286  463.2759
 287  435.5356
 288  402.4222
 289  368.7574
 290  353.699
 291  293.6952
 292  249.766
 293  299.7267
 294  334.3648
 295  235.5638
 296  271.8204
 297  284.0926
 298  304.3578
 299  301.9683
 300  373.1026
 301  387.4954
 302  405.8987
 303  275.448
 304  244.1043
 305  259.0381
 306  280.4709
 307  277.8749
 308  204.4216
 309  288.4445
 310  396.4677
 311  408.7329
 312  314.2044
 313  342.2312
 314  394.0482
 315  316.2343
 316  320.0869
 317  366.8271
 318  388.5354
 319  341.0442
 320  297.4796
 321  314.8595
 322  329.0557
 323  309.4067
 324  424.8125
 325  361.1496
 326  377.3262
 327  337.4566
 328  352.3765
 329  431.6719
 330  466.3818
 331  378.9908
 332  394.9361
 333  437.6695
 334  456.6011
 335  496.3969
 336  454.108
 337  394.7055
 338  396.2935
 339  421.1615
 340  410.577
 341  437.2993
 342  483.8211
 343  397.84
 344  380.1621
 345  424.0413
 346  390.3413
 347  395.5084
 348  443.1953
 349  394.5367
 350  465.2039
 351  508.7978
 352  532.0248
 353  562.7844
 354  560.1187
 355  529.1421
 356  428.4071
 357  460.3306
 358  464.2758
 359  515.5908
 360  481.5381
 361  482.4224
 362  551.2892
 363  542.7802
 364  477.7982
 365  397.6027
 366  389.0635
 367  370.516
 368  461.6798
 369  478.1522
 370  357.004
 371  348.9969
 372  445.0523
 373  459.4794
 374  479.3105
 375  435.5918
 376  368.9903
 377  490.4885
 378  440.3476
 379  450.7173
 380  520.2241
 381  408.8236
 382  447.9366
 383  406.4088
 384  365.4988
 385  349.4409
 386  351.1588
 387  337.9739
 388  342.7391
 389  356.643
 390  379.5298
 391  458.7073
 392  436.3168
 393  406.9265
 394  419.3394
 395  424.6757
 396  422.2532
 397  402.3425
 398  426.3216
 399  401.3568
 400  395.4566
 401  304.6224
 402  312.3242
 403  343.0676
 404  495.7272
 405  490.6304
 406  338.5911
 407  348.9227
 408  276.8581
 409  376.759
 410  337.0652
 411  319.1943
 412  284.5103
 413  301.3556
 414  318.3719
 415  327.7678
 416  353.7255
 417  356.1783
 418  378.4505
 419  348.8912
 420  341.5135
 421  284.0549
 422  272.1649
 423  202.8953
 424  244.6766
 425  232.3374
 426  212.8424
 427  257.4578
 428  259.145
 429  226.9868
 430  145.0642
 431  184.844
 432  185.6326
 433  204.8981
 434  178.9517
 435  254.165
 436  259.4075
 437  280.2839
 438  336.0373
 439  326.4258
 440  381.2049
 441  381.9048
 442  243.0843
 443  292.1438
 444  404.3684
 445  423.2148
 446  329.554
 447  303.3112
 448  271.0348
 449  288.489
 450  271.0645
 451  314.8011
 452  432.1057
 453  410.5356
 454  370.4493
 455  459.1176
 456  364.1528
 457  299.9229
 458  383.098
 459  389.0987
 460  434.3768
 461  413.2103
 462  469.455
 463  334.8159
 464  318.2514
 465  292.0567
 466  380.6361
 467  362.9861
 468  406.9874
 469  356.6986
 470  424.8393
 471  444.0932
 472  381.9311
 473  423.7624
 474  396.0192
 475  417.348
 476  356.2175
 477  296.9707
 478  379.0443
 479  452.3016
 480  451.477
 481  441.3309
 482  476.4084
 483  442.2533
 484  358.4573
 485  430.7542
 486  489.0291
 487  476.1026
 488  446.2858
 489  391.0294
 490  366.6643
 491  331.563
 492  429.5801
 493  460.3763
 494  495.284
 495  559.723
 496  548.2812
 497  504.9275
 498  476.5215
 499  520.4976
 500  519.2714
 501  445.5353
 502  481.9781
 503  490.6566
 504  428.7243
 505  541.3917
 506  557.1655
 507  609.189
 508  670.8027
 509  736.2908
 510  1021.15
 511  1077.807
