# Input file       =  1210408190.122714_cleaned.dat
# Candidate        =  PSR_0332+5434
# Telescope        =  AR
# Epoch_topo       =  58253.353844012890
# Epoch_bary       =  N/A
# T_sample         =  0.002
# Data Folded      =  7340032
# Data Avg         =  0.0271040067458186
# Data StdDev      =  1.00005167736972 
# Profile Bins     =  512
# Profile Avg      =  388.505237774627 
# Profile StdDev   =  119.739223865155 
# Reduced chi-sqr  =  1.446
# Prob(Noise)      <  1.46e-10   (~6.3 sigma)
# P_topo (ms)      =  714.533245646481  +/- 0.000527
# P'_topo (s/s)    =  -0                +/- 2.78e-10
# P''_topo (s/s^2) =  0                 +/- 1.23e-13
# P_bary (ms)      =  N/A
# P'_bary (s/s)    =  N/A
# P''_bary (s/s^2) =  N/A
# P_orb (s)        =  N/A
# asin(i)/c (s)    =  N/A
# eccentricity     =  N/A
# w (rad)          =  N/A
# T_peri           =  N/A
######################################################
   0  1069.955
   1  1054.339
   2  928.5948
   3  772.2415
   4  589.9835
   5  560.3665
   6  510.7039
   7  476.0629
   8  504.3112
   9  547
  10  566.278
  11  526.6766
  12  500.5822
  13  561.1854
  14  643.3951
  15  620.8896
  16  502.9085
  17  418.5333
  18  420.572
  19  441.1015
  20  418.0632
  21  429.7221
  22  420.8802
  23  432.5035
  24  406.2645
  25  344.8308
  26  394.501
  27  401.4087
  28  408.2158
  29  404.0327
  30  433.5005
  31  475.7421
  32  417.1177
  33  490.0761
  34  511.7754
  35  420.2971
  36  455.4891
  37  464.4973
  38  362.7577
  39  406.4265
  40  433.3108
  41  387.3296
  42  299.7312
  43  435.2786
  44  469.0518
  45  449.6162
  46  474.2688
  47  520.6886
  48  382.6926
  49  315.4501
  50  349.3476
  51  447.3719
  52  452.0435
  53  407.5921
  54  438.9011
  55  503.6483
  56  458.986
  57  476.8861
  58  470.9348
  59  459.8611
  60  477.4363
  61  454.013
  62  398.1661
  63  359.6541
  64  306.9756
  65  397.4945
  66  371.2368
  67  352.5712
  68  318.21
  69  424.8944
  70  512.5046
  71  464.4461
  72  348.1622
  73  441.6778
  74  510.5561
  75  478.1204
  76  432.3074
  77  484.6383
  78  489.4953
  79  487.7483
  80  447.6743
  81  374.0106
  82  360.1051
  83  391.7895
  84  404.1549
  85  406.692
  86  426.7211
  87  398.8024
  88  386.2516
  89  377.3014
  90  321.6609
  91  390.865
  92  415.5818
  93  283.6492
  94  270.0104
  95  257.2983
  96  392.256
  97  401.985
  98  427.0435
  99  316.3217
 100  353.6629
 101  362.9607
 102  344.8151
 103  332.0014
 104  363.5475
 105  334.4473
 106  296.8833
 107  341.2336
 108  312.1782
 109  422.3084
 110  449.561
 111  324.2868
 112  361.5117
 113  364.7155
 114  375.7614
 115  393.1857
 116  375.3035
 117  366.7217
 118  282.1477
 119  322.2678
 120  344.7798
 121  332.3834
 122  298.9778
 123  271.1334
 124  241.4844
 125  272.2283
 126  318.2355
 127  305.1854
 128  291.115
 129  335.1869
 130  370.0139
 131  359.6775
 132  365.4503
 133  301.4445
 134  346.08
 135  375.2975
 136  360.0151
 137  362.0131
 138  294.881
 139  227.1653
 140  342.0615
 141  446.3634
 142  403.4296
 143  364.5799
 144  340.6993
 145  405.6418
 146  299.4016
 147  317.3018
 148  503.8561
 149  439.029
 150  399.2951
 151  431.7317
 152  368.9685
 153  408.5721
 154  458.8593
 155  369.1122
 156  380.1214
 157  342.9088
 158  396.7039
 159  368.9121
 160  427.0099
 161  456.4558
 162  391.6171
 163  421.248
 164  378.2346
 165  508.0608
 166  505.5939
 167  432.0103
 168  376.8082
 169  264.9891
 170  319.7183
 171  303.2623
 172  396.3548
 173  441.1038
 174  415.9189
 175  410.256
 176  457.1875
 177  482.8272
 178  378.2669
 179  440.3324
 180  499.3556
 181  484.8401
 182  431.3079
 183  370.0935
 184  393.9669
 185  445.2336
 186  417.9525
 187  454.2003
 188  491.5338
 189  401.1774
 190  357.8322
 191  392.0524
 192  490.0801
 193  508.6285
 194  437.5268
 195  374.7383
 196  416.049
 197  468.3474
 198  488.1847
 199  458.6778
 200  387.5408
 201  403.3819
 202  335.8457
 203  376.6122
 204  394.7204
 205  381.5573
 206  345.7922
 207  301.5224
 208  331.3249
 209  402.9123
 210  345.2724
 211  224.2947
 212  276.0481
 213  327.5639
 214  389.6701
 215  362.7865
 216  381.8093
 217  375.4395
 218  258.4891
 219  315.4839
 220  316.1165
 221  281.8594
 222  320.4092
 223  316.5712
 224  242.9173
 225  259.112
 226  351.0406
 227  371.8783
 228  317.3197
 229  333.3307
 230  305.7056
 231  274.3166
 232  245.3469
 233  255.6964
 234  335.1841
 235  340.9232
 236  322.2482
 237  373.8907
 238  267.8524
 239  321.9169
 240  361.6287
 241  321.891
 242  320.8173
 243  290.2242
 244  330.0561
 245  305.127
 246  207.2728
 247  263.5455
 248  316.0482
 249  398.7036
 250  340.4232
 251  382.3909
 252  322.1483
 253  235.8658
 254  175.5155
 255  338.1265
 256  392.1122
 257  338.4116
 258  313.6036
 259  331.3984
 260  292.7379
 261  253.0912
 262  250.8551
 263  251.3351
 264  296.8441
 265  285.0879
 266  251.1404
 267  285.9499
 268  276.9793
 269  296.1805
 270  363.0104
 271  296.8059
 272  315.8837
 273  322.4247
 274  266.8651
 275  244.1399
 276  265.2967
 277  184.9671
 278  277.8152
 279  374.254
 280  344.7037
 281  346.068
 282  375.0879
 283  389.6389
 284  371.5627
 285  369.6322
 286  463.3857
 287  448.8079
 288  429.4186
 289  374.2354
 290  368.886
 291  329.1282
 292  272.0442
 293  254.9928
 294  334.7578
 295  284.4583
 296  237.0779
 297  293.0562
 298  285.1551
 299  316.8067
 300  309.0282
 301  400.2368
 302  396.5019
 303  359.3643
 304  247.0605
 305  245.1298
 306  269.1793
 307  291.5151
 308  239.6467
 309  225.2301
 310  331.5189
 311  427.1317
 312  357.3296
 313  317.5765
 314  382.9174
 315  364.6346
 316  293.5974
 317  351.0851
 318  372.4622
 319  381.2667
 320  307.3932
 321  300.507
 322  330.1769
 323  308.7893
 324  366.4166
 325  414.1004
 326  353.7099
 327  367.1748
 328  332.7072
 329  376.8022
 330  476.4514
 331  411.7841
 332  397.9736
 333  401.3688
 334  461.923
 335  463.3194
 336  493.0706
 337  413.1003
 338  387.9882
 339  415.8992
 340  424.0008
 341  406.3563
 342  467.19
 343  450.7485
 344  373.8574
 345  400.6036
 346  431.1664
 347  365.3376
 348  433.6136
 349  424.043
 350  410.5685
 351  502.0518
 352  499.7393
 353  562.0132
 354  543.6559
 355  577.7406
 356  471.0781
 357  435.7974
 358  460.4391
 359  488.0068
 360  508.8051
 361  473.4609
 362  508.8378
 363  556.4788
 364  519.617
 365  433.0946
 366  404.7133
 367  365.2248
 368  410.6443
 369  478.2259
 370  438.1727
 371  314.4537
 372  402.9932
 373  462.051
 374  461.1307
 375  491.6478
 376  367.1924
 377  432.7995
 378  482.1699
 379  423.4517
 380  497.3757
 381  476.2859
 382  407.7744
 383  456.0815
 384  369.2965
 385  370.2643
 386  333.6039
 387  367.3308
 388  319.3365
 389  358.8143
 390  356.5563
 391  418.9439
 392  454.163
 393  414.9218
 394  413.4098
 395  422.2976
 396  431.145
 397  417.149
 398  411.2209
 399  412.1979
 400  404.929
 401  346.6614
 402  304.3351
 403  314.9921
 404  398.7055
 405  541.8327
 406  398.5305
 407  363.5546
 408  291.3266
 409  325.8999
 410  362.2895
 411  336.8955
 412  296.9322
 413  285.0667
 414  308.0527
 415  323.7836
 416  347.1683
 417  353.327
 418  374.3932
 419  356.3817
 420  356.4098
 421  300.2977
 422  296.6112
 423  216.9736
 424  234.6537
 425  227.5056
 426  236.3792
 427  213.4834
 428  278.4817
 429  243.0256
 430  189.3013
 431  149.6576
 432  192.2489
 433  191.0277
 434  206.375
 435  190.47
 436  274.8271
 437  260.5135
 438  307.845
 439  338.5077
 440  335.6
 441  405.1588
 442  314.6439
 443  243.6471
 444  340.511
 445  435.6711
 446  385.2385
 447  318.2256
 448  286.5823
 449  273.0668
 450  279.1521
 451  282.7263
 452  364.9412
 453  449.5299
 454  357.4427
 455  422.0444
 456  444.6784
 457  311.6622
 458  336.4476
 459  386.2646
 460  418.0093
 461  405.9344
 462  463.7085
 463  397.1443
 464  325.9164
 465  297.2705
 466  340.3909
 467  362.594
 468  391.4796
 469  380.8995
 470  374.6834
 471  455.1971
 472  403.4083
 473  407.04
 474  421.8402
 475  390.2308
 476  416.0144
 477  306.9142
 478  325.1013
 479  419.5973
 480  451.6748
 481  460.7231
 482  438.5297
 483  482.831
 484  392.5112
 485  376.4104
 486  475.8661
 487  474.7986
 488  481.455
 489  410.8681
 490  382.7656
 491  340.9843
 492  360.1189
 493  469.1909
 494  450.0118
 495  537.9396
 496  557.0552
 497  526.092
 498  493.9767
 499  484.8502
 500  545.4427
 501  478.9368
 502  448.2447
 503  509.7627
 504  453.3182
 505  458.9242
 506  571.2653
 507  550.8945
 508  662.8643
 509  667.6856
 510  865.2371
 511  1089.11
