# Input file       =  1210135029.122591_cleaned.dat
# Candidate        =  PSR_0332+5434
# Telescope        =  AR
# Epoch_topo       =  58250.192258363320
# Epoch_bary       =  N/A
# T_sample         =  0.002
# Data Folded      =  7208960
# Data Avg         =  0.0340013378504026
# Data StdDev      =  1.0000490993196  
# Profile Bins     =  512
# Profile Avg      =  478.744882426267 
# Profile StdDev   =  118.665001878326 
# Reduced chi-sqr  =  1.885
# Prob(Noise)      <  3.79e-30   (~11.3 sigma)
# P_topo (ms)      =  714.536297345446  +/- 0.000155
# P'_topo (s/s)    =  -0                +/- 8.35e-11
# P''_topo (s/s^2) =  0                 +/- 3.75e-14
# P_bary (ms)      =  N/A
# P'_bary (s/s)    =  N/A
# P''_bary (s/s^2) =  N/A
# P_orb (s)        =  N/A
# asin(i)/c (s)    =  N/A
# eccentricity     =  N/A
# w (rad)          =  N/A
# T_peri           =  N/A
######################################################
   0  1378.968
   1  1433.279
   2  1128.087
   3  765.4792
   4  663.7145
   5  527.6249
   6  445.7705
   7  507.6972
   8  525.7368
   9  364.1125
  10  406.7592
  11  601.3598
  12  444.1634
  13  512.7044
  14  490.7383
  15  371.6429
  16  310.5571
  17  384.2056
  18  471.5792
  19  571.749
  20  557.5676
  21  509.5133
  22  573.6865
  23  429.4299
  24  379.2641
  25  365.5497
  26  520.3277
  27  541.1877
  28  547.5496
  29  455.4812
  30  417.8444
  31  499.9214
  32  451.6222
  33  589.953
  34  588.1131
  35  497.3995
  36  436.692
  37  338.9673
  38  473.5026
  39  509.3861
  40  464.6947
  41  444.0935
  42  433.6212
  43  378.5706
  44  359.3689
  45  523.1323
  46  587.4249
  47  492.1915
  48  452.5386
  49  451.6869
  50  277.3729
  51  356.1069
  52  646.3043
  53  751.1612
  54  580.7628
  55  432.5006
  56  570.1937
  57  526.3891
  58  372.9585
  59  415.5364
  60  504.9818
  61  595.3108
  62  414.3603
  63  451.2011
  64  505.3142
  65  353.5729
  66  445.649
  67  467.5126
  68  323.7573
  69  415.9608
  70  610.139
  71  479.1504
  72  459.0913
  73  447.2777
  74  409.3902
  75  342.4547
  76  435.094
  77  579.9351
  78  529.3898
  79  557.3464
  80  380.0224
  81  424.3898
  82  452.9798
  83  384.6036
  84  429.3921
  85  439.9159
  86  401.762
  87  487.2056
  88  598.887
  89  450.4786
  90  469.7515
  91  565.5256
  92  493.8576
  93  466.3981
  94  393.437
  95  453.3472
  96  477.0079
  97  522.7418
  98  537.3221
  99  417.7433
 100  432.0928
 101  503.9616
 102  572.164
 103  520.6768
 104  476.958
 105  552.5453
 106  544.4639
 107  436.7485
 108  459.2768
 109  415.1427
 110  356.1887
 111  317.5568
 112  472.4308
 113  504.389
 114  478.6988
 115  468.4281
 116  578.0712
 117  514.2606
 118  375.3383
 119  608.0913
 120  698.5115
 121  698.5735
 122  533.8888
 123  422.95
 124  549.5961
 125  509.6445
 126  378.7092
 127  438.0911
 128  394.3011
 129  512.5709
 130  397.3268
 131  364.0787
 132  369.4049
 133  335.0089
 134  457.4258
 135  583.1009
 136  579.9398
 137  609.7841
 138  540.8211
 139  560.1697
 140  427.1652
 141  368.0172
 142  387.2358
 143  424.5181
 144  526.6615
 145  569.7513
 146  517.0798
 147  479.3023
 148  468.9466
 149  485.0113
 150  420.6602
 151  498.3266
 152  486.2994
 153  423.6252
 154  471.141
 155  515.2576
 156  475.6182
 157  361.5124
 158  365.4046
 159  379.8948
 160  505.6848
 161  467.5089
 162  432.5953
 163  471.1615
 164  396.2627
 165  416.5586
 166  373.5355
 167  545.9707
 168  602.751
 169  685.0289
 170  629.751
 171  446.8932
 172  489.5669
 173  458.6693
 174  421.4786
 175  437.7832
 176  481.7124
 177  520.145
 178  578.494
 179  631.1337
 180  560.9965
 181  387.9675
 182  304.677
 183  397.1935
 184  418.6476
 185  461.0259
 186  444.2574
 187  447.1858
 188  540.4614
 189  543.8548
 190  519.6769
 191  443.0099
 192  434.621
 193  398.381
 194  397.243
 195  412.5745
 196  364.3726
 197  392.3012
 198  371.3284
 199  405.0999
 200  351.0195
 201  459.7906
 202  500.6013
 203  401.7153
 204  382.1088
 205  407.8163
 206  482.6507
 207  431.7929
 208  378.6256
 209  359.959
 210  381.8115
 211  418.4364
 212  506.9232
 213  533.9758
 214  504.981
 215  486.5806
 216  451.3255
 217  477.7268
 218  548.8749
 219  489.8828
 220  463.2755
 221  511.6503
 222  427.6238
 223  355.9131
 224  422.5524
 225  512.7736
 226  450.6967
 227  387.4933
 228  469.8499
 229  606.5187
 230  569.122
 231  423.8916
 232  413.5183
 233  396.1326
 234  496.6113
 235  537.4206
 236  470.888
 237  510.171
 238  482.8163
 239  555.2106
 240  475.4066
 241  388.6674
 242  387.91
 243  614.7059
 244  463.3627
 245  441.3018
 246  532.4611
 247  459.4997
 248  530.0679
 249  606.8337
 250  655.0553
 251  532.6336
 252  515.6462
 253  682.7503
 254  585.3156
 255  526.7974
 256  552.1274
 257  474.8118
 258  590.1614
 259  651.5406
 260  663.1736
 261  714.7164
 262  633.3369
 263  675.1466
 264  525.3541
 265  497.1788
 266  509.2088
 267  502.39
 268  415.1161
 269  546.3898
 270  598.3606
 271  632.488
 272  572.733
 273  525.9923
 274  403.2974
 275  518.5473
 276  594.2765
 277  606.5119
 278  535.4018
 279  382.3525
 280  470.652
 281  505.2778
 282  542.129
 283  502.2736
 284  442.5059
 285  546.1393
 286  539.714
 287  506.2757
 288  553.4672
 289  421.3712
 290  372.3323
 291  463.2254
 292  506.6584
 293  532.0574
 294  603.0446
 295  694.2891
 296  534.1151
 297  502.1944
 298  531.5671
 299  492.1836
 300  377.957
 301  409.0264
 302  494.8972
 303  632.6845
 304  452.2524
 305  345.0693
 306  487.4479
 307  521.3646
 308  469.3633
 309  503.9044
 310  409.126
 311  303.4515
 312  410.3335
 313  431.709
 314  406.8648
 315  386.1712
 316  446.7946
 317  427.1812
 318  495.11
 319  435.1817
 320  453.4887
 321  404.9941
 322  329.3015
 323  276.5497
 324  361.8217
 325  419.9477
 326  490.7866
 327  547.6193
 328  452.5842
 329  383.0194
 330  506.4284
 331  417.1528
 332  361.2302
 333  473.6727
 334  507.9822
 335  462.487
 336  515.9932
 337  456.3352
 338  356.0587
 339  418.204
 340  332.9109
 341  406.5676
 342  517.6982
 343  473.5083
 344  436.4484
 345  495.8989
 346  363.5601
 347  281.4048
 348  329.501
 349  427.2972
 350  429.7413
 351  434.1898
 352  470.8345
 353  516.1771
 354  399.1143
 355  359.7255
 356  468.18
 357  367.3994
 358  441.5684
 359  469.8013
 360  390.956
 361  384.6344
 362  468.1532
 363  445.472
 364  426.908
 365  344.1833
 366  428.8701
 367  451.6694
 368  405.3931
 369  481.153
 370  461.4702
 371  547.0069
 372  474.1182
 373  394.8929
 374  504.5373
 375  538.3398
 376  524.5271
 377  497.3192
 378  468.5061
 379  453.8836
 380  412.1125
 381  439.9454
 382  402.598
 383  491.0654
 384  393.3691
 385  451.5237
 386  499.0844
 387  439.5349
 388  430.6227
 389  415.0712
 390  334.8652
 391  350.1642
 392  425.3104
 393  450.4812
 394  483.2328
 395  616.7796
 396  435.7312
 397  361.4884
 398  524.1862
 399  427.3469
 400  429.9841
 401  313.1547
 402  301.7346
 403  318.3264
 404  370.8447
 405  298.4075
 406  325.471
 407  441.0892
 408  490.433
 409  494.9917
 410  351.4635
 411  345.2133
 412  386.0473
 413  399.3687
 414  487.1804
 415  381.9653
 416  495.8129
 417  570.9655
 418  529.3389
 419  507.0113
 420  479.0244
 421  419.2774
 422  442.7546
 423  514.3278
 424  526.902
 425  568.918
 426  440.6406
 427  193.4652
 428  228.2425
 429  305.5407
 430  475.7966
 431  316.9722
 432  428.2503
 433  571.5657
 434  493.1179
 435  419.2485
 436  495.6172
 437  432.4168
 438  338.136
 439  310.3469
 440  314.5209
 441  274.9656
 442  363.1292
 443  522.982
 444  447.2581
 445  351.1795
 446  315.4673
 447  326.1314
 448  477.3814
 449  534.4593
 450  504.1541
 451  481.4098
 452  519.6479
 453  529.2645
 454  535.1213
 455  500.9219
 456  543.6347
 457  499.2406
 458  350.8507
 459  449.782
 460  493.1707
 461  469.6809
 462  379.022
 463  391.7649
 464  504.694
 465  556.5558
 466  385.0678
 467  484.669
 468  548.023
 469  522.5787
 470  430.1838
 471  357.4173
 472  453.379
 473  490.3663
 474  543.9258
 475  495.9464
 476  559.4758
 477  514.9889
 478  503.1967
 479  581.8255
 480  463.2881
 481  518.4969
 482  548.6292
 483  590.5067
 484  554.9576
 485  518.4746
 486  487.0666
 487  456.4865
 488  398.4902
 489  394.4311
 490  506.547
 491  559.6365
 492  476.6822
 493  409.0986
 494  530.9078
 495  482.9703
 496  467.8944
 497  504.5609
 498  540.4611
 499  596.5302
 500  553.2828
 501  493.075
 502  527.592
 503  581.7418
 504  510.6901
 505  543.5755
 506  608.6459
 507  689.5552
 508  762.369
 509  820.7665
 510  1084.768
 511  1358.063
