# Input file       =  1210666695.126441_cleaned.dat
# Candidate        =  PSR_0332+5434
# Telescope        =  AR
# Epoch_topo       =  58256.345800074552
# Epoch_bary       =  N/A
# T_sample         =  0.002
# Data Folded      =  7340032
# Data Avg         =  0.0324825835779106
# Data StdDev      =  1.00004335081552 
# Profile Bins     =  512
# Profile Avg      =  465.663419203648 
# Profile StdDev   =  119.738226901538 
# Reduced chi-sqr  =  0.879
# Prob(Noise)      <  0.977   (~0.0 sigma)
# P_topo (ms)      =  714.53031722675   +/- 0.000544
# P'_topo (s/s)    =  -0                +/- 2.87e-10
# P''_topo (s/s^2) =  0                 +/- 1.27e-13
# P_bary (ms)      =  N/A
# P'_bary (s/s)    =  N/A
# P''_bary (s/s^2) =  N/A
# P_orb (s)        =  N/A
# asin(i)/c (s)    =  N/A
# eccentricity     =  N/A
# w (rad)          =  N/A
# T_peri           =  N/A
######################################################
   0  993.7075
   1  799.0994
   2  707.9133
   3  559.9044
   4  430.8551
   5  432.5209
   6  409.8259
   7  425.5764
   8  395.4814
   9  411.3101
  10  393.8191
  11  479.5171
  12  498.4674
  13  422.9155
  14  454.1274
  15  454.465
  16  486.5668
  17  561.9167
  18  558.0958
  19  464.6931
  20  562.0761
  21  595.6569
  22  583.3093
  23  457.7976
  24  477.884
  25  511.3326
  26  581.258
  27  551.3542
  28  560.0546
  29  496.7411
  30  433.968
  31  525.6933
  32  494.7977
  33  466.0099
  34  583.0543
  35  498.7
  36  534.1542
  37  518.8906
  38  540.3672
  39  538.602
  40  532.2686
  41  510.8559
  42  478.3985
  43  524.0854
  44  512.9863
  45  475.9015
  46  550.3425
  47  569.2667
  48  501.7118
  49  440.3308
  50  434.2811
  51  373.0582
  52  401.7255
  53  458.52
  54  510.4886
  55  475.4461
  56  508.7417
  57  452.7903
  58  450.2055
  59  430.3469
  60  537.3672
  61  560.7646
  62  532.9091
  63  506.5201
  64  566.4818
  65  567.3615
  66  538.1281
  67  560.0021
  68  544.2542
  69  584.6971
  70  567.1169
  71  500.6488
  72  472.295
  73  506.8769
  74  526.2073
  75  600.908
  76  659.3719
  77  597.2554
  78  452.3842
  79  456.7014
  80  563.2512
  81  588.1816
  82  594.5156
  83  588.5656
  84  562.6001
  85  548.0968
  86  557.0294
  87  595.8061
  88  573.5582
  89  574.7148
  90  548.3322
  91  515.7897
  92  573.4252
  93  474.7264
  94  418.1472
  95  603.404
  96  561.3932
  97  541.2549
  98  546.9052
  99  560.2906
 100  549.5159
 101  481.3732
 102  465.5836
 103  509.1348
 104  547.5366
 105  545.4013
 106  569.3346
 107  507.1535
 108  436.2772
 109  373.9301
 110  440.4751
 111  526.1768
 112  520.0941
 113  427.5458
 114  457.4435
 115  499.9912
 116  542.8651
 117  489.3957
 118  448.1551
 119  362.7067
 120  415.1213
 121  427.7377
 122  468.702
 123  413.7051
 124  486.3925
 125  507.7257
 126  490.967
 127  525.8889
 128  465.2162
 129  465.8558
 130  505.8721
 131  499.6729
 132  484.8745
 133  415.6731
 134  502.8841
 135  499.3089
 136  424.2516
 137  615.3354
 138  504.0542
 139  477.419
 140  464.1197
 141  576.2863
 142  536.1456
 143  470.4016
 144  377.9675
 145  425.9832
 146  449.2665
 147  465.3914
 148  386.158
 149  403.624
 150  415.7675
 151  390.5317
 152  352.0393
 153  406.1814
 154  413.1147
 155  345.6574
 156  277.8764
 157  296.252
 158  275.2872
 159  290.5299
 160  347.6617
 161  348.2727
 162  340.3047
 163  344.1665
 164  389.2843
 165  305.7753
 166  311.0426
 167  320.3611
 168  338.3357
 169  303.3445
 170  322.2513
 171  406.8571
 172  461.9316
 173  354.8213
 174  296.6377
 175  370.868
 176  369.204
 177  371.3628
 178  381.6648
 179  394.9886
 180  425.0473
 181  424.912
 182  381.5585
 183  416.4867
 184  483.1093
 185  395.799
 186  377.4595
 187  386.2914
 188  415.6591
 189  397.6906
 190  346.6413
 191  404.7053
 192  425.4731
 193  377.3969
 194  406.4951
 195  379.7548
 196  442.6146
 197  495.4496
 198  406.4552
 199  342.6494
 200  392.8151
 201  439.5963
 202  402.495
 203  505.1072
 204  522.9731
 205  410.3722
 206  399.6151
 207  449.6381
 208  439.6727
 209  433.2441
 210  470.6475
 211  458.2003
 212  442.6074
 213  428.1275
 214  459.8424
 215  434.8498
 216  471.4157
 217  475.8334
 218  443.1541
 219  401.2263
 220  389.2469
 221  484.166
 222  588.1021
 223  481.1356
 224  424.3817
 225  480.5029
 226  444.8431
 227  472.6729
 228  407.9667
 229  397.584
 230  396.5851
 231  463.8699
 232  407.6656
 233  394.8697
 234  368.6817
 235  328.4437
 236  281.3083
 237  389.4973
 238  417.1108
 239  357.2105
 240  337.9313
 241  339.766
 242  387.4712
 243  376.6317
 244  390.8986
 245  425.3823
 246  422.2216
 247  415.3483
 248  477.8313
 249  346.4474
 250  383.948
 251  422.395
 252  385.366
 253  406.1906
 254  450.1106
 255  504.2529
 256  420.7723
 257  371.6041
 258  417.8202
 259  406.6065
 260  496.1123
 261  494.4424
 262  470.8691
 263  529.9208
 264  456.8863
 265  459.1889
 266  488.04
 267  434.4969
 268  499.0822
 269  564.6028
 270  535.6771
 271  511.5723
 272  356.707
 273  347.3013
 274  450.3117
 275  536.1096
 276  455.9036
 277  445.1031
 278  508.8481
 279  398.5997
 280  436.2533
 281  448.9064
 282  417.2323
 283  425.8217
 284  462.4107
 285  412.9787
 286  442.5284
 287  447.2711
 288  562.6708
 289  588.9631
 290  572.3019
 291  524.5295
 292  583.2512
 293  625.7259
 294  632.1729
 295  566.8124
 296  570.4557
 297  477.7888
 298  484.3101
 299  447.9191
 300  463.2628
 301  446.7675
 302  422.5029
 303  450.3571
 304  482.3392
 305  565.2039
 306  521.7469
 307  446.3634
 308  455.7614
 309  406.3331
 310  455.8816
 311  452.8741
 312  378.6472
 313  372.0108
 314  470.1122
 315  504.6636
 316  547.6295
 317  538.1865
 318  481.3351
 319  508.6266
 320  520.0174
 321  492.364
 322  395.4946
 323  455.8548
 324  435.9083
 325  415.4827
 326  418.5729
 327  376.556
 328  371.2426
 329  444.9653
 330  350.7459
 331  380.25
 332  438.4987
 333  384.3142
 334  295.3287
 335  332.1322
 336  375.1601
 337  405.524
 338  403.5733
 339  423.661
 340  478.2415
 341  393.1362
 342  403.7407
 343  453.0196
 344  545.7972
 345  530.9992
 346  431.2988
 347  412.0032
 348  452.7365
 349  465.1374
 350  470.2637
 351  476.6743
 352  472.8039
 353  468.1717
 354  389.9
 355  446.1398
 356  415.8535
 357  358.3752
 358  422.1712
 359  435.3088
 360  454.8257
 361  427.0848
 362  459.042
 363  423.3117
 364  428.8904
 365  524.0753
 366  460.1519
 367  465.9125
 368  431.8405
 369  515.0633
 370  510.8622
 371  467.5688
 372  423.5225
 373  436.1956
 374  466.6793
 375  455.299
 376  418.2629
 377  440.242
 378  491.8524
 379  509.8156
 380  433.9514
 381  434.8165
 382  377.58
 383  304.9041
 384  373.0251
 385  458.5745
 386  516.5881
 387  489.8233
 388  431.0593
 389  494.3255
 390  543.3295
 391  481.5301
 392  446.2263
 393  485.9875
 394  526.5215
 395  588.825
 396  567.5414
 397  489.9162
 398  507.9881
 399  492.1802
 400  519.2326
 401  518.5653
 402  435.6464
 403  493.9419
 404  543.4689
 405  469.5098
 406  519.5571
 407  446.8807
 408  369.2637
 409  454.0531
 410  465.3513
 411  545.8805
 412  513.6119
 413  482.787
 414  457.3328
 415  443.2498
 416  435.4238
 417  503.4892
 418  472.2956
 419  455.3322
 420  435.9026
 421  515.6225
 422  506.6734
 423  493.7504
 424  482.14
 425  471.6815
 426  491.6423
 427  435.3771
 428  469.6944
 429  498.0404
 430  465.2408
 431  445.4701
 432  497.0905
 433  502.3822
 434  476.7223
 435  457.433
 436  458.3253
 437  411.301
 438  426.8895
 439  488.3551
 440  416.1334
 441  404.057
 442  474.615
 443  511.5071
 444  447.2666
 445  423.812
 446  456.5983
 447  502.5575
 448  440.5889
 449  430.9761
 450  519.2758
 451  478.4671
 452  500.583
 453  473.0606
 454  459.2402
 455  467.3787
 456  490.29
 457  458.5526
 458  440.0341
 459  436.4993
 460  478.5828
 461  553.0337
 462  580.7886
 463  566.6922
 464  511.5088
 465  613.3366
 466  570.5635
 467  593.3477
 468  598.0842
 469  451.23
 470  494.3327
 471  554.3422
 472  524.4585
 473  493.3929
 474  505.144
 475  462.5552
 476  409.4795
 477  365.9464
 478  361.3059
 479  455.1565
 480  439.4215
 481  506.7903
 482  524.0917
 483  523.931
 484  399.7053
 485  331.2373
 486  366.2604
 487  392.9568
 488  364.1487
 489  348.7963
 490  401.3805
 491  432.2917
 492  414.7557
 493  429.9027
 494  380.6309
 495  453.3583
 496  473.4364
 497  495.3969
 498  446.3026
 499  369.151
 500  371.963
 501  425.0074
 502  364.186
 503  406.4901
 504  482.1219
 505  484.2894
 506  509.9608
 507  527.8296
 508  554.2553
 509  635.8146
 510  924.1534
 511  1012.114
