# Input file       =  1210565923.116018_cleaned.dat
# Candidate        =  PSR_0332+5434
# Telescope        =  AR
# Epoch_topo       =  58255.179457361322
# Epoch_bary       =  N/A
# T_sample         =  0.002
# Data Folded      =  7143424
# Data Avg         =  0.030802086039964
# Data StdDev      =  1.00003121231773 
# Profile Bins     =  512
# Profile Avg      =  429.747784707367 
# Profile StdDev   =  118.122271236656 
# Reduced chi-sqr  =  1.500
# Prob(Noise)      <  1.63e-12   (~7.0 sigma)
# P_topo (ms)      =  714.531448026621  +/- 0.000313
# P'_topo (s/s)    =  -0                +/- 1.7e-10
# P''_topo (s/s^2) =  0                 +/- 7.7e-14
# P_bary (ms)      =  N/A
# P'_bary (s/s)    =  N/A
# P''_bary (s/s^2) =  N/A
# P_orb (s)        =  N/A
# asin(i)/c (s)    =  N/A
# eccentricity     =  N/A
# w (rad)          =  N/A
# T_peri           =  N/A
######################################################
   0  1125.75
   1  1150.835
   2  917.8058
   3  712.8282
   4  566.0597
   5  477.6513
   6  359.4242
   7  400.6816
   8  525.4981
   9  476.8203
  10  406.0775
  11  476.8948
  12  417.268
  13  494.2752
  14  628.7657
  15  586.293
  16  459.0785
  17  476.8655
  18  432.0673
  19  418.1959
  20  348.547
  21  365.9598
  22  484.3882
  23  308.1217
  24  340.6597
  25  513.2254
  26  602.7458
  27  359.2996
  28  294.4973
  29  303.9098
  30  340.026
  31  312.0837
  32  374.1766
  33  401.5053
  34  366.2686
  35  382.1808
  36  373.5075
  37  389.8015
  38  439.7727
  39  327.456
  40  401.4615
  41  501.7363
  42  336.986
  43  359.0482
  44  385.3703
  45  311.2825
  46  213.3031
  47  261.6014
  48  311.7854
  49  438.1204
  50  390.4978
  51  391.3056
  52  255.5305
  53  328.5692
  54  364.4654
  55  250.279
  56  251.4838
  57  384.9235
  58  436.1252
  59  470.9253
  60  373.8326
  61  161.9523
  62  360.7862
  63  567.8818
  64  446.4296
  65  338.8599
  66  363.4596
  67  426.157
  68  401.3935
  69  355.8936
  70  280.0201
  71  313.3302
  72  346.4941
  73  323.0731
  74  315.2674
  75  405.738
  76  465.3964
  77  376.9051
  78  414.2204
  79  315.7089
  80  333.0999
  81  404.342
  82  364.0963
  83  331.4157
  84  287.8351
  85  314.6183
  86  345.8556
  87  424.7923
  88  545.9932
  89  507.7341
  90  500.1373
  91  459.3788
  92  461.1012
  93  377.8498
  94  398.3311
  95  366.7005
  96  247.0988
  97  391.4467
  98  469.342
  99  369.9251
 100  377.177
 101  335.6034
 102  248.4239
 103  291.4527
 104  363.6578
 105  424.4483
 106  432.6416
 107  380.4807
 108  349.271
 109  258.3322
 110  279.2468
 111  349.0636
 112  327.2091
 113  432.3567
 114  416.9319
 115  364.3682
 116  437.7228
 117  337.532
 118  399.7917
 119  325.3467
 120  426.0826
 121  306.1396
 122  385.794
 123  376.8277
 124  396.9588
 125  416.6877
 126  462.3334
 127  466.2643
 128  542.9969
 129  430.6005
 130  421.4201
 131  472.2453
 132  435.9503
 133  406.1155
 134  353.683
 135  348.5438
 136  327.6219
 137  409.2251
 138  492.5397
 139  505.7274
 140  479.8581
 141  411.1976
 142  466.4017
 143  441.774
 144  453.4125
 145  481.7415
 146  461.5443
 147  550.6191
 148  501.9786
 149  399.6212
 150  446.6539
 151  432.4968
 152  448.9175
 153  446.9841
 154  432.0737
 155  404.3779
 156  570.7983
 157  606.7433
 158  481.9838
 159  569.6446
 160  541.7357
 161  556.7048
 162  579.4216
 163  529.4459
 164  482.0961
 165  557.7936
 166  491.5785
 167  261.4466
 168  354.7424
 169  458.9943
 170  403.2634
 171  410.3625
 172  488.6219
 173  555.5038
 174  499.8315
 175  460.8419
 176  476.9707
 177  495.6758
 178  436.1985
 179  332.9215
 180  347.6349
 181  566.7728
 182  587.4322
 183  326.2262
 184  368.4294
 185  456.1918
 186  502.3216
 187  458.7406
 188  505.0598
 189  475.3184
 190  444.6291
 191  522.3423
 192  526.0538
 193  484.5897
 194  509.5862
 195  466.5616
 196  385.079
 197  406.6292
 198  451.9656
 199  423.7135
 200  416.3796
 201  469.1139
 202  500.0337
 203  509.7385
 204  384.2891
 205  388.6251
 206  500.0352
 207  481.8113
 208  495.0136
 209  473.7606
 210  480.1043
 211  512.4882
 212  417.9883
 213  365.9921
 214  406.5157
 215  372.1933
 216  344.4404
 217  321.4374
 218  373.289
 219  389.4012
 220  341.5567
 221  405.73
 222  470.59
 223  453.7337
 224  438.4228
 225  498.0374
 226  339.5392
 227  322.4398
 228  508.7773
 229  427.873
 230  459.9807
 231  408.245
 232  510.9521
 233  530.0325
 234  389.9651
 235  404.8777
 236  455.7245
 237  448.3539
 238  475.9352
 239  443.1458
 240  462.4382
 241  560.997
 242  586.5437
 243  568.6132
 244  501.5212
 245  431.6904
 246  359.6706
 247  307.947
 248  496.6077
 249  585.4137
 250  537.5032
 251  477.9048
 252  433.931
 253  515.327
 254  390.7131
 255  379.6468
 256  408.437
 257  435.0659
 258  508.8177
 259  411.7323
 260  348.0829
 261  434.6979
 262  442.565
 263  401.3907
 264  480.6491
 265  430.7601
 266  310.4973
 267  375.6587
 268  509.7896
 269  432.9829
 270  432.6341
 271  394.0594
 272  415.2448
 273  520.6661
 274  404.0146
 275  395.1411
 276  325.2394
 277  266.7924
 278  456.3322
 279  398.9633
 280  331.4978
 281  450.2929
 282  438.7091
 283  310.6856
 284  352.649
 285  429.1094
 286  371.5262
 287  400.3481
 288  445.6897
 289  409.799
 290  304.9704
 291  346.8596
 292  294.4572
 293  334.4394
 294  301.071
 295  376.6619
 296  353.0806
 297  298.9873
 298  344.4619
 299  436.7462
 300  426.7653
 301  390.8957
 302  313.1639
 303  344.6681
 304  345.7977
 305  383.8095
 306  340.7088
 307  294.11
 308  360.3185
 309  296.4102
 310  406.9494
 311  482.3176
 312  362.8519
 313  321.1147
 314  424.453
 315  433.0223
 316  344.5197
 317  390.0446
 318  466.1253
 319  455.7505
 320  328.1837
 321  380.9809
 322  506.2438
 323  582.2153
 324  431.0352
 325  386.2752
 326  354.3342
 327  480.8806
 328  492.7556
 329  507.2594
 330  511.1086
 331  510.578
 332  401.2797
 333  358.1496
 334  491.1255
 335  475.295
 336  325.8237
 337  394.2656
 338  556.468
 339  457.7388
 340  370.7103
 341  396.5472
 342  310.6018
 343  441.65
 344  409.6251
 345  348.0615
 346  422.91
 347  346.6812
 348  357.409
 349  388.3159
 350  433.5091
 351  415.9874
 352  292.1143
 353  384.165
 354  423.7169
 355  458.2777
 356  476.4982
 357  454.4753
 358  481.5281
 359  467.7538
 360  482.1786
 361  434.0825
 362  418.5799
 363  466.4055
 364  410.0812
 365  440.0011
 366  343.042
 367  446.6817
 368  392.6772
 369  372.1834
 370  494.7312
 371  518.1122
 372  511.4795
 373  411.2225
 374  439.2297
 375  465.2224
 376  509.3109
 377  541.8664
 378  422.8934
 379  329.3839
 380  381.0234
 381  450.9408
 382  384.7212
 383  347.1091
 384  415.5399
 385  432.5473
 386  407.0132
 387  275.3473
 388  355.9243
 389  542.7636
 390  564.9932
 391  484.5783
 392  311.9357
 393  340.4044
 394  379.5736
 395  509.5911
 396  434.3857
 397  514.6515
 398  481.662
 399  498.7733
 400  520.367
 401  437.4279
 402  475.1802
 403  467.3984
 404  390.1685
 405  386.2952
 406  477.4924
 407  495.6422
 408  542.3245
 409  490.0838
 410  545.3841
 411  534.7214
 412  451.1165
 413  423.0284
 414  492.1854
 415  520.897
 416  533.3141
 417  464.0229
 418  372.7855
 419  362.7916
 420  509.6893
 421  357.5259
 422  382.7059
 423  372.0956
 424  438.9081
 425  486.6093
 426  468.3742
 427  502.3647
 428  314.0204
 429  332.7486
 430  428.9914
 431  314.1994
 432  397.3277
 433  423.3586
 434  422.9019
 435  390.6539
 436  393.6908
 437  391.8185
 438  403.6682
 439  474.2304
 440  517.601
 441  527.8356
 442  400.0219
 443  426.6342
 444  365.0425
 445  278.4458
 446  290.6702
 447  349.3893
 448  305.8622
 449  273.1186
 450  310.9971
 451  291.3721
 452  324.8932
 453  499.8009
 454  561.9115
 455  475.843
 456  481.56
 457  416.7591
 458  321.0784
 459  321.6953
 460  392.551
 461  418.6268
 462  407.9485
 463  391.7507
 464  351.6212
 465  385.6323
 466  493.6129
 467  431.6189
 468  417.9102
 469  459.0233
 470  451.2177
 471  477.1834
 472  423.5788
 473  472.6681
 474  569.0922
 475  474.0883
 476  456.3247
 477  568.9307
 478  511.0822
 479  505.8779
 480  411.3625
 481  352.3319
 482  513.4569
 483  417.9775
 484  419.4053
 485  500.6873
 486  613.46
 487  601.1236
 488  425.2999
 489  390.4275
 490  396.5758
 491  455.5912
 492  523.4565
 493  558.565
 494  501.7343
 495  496.791
 496  369.6728
 497  422.795
 498  429.819
 499  321.3096
 500  378.8403
 501  258.7524
 502  336.8322
 503  447.5193
 504  431.7415
 505  488.9599
 506  598.2601
 507  603.9059
 508  630.4517
 509  966.7927
 510  1083.086
 511  1101.008
