# Input file       =  1210738238.106472_cleaned.dat
# Candidate        =  PSR_0332+5434
# Telescope        =  AR
# Epoch_topo       =  58257.173843824909
# Epoch_bary       =  N/A
# T_sample         =  0.002
# Data Folded      =  7143424
# Data Avg         =  0.0331502571141659
# Data StdDev      =  1.00005012145924 
# Profile Bins     =  512
# Profile Avg      =  462.557989213887 
# Profile StdDev   =  118.124504757685 
# Reduced chi-sqr  =  1.822
# Prob(Noise)      <  6.72e-27   (~10.7 sigma)
# P_topo (ms)      =  714.52949094881   +/- 8e-05
# P'_topo (s/s)    =  -0                +/- 4.34e-11
# P''_topo (s/s^2) =  0                 +/- 1.97e-14
# P_bary (ms)      =  N/A
# P'_bary (s/s)    =  N/A
# P''_bary (s/s^2) =  N/A
# P_orb (s)        =  N/A
# asin(i)/c (s)    =  N/A
# eccentricity     =  N/A
# w (rad)          =  N/A
# T_peri           =  N/A
######################################################
   0  1367.317
   1  1316.174
   2  1095.622
   3  814.4411
   4  627.6329
   5  652.635
   6  404.2317
   7  386.9484
   8  503.6554
   9  541.6479
  10  572.8698
  11  528.1095
  12  626.4457
  13  576.0186
  14  547.7349
  15  521.4641
  16  398.4295
  17  456.327
  18  489.5791
  19  552.7737
  20  484.0439
  21  551.3973
  22  448.5396
  23  473.0363
  24  489.376
  25  415.672
  26  387.3412
  27  413.5961
  28  480.654
  29  473.343
  30  478.4367
  31  517.7061
  32  515.6218
  33  539.8868
  34  615.6412
  35  658.3103
  36  589.4503
  37  506.1497
  38  392.3377
  39  427.0688
  40  501.3181
  41  391.4923
  42  550.2345
  43  582.1544
  44  605.2247
  45  455.0378
  46  367.8555
  47  381.3434
  48  490.9304
  49  506.3133
  50  487.4145
  51  573.9627
  52  540.2986
  53  507.8542
  54  418.5339
  55  392.0454
  56  505.0239
  57  597.2687
  58  588.8983
  59  545.8246
  60  466.2752
  61  478.7866
  62  494.4909
  63  493.9152
  64  452.4071
  65  480.8058
  66  392.757
  67  492.3784
  68  590.9039
  69  501.6875
  70  467.8335
  71  432.0522
  72  343.6607
  73  473.1821
  74  499.3514
  75  440.2987
  76  422.9923
  77  484.4736
  78  471.4157
  79  250.1317
  80  297.0219
  81  401.0009
  82  408.1466
  83  465.9795
  84  536.3359
  85  413.9846
  86  433.6117
  87  465.1586
  88  569.7742
  89  411.9901
  90  198.7562
  91  342.5957
  92  367.1675
  93  441.4531
  94  517.3331
  95  422.6403
  96  280.9204
  97  155.9034
  98  285.2851
  99  262.3355
 100  468.2213
 101  504.7649
 102  448.578
 103  414.3764
 104  353.5044
 105  354.1477
 106  366.5231
 107  323.2165
 108  468.2115
 109  422.8729
 110  399.5489
 111  396.3496
 112  425.4669
 113  351.1314
 114  382.6433
 115  332.3269
 116  384.3127
 117  413.7459
 118  368.5128
 119  338.0364
 120  344.0282
 121  424.6169
 122  329.4354
 123  402.1917
 124  418.1443
 125  407.3571
 126  451.4638
 127  375.3966
 128  348.613
 129  504.6906
 130  508.4463
 131  523.7113
 132  601.9644
 133  563.5745
 134  484.6228
 135  438.8017
 136  491.7849
 137  373.5013
 138  407.6841
 139  393.0959
 140  407.961
 141  527.6827
 142  603.9952
 143  524.9228
 144  420.8058
 145  458.64
 146  506.7066
 147  549.921
 148  466.1459
 149  384.8053
 150  585.0209
 151  535.8208
 152  494.3286
 153  484.8137
 154  361.1908
 155  378.3313
 156  395.1241
 157  412.6617
 158  495.2566
 159  549.5949
 160  437.6554
 161  372.0618
 162  289.2479
 163  283.5612
 164  339.9202
 165  414.3103
 166  518.5088
 167  607.0027
 168  643.0934
 169  584.1385
 170  262.4317
 171  254.3137
 172  338.6118
 173  352.8315
 174  341.8118
 175  437.0797
 176  483.1099
 177  473.649
 178  375.7127
 179  349.7072
 180  362.8065
 181  386.8575
 182  548.3967
 183  607.5665
 184  517.6385
 185  486.5511
 186  477.5193
 187  505.3133
 188  385.2572
 189  302.3481
 190  474.2925
 191  552.2485
 192  561.1907
 193  408.5644
 194  338.7502
 195  305.3255
 196  311.1122
 197  329.4704
 198  381.5056
 199  351.9922
 200  430.0965
 201  579.0316
 202  455.7444
 203  427.1354
 204  446.8046
 205  386.6982
 206  411.7055
 207  360.7035
 208  334.8524
 209  392.3611
 210  351.7718
 211  331.249
 212  269.2698
 213  274.692
 214  306.4257
 215  332.9785
 216  358.4085
 217  403.7186
 218  459.89
 219  371.8271
 220  370.39
 221  379.7943
 222  488.6205
 223  524.308
 224  451.6388
 225  397.393
 226  366.4846
 227  381.1094
 228  444.8611
 229  453.0865
 230  580.9918
 231  675.7363
 232  471.9606
 233  500.0677
 234  495.529
 235  429.4124
 236  418.3774
 237  459.9799
 238  457.0182
 239  449.7816
 240  466.2132
 241  529.7821
 242  534.7702
 243  509.8764
 244  395.1945
 245  398.2343
 246  404.8349
 247  415.5993
 248  636.5589
 249  748.5686
 250  589.1793
 251  432.8078
 252  509.1797
 253  454.675
 254  423.9951
 255  503.7651
 256  484.7567
 257  498.973
 258  509.0121
 259  528.5411
 260  504.3854
 261  524.3558
 262  504.6421
 263  418.2622
 264  495.965
 265  564.3079
 266  565.6817
 267  559.3666
 268  566.756
 269  471.4991
 270  480.3592
 271  442.9199
 272  446.5855
 273  513.6703
 274  625.2883
 275  517.4449
 276  403.0674
 277  554.4575
 278  427.3992
 279  460.3728
 280  547.481
 281  562.5384
 282  509.284
 283  468.0724
 284  481.8824
 285  540.1893
 286  568.2591
 287  640.7426
 288  579.3412
 289  508.8382
 290  544.9458
 291  461.0167
 292  408.9546
 293  543.6876
 294  476.3851
 295  330.3396
 296  456.7588
 297  526.0294
 298  464.8566
 299  443.1309
 300  402.4843
 301  377.3746
 302  271.0184
 303  395.2465
 304  373.4169
 305  391.5316
 306  370.8382
 307  415.0791
 308  477.1242
 309  544.5546
 310  480.368
 311  473.2419
 312  489.7974
 313  388.6592
 314  475.3086
 315  507.4921
 316  512.5961
 317  462.5462
 318  442.5489
 319  411.6053
 320  357.5408
 321  425.0155
 322  540.7549
 323  483.035
 324  547.9576
 325  575.9559
 326  525.3344
 327  365.4956
 328  448.9874
 329  444.5752
 330  458.787
 331  555.4808
 332  592.9803
 333  604.0627
 334  522.04
 335  431.5585
 336  294.8705
 337  316.4935
 338  434.468
 339  424.9211
 340  444.8545
 341  642.7567
 342  544.0268
 343  369.3344
 344  368.9716
 345  316.1912
 346  445.2958
 347  490.5073
 348  488.6882
 349  501.9266
 350  557.3356
 351  431.0108
 352  408.5319
 353  499.6365
 354  511.0973
 355  395.4995
 356  334.5356
 357  533.6141
 358  640.2709
 359  554.1864
 360  510.8608
 361  389.6503
 362  429.0529
 363  461.756
 364  340.3947
 365  498.8272
 366  563.7895
 367  495.0604
 368  435.3658
 369  387.6615
 370  335.652
 371  425.0144
 372  477.2461
 373  437.7345
 374  458.4409
 375  501.6845
 376  483.7575
 377  460.8866
 378  426.2429
 379  614.0735
 380  610.2124
 381  507.1684
 382  516.6824
 383  548.2396
 384  541.8016
 385  455.3846
 386  407.6337
 387  376.1506
 388  433.8813
 389  347.7625
 390  432.006
 391  554.093
 392  408.595
 393  383.0811
 394  396.9111
 395  516.6212
 396  615.1725
 397  551.5047
 398  497.7429
 399  504.0824
 400  432.3976
 401  329.7998
 402  428.1329
 403  386.457
 404  402.9167
 405  405.5253
 406  369.97
 407  405.8671
 408  504.3949
 409  382.3112
 410  398.7674
 411  474.6678
 412  408.6008
 413  448.5953
 414  518.2953
 415  542.5439
 416  465.4196
 417  403.1011
 418  473.4406
 419  412.6552
 420  393.8542
 421  372.2229
 422  404.6411
 423  404.3324
 424  400.042
 425  414.8645
 426  326.6494
 427  424.8235
 428  359.9441
 429  418.175
 430  416.2354
 431  455.4315
 432  422.7059
 433  291.452
 434  211.231
 435  200.2863
 436  362.0942
 437  298.3582
 438  376.9738
 439  563.1231
 440  480.1902
 441  345.672
 442  419.7964
 443  482.0724
 444  365.6512
 445  284.8478
 446  393.8618
 447  582.4109
 448  526.5845
 449  567.8486
 450  579.076
 451  483.7266
 452  431.8781
 453  474.9021
 454  405.4619
 455  388.2331
 456  443.1286
 457  457.0289
 458  546.0852
 459  502.2429
 460  355.5695
 461  419.6033
 462  529.0376
 463  447.9079
 464  447.6415
 465  424.5197
 466  363.4941
 467  479.3289
 468  442.9534
 469  426.3967
 470  482.8031
 471  413.5744
 472  379.8639
 473  392.2686
 474  523.3834
 475  469.8412
 476  287.8071
 477  350.5206
 478  502.8206
 479  472.9111
 480  433.5618
 481  464.1879
 482  437.9498
 483  446.4997
 484  334.1313
 485  379.2202
 486  395.3167
 487  551.6074
 488  493.437
 489  485.6334
 490  580.8563
 491  458.9261
 492  372.3907
 493  430.1238
 494  545.4111
 495  513.1931
 496  491.9497
 497  534.4318
 498  625.1453
 499  519.32
 500  391.3884
 501  447.0877
 502  501.2537
 503  493.845
 504  415.8143
 505  493.685
 506  585.1428
 507  588.7768
 508  662.5642
 509  819.1442
 510  987.2614
 511  1230.245
