# Input file       =  1210580531.111079_cleaned.dat
# Candidate        =  PSR_0332+5434
# Telescope        =  AR
# Epoch_topo       =  58255.348531378229
# Epoch_bary       =  N/A
# T_sample         =  0.002
# Data Folded      =  7340032
# Data Avg         =  0.0190157745802896
# Data StdDev      =  1.00006669823203 
# Profile Bins     =  512
# Profile Avg      =  272.609004124349 
# Profile StdDev   =  119.741022358609 
# Reduced chi-sqr  =  1.110
# Prob(Noise)      <  0.0425   (~1.7 sigma)
# P_topo (ms)      =  714.531295517995  +/- 0.000741
# P'_topo (s/s)    =  -0                +/- 3.91e-10
# P''_topo (s/s^2) =  0                 +/- 1.73e-13
# P_bary (ms)      =  N/A
# P'_bary (s/s)    =  N/A
# P''_bary (s/s^2) =  N/A
# P_orb (s)        =  N/A
# asin(i)/c (s)    =  N/A
# eccentricity     =  N/A
# w (rad)          =  N/A
# T_peri           =  N/A
######################################################
   0  615.3904
   1  646.2319
   2  492.4098
   3  293.1987
   4  204.0832
   5  225.3654
   6  182.6594
   7  187.6631
   8  141.7797
   9  204.3202
  10  251.2676
  11  220.8041
  12  224.594
  13  162.3474
  14  163.6292
  15  257.1366
  16  250.4689
  17  298.7581
  18  289.6189
  19  281.8837
  20  331.4316
  21  279.3747
  22  274.5099
  23  185.2109
  24  124.5239
  25  222.6808
  26  269.4597
  27  302.5229
  28  330.2793
  29  252.1729
  30  283.8116
  31  336.5056
  32  301.4596
  33  203.3898
  34  249.3066
  35  267.1117
  36  243.0639
  37  197.5919
  38  251.4004
  39  260.1215
  40  215.2559
  41  189.0427
  42  238.8127
  43  250.7536
  44  236.825
  45  290.0008
  46  311.2077
  47  353.2763
  48  369.3804
  49  391.2059
  50  460.9203
  51  481.7668
  52  485.4508
  53  368.6531
  54  372.3324
  55  413.2051
  56  417.653
  57  391.9759
  58  355.5075
  59  384.7
  60  409.4279
  61  431.7628
  62  379.1352
  63  424.6602
  64  407.2749
  65  378.6735
  66  357.4498
  67  424.7172
  68  470.4755
  69  414.1835
  70  400.1496
  71  315.849
  72  322.2203
  73  346.0844
  74  381.5078
  75  407.3696
  76  387.9723
  77  378.1561
  78  416.0719
  79  370.0529
  80  349.9266
  81  357.1224
  82  328.9599
  83  328.4426
  84  372.054
  85  355.6273
  86  354.2244
  87  462.2229
  88  340.5744
  89  284.9427
  90  350.8452
  91  303.3287
  92  334.7735
  93  286.2114
  94  319.9046
  95  318.8043
  96  430.8371
  97  468.3067
  98  439.1501
  99  435.1746
 100  405.7617
 101  372.8971
 102  472.9502
 103  461.9542
 104  429.0646
 105  475.4819
 106  502.4487
 107  452.3795
 108  370.3783
 109  430.8278
 110  432.0754
 111  396.9831
 112  384.4949
 113  318.3659
 114  325.7447
 115  390.0592
 116  341.0216
 117  327.05
 118  419.2693
 119  363.2731
 120  289.8347
 121  251.206
 122  264.8781
 123  282.8118
 124  337.7912
 125  332.6397
 126  412.8795
 127  330.7296
 128  299.2454
 129  272.6013
 130  306.801
 131  272.5949
 132  311.2379
 133  326.1541
 134  321.0547
 135  294.1956
 136  324.324
 137  269.7999
 138  290.7296
 139  327.8149
 140  234.0234
 141  270.6139
 142  365.2284
 143  347.5627
 144  411.7932
 145  410.6264
 146  319.8567
 147  228.2263
 148  352.8977
 149  342.2487
 150  405.3606
 151  366.0689
 152  319.6043
 153  262.4871
 154  323.6438
 155  399.1714
 156  311.0635
 157  311.7196
 158  320.554
 159  342.1329
 160  316.6816
 161  335.6916
 162  289.002
 163  317.9326
 164  346.4802
 165  312.3597
 166  304.1352
 167  243.5361
 168  277.9295
 169  361.1971
 170  312.3049
 171  288.0125
 172  333.828
 173  277.2345
 174  275.9555
 175  292.7785
 176  299.2625
 177  262.1409
 178  301.8285
 179  393.9236
 180  356.8578
 181  371.2174
 182  444.1292
 183  427.2977
 184  371.7336
 185  308.7768
 186  365.6908
 187  358.3274
 188  288.9871
 189  369.6137
 190  438.7913
 191  422.3977
 192  391.2939
 193  413.4359
 194  418.5477
 195  424.5943
 196  335.5846
 197  372.8602
 198  385.658
 199  310.3696
 200  402.0848
 201  305.971
 202  273.7914
 203  318.2102
 204  298.2705
 205  260.5462
 206  240.787
 207  223.5409
 208  305.5515
 209  290.1784
 210  181.6068
 211  185.8298
 212  198.2297
 213  251.1958
 214  250.9276
 215  428.6524
 216  420.1136
 217  274.841
 218  330.2587
 219  299.6243
 220  301.4922
 221  283.0683
 222  300.5129
 223  375.0305
 224  354.0471
 225  309.5849
 226  297.965
 227  320.1578
 228  308.8813
 229  280.4871
 230  316.5134
 231  288.7509
 232  303.6765
 233  333.3855
 234  397.0767
 235  246.7778
 236  248.9142
 237  340.2076
 238  313.6742
 239  250.1206
 240  391.8778
 241  361.8253
 242  305.9416
 243  362.2603
 244  322.5816
 245  216.9138
 246  264.6772
 247  288.0217
 248  269.1263
 249  264.0302
 250  190.5177
 251  179.4907
 252  173.7791
 253  225.4458
 254  283.6193
 255  304.8015
 256  275.813
 257  327.29
 258  246.5552
 259  190.1374
 260  237.226
 261  290.1603
 262  194.5802
 263  189.5228
 264  188.9487
 265  224.062
 266  210.7629
 267  203.1136
 268  184.1622
 269  213.0255
 270  223.449
 271  227.8687
 272  239.4794
 273  152.6738
 274  186.1994
 275  301.8401
 276  317.1662
 277  229.5933
 278  180.4558
 279  229.9306
 280  245.5615
 281  184.0754
 282  243.8267
 283  304.1554
 284  321.7631
 285  234.9245
 286  199.5079
 287  212.0443
 288  224.0337
 289  294.3517
 290  330.7026
 291  241.3241
 292  225.8894
 293  228.6553
 294  285.9399
 295  310.9723
 296  284.3217
 297  294.7679
 298  200.3093
 299  164.689
 300  215.6562
 301  149.112
 302  118.332
 303  189.1086
 304  238.2611
 305  219.2617
 306  176.4072
 307  247.9958
 308  246.0523
 309  249.9284
 310  253.3929
 311  235.3682
 312  184.0345
 313  183.0478
 314  226.2996
 315  223.0247
 316  224.3026
 317  278.8524
 318  222.7541
 319  295.6202
 320  295.0368
 321  237.3815
 322  198.9007
 323  305.2576
 324  335.0328
 325  276.5595
 326  305.4326
 327  257.3063
 328  186.2406
 329  254.1245
 330  179.2202
 331  157.7713
 332  130.8774
 333  130.3641
 334  119.5768
 335  208.0035
 336  221.9626
 337  162.6815
 338  237.775
 339  232.8868
 340  268.3158
 341  184.1315
 342  213.7628
 343  269.5516
 344  171.6513
 345  149.4625
 346  217.6647
 347  277.4432
 348  210.5876
 349  96.06261
 350  215.6278
 351  255.1779
 352  236.8495
 353  297.7475
 354  376.2554
 355  257.939
 356  199.0136
 357  292.8852
 358  308.2216
 359  252.1284
 360  313.4659
 361  356.0206
 362  381.7878
 363  367.6631
 364  223.076
 365  274.2487
 366  187.9903
 367  262.5104
 368  265.8307
 369  287.4364
 370  307.2405
 371  250.3618
 372  338.6099
 373  292.6708
 374  310.2084
 375  263.412
 376  203.2195
 377  171.5386
 378  236.2896
 379  204.087
 380  179.7934
 381  230.1016
 382  312.3522
 383  221.862
 384  131.8212
 385  165.7568
 386  173.1068
 387  228.3019
 388  224.0999
 389  179.5287
 390  113.6313
 391  107.1859
 392  140.6003
 393  198.9429
 394  159.7003
 395  122.3196
 396  193.8497
 397  215.2873
 398  228.6863
 399  303.9615
 400  281.9737
 401  276.0393
 402  213.3947
 403  225.4836
 404  283.8273
 405  236.0843
 406  192.5964
 407  174.6306
 408  217.4303
 409  305.0635
 410  231.1115
 411  285.2991
 412  327.584
 413  294.945
 414  175.6092
 415  208.245
 416  214.7636
 417  268.4765
 418  229.4935
 419  237.7911
 420  304.8277
 421  183.305
 422  225.4841
 423  264.8344
 424  192.5379
 425  128.8234
 426  115.0284
 427  220.2299
 428  210.449
 429  147.7753
 430  68.3093
 431  98.03219
 432  130.342
 433  196.9265
 434  198.8749
 435  213.9009
 436  308.0678
 437  296.5536
 438  220.0974
 439  313.0282
 440  213.053
 441  167.8465
 442  154.1992
 443  225.0192
 444  193.2413
 445  259.6925
 446  274.9585
 447  256.4042
 448  234.8038
 449  163.757
 450  133.1805
 451  226.2812
 452  224.461
 453  148.3869
 454  133.3388
 455  160.5571
 456  168.0372
 457  205.8275
 458  217.7791
 459  217.5567
 460  185.5146
 461  124.8134
 462  151.6711
 463  142.3012
 464  206.7945
 465  163.9202
 466  219.6137
 467  144.1856
 468  173.087
 469  116.1573
 470  104.3276
 471  53.59257
 472  110.1119
 473  239.0085
 474  201.2046
 475  177.2234
 476  118.6119
 477  134.264
 478  181.3976
 479  240.7875
 480  183.9116
 481  153.2573
 482  195.2605
 483  241.8779
 484  213.2644
 485  182.9646
 486  170.1708
 487  195.1323
 488  243.2804
 489  244.5605
 490  131.8634
 491  171.1907
 492  211.6837
 493  253.3235
 494  253.7035
 495  187.7214
 496  183.641
 497  148.5675
 498  135.6342
 499  121.0971
 500  121.1409
 501  85.58301
 502  145.1977
 503  116.6846
 504  107.9431
 505  107.3937
 506  39.27055
 507  126.4849
 508  281.8217
 509  434.5434
 510  475.129
 511  591.5899
