# Input file       =  1210752853.118745_cleaned.dat
# Candidate        =  PSR_0332+5434
# Telescope        =  AR
# Epoch_topo       =  58257.342999059547
# Epoch_bary       =  N/A
# T_sample         =  0.002
# Data Folded      =  7340032
# Data Avg         =  0.0144849221044234
# Data StdDev      =  1.0000173575572  
# Profile Bins     =  512
# Profile Avg      =  207.631348989924 
# Profile StdDev   =  119.735114649794 
# Reduced chi-sqr  =  1.260
# Prob(Noise)      <  5.76e-05   (~3.9 sigma)
# P_topo (ms)      =  714.529337731166  +/- 0.000457
# P'_topo (s/s)    =  -0                +/- 2.41e-10
# P''_topo (s/s^2) =  0                 +/- 1.06e-13
# P_bary (ms)      =  N/A
# P'_bary (s/s)    =  N/A
# P''_bary (s/s^2) =  N/A
# P_orb (s)        =  N/A
# asin(i)/c (s)    =  N/A
# eccentricity     =  N/A
# w (rad)          =  N/A
# T_peri           =  N/A
######################################################
   0  723.538
   1  688.1052
   2  562.0374
   3  502.5777
   4  316.2144
   5  195.9545
   6  231.3441
   7  188.9772
   8  130.7913
   9  198.8959
  10  290.4618
  11  318.7768
  12  298.6202
  13  289.6093
  14  328.1642
  15  284.8661
  16  352.7328
  17  385.0757
  18  370.6362
  19  317.4496
  20  319.0087
  21  281.0414
  22  296.9082
  23  276.4752
  24  284.7513
  25  230.6049
  26  294.2398
  27  261.8167
  28  308.1276
  29  359.6156
  30  273.7345
  31  229.8908
  32  266.0779
  33  209.067
  34  128.439
  35  197.6395
  36  255.6919
  37  284.1288
  38  280.7366
  39  243.3711
  40  216.8805
  41  215.8911
  42  268.4904
  43  200.5783
  44  182.8309
  45  196.1033
  46  218.5356
  47  268.2392
  48  249.4736
  49  211.1285
  50  205.049
  51  222.3164
  52  215.6984
  53  171.1676
  54  290.1822
  55  337.7258
  56  280.8843
  57  257.7371
  58  297.4064
  59  300.5069
  60  254.6374
  61  268.039
  62  220.2869
  63  200.058
  64  170.9931
  65  212.1101
  66  266.783
  67  100.5582
  68  80.28792
  69  90.16862
  70  117.6699
  71  78.42818
  72  113.1802
  73  201.5683
  74  180.7434
  75  110.8952
  76  148.5012
  77  114.3135
  78  -15.10225
  79  -21.05216
  80  7.364791
  81  78.75445
  82  9.856228
  83  -50.50372
  84  20.70022
  85  -19.33751
  86  5.033768
  87  29.73193
  88  42.61484
  89  143.6302
  90  58.70335
  91  59.06691
  92  37.33835
  93  63.32965
  94  15.13567
  95  59.07484
  96  82.16117
  97  49.07738
  98  48.51461
  99  103.1785
 100  73.56329
 101  118.2786
 102  115.7191
 103  134.5036
 104  183.7082
 105  206.8406
 106  158.0318
 107  121.7746
 108  118.7927
 109  132.0213
 110  169.1091
 111  212.3154
 112  187.7552
 113  105.505
 114  155.0798
 115  108.6422
 116  184.0186
 117  234.3033
 118  170.4259
 119  26.87606
 120  20.78559
 121  72.46423
 122  119.8562
 123  107.6326
 124  178.174
 125  184.1643
 126  156.9223
 127  106.9968
 128  170.8503
 129  218.1276
 130  184.2351
 131  132.4217
 132  159.8323
 133  192.8964
 134  224.9355
 135  228.435
 136  207.1575
 137  199.0305
 138  157.1548
 139  206.7121
 140  268.3015
 141  198.0355
 142  205.3602
 143  236.8518
 144  207.6842
 145  302.3516
 146  284.0824
 147  327.4593
 148  272.636
 149  282.1963
 150  303.5189
 151  273.0923
 152  182.8472
 153  251.5235
 154  226.8579
 155  209.6465
 156  254.5016
 157  253.9212
 158  241.9948
 159  210.7433
 160  211.2038
 161  206.3035
 162  207.1082
 163  233.8051
 164  292.528
 165  249.2329
 166  193.9339
 167  170.6041
 168  200.4258
 169  191.9639
 170  136.079
 171  150.0747
 172  212.8986
 173  245.7048
 174  193.4422
 175  169.8986
 176  210.878
 177  215.5308
 178  184.9155
 179  246.2729
 180  284.138
 181  319.781
 182  240.776
 183  134.4922
 184  172.2859
 185  203.8863
 186  268.614
 187  183.8721
 188  250.4097
 189  372.1209
 190  295.8217
 191  274.7012
 192  260.1481
 193  282.509
 194  289.7726
 195  309.2801
 196  352.1926
 197  274.2726
 198  263.1595
 199  328.2608
 200  297.7996
 201  197.5609
 202  103.7888
 203  120.7062
 204  108.9817
 205  156.086
 206  106.1249
 207  73.42036
 208  86.1597
 209  99.42909
 210  26.25039
 211  156.339
 212  239.1183
 213  206.0819
 214  171.6398
 215  159.0865
 216  158.5118
 217  111.572
 218  158.7151
 219  168.504
 220  224.4239
 221  151.4497
 222  167.975
 223  217.7931
 224  262.1925
 225  309.0676
 226  290.4854
 227  240.1648
 228  212.8909
 229  213.1055
 230  235.599
 231  237.3337
 232  235.7449
 233  270.8917
 234  213.2484
 235  196.9172
 236  277.9316
 237  226.7522
 238  227.2744
 239  184.1695
 240  118.3663
 241  207.6519
 242  198.3075
 243  105.633
 244  163.4204
 245  199.4804
 246  53.54984
 247  64.91727
 248  157.6081
 249  134.2168
 250  121.0264
 251  137.9866
 252  152.8474
 253  86.91593
 254  85.24886
 255  157.9795
 256  202.2551
 257  121.3957
 258  -16.35575
 259  42.40146
 260  102.7362
 261  87.23173
 262  78.56036
 263  116.7559
 264  140.6462
 265  150.738
 266  227.0181
 267  247.6114
 268  210.2414
 269  166.0886
 270  219.0567
 271  266.8526
 272  268.6093
 273  187.1738
 274  86.06113
 275  107.3198
 276  274.1953
 277  246.3608
 278  159.2732
 279  212.741
 280  250.0128
 281  157.3958
 282  120.9858
 283  183.289
 284  181.1251
 285  188.0396
 286  119.3067
 287  134.8978
 288  188.6092
 289  87.35966
 290  100.5439
 291  98.25279
 292  174.9395
 293  271.6526
 294  223.755
 295  206.5545
 296  188.2266
 297  107.8922
 298  112.1724
 299  149.177
 300  173.8444
 301  170.5048
 302  205.0329
 303  188.8583
 304  217.2168
 305  292.0208
 306  281.6857
 307  222.1916
 308  284.8421
 309  286.0909
 310  228.3134
 311  200.339
 312  251.0526
 313  327.0853
 314  322.7389
 315  283.6501
 316  232.6756
 317  311.2399
 318  281.9811
 319  235.6795
 320  210.3112
 321  300.9738
 322  386.7875
 323  371.9123
 324  327.5985
 325  291.5478
 326  248.5441
 327  226.8209
 328  244.6762
 329  264.5257
 330  207.8988
 331  217.4819
 332  261.6776
 333  258.5081
 334  124.7521
 335  184.778
 336  242.744
 337  183.9055
 338  139.8101
 339  138.0457
 340  22.66401
 341  50.22288
 342  188.529
 343  239.8718
 344  202.5631
 345  253.6816
 346  170.9026
 347  181.3197
 348  126.455
 349  68.43865
 350  95.81067
 351  141.9195
 352  163.2047
 353  94.30723
 354  150.9033
 355  190.6982
 356  149.3827
 357  126.884
 358  163.0699
 359  102.4341
 360  159.0219
 361  240.4679
 362  268.2937
 363  222.9585
 364  179.8961
 365  97.51797
 366  90.42225
 367  67.32926
 368  89.78739
 369  219.3267
 370  152.9348
 371  67.97829
 372  90.73366
 373  130.7739
 374  115.7516
 375  154.5502
 376  146.132
 377  107.4938
 378  134.9244
 379  127.0801
 380  49.24358
 381  95.71841
 382  179.1114
 383  116.2991
 384  118.459
 385  191.1086
 386  84.02618
 387  206.6544
 388  245.3667
 389  302.0168
 390  231.7209
 391  194.7813
 392  221.2881
 393  233.6786
 394  354.2452
 395  350.1759
 396  300.1836
 397  320.1432
 398  300.4887
 399  325.9614
 400  278.169
 401  231.7851
 402  330.4156
 403  287.0069
 404  311.222
 405  196.2277
 406  294.0603
 407  368.7058
 408  354.1615
 409  425.3511
 410  283.8878
 411  158.5226
 412  251.2578
 413  240.6196
 414  292.0397
 415  332.1059
 416  267.3956
 417  274.8411
 418  238.963
 419  304.7052
 420  275.1638
 421  292.2637
 422  346.9218
 423  258.0547
 424  324.8331
 425  341.0306
 426  263.3964
 427  364.4848
 428  428.7876
 429  383.0309
 430  322.3127
 431  321.9031
 432  418.788
 433  405.1955
 434  389.7836
 435  338.7592
 436  364.6354
 437  489.1918
 438  378.3018
 439  306.2054
 440  347.5236
 441  353.2552
 442  285.9305
 443  209.129
 444  277.6135
 445  312.9742
 446  311.3437
 447  320.1324
 448  325.7735
 449  313.4153
 450  242.4615
 451  210.714
 452  300.4843
 453  289.6842
 454  169.9583
 455  242.7946
 456  347.5087
 457  264.5329
 458  278.9128
 459  232.5249
 460  193.3685
 461  249.2336
 462  241.4062
 463  190.377
 464  192.0681
 465  138.9639
 466  185.617
 467  177.7468
 468  151.8143
 469  161.564
 470  182.417
 471  184.8092
 472  110.1937
 473  120.6381
 474  166.7619
 475  190.2275
 476  204.2791
 477  227.2784
 478  217.0734
 479  111.4815
 480  108.9067
 481  126.4463
 482  143.74
 483  207.0904
 484  177.9965
 485  217.8172
 486  132.2614
 487  81.31648
 488  55.43317
 489  120.6605
 490  156.4135
 491  193.1926
 492  243.4782
 493  261.4167
 494  290.746
 495  255.9244
 496  163.9171
 497  66.16662
 498  181.2822
 499  171.611
 500  109.0294
 501  102.8292
 502  74.05
 503  102.5324
 504  253.147
 505  181.5946
 506  161.5513
 507  75.82137
 508  199.563
 509  362.4987
 510  520.8791
 511  623.7448
