# Input file       =  1211528298.098192_cleaned.dat
# Candidate        =  PSR_0332+5434
# Telescope        =  AR
# Epoch_topo       =  58266.318056692035
# Epoch_bary       =  N/A
# T_sample         =  0.002
# Data Folded      =  7340032
# Data Avg         =  0.0367316039027637
# Data StdDev      =  1.00005220590206 
# Profile Bins     =  512
# Profile Avg      =  526.668900745052 
# Profile StdDev   =  119.739287147936 
# Reduced chi-sqr  =  0.938
# Prob(Noise)      <  0.838   (~0.0 sigma)
# P_topo (ms)      =  714.520532979177  +/- 0.000278
# P'_topo (s/s)    =  -0                +/- 1.47e-10
# P''_topo (s/s^2) =  0                 +/- 6.48e-14
# P_bary (ms)      =  N/A
# P'_bary (s/s)    =  N/A
# P''_bary (s/s^2) =  N/A
# P_orb (s)        =  N/A
# asin(i)/c (s)    =  N/A
# eccentricity     =  N/A
# w (rad)          =  N/A
# T_peri           =  N/A
######################################################
   0  972.9856
   1  795.0269
   2  697.794
   3  548.5714
   4  553.3831
   5  594.3191
   6  445.1411
   7  435.4297
   8  425.0725
   9  424.189
  10  396.9515
  11  449.4221
  12  585.6589
  13  641.8647
  14  535.0163
  15  513.6035
  16  547.2373
  17  437.2642
  18  506.1923
  19  464.0638
  20  404.5511
  21  515.6269
  22  479.0046
  23  409.4645
  24  407.3707
  25  392.6407
  26  379.7022
  27  399.1553
  28  404.7008
  29  345.0603
  30  465.0495
  31  469.8404
  32  546.9313
  33  556.3546
  34  523.743
  35  547.9095
  36  646.4337
  37  494.4137
  38  454.2365
  39  476.1758
  40  495.9427
  41  607.3539
  42  479.5907
  43  493.4674
  44  412.1275
  45  468.9415
  46  429.8882
  47  435.3341
  48  498.6986
  49  563.1237
  50  470.0808
  51  518.0307
  52  519.1916
  53  426.734
  54  422.8872
  55  445.7437
  56  425.1653
  57  412.6869
  58  442.7155
  59  451.7161
  60  496.0086
  61  525.6039
  62  524.7538
  63  545.5487
  64  412.5595
  65  463.9562
  66  494.3727
  67  550.5159
  68  549.2227
  69  489.75
  70  542.4618
  71  485.6286
  72  527.0494
  73  529.472
  74  509.0099
  75  413.5998
  76  537.534
  77  608.0041
  78  538.5765
  79  543.3497
  80  509.8044
  81  431.7832
  82  443.1108
  83  441.2405
  84  459.0051
  85  417.56
  86  493.5829
  87  527.9965
  88  446.7923
  89  507.7611
  90  498.1922
  91  453.725
  92  399.772
  93  322.2151
  94  401.128
  95  436.1419
  96  508.2792
  97  460.4361
  98  497.9331
  99  477.3365
 100  391.9013
 101  413.0587
 102  514.1122
 103  466.2572
 104  540.8868
 105  480.9839
 106  364.371
 107  321.3163
 108  270.5748
 109  387.277
 110  455.36
 111  445.8424
 112  462.203
 113  465.3093
 114  594.4958
 115  529.2034
 116  517.7217
 117  422.1097
 118  490.0183
 119  468.4456
 120  501.4655
 121  552.6429
 122  639.6161
 123  589.5062
 124  399.6145
 125  400.7396
 126  468.4348
 127  483.3611
 128  428.3523
 129  503.281
 130  567.1085
 131  503.4616
 132  501.888
 133  570.3884
 134  568.4551
 135  405.766
 136  387.8754
 137  424.6059
 138  468.4149
 139  464.0014
 140  513.8071
 141  398.8209
 142  330.9648
 143  435.9492
 144  469.8997
 145  447.4677
 146  519.8726
 147  538.7336
 148  558.0131
 149  531.2729
 150  509.7898
 151  536.1359
 152  541.0586
 153  601.6199
 154  582.59
 155  494.8434
 156  552.1445
 157  560.9263
 158  630.5899
 159  699.2488
 160  596.7097
 161  602.9865
 162  624.6485
 163  672.0299
 164  723.9659
 165  683.3463
 166  662.7972
 167  545.5472
 168  591.3354
 169  570.0019
 170  592.518
 171  665.5786
 172  745.8978
 173  639.8741
 174  520.5179
 175  559.3622
 176  573.1364
 177  550.5189
 178  517.4747
 179  447.7494
 180  487.1754
 181  535.7746
 182  489.2861
 183  437.6788
 184  392.2505
 185  435.0713
 186  523.4462
 187  542.1636
 188  376.6764
 189  531.025
 190  561.0627
 191  555.0474
 192  551.0669
 193  532.558
 194  492.3652
 195  457.7386
 196  554.5693
 197  536.2233
 198  528.4384
 199  480.0696
 200  493.3558
 201  423.1338
 202  419.7386
 203  527.6826
 204  515.2493
 205  542.9117
 206  556.1889
 207  383.7587
 208  480.0177
 209  482.5215
 210  479.2998
 211  515.4781
 212  472.4556
 213  542.7024
 214  438.3805
 215  574.1042
 216  546.7825
 217  587.0843
 218  592.0887
 219  555.2876
 220  477.206
 221  504.9697
 222  527.0928
 223  551.5911
 224  542.7702
 225  557.165
 226  521.5783
 227  561.5836
 228  537.6903
 229  606.7094
 230  562.7986
 231  578.5569
 232  540.6749
 233  478.0498
 234  519.8139
 235  537.7589
 236  528.1583
 237  526.568
 238  605.4866
 239  607.8307
 240  631.7449
 241  564.7996
 242  559.4872
 243  649.8701
 244  609.7961
 245  583.9722
 246  548.3291
 247  594.2737
 248  597.3774
 249  574.8322
 250  628.4635
 251  574.1348
 252  514.2081
 253  647.8969
 254  657.7446
 255  662.6935
 256  565.3954
 257  568.5085
 258  703.1885
 259  635.2032
 260  516.8237
 261  628.3292
 262  675.0456
 263  601.3287
 264  611.2911
 265  696.6601
 266  534.5651
 267  499.0668
 268  610.5323
 269  612.4041
 270  641.8821
 271  557.3632
 272  546.533
 273  444.8201
 274  437.2148
 275  400.5436
 276  468.2443
 277  622.7401
 278  632.4073
 279  554.4353
 280  515.2789
 281  571.4682
 282  608.8514
 283  581.477
 284  569.8489
 285  514.4776
 286  419.2509
 287  480.6018
 288  620.1691
 289  579.9172
 290  592.7299
 291  572.2673
 292  588.4672
 293  553.8962
 294  494.7691
 295  466.7742
 296  513.9642
 297  470.5281
 298  452.0114
 299  546.5323
 300  451.3737
 301  415.2711
 302  468.7908
 303  420.4647
 304  466.5675
 305  513.4489
 306  498.6569
 307  445.4294
 308  484.3207
 309  540.2481
 310  490.8627
 311  452.3746
 312  560.3266
 313  512.2474
 314  531.4166
 315  579.1269
 316  508.8915
 317  641.3685
 318  597.1871
 319  564.3493
 320  582.5263
 321  635.1536
 322  623.8014
 323  603.5932
 324  491.12
 325  599.4716
 326  626.9037
 327  711.5118
 328  728.3395
 329  601.687
 330  551.2571
 331  507.5966
 332  620.7624
 333  601.7444
 334  572.7736
 335  592.0786
 336  537.552
 337  544.0017
 338  613.6513
 339  720.4687
 340  726.2705
 341  562.8177
 342  475.1983
 343  601.6533
 344  450.823
 345  279.2654
 346  421.8988
 347  549.1971
 348  538.3453
 349  466.739
 350  593.3643
 351  632.0979
 352  657.4528
 353  643.8776
 354  559.1758
 355  541.6437
 356  440.8766
 357  440.4385
 358  537.0388
 359  560.7213
 360  541.8021
 361  527.5684
 362  462.7037
 363  563.2206
 364  602.022
 365  546.5615
 366  574.8726
 367  646.7079
 368  545.3868
 369  566.0104
 370  547.9454
 371  468.7233
 372  588.928
 373  534.0571
 374  523.0534
 375  602.8445
 376  551.4317
 377  476.9865
 378  464.2949
 379  416.5615
 380  497.8732
 381  539.2141
 382  513.3012
 383  545.4083
 384  500.8678
 385  493.494
 386  465.031
 387  452.882
 388  500.1669
 389  572.1679
 390  590.228
 391  509.999
 392  530.8976
 393  558.7141
 394  415.8434
 395  423.8971
 396  466.9102
 397  469.2449
 398  470.489
 399  495.0773
 400  549.1083
 401  537.5236
 402  476.2513
 403  468.988
 404  423.5605
 405  468.9493
 406  477.0441
 407  481.5786
 408  592.1917
 409  551.7958
 410  536.0239
 411  527.857
 412  481.8461
 413  507.6708
 414  488.2212
 415  494.7126
 416  560.0172
 417  559.1082
 418  578.4917
 419  504.2959
 420  389.5832
 421  492.1022
 422  567.1556
 423  620.6097
 424  620.876
 425  665.2104
 426  649.1956
 427  549.554
 428  599.4998
 429  585.368
 430  458.5166
 431  471.2638
 432  625.7112
 433  559.9323
 434  559.1658
 435  530.0325
 436  484.858
 437  469.1795
 438  468.5363
 439  480.8925
 440  613.7449
 441  678.6852
 442  548.7039
 443  471.1521
 444  482.7859
 445  524.7864
 446  518.1019
 447  488.3143
 448  534.6749
 449  437.0063
 450  456.4798
 451  491.7326
 452  524.0225
 453  596.7458
 454  492.9785
 455  465.1024
 456  458.2939
 457  474.9777
 458  522.2978
 459  483.3322
 460  484.9734
 461  539.9889
 462  528.4649
 463  477.7564
 464  511.086
 465  537.4429
 466  486.4511
 467  563.9567
 468  574.9758
 469  591.1458
 470  527.1396
 471  531.8936
 472  566.876
 473  497.5268
 474  494.5744
 475  504.8999
 476  637.2283
 477  704.7275
 478  566.1309
 479  486.2257
 480  552.414
 481  382.5679
 482  375.3265
 483  467.1815
 484  475.055
 485  476.0404
 486  543.1876
 487  565.1226
 488  522.9241
 489  478.3245
 490  481.7379
 491  446.0333
 492  574.5217
 493  588.5453
 494  559.8405
 495  496.2173
 496  555.1248
 497  578.1471
 498  543.2767
 499  416.9651
 500  522.286
 501  593.6114
 502  645.6922
 503  606.9406
 504  568.8591
 505  541.2325
 506  602.4523
 507  646.2171
 508  696.0514
 509  801.6208
 510  918.7224
 511  1014.061
