# Input file       =  1211887824.112411_cleaned.dat
# Candidate        =  PSR_0332+5434
# Telescope        =  AR
# Epoch_topo       =  58270.479237412168
# Epoch_bary       =  N/A
# T_sample         =  0.002
# Data Folded      =  7340032
# Data Avg         =  0.00458771429296522
# Data StdDev      =  1.00006013641167 
# Profile Bins     =  512
# Profile Avg      =  65.7247118699019 
# Profile StdDev   =  119.740236691933 
# Reduced chi-sqr  =  1.495
# Prob(Noise)      <  2.45e-12   (~6.9 sigma)
# P_topo (ms)      =  714.516807553881  +/- 0.000313
# P'_topo (s/s)    =  -0                +/- 1.65e-10
# P''_topo (s/s^2) =  0                 +/- 7.29e-14
# P_bary (ms)      =  N/A
# P'_bary (s/s)    =  N/A
# P''_bary (s/s^2) =  N/A
# P_orb (s)        =  N/A
# asin(i)/c (s)    =  N/A
# eccentricity     =  N/A
# w (rad)          =  N/A
# T_peri           =  N/A
######################################################
   0  734.5103
   1  785.5005
   2  677.1562
   3  501.9531
   4  244.7543
   5  228.1641
   6  223.3487
   7  127.9727
   8  128.1232
   9  268.5541
  10  243.1106
  11  95.60857
  12  34.07015
  13  27.592
  14  198.7294
  15  84.05068
  16  57.0866
  17  5.679209
  18  7.944485
  19  33.09244
  20  18.39973
  21  29.80834
  22  79.7805
  23  25.63703
  24  29.98203
  25  26.53311
  26  37.4979
  27  39.50882
  28  118.1965
  29  37.91408
  30  -67.03054
  31  -26.29317
  32  19.9118
  33  84.30201
  34  18.5747
  35  -175.9725
  36  -38.26278
  37  55.10135
  38  97.63027
  39  146.6176
  40  107.5089
  41  65.17739
  42  87.655
  43  28.86696
  44  125.4811
  45  -40.12012
  46  2.420145
  47  67.78472
  48  -21.23422
  49  -58.04078
  50  84.65622
  51  131.5888
  52  -3.085044
  53  -54.81644
  54  7.841966
  55  74.01621
  56  78.07119
  57  51.93792
  58  25.30027
  59  -28.20803
  60  84.9791
  61  44.1938
  62  -26.20515
  63  -41.57381
  64  34.76145
  65  60.64523
  66  148.3097
  67  30.91886
  68  -40.4537
  69  -32.46273
  70  16.72329
  71  45.72609
  72  1.608179
  73  -15.90749
  74  -98.30553
  75  43.39656
  76  45.39325
  77  -39.99547
  78  -85.37247
  79  78.73624
  80  94.32745
  81  -4.785089
  82  -62.63632
  83  26.84905
  84  105.0961
  85  109.8283
  86  113.6351
  87  184.2476
  88  124.2934
  89  101.2751
  90  226.629
  91  290.2034
  92  185.0999
  93  10.82453
  94  57.1532
  95  217.224
  96  76.15672
  97  9.022228
  98  104.0405
  99  134.2749
 100  63.37782
 101  128.9562
 102  54.98026
 103  109.5676
 104  101.2611
 105  3.32588
 106  -43.16065
 107  -86.83801
 108  4.966269
 109  15.86121
 110  72.96844
 111  178.4659
 112  67.05368
 113  14.11617
 114  -24.69939
 115  -32.48038
 116  61.50209
 117  128.7154
 118  50.3103
 119  15.64386
 120  117.8538
 121  123.4166
 122  45.03936
 123  55.16813
 124  159.3273
 125  158.1984
 126  78.91535
 127  141.2103
 128  114.5334
 129  121.8801
 130  73.52879
 131  89.57449
 132  -73.80441
 133  16.49754
 134  205.5195
 135  26.75729
 136  33.78772
 137  46.39198
 138  182.0284
 139  250.4199
 140  208.267
 141  321.1736
 142  11.90306
 143  -14.85816
 144  1.193665
 145  1.474482
 146  22.21636
 147  71.97717
 148  27.75098
 149  85.49915
 150  42.15642
 151  47.55683
 152  2.948362
 153  66.55611
 154  39.37487
 155  -34.61749
 156  15.8806
 157  -17.29952
 158  1.249547
 159  -106.7873
 160  -22.30433
 161  94.3513
 162  125.8026
 163  34.89367
 164  94.99605
 165  113.6102
 166  39.67795
 167  1.627847
 168  18.78531
 169  44.98263
 170  51.3573
 171  123.3764
 172  91.60255
 173  76.56918
 174  49.10841
 175  132.5176
 176  104.5486
 177  59.61173
 178  133.8237
 179  115.6525
 180  170.2065
 181  130.8293
 182  230.4711
 183  124.6553
 184  80.34193
 185  88.41505
 186  95.70332
 187  7.952312
 188  25.14343
 189  157.5901
 190  122.8749
 191  39.37069
 192  221.5158
 193  152.5957
 194  71.61747
 195  47.75509
 196  -4.110567
 197  -34.33012
 198  31.91126
 199  63.26318
 200  -13.43903
 201  34.29027
 202  2.529373
 203  42.09177
 204  8.984601
 205  -97.1628
 206  -261.1917
 207  -126.1109
 208  0.9041358
 209  -34.56046
 210  -208.1577
 211  -117.5575
 212  -39.48065
 213  -26.16136
 214  -32.10443
 215  -42.876
 216  80.69504
 217  75.40009
 218  24.75734
 219  43.70645
 220  72.76605
 221  15.44734
 222  1.021434
 223  -9.805925
 224  34.41745
 225  57.40997
 226  85.17812
 227  172.4864
 228  50.33107
 229  56.83044
 230  7.548038
 231  52.112
 232  13.69078
 233  -36.33906
 234  19.90036
 235  -43.03236
 236  8.852907
 237  158.5275
 238  156.8461
 239  187.8399
 240  123.0281
 241  90.39735
 242  -38.27098
 243  17.46844
 244  43.22451
 245  31.23259
 246  104.1553
 247  -114.8158
 248  39.90744
 249  66.28749
 250  63.35899
 251  84.25211
 252  -32.25683
 253  -145.7794
 254  -52.94125
 255  136.7674
 256  123.4101
 257  -52.88461
 258  -130.0191
 259  101.0431
 260  236.7171
 261  28.10544
 262  20.10632
 263  67.04627
 264  125.6161
 265  135.2981
 266  6.057871
 267  -7.62287
 268  62.2612
 269  13.5386
 270  -41.0114
 271  29.50456
 272  82.22961
 273  18.3914
 274  31.00258
 275  -5.609906
 276  1.284878
 277  53.03199
 278  -1.446776
 279  -104.327
 280  -87.55993
 281  -133.2699
 282  5.296161
 283  3.427281
 284  -88.28026
 285  -116.1292
 286  -100.9886
 287  16.55996
 288  -44.10822
 289  78.36247
 290  70.09316
 291  -109.2722
 292  -147.1654
 293  14.48502
 294  15.05978
 295  20.41681
 296  -74.11499
 297  22.81832
 298  39.3409
 299  74.8203
 300  -2.690296
 301  155.8737
 302  336.0239
 303  244.8242
 304  208.308
 305  103.1588
 306  154.1441
 307  110.6524
 308  239.5915
 309  57.82061
 310  82.59057
 311  239.0231
 312  109.7788
 313  141.7017
 314  231.6688
 315  278.4336
 316  3.450482
 317  -50.31456
 318  49.94848
 319  102.7239
 320  118.2243
 321  198.7882
 322  136.4484
 323  208.3727
 324  56.3769
 325  -62.29481
 326  84.95865
 327  172.2313
 328  135.1095
 329  -150.1618
 330  -93.61308
 331  46.21459
 332  81.87531
 333  68.33745
 334  -44.66196
 335  -69.50173
 336  75.1936
 337  51.30622
 338  39.28586
 339  -138.1804
 340  0.1540041
 341  95.46049
 342  79.54161
 343  194.8298
 344  164.0832
 345  107.4083
 346  12.92095
 347  24.26458
 348  8.554232
 349  26.48689
 350  -4.074031
 351  103.9086
 352  23.95222
 353  -31.77273
 354  113.4706
 355  154.3766
 356  120.9977
 357  34.78058
 358  6.801
 359  54.17424
 360  26.84577
 361  37.06559
 362  -24.5077
 363  62.28873
 364  -55.09838
 365  -56.31474
 366  49.70447
 367  97.53529
 368  114.5167
 369  38.43333
 370  7.398715
 371  67.94823
 372  119.9993
 373  148.9676
 374  69.3506
 375  2.112703
 376  -53.53003
 377  -37.27829
 378  -33.76571
 379  18.59691
 380  33.80802
 381  121.1752
 382  90.88329
 383  -6.385529
 384  96.29417
 385  8.517564
 386  17.20694
 387  65.32078
 388  98.75571
 389  232.9312
 390  100.4528
 391  90.02764
 392  169.421
 393  103.2092
 394  30.94992
 395  96.53917
 396  202.862
 397  74.74508
 398  121.3324
 399  140.9167
 400  126.5311
 401  25.55025
 402  48.2634
 403  38.44478
 404  -19.46413
 405  28.81623
 406  -23.78273
 407  69.10762
 408  46.82637
 409  147.9748
 410  40.84747
 411  46.40509
 412  -0.6451833
 413  11.89163
 414  99.64677
 415  34.80741
 416  -16.05586
 417  -41.18865
 418  83.44715
 419  7.153865
 420  -62.76852
 421  -49.34857
 422  -18.85287
 423  -36.71455
 424  -25.79377
 425  107.9847
 426  -5.264623
 427  -150.3298
 428  42.4888
 429  12.06829
 430  56.29515
 431  171.6165
 432  129.6439
 433  149.1322
 434  -17.22914
 435  118.861
 436  73.85006
 437  59.79109
 438  111.465
 439  190.2729
 440  95.26149
 441  -8.524557
 442  -6.136075
 443  188.2043
 444  110.5865
 445  39.52625
 446  86.67545
 447  -19.56518
 448  3.672297
 449  117.8791
 450  256.119
 451  144.2116
 452  -29.57021
 453  -104.6127
 454  16.41677
 455  4.506674
 456  13.29985
 457  -61.78944
 458  39.20463
 459  -4.932225
 460  51.41577
 461  112.5872
 462  46.00073
 463  -23.86222
 464  71.50317
 465  177.2475
 466  196.1023
 467  66.12391
 468  98.38428
 469  168.4878
 470  118.9159
 471  121.3915
 472  218.1121
 473  202.1729
 474  236.0685
 475  166.1266
 476  153.8493
 477  170.8375
 478  129.2094
 479  109.157
 480  109.2523
 481  115.2855
 482  53.25594
 483  54.15639
 484  33.00441
 485  153.5292
 486  69.81744
 487  -11.6796
 488  -64.65973
 489  27.31731
 490  178.9918
 491  201.8646
 492  187.9056
 493  197.7174
 494  253.9962
 495  130.3744
 496  148.8271
 497  16.02597
 498  -2.220907
 499  33.24374
 500  109.2694
 501  145.2297
 502  43.42383
 503  144.9268
 504  189.3366
 505  215.4774
 506  287.2713
 507  292.9178
 508  292.4822
 509  237.5823
 510  354.0213
 511  528.7798
