# Input file       =  1211427572.105833_cleaned.dat
# Candidate        =  PSR_0332+5434
# Telescope        =  AR
# Epoch_topo       =  58265.152246595288
# Epoch_bary       =  N/A
# T_sample         =  0.002
# Data Folded      =  7143424
# Data Avg         =  0.0359662818037342
# Data StdDev      =  1.00006443709752 
# Profile Bins     =  512
# Profile Avg      =  501.784387833959 
# Profile StdDev   =  118.126195700614 
# Reduced chi-sqr  =  1.450
# Prob(Noise)      <  1.08e-10   (~6.4 sigma)
# P_topo (ms)      =  714.521660465201  +/- 0.000233
# P'_topo (s/s)    =  -0                +/- 1.26e-10
# P''_topo (s/s^2) =  0                 +/- 5.73e-14
# P_bary (ms)      =  N/A
# P'_bary (s/s)    =  N/A
# P''_bary (s/s^2) =  N/A
# P_orb (s)        =  N/A
# asin(i)/c (s)    =  N/A
# eccentricity     =  N/A
# w (rad)          =  N/A
# T_peri           =  N/A
######################################################
   0  1166.114
   1  1203.782
   2  1149.76
   3  952.6702
   4  636.5807
   5  496.9374
   6  416.9185
   7  565.0615
   8  587.285
   9  480.5515
  10  476.1808
  11  435.184
  12  449.0243
  13  562.1833
  14  662.0501
  15  603.5386
  16  546.7529
  17  571.2382
  18  624.5447
  19  648.1805
  20  483.9872
  21  344.9418
  22  520.2697
  23  614.4811
  24  548.4814
  25  458.7448
  26  490.7033
  27  534.1403
  28  549.4297
  29  531.9109
  30  465.9694
  31  414.6324
  32  499.4334
  33  503.9955
  34  439.8933
  35  460.6494
  36  377.5914
  37  445.7332
  38  467.5069
  39  435.2886
  40  397.3554
  41  398.9962
  42  559.5084
  43  599.7228
  44  441.5724
  45  454.1846
  46  514.0481
  47  463.6167
  48  516.8103
  49  523.9208
  50  429.0961
  51  441.2837
  52  478.9807
  53  492.5154
  54  489.3264
  55  386.6701
  56  478.7021
  57  365.6128
  58  374.8338
  59  408.1412
  60  481.8283
  61  507.4342
  62  583.3502
  63  641.7502
  64  612.0786
  65  623.0392
  66  455.8076
  67  391.7361
  68  395.9943
  69  378.1426
  70  425.1249
  71  368.6105
  72  394.4197
  73  339.3276
  74  441.8352
  75  321.0103
  76  327.4201
  77  588.5553
  78  566.8335
  79  423.2362
  80  350.3812
  81  399.5792
  82  471.4867
  83  478.8957
  84  519.3536
  85  491.638
  86  455.0112
  87  349.4242
  88  381.0907
  89  554.2338
  90  630.2621
  91  507.1641
  92  378.2535
  93  502.3809
  94  417.4553
  95  430.3847
  96  389.6238
  97  375.0247
  98  402.3922
  99  509.4601
 100  548.3377
 101  459.2857
 102  447.2861
 103  361.886
 104  250.6887
 105  370.2699
 106  430.0049
 107  493.4964
 108  395.4915
 109  510.7704
 110  528.7486
 111  439.9807
 112  457.4441
 113  456.3033
 114  373.7978
 115  455.4838
 116  487.6976
 117  453.6438
 118  483.4758
 119  499.5854
 120  511.0923
 121  572.5646
 122  475.5677
 123  517.5178
 124  578.0948
 125  603.394
 126  446.7827
 127  531.7198
 128  635.7107
 129  494.4642
 130  527.8657
 131  499.5976
 132  448.0766
 133  608.5469
 134  613.072
 135  504.2052
 136  565.5086
 137  613.5734
 138  540.1321
 139  350.6897
 140  344.472
 141  395.9699
 142  451.6571
 143  527.2575
 144  465.2821
 145  352.1446
 146  433.5304
 147  398.4268
 148  342.3368
 149  440.0385
 150  618.1882
 151  529.0062
 152  516.9011
 153  474.911
 154  471.4061
 155  508.1131
 156  480.103
 157  423.0728
 158  353.7133
 159  364.7264
 160  446.6611
 161  557.5222
 162  551.8297
 163  598.4525
 164  662.7486
 165  565.1324
 166  333.382
 167  415.601
 168  477.5595
 169  475.0224
 170  490.8136
 171  604.3373
 172  557.0005
 173  475.5646
 174  423.0641
 175  380.1691
 176  353.9349
 177  424.2755
 178  464.3747
 179  426.3625
 180  441.0237
 181  458.2709
 182  460.0687
 183  424.8331
 184  432.2861
 185  504.9244
 186  420.5932
 187  400.7026
 188  503.8832
 189  486.4946
 190  527.7945
 191  578.1824
 192  513.6155
 193  431.3668
 194  353.8132
 195  373.1006
 196  455.7667
 197  414.9851
 198  471.3566
 199  445.7213
 200  426.4784
 201  512.5762
 202  595.2567
 203  524.4919
 204  534.7736
 205  506.7914
 206  460.4804
 207  413.525
 208  531.4625
 209  654.8527
 210  513.6432
 211  486.9453
 212  553.2906
 213  493.0555
 214  437.6883
 215  403.7817
 216  363.2348
 217  452.8886
 218  503.9473
 219  522.3639
 220  540.428
 221  536.7368
 222  503.9406
 223  441.3098
 224  382.5991
 225  367.2892
 226  483.7488
 227  583.0813
 228  590.8799
 229  471.3464
 230  473.8225
 231  438.5638
 232  420.1348
 233  406.179
 234  393.5533
 235  395.6173
 236  420.4309
 237  554.3596
 238  511.6353
 239  322.446
 240  363.7503
 241  247.0288
 242  355.7738
 243  403.65
 244  583.0758
 245  451.9127
 246  400.0547
 247  472.6125
 248  515.516
 249  414.2238
 250  366.7332
 251  421.6619
 252  386.1019
 253  336.7812
 254  386.2277
 255  478.2487
 256  561.7518
 257  459.1164
 258  491.3737
 259  433.8195
 260  432.3069
 261  489.6345
 262  371.7586
 263  369.3275
 264  441.2691
 265  444.4795
 266  378.9102
 267  448.1555
 268  454.2365
 269  510.3527
 270  416.5523
 271  486.509
 272  412.5147
 273  395.7777
 274  455.7257
 275  392.3001
 276  535.8502
 277  501.4569
 278  451.2827
 279  601.3203
 280  552.6661
 281  536.9337
 282  555.1035
 283  536.7787
 284  557.0032
 285  512.0215
 286  495.7083
 287  547.0822
 288  511.9987
 289  523.7819
 290  597.4124
 291  449.8988
 292  518.4307
 293  544.0002
 294  482.9006
 295  479.7993
 296  540.1932
 297  607.5914
 298  418.9131
 299  341.9426
 300  486.7986
 301  577.9766
 302  552.3737
 303  508.3522
 304  528.1072
 305  641.2959
 306  572.8294
 307  429.8747
 308  496.7125
 309  447.4168
 310  571.023
 311  645.5333
 312  707.6603
 313  613.5165
 314  538.9631
 315  534.8083
 316  587.1324
 317  518.661
 318  553.0757
 319  612.752
 320  599.0645
 321  644.9378
 322  566.2809
 323  557.671
 324  511.8209
 325  482.7468
 326  533.9117
 327  533.8236
 328  602.5029
 329  670.2726
 330  563.5812
 331  521.1916
 332  526.0429
 333  533.4614
 334  523.1851
 335  522.5195
 336  568.06
 337  623.9931
 338  607.9883
 339  655.9966
 340  599.0127
 341  589.0214
 342  516.3339
 343  524.0587
 344  577.7161
 345  491.5889
 346  515.6459
 347  632.5529
 348  666.921
 349  597.176
 350  510.9786
 351  565.574
 352  634.0804
 353  552.5456
 354  478.2539
 355  389.372
 356  405.7709
 357  568.343
 358  551.5105
 359  516.0701
 360  632.9911
 361  725.3954
 362  628.8375
 363  456.9982
 364  422.304
 365  507.3778
 366  409.9924
 367  524.8376
 368  590.0502
 369  647.6987
 370  579.1292
 371  634.634
 372  700.9147
 373  592.8582
 374  628.7595
 375  501.6232
 376  447.7367
 377  416.2238
 378  560.1423
 379  619.1273
 380  498.1094
 381  487.7996
 382  552.9153
 383  607.7395
 384  552.7293
 385  524.9973
 386  468.4234
 387  573.4631
 388  533.3552
 389  423.9855
 390  442.9883
 391  461.1735
 392  613.489
 393  604.8994
 394  646.0095
 395  619.5748
 396  530.1134
 397  470.6617
 398  355.4417
 399  514.7736
 400  670.7014
 401  651.7952
 402  640.3356
 403  542.9269
 404  400.0147
 405  386.314
 406  448.4044
 407  491.4908
 408  525.9781
 409  464.0442
 410  466.8375
 411  455.2447
 412  556.3313
 413  526.2645
 414  476.6246
 415  566.3908
 416  531.6498
 417  488.1844
 418  422.3957
 419  545.7934
 420  596.3164
 421  557.7195
 422  486.8404
 423  513.2267
 424  571.1487
 425  512.7634
 426  488.6883
 427  521.4453
 428  409.9051
 429  360.7766
 430  464.6497
 431  533.9974
 432  433.2363
 433  398.8204
 434  565.2167
 435  401.4345
 436  422.953
 437  523.166
 438  406.215
 439  490.7336
 440  452.8639
 441  436.4407
 442  381.6995
 443  360.505
 444  460.1478
 445  494.7722
 446  451.1573
 447  489.8129
 448  474.5882
 449  437.1908
 450  607.6343
 451  642.5736
 452  553.1872
 453  599.8602
 454  545.4316
 455  585.9547
 456  591.025
 457  504.0477
 458  369.1425
 459  418.7367
 460  444.09
 461  490.0666
 462  500.1454
 463  339.2025
 464  403.1154
 465  520.9011
 466  499.2856
 467  531.9288
 468  492.5573
 469  552.8656
 470  415.7448
 471  499.0702
 472  450.4546
 473  430.0305
 474  470.0398
 475  449.4048
 476  501.9608
 477  517.6404
 478  432.735
 479  426.6359
 480  621.4858
 481  576.0288
 482  467.8321
 483  479.6087
 484  424.646
 485  432.5138
 486  484.8744
 487  491.3323
 488  541.0996
 489  508.7237
 490  512.6481
 491  647.1423
 492  609.2429
 493  614.7806
 494  569.5714
 495  560.1127
 496  511.4961
 497  393.9878
 498  456.7446
 499  534.4313
 500  509.7584
 501  478.9096
 502  477.4883
 503  517.6036
 504  628.3062
 505  650.8699
 506  588.3056
 507  645.244
 508  704.1703
 509  714.7005
 510  844.4532
 511  1034.275
