# Input file       =  1211255245.100422_cleaned.dat
# Candidate        =  PSR_0332+5434
# Telescope        =  AR
# Epoch_topo       =  58263.157721069700
# Epoch_bary       =  N/A
# T_sample         =  0.002
# Data Folded      =  7143424
# Data Avg         =  0.0296313645385351
# Data StdDev      =  0.999819401193189
# Profile Bins     =  512
# Profile Avg      =  413.403289219087 
# Profile StdDev   =  118.097252406448 
# Reduced chi-sqr  =  1.369
# Prob(Noise)      <  5.25e-08   (~5.3 sigma)
# P_topo (ms)      =  714.523614116446  +/- 0.000213
# P'_topo (s/s)    =  -0                +/- 1.15e-10
# P''_topo (s/s^2) =  0                 +/- 5.23e-14
# P_bary (ms)      =  N/A
# P'_bary (s/s)    =  N/A
# P''_bary (s/s^2) =  N/A
# P_orb (s)        =  N/A
# asin(i)/c (s)    =  N/A
# eccentricity     =  N/A
# w (rad)          =  N/A
# T_peri           =  N/A
######################################################
   0  1015.841
   1  1009.072
   2  796.029
   3  513.6284
   4  446.4969
   5  571.2538
   6  667.9094
   7  516.7784
   8  472.5439
   9  500.5174
  10  505.9231
  11  536.9888
  12  670.5914
  13  551.8651
  14  506.9933
  15  438.2593
  16  379.0244
  17  372.3459
  18  405.0305
  19  290.0762
  20  276.8659
  21  258.2431
  22  335.8058
  23  452.614
  24  569.3736
  25  607.9532
  26  550.8127
  27  380.001
  28  277.9763
  29  355.3214
  30  483.303
  31  441.2892
  32  413.6381
  33  468.0986
  34  339.9554
  35  349.5859
  36  369.2885
  37  258.1053
  38  391.6441
  39  490.5864
  40  504.0606
  41  498.6806
  42  292.435
  43  422.084
  44  436.0446
  45  486.829
  46  435.6988
  47  400.8532
  48  352.2455
  49  416.04
  50  298.7143
  51  381.5811
  52  478.5121
  53  455.3519
  54  446.9427
  55  402.6586
  56  366.2793
  57  356.1074
  58  463.3373
  59  413.9954
  60  512.6556
  61  427.2232
  62  499.6929
  63  468.9514
  64  300.2678
  65  461.1131
  66  499.1072
  67  351.4511
  68  374.9435
  69  645.1457
  70  664.1328
  71  465.92
  72  417.8452
  73  404.7133
  74  465.616
  75  434.5427
  76  443.6411
  77  359.6955
  78  294.4526
  79  330.4994
  80  339.5849
  81  392.4852
  82  430.9798
  83  391.6112
  84  445.1929
  85  449.5027
  86  414.3391
  87  411.0132
  88  440.4969
  89  516.3952
  90  460.7943
  91  247.6718
  92  226.0654
  93  346.1983
  94  458.3951
  95  411.9814
  96  426.7759
  97  453.1948
  98  462.3936
  99  443.7925
 100  379.3618
 101  267.692
 102  395.1451
 103  450.838
 104  436.3771
 105  511.2411
 106  467.6441
 107  389.9629
 108  456.5612
 109  405.6554
 110  519.0146
 111  406.3485
 112  360.7403
 113  397.2257
 114  455.643
 115  425.0003
 116  429.8723
 117  391.7784
 118  366.7137
 119  530.8611
 120  547.9098
 121  394.609
 122  344.5159
 123  484.7249
 124  520.8942
 125  463.0749
 126  442.1986
 127  446.2462
 128  271.659
 129  283.8784
 130  352.0003
 131  416.4438
 132  373.1854
 133  280.4907
 134  317.3653
 135  445.8533
 136  474.8099
 137  382.7994
 138  498.2399
 139  528.5267
 140  465.9757
 141  462.7432
 142  481.7233
 143  549.4589
 144  405.3829
 145  488.3736
 146  559.2563
 147  524.0428
 148  455.0677
 149  364.9892
 150  435.6267
 151  473.2016
 152  401.7331
 153  340.2042
 154  456.498
 155  432.8834
 156  392.7639
 157  386.4352
 158  400.5755
 159  526.9618
 160  370.065
 161  366.2399
 162  438.6682
 163  419.0316
 164  482.5068
 165  460.6062
 166  340.8418
 167  304.0134
 168  343.0741
 169  412.1045
 170  319.7852
 171  325.3147
 172  463.8495
 173  326.3979
 174  358.9637
 175  429.6118
 176  471.2443
 177  369.6274
 178  396.7404
 179  440.4062
 180  405.4534
 181  445.1949
 182  417.1138
 183  297.2965
 184  371.6487
 185  409.6199
 186  380.6054
 187  414.6325
 188  401.7199
 189  508.7058
 190  441.9448
 191  385.4698
 192  574.371
 193  475.9837
 194  372.0777
 195  329.501
 196  398.7093
 197  393.7435
 198  410.7512
 199  449.6464
 200  439.1412
 201  352.0817
 202  381.0243
 203  511.1421
 204  548.7963
 205  601.0692
 206  554.925
 207  503.1317
 208  610.1683
 209  489.9593
 210  445.6682
 211  429.4706
 212  292.1389
 213  281.3623
 214  424.7259
 215  487.6801
 216  427.7421
 217  422.1735
 218  529.5002
 219  464.5414
 220  478.0548
 221  484.0219
 222  374.4515
 223  471.6952
 224  427.3445
 225  445.6464
 226  365.3292
 227  434.1391
 228  426.1487
 229  406.3879
 230  481.4518
 231  466.5473
 232  457.8497
 233  446.1413
 234  356.9555
 235  411.4741
 236  390.8816
 237  503.0978
 238  501.731
 239  566.1216
 240  482.2794
 241  350.3474
 242  305.1165
 243  365.0388
 244  429.0704
 245  432.5946
 246  266.5852
 247  335.0092
 248  527.2787
 249  461.6341
 250  321.7581
 251  285.7776
 252  311.513
 253  356.3989
 254  587.6861
 255  525.0259
 256  457.5935
 257  263.5457
 258  333.8831
 259  500.22
 260  463.5841
 261  451.9109
 262  386.5625
 263  489.1228
 264  466.856
 265  425.9267
 266  399.4559
 267  449.2686
 268  351.0222
 269  353.8688
 270  449.4369
 271  419.1987
 272  497.8911
 273  419.1436
 274  438.3818
 275  400.9882
 276  407.536
 277  338.938
 278  351.9477
 279  338.9477
 280  485.5096
 281  470.8042
 282  379.538
 283  348.3526
 284  406.9387
 285  483.5984
 286  379.3399
 287  313.7113
 288  361.5018
 289  371.1736
 290  475.7849
 291  477.1409
 292  324.2321
 293  309.9738
 294  445.7584
 295  458.5136
 296  383.9158
 297  333.3031
 298  332.8065
 299  292.2861
 300  312.0073
 301  437.6891
 302  418.2984
 303  447.1548
 304  455.5523
 305  503.2058
 306  388.7432
 307  181.0202
 308  321.6469
 309  297.827
 310  357.4478
 311  369.9778
 312  507.6111
 313  491.0854
 314  420.7822
 315  354.2586
 316  227.0644
 317  263.0092
 318  308.49
 319  400.9977
 320  434.0365
 321  396.8181
 322  345.5883
 323  359.8186
 324  429.6232
 325  459.6944
 326  418.2888
 327  414.4385
 328  303.1231
 329  251.5
 330  253.6779
 331  319.5684
 332  396.7546
 333  455.8113
 334  462.8149
 335  432.7333
 336  381.7952
 337  443.6045
 338  435.3225
 339  455.2213
 340  523.5831
 341  396.6264
 342  277.9753
 343  279.4795
 344  422.8737
 345  424.8436
 346  404.1082
 347  430.6518
 348  396.6609
 349  276.6134
 350  296.0891
 351  301.8409
 352  313.4764
 353  444.9521
 354  554.1797
 355  499.8403
 356  350.8048
 357  390.3771
 358  408.8913
 359  463.9381
 360  429.2119
 361  326.4915
 362  409.4216
 363  424.2179
 364  338.866
 365  314.4115
 366  238.8869
 367  257.0932
 368  306.7133
 369  342.7442
 370  431.1325
 371  388.6801
 372  529.8138
 373  613.8959
 374  365.1553
 375  244.4108
 376  350.7397
 377  319.1158
 378  378.5135
 379  347.5831
 380  435.7755
 381  424.1468
 382  561.6567
 383  521.4382
 384  523.7907
 385  415.4643
 386  407.1015
 387  366.0917
 388  310.8444
 389  348.9457
 390  400.81
 391  457.3279
 392  415.5348
 393  224.1558
 394  337.0903
 395  437.054
 396  429.9851
 397  326.1865
 398  372.4678
 399  424.0391
 400  320.9022
 401  396.9435
 402  497.1371
 403  489.2365
 404  398.4333
 405  349.292
 406  314.642
 407  462.7994
 408  548.8284
 409  400.6435
 410  438.0019
 411  299.644
 412  277.0052
 413  370.7429
 414  386.4594
 415  357.9536
 416  237.1285
 417  232.9045
 418  324.3476
 419  413.0072
 420  449.7344
 421  401.7542
 422  469.6901
 423  435.041
 424  419.3834
 425  414.6509
 426  349.7583
 427  405.1115
 428  390.8951
 429  484.8201
 430  449.1107
 431  305.3033
 432  244.4507
 433  342.4899
 434  326.7248
 435  328.1419
 436  440.1891
 437  374.5147
 438  357.1946
 439  331.6239
 440  377.0657
 441  314.9885
 442  275.7409
 443  275.7952
 444  363.3741
 445  423.5087
 446  474.4077
 447  403.4666
 448  399.2089
 449  456.0704
 450  321.7466
 451  380.5325
 452  444.8586
 453  381.4203
 454  369.3536
 455  241.2554
 456  273.2761
 457  370.4532
 458  443.4148
 459  291.4169
 460  329.0307
 461  367.0357
 462  204.5043
 463  381.3136
 464  576.2425
 465  490.8725
 466  345.6591
 467  294.5215
 468  382.1263
 469  275.6654
 470  435.2999
 471  435.9352
 472  247.0529
 473  203.0189
 474  234.401
 475  344.5941
 476  417.8108
 477  467.2375
 478  463.1897
 479  359.1879
 480  315.7101
 481  307.0085
 482  281.3487
 483  289.8878
 484  309.4854
 485  337.3108
 486  366.0178
 487  323.6823
 488  408.4677
 489  435.7052
 490  452.1934
 491  315.6995
 492  286.8803
 493  318.6124
 494  426.6616
 495  431.9011
 496  446.9923
 497  458.4069
 498  522.3082
 499  437.0979
 500  512.49
 501  474.9888
 502  377.9991
 503  467.3994
 504  479.8039
 505  584.0145
 506  505.7267
 507  465.2828
 508  581.1322
 509  779.3703
 510  964.7934
 511  1055.226
