# Input file       =  1211700586.108932_cleaned.dat
# Candidate        =  PSR_0332+5434
# Telescope        =  AR
# Epoch_topo       =  58268.312130890416
# Epoch_bary       =  N/A
# T_sample         =  0.002
# Data Folded      =  7340032
# Data Avg         =  0.024323866615007
# Data StdDev      =  1.00000011955831 
# Profile Bins     =  512
# Profile Avg      =  348.761389334168 
# Profile StdDev   =  119.733050691845 
# Reduced chi-sqr  =  0.992
# Prob(Noise)      <  0.545   (~0.0 sigma)
# P_topo (ms)      =  714.518585436536  +/- 0.000221
# P'_topo (s/s)    =  -0                +/- 1.16e-10
# P''_topo (s/s^2) =  0                 +/- 5.14e-14
# P_bary (ms)      =  N/A
# P'_bary (s/s)    =  N/A
# P''_bary (s/s^2) =  N/A
# P_orb (s)        =  N/A
# asin(i)/c (s)    =  N/A
# eccentricity     =  N/A
# w (rad)          =  N/A
# T_peri           =  N/A
######################################################
   0  1026.069
   1  838.456
   2  633.6164
   3  435.8879
   4  401.8201
   5  368.0259
   6  259.0778
   7  339.2275
   8  409.7292
   9  410.5636
  10  347.5966
  11  309.1836
  12  242.8275
  13  259.4918
  14  363.4608
  15  299.9806
  16  330.9843
  17  412.5815
  18  386.0694
  19  373.5055
  20  351.011
  21  375.9737
  22  322.9312
  23  415.4013
  24  398.5177
  25  364.5355
  26  398.2821
  27  309.6394
  28  337.7597
  29  336.8021
  30  342.4028
  31  434.7024
  32  319.4323
  33  379.9072
  34  374.1111
  35  326.0475
  36  292.1582
  37  425.8985
  38  405.3613
  39  374.805
  40  241.4853
  41  373.8407
  42  382.1822
  43  320.8371
  44  291.9633
  45  370.3154
  46  359.0425
  47  273.9984
  48  230.4931
  49  290.8764
  50  295.4572
  51  206.1022
  52  234.7958
  53  299.4641
  54  175.1019
  55  220.3855
  56  373.3645
  57  326.2477
  58  184.4341
  59  247.0007
  60  250.4695
  61  283.3165
  62  193.4757
  63  279.7939
  64  272.7585
  65  190.106
  66  215.0704
  67  372.8204
  68  325.9231
  69  271.5585
  70  251.9971
  71  330.356
  72  240.3802
  73  319.9761
  74  326.8549
  75  269.5983
  76  210.6878
  77  228.1761
  78  297.1635
  79  322.0872
  80  266.5113
  81  294.5871
  82  337.3118
  83  435.4649
  84  391.0259
  85  329.8629
  86  210.3287
  87  204.0593
  88  295.5579
  89  255.4918
  90  239.0636
  91  218.1918
  92  273.6982
  93  240.7203
  94  313.8495
  95  332.3607
  96  248.1325
  97  313.6455
  98  374.7113
  99  394.9462
 100  336.6345
 101  349.3486
 102  241.9373
 103  208.6958
 104  236.3576
 105  252.6932
 106  270.3444
 107  311.2944
 108  329.7775
 109  399.0071
 110  419.0022
 111  458.9369
 112  420.5086
 113  337.2042
 114  333.3781
 115  343.8447
 116  332.629
 117  340.5752
 118  450.6441
 119  392.7443
 120  362.5032
 121  283.9761
 122  259.3065
 123  297.2217
 124  241.4969
 125  227.2741
 126  287.5271
 127  234.7061
 128  377.2612
 129  483.7786
 130  352.8596
 131  337.0976
 132  248.9482
 133  404.7939
 134  463.832
 135  394.3407
 136  360.6656
 137  393.591
 138  427.6436
 139  481.9064
 140  350.1386
 141  442.6065
 142  386.6149
 143  322.3859
 144  435.1625
 145  385.1386
 146  368.027
 147  444.0853
 148  599.9005
 149  392.4931
 150  291.3156
 151  358.5976
 152  376.8273
 153  406.6833
 154  500.484
 155  473.3041
 156  345.2792
 157  298.3723
 158  320.4574
 159  345.2437
 160  415.7168
 161  415.2231
 162  482.6817
 163  350.3035
 164  391.7264
 165  413.8192
 166  358.1463
 167  364.6047
 168  427.3205
 169  363.4024
 170  311.6674
 171  368.2531
 172  483.2948
 173  500.7909
 174  500.7377
 175  430.1807
 176  395.494
 177  382.8852
 178  397.1609
 179  318.5239
 180  489.9082
 181  363.7686
 182  375.0147
 183  338.6297
 184  346.2438
 185  308.7215
 186  331.9396
 187  352.0104
 188  346.3779
 189  294.0875
 190  202.2289
 191  224.4145
 192  307.1743
 193  428.0931
 194  400.6138
 195  394.2132
 196  411.3428
 197  430.1728
 198  345.7712
 199  298.3478
 200  264.416
 201  238.6351
 202  306.6653
 203  365.8745
 204  440.2156
 205  382.0278
 206  334.6649
 207  397.157
 208  306.7811
 209  372.7485
 210  475.7238
 211  403.9225
 212  275.0393
 213  157.064
 214  356.7158
 215  408.1838
 216  310.1844
 217  375.6451
 218  352.8601
 219  280.3528
 220  346.422
 221  491.8151
 222  407.09
 223  370.254
 224  368.907
 225  342.8965
 226  297.8863
 227  285.2042
 228  329.9388
 229  403.9091
 230  490.8253
 231  329.854
 232  297.2756
 233  313.7357
 234  261.5891
 235  271.2552
 236  361.0766
 237  300.9404
 238  301.0578
 239  448.5895
 240  364.9211
 241  253.9926
 242  267.3553
 243  318.3663
 244  287.6552
 245  262.9304
 246  341.6578
 247  356.1335
 248  285.0678
 249  225.4126
 250  277.365
 251  353.0254
 252  292.4519
 253  321.3947
 254  459.1299
 255  350.7106
 256  207.2599
 257  263.5549
 258  371.0282
 259  289.0783
 260  298.2795
 261  398.9748
 262  406.3349
 263  376.2773
 264  381.7516
 265  337.1765
 266  370.0919
 267  381.1922
 268  346.9304
 269  285.3716
 270  212.8154
 271  281.5867
 272  278.3009
 273  220.4833
 274  132.8428
 275  174.3829
 276  258.4683
 277  238.3498
 278  146.6177
 279  307.9725
 280  428.6996
 281  349.2922
 282  226.3118
 283  337.5614
 284  351.6367
 285  306.0779
 286  359.0237
 287  414.3684
 288  341.0893
 289  375.1666
 290  430.6008
 291  307.5321
 292  270.9221
 293  316.5775
 294  379.74
 295  370.3434
 296  388.9221
 297  343.2103
 298  379.6087
 299  272.9834
 300  274.5303
 301  251.1242
 302  341.4119
 303  276.4541
 304  319.0791
 305  351.313
 306  343.8961
 307  320.0833
 308  337.009
 309  372.1902
 310  364.3422
 311  396.9053
 312  393.3732
 313  408.249
 314  490.3986
 315  339.4942
 316  284.4483
 317  238.2258
 318  281.1904
 319  343.7469
 320  430.969
 321  369.3895
 322  386.2013
 323  385.0437
 324  429.3035
 325  417.6581
 326  336.6308
 327  302.5707
 328  328.0618
 329  390.5209
 330  493.5052
 331  478.1591
 332  461.312
 333  407.5301
 334  353.5646
 335  334.7052
 336  314.7484
 337  311.3339
 338  255.8143
 339  222.4372
 340  349.3323
 341  346.8523
 342  217.9461
 343  147.0558
 344  275.5444
 345  348.1314
 346  315.2576
 347  306.6784
 348  357.7708
 349  355.2275
 350  280.1556
 351  276.6998
 352  270.361
 353  337.4308
 354  307.2396
 355  336.1036
 356  241.5579
 357  312.5422
 358  328.0875
 359  258.7979
 360  341.4652
 361  286.2958
 362  371.4326
 363  278.8003
 364  242.686
 365  258.0527
 366  329.1436
 367  358.874
 368  329.5091
 369  363.0903
 370  498.0707
 371  430.8094
 372  294.3561
 373  328.4407
 374  308.0218
 375  379.4773
 376  399.0893
 377  470.9156
 378  502.7345
 379  362.7392
 380  324.9904
 381  403.7125
 382  375.8843
 383  296.2512
 384  334.0287
 385  360.2505
 386  361.6657
 387  365.7121
 388  433.3966
 389  363.8421
 390  319.7809
 391  384.9542
 392  420.2164
 393  380.7228
 394  326.571
 395  269.6032
 396  414.7309
 397  336.7
 398  290.5176
 399  339.3794
 400  282.4076
 401  409.1385
 402  360.3554
 403  404.1775
 404  358.493
 405  380.8253
 406  429.3063
 407  446.125
 408  392.6074
 409  398.5331
 410  278.7398
 411  433.3993
 412  425.129
 413  289.1062
 414  325.3017
 415  290.0184
 416  363.9614
 417  424.8994
 418  362.5505
 419  316.9925
 420  329.407
 421  299.2519
 422  338.4285
 423  278.0339
 424  231.3803
 425  221.3064
 426  353.8932
 427  325.6915
 428  376.8366
 429  410.063
 430  322.627
 431  456.891
 432  364.8942
 433  290.6493
 434  311.2349
 435  342.2439
 436  402.8182
 437  357.5719
 438  361.8331
 439  338.6771
 440  333.3933
 441  344.5178
 442  361.6075
 443  335.1879
 444  309.1956
 445  336.4182
 446  446.5196
 447  404.8275
 448  420.0779
 449  304.5483
 450  412.9084
 451  438.6942
 452  382.4924
 453  439.3002
 454  420.6279
 455  496.2332
 456  309.0355
 457  442.6785
 458  576.4042
 459  402.2215
 460  385.4684
 461  461.3305
 462  519.2297
 463  447.067
 464  337.9532
 465  213.4838
 466  235.3613
 467  319.9588
 468  351.2048
 469  402.959
 470  453.2708
 471  412.9521
 472  378.5751
 473  415.2958
 474  463.0802
 475  517.5009
 476  492.412
 477  512.265
 478  402.036
 479  297.0565
 480  304.9934
 481  287.8239
 482  409.8711
 483  338.0393
 484  350.2459
 485  403.5274
 486  340.794
 487  193.8738
 488  285.2942
 489  353.2862
 490  265.98
 491  336.7892
 492  462.6909
 493  416.2994
 494  495.4586
 495  351.6267
 496  317.2548
 497  294.6714
 498  362.6368
 499  346.5849
 500  388.1073
 501  406.0974
 502  375.7464
 503  366.0894
 504  216.6787
 505  292.3013
 506  300.727
 507  425.8892
 508  376.1951
 509  462.857
 510  568.6456
 511  903.507
