# Input file       =  1211255245.100422_cleaned.dat
# Candidate        =  PSR_0332+5434
# Telescope        =  AR
# Epoch_topo       =  58263.157721069700
# Epoch_bary       =  N/A
# T_sample         =  0.002
# Data Folded      =  7143424
# Data Avg         =  0.0296313645385351
# Data StdDev      =  0.999819401193189
# Profile Bins     =  512
# Profile Avg      =  413.403289215928 
# Profile StdDev   =  118.097252406448 
# Reduced chi-sqr  =  1.368
# Prob(Noise)      <  5.76e-08   (~5.3 sigma)
# P_topo (ms)      =  714.523614107047  +/- 0.000213
# P'_topo (s/s)    =  -0                +/- 1.15e-10
# P''_topo (s/s^2) =  0                 +/- 5.24e-14
# P_bary (ms)      =  N/A
# P'_bary (s/s)    =  N/A
# P''_bary (s/s^2) =  N/A
# P_orb (s)        =  N/A
# asin(i)/c (s)    =  N/A
# eccentricity     =  N/A
# w (rad)          =  N/A
# T_peri           =  N/A
######################################################
   0  1015.185
   1  1035.06
   2  931.572
   3  655.6993
   4  466.0232
   5  480.0542
   6  656.5012
   7  597.8569
   8  484.2814
   9  472.1196
  10  517.7224
  11  493.5723
  12  628.125
  13  632.2842
  14  511.7042
  15  489.9839
  16  388.5527
  17  373.0764
  18  394.8284
  19  357.4414
  20  287.612
  21  258.1574
  22  292.9268
  23  363.6874
  24  528.2474
  25  577.8312
  26  611.812
  27  458.0353
  28  345.9537
  29  285.5169
  30  416.5619
  31  501.024
  32  376.6474
  33  485.1053
  34  379.7321
  35  350.4082
  36  359.7848
  37  343.7763
  38  262.5787
  39  485.7326
  40  460.0412
  41  545.8221
  42  389.9819
  43  333.2707
  44  456.9497
  45  426.5447
  46  503.3566
  47  396.1502
  48  390.4969
  49  362.4933
  50  375.1386
  51  301.8869
  52  457.2819
  53  469.2812
  54  462.1959
  55  412.8913
  56  394.4593
  57  333.9856
  58  425.0892
  59  434.3793
  60  454.6221
  61  486.0026
  62  433.4034
  63  538.7294
  64  359.1395
  65  360.5113
  66  506.8456
  67  438.6531
  68  310.2635
  69  517.3257
  70  692.8618
  71  578.8953
  72  414.6817
  73  402.1956
  74  435.6533
  75  443.6724
  76  437.0302
  77  428.0708
  78  313.9445
  79  320.0723
  80  316.9745
  81  375.4014
  82  407.8598
  83  430.6506
  84  385.5704
  85  477.5594
  86  426.1753
  87  408.6239
  88  422.6059
  89  467.0141
  90  526.793
  91  355.7314
  92  212.8165
  93  266.3338
  94  408.1954
  95  445.2301
  96  412.7169
  97  444.9514
  98  451.5003
  99  460.5231
 100  420.5867
 101  328.4806
 102  322.9789
 103  435.9341
 104  446.0807
 105  428.9102
 106  535.6127
 107  395.1724
 108  449.6847
 109  420.8526
 110  446.5338
 111  504.2533
 112  350.5609
 113  387.4009
 114  409.2821
 115  450.4507
 116  414.2895
 117  444.1525
 118  365.1508
 119  431.4851
 120  556.7039
 121  484.2335
 122  341.479
 123  399.3363
 124  533.9383
 125  493.9037
 126  452.8886
 127  450.012
 128  374.2786
 129  241.8862
 130  314.9243
 131  391.1973
 132  416.1628
 133  330.6755
 134  274.2091
 135  373.4964
 136  474.6673
 137  439.2955
 138  387.584
 139  569.4302
 140  470.4937
 141  478.6999
 142  446.6486
 143  534.2803
 144  493.0788
 145  418.1869
 146  541.6874
 147  552.6136
 148  491.5672
 149  416.1612
 150  381.9274
 151  459.6506
 152  450.2101
 153  342.3155
 154  401.7437
 155  451.1582
 156  422.8563
 157  379.074
 158  383.6274
 159  463.6777
 160  477.919
 161  334.1302
 162  408.909
 163  435.6636
 164  432.2311
 165  500.6949
 166  410.0006
 167  301.4374
 168  326.8671
 169  374.0429
 170  397.4814
 171  276.502
 172  421.0418
 173  407.4883
 174  325.0638
 175  385.4661
 176  462.0267
 177  441.943
 178  354.3171
 179  438.4074
 180  408.1636
 181  413.6237
 182  447.6783
 183  354.0013
 184  312.3994
 185  405.1377
 186  398.8758
 187  383.1809
 188  421.1603
 189  428.0313
 190  521.9445
 191  368.6491
 192  490.4287
 193  564.9539
 194  422.0816
 195  339.7011
 196  354.1749
 197  404.3861
 198  379.4762
 199  438.8046
 200  463.985
 201  393.5085
 202  347.5378
 203  425.8809
 204  557.1363
 205  551.5732
 206  624.6739
 207  477.0039
 208  579.5485
 209  554.2216
 210  463.8347
 211  448.3067
 212  383.7265
 213  242.4472
 214  355.9651
 215  462.4392
 216  479.8914
 217  398.7119
 218  476.6343
 219  514.1577
 220  443.806
 221  506.1783
 222  413.1566
 223  422.179
 224  467.2139
 225  430.4176
 226  414.7914
 227  390.7324
 228  447.5096
 229  405.7
 230  429.3641
 231  480.0673
 232  458.8031
 233  462.8759
 234  409.1954
 235  356.9833
 236  420.0338
 237  418.8835
 238  529.0775
 239  524.1874
 240  544.853
 241  426.2052
 242  295.1126
 243  333.6674
 244  374.0995
 245  469.9069
 246  360.425
 247  255.6996
 248  448.2807
 249  509.6407
 250  421.1562
 251  277.8281
 252  311.7909
 253  289.808
 254  483.2609
 255  564.6399
 256  514.5474
 257  369.2779
 258  244.5629
 259  447.7927
 260  473.9702
 261  478.2909
 262  399.4684
 263  422.345
 264  495.0396
 265  452.9909
 266  416.5072
 267  413.3693
 268  432.3359
 269  296.3857
 270  432.4061
 271  425.5762
 272  471.8289
 273  458.3656
 274  416.2351
 275  419.1998
 276  425.1059
 277  365.1867
 278  335.5697
 279  337.5647
 280  397.8178
 281  516.2866
 282  416.6651
 283  355.7483
 284  364.7942
 285  458.7305
 286  454.096
 287  324.0288
 288  335.9808
 289  363.2029
 290  411.8687
 291  501.9729
 292  416.7808
 293  271.3047
 294  383.5466
 295  470.4867
 296  431.9278
 297  347.1041
 298  333.5372
 299  322.5628
 300  287.1017
 301  354.1411
 302  458.2784
 303  413.6519
 304  470.5843
 305  456.3623
 306  492.7926
 307  255.3011
 308  236.0931
 309  331.1214
 310  324.2963
 311  361.3165
 312  429.9899
 313  517.8028
 314  447.5759
 315  400.7359
 316  284.0528
 317  243.7998
 318  261.8376
 319  361.3866
 320  410.632
 321  442.4782
 322  354.352
 323  349.1871
 324  381.6659
 325  467.7134
 326  426.9619
 327  426.8608
 328  373.494
 329  269.3704
 330  264.759
 331  254.1289
 332  362.9905
 333  420.4564
 334  477.6265
 335  440.2887
 336  409.419
 337  400.3373
 338  460.8134
 339  420.466
 340  503.8812
 341  478.8197
 342  328.8511
 343  259.9006
 344  348.2604
 345  453.3309
 346  405.079
 347  420.2672
 348  421.208
 349  351.2034
 350  256.2251
 351  314.6712
 352  283.5698
 353  370.2426
 354  507.8037
 355  554.4656
 356  412.9977
 357  357.7448
 358  427.9042
 359  426.102
 360  462.1282
 361  361.5706
 362  336.3225
 363  458.7759
 364  369.2857
 365  337.2066
 366  264.1699
 367  237.6125
 368  279.6632
 369  310.7247
 370  417.8286
 371  385.2227
 372  457.1314
 373  573.306
 374  549.2615
 375  243.2356
 376  320.6108
 377  332.4498
 378  351.1429
 379  359.8631
 380  378.121
 381  437.6516
 382  474.3986
 383  564.4041
 384  520.0929
 385  480.3871
 386  384.5464
 387  428.6892
 388  313.7257
 389  337.3536
 390  351.3315
 391  434.9985
 392  451.9608
 393  336.9367
 394  238.6517
 395  410.0627
 396  449.9191
 397  381.7323
 398  303.5544
 399  434.097
 400  362.3256
 401  351.127
 402  435.1134
 403  516.5695
 404  447.431
 405  378.2902
 406  322.2737
 407  352.8325
 408  546.4207
 409  486.9457
 410  405.878
 411  398.9603
 412  246.2658
 413  317.4178
 414  390.7872
 415  379.9558
 416  315.597
 417  202.6503
 418  272.6898
 419  350.9297
 420  461.3828
 421  423.5663
 422  444.952
 423  457.8928
 424  413.7196
 425  421.6582
 426  380.8567
 427  350.0667
 428  425.5143
 429  422.4731
 430  502.4354
 431  379.1275
 432  249.5532
 433  284.304
 434  358.2619
 435  302.7864
 436  385.0638
 437  434.9968
 438  342.7243
 439  359.4974
 440  336.0101
 441  375.6981
 442  285.946
 443  264.1649
 444  318.1335
 445  383.3558
 446  454.4286
 447  456.6412
 448  363.1331
 449  478.9785
 450  363.7048
 451  340.8581
 452  410.594
 453  430.2434
 454  365.5368
 455  338.086
 456  201.1144
 457  340.3564
 458  399.0271
 459  409.4121
 460  251.4653
 461  385.1498
 462  281.6687
 463  240.8917
 464  506.8857
 465  566.8947
 466  423.4897
 467  292.308
 468  351.62
 469  333.0972
 470  318.2257
 471  497.8281
 472  328.3329
 473  221.6645
 474  202.5297
 475  287.0578
 476  386.5669
 477  420.7437
 478  494.434
 479  413.9963
 480  341.3668
 481  302.2649
 482  296.8829
 483  270.35
 484  310.5878
 485  314.1682
 486  374.6194
 487  325.3688
 488  366.4531
 489  410.3741
 490  465.1654
 491  389.2153
 492  304.3497
 493  281.2104
 494  380.2678
 495  425.5921
 496  448.2709
 497  446.7323
 498  486.9878
 499  490.734
 500  427.6825
 501  543.3289
 502  405.8015
 503  429.9026
 504  483.0865
 505  511.6955
 506  583.0771
 507  449.2311
 508  497.6534
 509  669.1938
 510  857.8154
 511  1048.954
