# Input file       =  1211629359.111562_cleaned.dat
# Candidate        =  PSR_0332+5434
# Telescope        =  AR
# Epoch_topo       =  58267.487744346785
# Epoch_bary       =  N/A
# T_sample         =  0.002
# Data Folded      =  7340032
# Data Avg         =  0.0228574420613024
# Data StdDev      =  1.00003153739956 
# Profile Bins     =  512
# Profile Avg      =  327.623072066205 
# Profile StdDev   =  119.736812445375 
# Reduced chi-sqr  =  1.364
# Prob(Noise)      <  7.25e-08   (~5.3 sigma)
# P_topo (ms)      =  714.519724022268  +/- 0.000172
# P'_topo (s/s)    =  -0                +/- 9.05e-11
# P''_topo (s/s^2) =  0                 +/- 4e-14
# P_bary (ms)      =  N/A
# P'_bary (s/s)    =  N/A
# P''_bary (s/s^2) =  N/A
# P_orb (s)        =  N/A
# asin(i)/c (s)    =  N/A
# eccentricity     =  N/A
# w (rad)          =  N/A
# T_peri           =  N/A
######################################################
   0  980.825
   1  728.0103
   2  671.832
   3  595.4726
   4  466.5292
   5  498.9025
   6  432.7077
   7  422.5984
   8  420.0901
   9  311.2974
  10  330.434
  11  381.372
  12  544.6879
  13  495.0565
  14  541.9757
  15  591.5206
  16  497.3325
  17  585.8253
  18  455.3902
  19  400.0435
  20  356.0435
  21  405.4645
  22  301.1462
  23  296.9526
  24  462.465
  25  469.5825
  26  417.5787
  27  413.7694
  28  419.686
  29  373.932
  30  448.9713
  31  498.0254
  32  350.4882
  33  368.2701
  34  285.0495
  35  316.659
  36  368.9356
  37  385.9827
  38  364.9406
  39  361.6166
  40  255.2876
  41  208.4299
  42  290.9468
  43  213.5752
  44  171.9995
  45  241.5514
  46  257.7721
  47  331.1976
  48  390.2356
  49  391.2141
  50  261.9304
  51  140.6315
  52  249.2379
  53  413.3855
  54  352.5017
  55  358.1917
  56  336.5719
  57  376.7913
  58  404.443
  59  299.2014
  60  225.9188
  61  289.9975
  62  286.8156
  63  322.7613
  64  400.7568
  65  282.4784
  66  259.4565
  67  430.2615
  68  331.2194
  69  338.6271
  70  457.5214
  71  292.2551
  72  388.2628
  73  374.5674
  74  383.1075
  75  297.3822
  76  338.8949
  77  398.2703
  78  282.2914
  79  348.3126
  80  408.0276
  81  388.2437
  82  340.3337
  83  299.1582
  84  379.1786
  85  285.4058
  86  325.1505
  87  447.4701
  88  507.7664
  89  479.5215
  90  360.3662
  91  340.1284
  92  373.9197
  93  348.0321
  94  318.8319
  95  326.6487
  96  333.5336
  97  339.6587
  98  228.2742
  99  247.4228
 100  291.6576
 101  376.1151
 102  469.2904
 103  344.5486
 104  359.9471
 105  435.7085
 106  363.2656
 107  296.6305
 108  204.2595
 109  366.9797
 110  464.6094
 111  333.1173
 112  336.9203
 113  246.8899
 114  294.8821
 115  256.5387
 116  184.6641
 117  278.9541
 118  207.2369
 119  360.5138
 120  379.6233
 121  370.1091
 122  285.5735
 123  256.0946
 124  172.8714
 125  271.4554
 126  206.5187
 127  198.123
 128  269.0719
 129  260.4243
 130  277.7066
 131  172.755
 132  227.941
 133  260.5438
 134  302.7225
 135  279.8389
 136  322.1538
 137  351.5327
 138  306.9225
 139  326.3182
 140  344.7411
 141  396.3871
 142  433.7635
 143  364.7153
 144  332.9631
 145  392.5878
 146  420.7654
 147  324.5969
 148  322.3521
 149  420.1364
 150  405.4054
 151  367.7354
 152  386.1406
 153  307.8708
 154  342.0707
 155  371.0182
 156  222.6556
 157  299.3418
 158  380.7496
 159  430.746
 160  481.118
 161  392.3897
 162  352.6015
 163  212.2762
 164  317.3956
 165  281.2869
 166  324.3901
 167  451.523
 168  356.6236
 169  223.0405
 170  300.4831
 171  365.683
 172  270.6838
 173  278.169
 174  257.9638
 175  211.5601
 176  387.5727
 177  433.5483
 178  310.1404
 179  283.5118
 180  323.4406
 181  245.5358
 182  255.0015
 183  303.9745
 184  269.5856
 185  322.3032
 186  204.4894
 187  246.1573
 188  301.5973
 189  199.2529
 190  158.5713
 191  284.8129
 192  379.4209
 193  344.2275
 194  317.2868
 195  354.0916
 196  325.2559
 197  171.0086
 198  256.3862
 199  381.0418
 200  461.7855
 201  313.6321
 202  317.7428
 203  250.0041
 204  134.4697
 205  273.6143
 206  262.1158
 207  263.9548
 208  335.9167
 209  455.6459
 210  438.0706
 211  363.3891
 212  395.8286
 213  402.7576
 214  308.9328
 215  165.3
 216  212.1809
 217  314.1275
 218  414.0507
 219  261.0499
 220  375.4882
 221  404.6031
 222  391.0232
 223  355.6378
 224  392.3945
 225  347.3172
 226  220.5402
 227  199.0928
 228  271.1921
 229  336.3581
 230  309.1562
 231  344.6773
 232  374.084
 233  428.7115
 234  379.2542
 235  333.241
 236  342.7596
 237  232.0518
 238  377.0499
 239  406.6055
 240  389.365
 241  365.7159
 242  372.758
 243  421.1717
 244  357.647
 245  387.9427
 246  326.8083
 247  294.1145
 248  336.3303
 249  352.9506
 250  339.1706
 251  307.51
 252  454.3076
 253  321.0498
 254  296.4054
 255  376.8616
 256  246.9156
 257  160.7366
 258  310.6945
 259  451.424
 260  359.1801
 261  270.6809
 262  308.1359
 263  267.8177
 264  293.0444
 265  256.1976
 266  250.1409
 267  294.2979
 268  219.0789
 269  396.3158
 270  440.6117
 271  393.4442
 272  349.6234
 273  267.4559
 274  359.1996
 275  415.4512
 276  369.8588
 277  315.4091
 278  270.21
 279  264.5701
 280  253.7467
 281  285.6349
 282  142.0632
 283  253.0192
 284  242.4169
 285  258.8098
 286  185.9243
 287  149.8236
 288  265.3446
 289  342.247
 290  448.9388
 291  309.6443
 292  290.7209
 293  260.7484
 294  371.0888
 295  320.7515
 296  131.8679
 297  142.2305
 298  234.4188
 299  272.2261
 300  329.6884
 301  309.8143
 302  281.419
 303  269.6194
 304  288.8961
 305  285.6382
 306  259.0564
 307  263.5411
 308  406.3632
 309  356.9236
 310  174.5537
 311  116.46
 312  166.5411
 313  245.2164
 314  294.8925
 315  354.0219
 316  383.0751
 317  336.7971
 318  338.7193
 319  218.469
 320  206.1603
 321  312.4192
 322  226.1425
 323  266.5229
 324  309.0447
 325  278.7588
 326  270.7159
 327  249.3483
 328  323.7745
 329  332.8854
 330  284.1819
 331  216.4132
 332  291.3552
 333  214.0256
 334  145.8317
 335  205.1141
 336  217.9477
 337  266.3948
 338  287.3839
 339  325.6417
 340  363.1209
 341  361.5551
 342  320.1395
 343  283.134
 344  281.3916
 345  321.9138
 346  290.4528
 347  291.0995
 348  357.7131
 349  422.2523
 350  387.4751
 351  337.5692
 352  387.4087
 353  234.4516
 354  284.7203
 355  160.1098
 356  98.57486
 357  197.0849
 358  268.0205
 359  268.8755
 360  184.4
 361  16.2393
 362  165.4913
 363  360.3405
 364  324.2774
 365  241.8537
 366  285.5205
 367  314.4082
 368  180.0008
 369  98.40576
 370  194.8464
 371  267.0168
 372  298.6957
 373  433.7046
 374  434.3822
 375  424.0295
 376  360.2917
 377  252.1679
 378  349.6969
 379  446.9264
 380  470.5867
 381  273.0882
 382  295.606
 383  463.1356
 384  240.7058
 385  160.3891
 386  309.9357
 387  220.5412
 388  145.0001
 389  182.2506
 390  304.2709
 391  320.2018
 392  314.4007
 393  206.1965
 394  271.1752
 395  279.0505
 396  249.6865
 397  289.5246
 398  267.2449
 399  383.3439
 400  298.7458
 401  186.7915
 402  215.0351
 403  258.3278
 404  343.5482
 405  333.4776
 406  386.9211
 407  423.8632
 408  370.7277
 409  325.6715
 410  354.86
 411  330.1983
 412  323.8169
 413  338.877
 414  378.3223
 415  284.4015
 416  465.8741
 417  364.1855
 418  245.0855
 419  178.7194
 420  289.3965
 421  268.934
 422  310.1961
 423  297.4349
 424  212.4489
 425  208.5467
 426  283.574
 427  392.4796
 428  460.9963
 429  383.7144
 430  395.9383
 431  294.263
 432  326.5096
 433  387.6272
 434  336.6272
 435  340.5116
 436  188.3492
 437  309.782
 438  375.9588
 439  318.8009
 440  310.8708
 441  336.8141
 442  379.915
 443  474.5197
 444  312.3925
 445  194.6573
 446  410.4049
 447  477.6476
 448  436.1064
 449  282.8054
 450  277.7324
 451  409.3667
 452  416.3126
 453  505.2474
 454  385.5143
 455  379.544
 456  451.5084
 457  462.0741
 458  272.1421
 459  268.7281
 460  295.8647
 461  349.275
 462  308.8141
 463  308.7272
 464  329.3896
 465  302.4849
 466  293.7284
 467  287.733
 468  369.1398
 469  262.174
 470  262.4066
 471  342.0708
 472  323.7036
 473  315.6807
 474  258.4363
 475  305.8718
 476  350.8477
 477  379.245
 478  343.3655
 479  289.0198
 480  281.9405
 481  310.5393
 482  226.1999
 483  347.0978
 484  320.7756
 485  285.1721
 486  333.1242
 487  310.7191
 488  367.653
 489  301.3053
 490  246.0197
 491  203.304
 492  361.2975
 493  458.8607
 494  323.2357
 495  294.8749
 496  343.2702
 497  292.0762
 498  312.0884
 499  356.1101
 500  383.9399
 501  288.3504
 502  320.1295
 503  290.223
 504  256.4128
 505  420.4863
 506  499.6462
 507  447.4768
 508  604.3958
 509  690.7986
 510  897.5795
 511  1050.185
