# Input file       =  1211199245.104786_cleaned.dat
# Candidate        =  PSR_0332+5434
# Telescope        =  AR
# Epoch_topo       =  58262.509572972056
# Epoch_bary       =  N/A
# T_sample         =  0.002
# Data Folded      =  7340032
# Data Avg         =  0.0286165569266858
# Data StdDev      =  1.00007792865344 
# Profile Bins     =  512
# Profile Avg      =  410.24240569455  
# Profile StdDev   =  119.742367011063 
# Reduced chi-sqr  =  1.068
# Prob(Noise)      <  0.14   (~1.1 sigma)
# P_topo (ms)      =  714.524614294654  +/- 0.000158
# P'_topo (s/s)    =  -0                +/- 8.33e-11
# P''_topo (s/s^2) =  0                 +/- 3.68e-14
# P_bary (ms)      =  N/A
# P'_bary (s/s)    =  N/A
# P''_bary (s/s^2) =  N/A
# P_orb (s)        =  N/A
# asin(i)/c (s)    =  N/A
# eccentricity     =  N/A
# w (rad)          =  N/A
# T_peri           =  N/A
######################################################
   0  939.2803
   1  986.1227
   2  842.5806
   3  568.2359
   4  389.8518
   5  328.6906
   6  340.0224
   7  482.3749
   8  580.5632
   9  470.952
  10  376.0259
  11  339.0019
  12  470.4951
  13  538.3265
  14  525.0153
  15  456.3755
  16  436.3515
  17  463.1879
  18  453.7467
  19  470.5511
  20  393.9795
  21  445.536
  22  402.2323
  23  321.2965
  24  330.7412
  25  311.7298
  26  347.082
  27  362.5266
  28  287.9983
  29  349.6435
  30  341.8339
  31  272.5556
  32  387.2388
  33  331.9903
  34  414.7319
  35  436.6114
  36  437.5774
  37  428.2581
  38  239.0424
  39  359.2552
  40  399.3844
  41  439.3239
  42  287.9639
  43  342.7128
  44  349.3152
  45  314.1377
  46  445.1413
  47  357.6787
  48  391.3081
  49  432.9843
  50  480.6127
  51  304.9007
  52  191.9776
  53  209.3972
  54  394.0848
  55  496.2826
  56  506.364
  57  543.0794
  58  461.4129
  59  399.3689
  60  370.9737
  61  378.4365
  62  467.5424
  63  393.4601
  64  371.7443
  65  373.7568
  66  342.816
  67  446.1609
  68  347.7929
  69  343.6081
  70  423.6598
  71  466.0508
  72  444.8859
  73  370.6523
  74  387.154
  75  428.9005
  76  342.4487
  77  248.505
  78  390.1457
  79  492.5746
  80  423.0724
  81  404.9126
  82  343.6289
  83  391.9541
  84  385.1462
  85  357.8492
  86  202.8427
  87  189.0317
  88  259.2673
  89  287.8605
  90  315.0272
  91  334.7656
  92  414.5301
  93  452.2978
  94  424.1432
  95  323.6631
  96  321.3017
  97  356.1902
  98  436.3737
  99  358.7528
 100  289.516
 101  285.4831
 102  336.9427
 103  323.077
 104  373.3976
 105  368.2649
 106  251.1499
 107  289.2021
 108  327.8358
 109  412.0662
 110  491.7508
 111  414.301
 112  354.8314
 113  286.5191
 114  391.8667
 115  374.4772
 116  351.0954
 117  416.7553
 118  285.697
 119  340.1273
 120  514.9895
 121  604.2133
 122  554.6688
 123  481.903
 124  477.1583
 125  416.663
 126  492.5573
 127  527.1981
 128  477.7105
 129  242.7319
 130  357.0067
 131  416.6924
 132  440.113
 133  500.4356
 134  399.173
 135  422.0716
 136  520.5989
 137  452.8939
 138  379.2556
 139  400.8467
 140  404.9842
 141  483.6444
 142  475.674
 143  411.2945
 144  331.1371
 145  364.3566
 146  478.9999
 147  496.1028
 148  507.2139
 149  500.7644
 150  485.1504
 151  422.1619
 152  445.7209
 153  478.1377
 154  581.7086
 155  486.6779
 156  348.0862
 157  381.6595
 158  532.9236
 159  475.3575
 160  363.6891
 161  449.124
 162  323.8763
 163  361.5742
 164  328.7842
 165  339.0686
 166  353.6629
 167  374.4375
 168  312.5639
 169  401.3354
 170  361.7318
 171  342.8245
 172  169.9163
 173  253.4039
 174  398.6847
 175  411.8293
 176  376.1118
 177  362.2146
 178  352.7993
 179  333.1591
 180  258.5913
 181  285.7384
 182  352.7212
 183  427.6916
 184  329.5919
 185  311.3679
 186  297.0899
 187  325.5611
 188  390.6076
 189  298.2181
 190  499.7875
 191  438.6426
 192  414.881
 193  399.176
 194  281.195
 195  337.2278
 196  488.797
 197  477.9533
 198  465.6741
 199  274.7554
 200  169.6463
 201  292.8407
 202  397.0678
 203  346.571
 204  372.0545
 205  302.419
 206  331.6795
 207  359.1217
 208  270.2052
 209  291.5648
 210  341.6617
 211  365.713
 212  452.1796
 213  452.042
 214  505.5826
 215  524.8272
 216  524.5513
 217  508.2119
 218  478.8759
 219  388.4674
 220  529.7271
 221  495.4444
 222  357.233
 223  343.5496
 224  343.6258
 225  334.8832
 226  545.9731
 227  689.9944
 228  539.6986
 229  503.2861
 230  390.8195
 231  335.8705
 232  374.0698
 233  309.5248
 234  380.7675
 235  382.0232
 236  346.0042
 237  341.8684
 238  286.214
 239  309.9183
 240  413.2461
 241  490.1882
 242  469.1571
 243  389.1401
 244  366.7226
 245  460.0631
 246  426.4563
 247  503.1537
 248  472.5043
 249  510.603
 250  476.6291
 251  408.501
 252  512.179
 253  457.9655
 254  466.9137
 255  441.9134
 256  302.5945
 257  316.5451
 258  494.6693
 259  515.0448
 260  580.986
 261  526.1756
 262  486.0729
 263  378.2508
 264  392.2399
 265  441.9045
 266  408.3001
 267  458.7966
 268  469.8865
 269  427.8862
 270  350.6769
 271  308.2646
 272  429.5424
 273  479.6501
 274  483.9844
 275  542.3457
 276  386.0466
 277  297.1769
 278  344.4478
 279  403.1307
 280  403.467
 281  359.5108
 282  354.2423
 283  425.3234
 284  436.4097
 285  440.3675
 286  370.345
 287  431.082
 288  467.3381
 289  477.5449
 290  363.1133
 291  434.8737
 292  378.5448
 293  377.063
 294  401.9475
 295  347.6273
 296  451.0893
 297  373.7383
 298  275.8988
 299  401.1517
 300  510.8521
 301  517.4592
 302  476.0088
 303  422.1541
 304  406.9066
 305  302.1327
 306  219.6099
 307  267.9644
 308  328.1375
 309  387.632
 310  397.0338
 311  422.0297
 312  535.8395
 313  460.8271
 314  415.9179
 315  456.4225
 316  367.2171
 317  341.8755
 318  412.538
 319  383.4905
 320  426.3168
 321  431.7784
 322  417.429
 323  361.5118
 324  452.6532
 325  538.0798
 326  510.4529
 327  423.1441
 328  415.6758
 329  418.4268
 330  423.0181
 331  366.6169
 332  467.1821
 333  488.7014
 334  487.2999
 335  488.4033
 336  403.3699
 337  274.8005
 338  298.7606
 339  372.1717
 340  400.3086
 341  451.9553
 342  374.0079
 343  445.1147
 344  507.297
 345  537.5049
 346  581.2562
 347  484.7329
 348  525.4371
 349  495.1118
 350  334.0101
 351  285.0639
 352  302.9272
 353  344.1542
 354  404.9976
 355  461.5396
 356  339.6526
 357  380.0471
 358  455.8259
 359  473.0021
 360  487.8096
 361  356.8752
 362  364.5594
 363  404.6072
 364  342.0341
 365  429.2793
 366  451.4646
 367  382.5546
 368  421.8119
 369  421.1605
 370  382.5294
 371  376.3719
 372  354.7245
 373  472.6492
 374  533.1984
 375  482.2785
 376  545.7141
 377  481.287
 378  517.4719
 379  537.3882
 380  424.0524
 381  554.7645
 382  485.879
 383  469.1596
 384  404.356
 385  385.6981
 386  459.1109
 387  449.1474
 388  457.8745
 389  394.833
 390  393.9691
 391  455.4551
 392  418.249
 393  470.679
 394  644.928
 395  556.6996
 396  513.6641
 397  439.7406
 398  440.7539
 399  353.6082
 400  348.845
 401  389.5591
 402  475.6283
 403  508.9635
 404  515.2283
 405  510.2572
 406  480.3897
 407  440.2229
 408  383.7488
 409  364.7099
 410  380.6544
 411  381.6898
 412  347.3202
 413  455.7486
 414  466.4571
 415  439.8206
 416  325.2642
 417  320.9418
 418  560.234
 419  390.0611
 420  363.8376
 421  466.9631
 422  461.2184
 423  310.0451
 424  429.1259
 425  438.388
 426  378.139
 427  413.5993
 428  417.4051
 429  363.9841
 430  404.8332
 431  456.6084
 432  401.5529
 433  437.8524
 434  574.6957
 435  459.4003
 436  385.5953
 437  458.4319
 438  434.6172
 439  367.8474
 440  422.3102
 441  428.2996
 442  395.6676
 443  446.5005
 444  351.3183
 445  316.9875
 446  403.5718
 447  422.3864
 448  391.4298
 449  432.6803
 450  417.1614
 451  419.9168
 452  342.7451
 453  391.7249
 454  296.3836
 455  325.3672
 456  522.64
 457  441.0319
 458  363.9152
 459  449.5538
 460  286.7841
 461  255.0491
 462  253.5266
 463  415.9827
 464  373.8307
 465  397.934
 466  336.9731
 467  395.921
 468  381.0722
 469  440.7264
 470  549.7371
 471  381.3839
 472  346.8167
 473  442.6576
 474  338.2742
 475  261.7834
 476  244.4055
 477  285.8306
 478  372.2748
 479  345.5014
 480  387.9473
 481  349.3933
 482  258.3484
 483  370.9869
 484  387.4716
 485  396.1672
 486  454.893
 487  347.9784
 488  498.1689
 489  434.924
 490  431.7031
 491  401.4907
 492  434.6682
 493  462.6571
 494  505.1057
 495  554.5552
 496  497.8339
 497  457.7943
 498  436.442
 499  322.3304
 500  317.1225
 501  407.5225
 502  461.0253
 503  405.5052
 504  436.368
 505  462.1835
 506  474.4039
 507  508.7431
 508  428.3904
 509  390.9634
 510  574.9576
 511  829.5552
