# Input file       =  1211083018.094698_cleaned.dat
# Candidate        =  PSR_0332+5434
# Telescope        =  AR
# Epoch_topo       =  58261.164352947890
# Epoch_bary       =  N/A
# T_sample         =  0.002
# Data Folded      =  7405568
# Data Avg         =  0.0260201653230661
# Data StdDev      =  1.00008835286553 
# Profile Bins     =  512
# Profile Avg      =  376.383968297784 
# Profile StdDev   =  120.276996905491 
# Reduced chi-sqr  =  1.577
# Prob(Noise)      <  1.43e-15   (~7.9 sigma)
# P_topo (ms)      =  714.525568665733  +/- 0.000186
# P'_topo (s/s)    =  -0                +/- 9.71e-11
# P''_topo (s/s^2) =  0                 +/- 4.25e-14
# P_bary (ms)      =  N/A
# P'_bary (s/s)    =  N/A
# P''_bary (s/s^2) =  N/A
# P_orb (s)        =  N/A
# asin(i)/c (s)    =  N/A
# eccentricity     =  N/A
# w (rad)          =  N/A
# T_peri           =  N/A
######################################################
   0  1118.455
   1  1043.931
   2  818.3417
   3  674.7439
   4  502.4539
   5  411.248
   6  261.9294
   7  363.1331
   8  526.6188
   9  492.282
  10  357.2616
  11  322.9057
  12  413.7697
  13  506.9994
  14  448.4109
  15  520.2591
  16  476.9048
  17  521.7302
  18  483.9212
  19  427.5125
  20  424.5093
  21  402.0665
  22  512.0583
  23  552.9299
  24  495.5111
  25  357.0878
  26  412.3116
  27  429.8802
  28  337.7243
  29  318.1051
  30  190.4253
  31  322.2307
  32  283.3803
  33  334.6003
  34  402.1599
  35  253.9138
  36  332.6975
  37  372.7047
  38  407.4693
  39  410.752
  40  483.2889
  41  356.8371
  42  281.3593
  43  332.7322
  44  345.1747
  45  454.1795
  46  436.8941
  47  437.6202
  48  401.0986
  49  307.751
  50  323.7599
  51  416.0646
  52  467.1657
  53  458.3515
  54  428.0797
  55  395.5333
  56  432.556
  57  428.5066
  58  368.461
  59  355.8611
  60  371.0609
  61  340.5648
  62  282.2759
  63  384.4423
  64  515.4641
  65  490.4817
  66  482.7391
  67  476.6813
  68  531.4868
  69  515.396
  70  457.0651
  71  459.5003
  72  329.3739
  73  355.9361
  74  394.4283
  75  350.1825
  76  328.8376
  77  388.6666
  78  325.5572
  79  481.3274
  80  618.9286
  81  570.4105
  82  473.0701
  83  417.4438
  84  448.4881
  85  447.3627
  86  594.7977
  87  518.3117
  88  370.9975
  89  395.1068
  90  410.5687
  91  311.5963
  92  352.6152
  93  414.4491
  94  433.7785
  95  506.3716
  96  500.2404
  97  381.6602
  98  490.1924
  99  543.1115
 100  583.6735
 101  344.6257
 102  309.8308
 103  492.271
 104  387.3932
 105  211.9575
 106  342.9918
 107  518.8411
 108  470.2452
 109  375.3725
 110  475.1175
 111  618.6512
 112  418.0978
 113  386.4753
 114  372.6854
 115  407.6282
 116  409.9538
 117  379.0763
 118  394.8641
 119  394.8417
 120  351.8367
 121  389.3672
 122  457.9106
 123  587.8177
 124  591.6274
 125  345.6417
 126  210.4674
 127  194.1449
 128  248.0165
 129  316.6668
 130  410.6864
 131  482.7007
 132  325.1478
 133  258.541
 134  267.8208
 135  270.2192
 136  312.3659
 137  310.1487
 138  347.4882
 139  193.3289
 140  233.6564
 141  427.9268
 142  456.5535
 143  319.9169
 144  329.4352
 145  319.1582
 146  250.3683
 147  285.3544
 148  376.1731
 149  467.4851
 150  438.9727
 151  403.5938
 152  493.8063
 153  339.7361
 154  295.9563
 155  325.2336
 156  405.5066
 157  276.1408
 158  291.424
 159  351.1429
 160  386.9543
 161  348.526
 162  373.5178
 163  391.3341
 164  419.0848
 165  317.1239
 166  393.6183
 167  454.2891
 168  279.0086
 169  331.5085
 170  357.6504
 171  325.178
 172  409.792
 173  316.2171
 174  172.5262
 175  306.0311
 176  328.8775
 177  272.5128
 178  344.3927
 179  419.1968
 180  415.5237
 181  257.1158
 182  160.1644
 183  302.8276
 184  268.7155
 185  259.2549
 186  337.1662
 187  393.1119
 188  397.2094
 189  399.8516
 190  304.8522
 191  269.5384
 192  350.2675
 193  448.3522
 194  386.8793
 195  352.3553
 196  335.1872
 197  287.3174
 198  307.1939
 199  342.1111
 200  312.9413
 201  302.8331
 202  456.8982
 203  524.1653
 204  418.62
 205  331.2669
 206  268.0022
 207  269.5598
 208  237.8202
 209  329.2459
 210  403.2022
 211  362.3091
 212  340.7461
 213  243.2128
 214  327.2085
 215  395.8004
 216  345.3329
 217  306.4438
 218  325.6736
 219  280.2775
 220  203.4961
 221  197.2947
 222  321.5004
 223  436.3658
 224  308.5471
 225  303.0835
 226  350.8915
 227  330.6387
 228  283.3513
 229  417.8874
 230  443.816
 231  460.1717
 232  406.4658
 233  262.6128
 234  341.1048
 235  457.7123
 236  557.8621
 237  399.8698
 238  332.844
 239  335.6835
 240  479.2923
 241  429.1048
 242  418.8661
 243  464.2443
 244  374.0855
 245  314.6834
 246  259.6856
 247  337.6964
 248  307.5888
 249  287.9124
 250  287.7664
 251  357.6915
 252  268.5192
 253  313.0695
 254  355.628
 255  383.282
 256  430.1387
 257  340.4503
 258  467.6192
 259  468.5666
 260  434.9329
 261  331.2869
 262  483.5125
 263  467.9619
 264  465.2646
 265  436.5052
 266  434.2055
 267  331.9859
 268  413.0166
 269  345.8927
 270  461.6918
 271  447.366
 272  360.9701
 273  299.1958
 274  249.4053
 275  325.4308
 276  348.3141
 277  254.545
 278  330.4944
 279  344.4336
 280  317.491
 281  316.7061
 282  365.3564
 283  375.1631
 284  434.2517
 285  429.4644
 286  343.9379
 287  436.2787
 288  413.7042
 289  297.0565
 290  143.2215
 291  188.0124
 292  341.1647
 293  363.3889
 294  406.0214
 295  375.2227
 296  260.2565
 297  336.93
 298  272.9023
 299  260.8433
 300  312.9746
 301  338.6347
 302  389.4612
 303  513.9866
 304  528.4705
 305  348.0297
 306  225.8767
 307  268.992
 308  243.9473
 309  296.7412
 310  492.1984
 311  497.1713
 312  466.9805
 313  345.6498
 314  389.8114
 315  384.5643
 316  302.6156
 317  443.6803
 318  364.951
 319  255.0099
 320  268.2544
 321  431.3648
 322  486.4758
 323  440.9044
 324  297.2912
 325  266.1164
 326  383.817
 327  409.9892
 328  439.9558
 329  353.9884
 330  422.6641
 331  429.1014
 332  306.611
 333  331.0916
 334  384.9196
 335  322.9321
 336  395.536
 337  330.6921
 338  178.9213
 339  304.0847
 340  519.658
 341  449.412
 342  330.7087
 343  429.8841
 344  468.935
 345  405.3924
 346  443.8247
 347  449.0097
 348  392.7095
 349  364.0139
 350  414.1138
 351  420.6476
 352  352.0883
 353  436.142
 354  363.1978
 355  296.27
 356  324.3001
 357  409.1448
 358  414.3266
 359  267.6537
 360  383.7174
 361  490.0527
 362  386.9995
 363  285.1564
 364  358.5288
 365  536.2518
 366  554.1378
 367  429.8563
 368  339.0927
 369  341.096
 370  292.8631
 371  371.613
 372  429.6929
 373  256.4391
 374  288.7467
 375  355.7621
 376  408.4652
 377  324.3001
 378  300.3282
 379  445.1382
 380  356.7962
 381  350.4294
 382  401.1256
 383  330.5311
 384  269.8705
 385  381.1035
 386  203.0712
 387  134.0029
 388  249.6428
 389  299.1215
 390  222.6829
 391  284.4539
 392  289.1091
 393  383.3446
 394  348.7264
 395  429.659
 396  363.9453
 397  362.1872
 398  452.7339
 399  313.939
 400  276.7007
 401  341.0586
 402  388.2963
 403  343.2406
 404  414.6497
 405  409.9664
 406  260.8449
 407  456.1046
 408  453.1926
 409  520.7109
 410  523.8656
 411  412.5858
 412  407.8186
 413  441.6318
 414  410.6278
 415  366.6254
 416  351.3185
 417  347.7797
 418  339.1389
 419  235.7008
 420  273.33
 421  351.127
 422  125.1597
 423  122.1506
 424  381.1277
 425  426.597
 426  299.819
 427  345.751
 428  423.48
 429  371.2622
 430  418.551
 431  367.3546
 432  304.7546
 433  286.1191
 434  489.2802
 435  332.0661
 436  267.4097
 437  277.77
 438  413.8392
 439  367.7048
 440  251.5106
 441  293.1408
 442  271.5461
 443  247.0701
 444  406.8238
 445  350.9443
 446  409.076
 447  340.9703
 448  407.5601
 449  304.7936
 450  104.1426
 451  246.2077
 452  208.7006
 453  316.3862
 454  361.8261
 455  364.2495
 456  372.9259
 457  236.6406
 458  248.3095
 459  256.4142
 460  259.0921
 461  296.8063
 462  215.0182
 463  223.8134
 464  281.0662
 465  286.8094
 466  329.4374
 467  426.4456
 468  456.0612
 469  354.5208
 470  368.9426
 471  492.6786
 472  420.2052
 473  387.2488
 474  407.6438
 475  390.5112
 476  216.399
 477  275.3494
 478  339.5665
 479  298.7071
 480  375.4955
 481  464.1219
 482  505.506
 483  484.5519
 484  255.5601
 485  338.1306
 486  372.4442
 487  170.0823
 488  248.7353
 489  381.8798
 490  489.4786
 491  406.0973
 492  402.7206
 493  554.5235
 494  289.838
 495  260.6791
 496  345.9833
 497  424.3818
 498  347.1457
 499  246.4955
 500  331.2487
 501  369.1196
 502  431.5351
 503  392.9252
 504  356.0838
 505  487.1455
 506  541.6176
 507  501.1977
 508  594.0118
 509  789.423
 510  948.5664
 511  1062.764
