# Input file       =  1211887824.112411_cleaned.dat
# Candidate        =  PSR_0332+5434
# Telescope        =  AR
# Epoch_topo       =  58270.479237412168
# Epoch_bary       =  N/A
# T_sample         =  0.002
# Data Folded      =  7340032
# Data Avg         =  0.00458771429296522
# Data StdDev      =  1.00006013641167 
# Profile Bins     =  512
# Profile Avg      =  65.7247117321829 
# Profile StdDev   =  119.740236691933 
# Reduced chi-sqr  =  1.501
# Prob(Noise)      <  1.39e-12   (~7.0 sigma)
# P_topo (ms)      =  714.516807612462  +/- 0.000315
# P'_topo (s/s)    =  -0                +/- 1.66e-10
# P''_topo (s/s^2) =  0                 +/- 7.34e-14
# P_bary (ms)      =  N/A
# P'_bary (s/s)    =  N/A
# P''_bary (s/s^2) =  N/A
# P_orb (s)        =  N/A
# asin(i)/c (s)    =  N/A
# eccentricity     =  N/A
# w (rad)          =  N/A
# T_peri           =  N/A
######################################################
   0  818.9989
   1  699.8339
   2  621.2151
   3  324.3452
   4  230.1531
   5  223.1832
   6  181.2061
   7  90.3322
   8  231.1334
   9  281.0962
  10  162.9137
  11  50.10745
  12  11.66608
  13  127.7387
  14  165.9433
  15  30.92105
  16  50.00144
  17  -7.435349
  18  30.47166
  19  23.84971
  20  12.87536
  21  68.5078
  22  53.54399
  23  14.40723
  24  23.60353
  25  51.11729
  26  19.94521
  27  98.55981
  28  77.8396
  29  -12.94779
  30  -78.31614
  31  20.23104
  32  40.95276
  33  84.03596
  34  -108.1645
  35  -123.0557
  36  18.96125
  37  94.5274
  38  105.5282
  39  162.7886
  40  46.08582
  41  106.9966
  42  33.66769
  43  94.46904
  44  48.01575
  45  -56.70024
  46  69.19328
  47  15.49367
  48  -50.03247
  49  -0.7597653
  50  154.7751
  51  51.62174
  52  -38.07913
  53  -25.62087
  54  33.5801
  55  83.66282
  56  62.5467
  57  52.41481
  58  -3.973922
  59  12.45978
  60  95.40508
  61  -17.58341
  62  -45.69154
  63  10.5766
  64  42.89759
  65  131.5204
  66  88.28715
  67  -17.21711
  68  -56.05919
  69  -1.971398
  70  41.34287
  71  24.67457
  72  7.364159
  73  -80.85324
  74  -38.16654
  75  63.105
  76  15.3354
  77  -94.00144
  78  -8.89902
  79  118.6249
  80  38.17131
  81  -47.83885
  82  -30.69748
  83  85.81949
  84  116.1589
  85  96.03215
  86  162.1419
  87  157.8926
  88  90.76128
  89  152.118
  90  284.0146
  91  275.0154
  92  62.91499
  93  15.82991
  94  149.9702
  95  190.7814
  96  -2.761044
  97  63.74948
  98  140.123
  99  86.92136
 100  103.4366
 101  95.3086
 102  55.83308
 103  137.0342
 104  0.5665568
 105  23.87089
 106  -125.127
 107  8.048222
 108  -3.047636
 109  46.21856
 110  143.6897
 111  119.5878
 112  22.26956
 113  -0.5146952
 114  -31.48079
 115  15.3976
 116  107.0018
 117  106.0346
 118  7.151292
 119  74.21706
 120  145.7618
 121  67.65861
 122  28.92922
 123  120.5576
 124  178.9836
 125  101.3515
 126  100.3642
 127  151.9499
 128  118.0392
 129  100.9423
 130  77.16029
 131  10.49976
 132  -97.09769
 133  170.4848
 134  115.3444
 135  1.453022
 136  50.42767
 137  94.31609
 138  260.7272
 139  196.7645
 140  297.5103
 141  182.8684
 142  -43.7377
 143  12.75873
 144  -9.595203
 145  8.308889
 146  61.41537
 147  31.27334
 148  58.50267
 149  61.84912
 150  54.12725
 151  14.53614
 152  39.51469
 153  70.69734
 154  -16.32941
 155  -9.96814
 156  -17.68054
 157  11.87389
 158  -57.30444
 159  -90.6673
 160  62.23907
 161  118.6824
 162  82.95972
 163  45.6661
 164  129.5127
 165  77.39809
 166  -0.8576095
 167  13.18278
 168  25.7679
 169  60.63184
 170  91.1391
 171  112.3807
 172  95.2365
 173  47.30153
 174  94.97472
 175  138.2224
 176  48.63235
 177  103.7413
 178  119.6234
 179  160.4457
 180  132.6237
 181  193.3083
 182  194.467
 183  83.64146
 184  85.36494
 185  96.34444
 186  45.20303
 187  -4.736228
 188  100.4415
 189  190.4
 190  28.9268
 191  142.3204
 192  194.1887
 193  101.6534
 194  69.20019
 195  20.83095
 196  -39.95421
 197  -16.00227
 198  80.68819
 199  22.5428
 200  20.3469
 201  14.31844
 202  13.80136
 203  28.6797
 204  -37.67752
 205  -205.1624
 206  -212.2742
 207  -52.44244
 208  27.71743
 209  -146.6562
 210  -185.5598
 211  -50.11777
 212  -54.48765
 213  -2.143754
 214  -63.26141
 215  37.55146
 216  88.31131
 217  50.6518
 218  20.98609
 219  71.8048
 220  42.05643
 221  -4.97265
 222  4.607398
 223  -5.201347
 224  63.73552
 225  34.30051
 226  165.0069
 227  115.4046
 228  49.16404
 229  25.4355
 230  29.47853
 231  41.07944
 232  -24.7234
 233  8.415425
 234  -11.71154
 235  -53.50289
 236  108.9082
 237  155.4189
 238  187.7376
 239  147.5998
 240  104.7354
 241  25.86327
 242  -55.4124
 243  87.54674
 244  -16.23063
 245  141.2326
 246  -44.70552
 247  -37.46727
 248  56.49328
 249  67.8337
 250  63.64633
 251  59.99091
 252  -121.8923
 253  -133.7815
 254  85.07611
 255  143.0734
 256  56.77961
 257  -154.3043
 258  -18.94654
 259  219.1936
 260  135.6818
 261  -18.61568
 262  71.43601
 263  79.19698
 264  165.1367
 265  71.7625
 266  -30.88601
 267  54.28137
 268  23.09863
 269  -24.06135
 270  -10.95639
 271  62.36561
 272  71.83005
 273  -9.665423
 274  38.36014
 275  -23.39696
 276  48.7639
 277  35.29211
 278  -77.00759
 279  -105.4327
 280  -129.18
 281  -53.56229
 282  29.22504
 283  -19.99373
 284  -121.2152
 285  -123.3449
 286  -26.64435
 287  -27.70039
 288  14.02368
 289  96.76643
 290  -12.25372
 291  -176.9892
 292  -44.20496
 293  29.95896
 294  18.64483
 295  -42.97305
 296  -36.65641
 297  50.87825
 298  73.63776
 299  19.98436
 300  46.34978
 301  273.2656
 302  315.6207
 303  204.5087
 304  169.7103
 305  106.351
 306  151.706
 307  170.9837
 308  185.4628
 309  -6.36275
 310  206.221
 311  155.8795
 312  127.5212
 313  145.7486
 314  334.308
 315  117.5616
 316  -41.39027
 317  0.01436489
 318  76.88419
 319  103.7213
 320  160.081
 321  182.3599
 322  168.392
 323  158.4097
 324  -47.89952
 325  -13.54709
 326  180.906
 327  157.0872
 328  11.49484
 329  -194.209
 330  7.944329
 331  69.58196
 332  91.15539
 333  24.52159
 334  -108.5602
 335  27.92857
 336  46.79854
 337  81.94075
 338  -63.88557
 339  -99.0526
 340  88.79764
 341  58.93781
 342  157.2466
 343  179.3988
 344  152.1022
 345  28.56749
 346  31.73615
 347  -7.788844
 348  54.26288
 349  -15.60534
 350  57.49993
 351  90.01886
 352  -57.28944
 353  69.01376
 354  121.479
 355  174.0634
 356  58.85994
 357  9.648579
 358  30.42838
 359  50.14605
 360  24.38894
 361  16.55624
 362  11.68953
 363  26.46013
 364  -81.61721
 365  -9.720546
 366  101.1505
 367  97.96938
 368  93.34304
 369  -18.96181
 370  59.84937
 371  78.12181
 372  162.2046
 373  93.81505
 374  44.45853
 375  -34.46126
 376  -40.88558
 377  -42.85516
 378  -13.08926
 379  32.94213
 380  64.74651
 381  148.5409
 382  -7.048484
 383  78.0318
 384  50.61275
 385  3.189451
 386  47.7995
 387  66.13939
 388  188.5602
 389  180.6929
 390  49.98413
 391  151.3717
 392  143.4364
 393  55.92481
 394  36.10954
 395  192.6996
 396  123.9545
 397  91.62427
 398  132.6469
 399  152.8426
 400  65.2726
 401  28.67264
 402  51.8385
 403  -11.49961
 404  17.87227
 405  -12.40296
 406  57.19226
 407  23.1682
 408  122.2729
 409  80.61479
 410  50.63165
 411  26.00368
 412  -3.923151
 413  59.63221
 414  87.43649
 415  -11.66664
 416  -45.07981
 417  25.27507
 418  79.55647
 419  -51.88517
 420  -56.64087
 421  -28.61313
 422  -18.28231
 423  -50.16872
 424  48.3079
 425  100.6932
 426  -140.055
 427  -44.58354
 428  52.8265
 429  6.265908
 430  139.4651
 431  142.1248
 432  158.0165
 433  32.34995
 434  36.26445
 435  121.2744
 436  56.0697
 437  88.46521
 438  155.096
 439  172.1265
 440  17.33189
 441  -7.138393
 442  66.48763
 443  196.2814
 444  30.48358
 445  80.83206
 446  41.08281
 447  -35.50638
 448  53.85791
 449  220.9224
 450  218.6989
 451  57.46072
 452  -105.6359
 453  -33.75662
 454  7.418435
 455  13.96378
 456  -35.49189
 457  -16.2921
 458  41.8932
 459  0.9353551
 460  104.2137
 461  86.46638
 462  -9.726398
 463  2.203067
 464  148.596
 465  202.7641
 466  146.8422
 467  46.59093
 468  144.0233
 469  147.763
 470  93.9466
 471  191.9463
 472  220.9468
 473  207.552
 474  231.8764
 475  116.0099
 476  187.1452
 477  142.8842
 478  136.3102
 479  93.52641
 480  118.9174
 481  64.38593
 482  66.49124
 483  21.04134
 484  107.1295
 485  125.3032
 486  43.03994
 487  -67.85646
 488  -22.64298
 489  88.68433
 490  220.5617
 491  203.5006
 492  160.5842
 493  265.1274
 494  176.0078
 495  149.5754
 496  86.82574
 497  -33.64205
 498  25.76595
 499  54.56249
 500  179.4168
 501  54.61111
 502  106.4772
 503  156.4759
 504  210.2845
 505  248.8191
 506  307.179
 507  283.7919
 508  278.421
 509  255.4173
 510  480.3669
 511  616.9048
