# Input file       =  1211973974.110982_cleaned.dat
# Candidate        =  PSR_0332+5434
# Telescope        =  AR
# Epoch_topo       =  58271.476343877104
# Epoch_bary       =  N/A
# T_sample         =  0.002
# Data Folded      =  7340032
# Data Avg         =  0.0202637956010313
# Data StdDev      =  1.00010475010752 
# Profile Bins     =  512
# Profile Avg      =  290.53575747972  
# Profile StdDev   =  119.7455784252   
# Reduced chi-sqr  =  1.407
# Prob(Noise)      <  3.29e-09   (~5.8 sigma)
# P_topo (ms)      =  714.515837812689  +/- 0.000397
# P'_topo (s/s)    =  -0                +/- 2.1e-10
# P''_topo (s/s^2) =  0                 +/- 9.26e-14
# P_bary (ms)      =  N/A
# P'_bary (s/s)    =  N/A
# P''_bary (s/s^2) =  N/A
# P_orb (s)        =  N/A
# asin(i)/c (s)    =  N/A
# eccentricity     =  N/A
# w (rad)          =  N/A
# T_peri           =  N/A
######################################################
   0  953.7064
   1  909.9002
   2  704.3109
   3  380.9061
   4  424.5948
   5  438.6516
   6  220.9515
   7  252.7382
   8  312.7632
   9  303.6304
  10  277.7821
  11  185.8895
  12  345.5963
  13  396.0037
  14  320.0692
  15  247.7242
  16  219.914
  17  254.9394
  18  289.5411
  19  271.9591
  20  84.3764
  21  246.3261
  22  355.0295
  23  344.3993
  24  281.9799
  25  346.1063
  26  366.3031
  27  264.4942
  28  45.53202
  29  108.8946
  30  204.5303
  31  192.1868
  32  228.9113
  33  291.3566
  34  301.0836
  35  184.2763
  36  283.649
  37  342.0186
  38  310.6638
  39  449.2009
  40  327.0927
  41  281.4852
  42  283.3982
  43  413.0791
  44  366.4077
  45  369.1347
  46  338.0032
  47  243.0557
  48  210.3191
  49  275.6761
  50  199.8649
  51  170.9495
  52  201.6932
  53  199.6629
  54  239.2631
  55  243.6358
  56  145.1912
  57  193.1246
  58  186.53
  59  166.06
  60  307.952
  61  371.648
  62  380.8155
  63  274.2021
  64  265.7062
  65  299.0087
  66  222.4973
  67  265.7744
  68  285.9633
  69  259.907
  70  323.3076
  71  183.713
  72  322.4027
  73  365.5394
  74  338.8834
  75  274.3597
  76  359.3835
  77  376.4592
  78  331.2458
  79  356.0395
  80  218.9491
  81  277.635
  82  312.1547
  83  370.6691
  84  387.3909
  85  245.2302
  86  235.7454
  87  221.5124
  88  205.3121
  89  214.3977
  90  322.2629
  91  245.1569
  92  240.3312
  93  292.1744
  94  304.2539
  95  103.6966
  96  154.4841
  97  193.7368
  98  237.3284
  99  191.775
 100  115.683
 101  228.075
 102  225.3337
 103  257.7926
 104  219.1742
 105  183.4809
 106  253.952
 107  318.6799
 108  331.5776
 109  372.8388
 110  369.6494
 111  293.0751
 112  379.1476
 113  376.79
 114  287.046
 115  164.6408
 116  239.6932
 117  304.7844
 118  320.9437
 119  420.0573
 120  269.7995
 121  200.9383
 122  198.2153
 123  259.081
 124  382.2209
 125  259.8319
 126  295.1715
 127  242.0784
 128  198.1437
 129  224.3254
 130  288.4504
 131  265.4842
 132  294.0083
 133  324.0949
 134  328.4173
 135  368.7386
 136  342.2262
 137  326.1809
 138  430.3416
 139  463.0179
 140  349.3385
 141  400.2872
 142  336.1169
 143  395.711
 144  315.5182
 145  238.9332
 146  345.1137
 147  318.7701
 148  345.2201
 149  357.0949
 150  295.7615
 151  283.8018
 152  263.6277
 153  276.8045
 154  292.1686
 155  259.4281
 156  331.3708
 157  369.1903
 158  292.7614
 159  267.3165
 160  279.9066
 161  271.1852
 162  345.1917
 163  319.6666
 164  390.0731
 165  255.8221
 166  184.1133
 167  295.7339
 168  251.5379
 169  361.3274
 170  353.3928
 171  293.5173
 172  213.7666
 173  327.403
 174  287.0384
 175  288.3455
 176  257.5575
 177  370.3997
 178  341.0272
 179  309.822
 180  251.0921
 181  184.3624
 182  289.3266
 183  240.0704
 184  143.3752
 185  264.9896
 186  346.8272
 187  298.129
 188  384.3627
 189  226.9333
 190  284.5672
 191  264.3151
 192  245.8245
 193  259.5233
 194  241.1488
 195  233.2079
 196  281.9824
 197  280.8617
 198  386.0649
 199  296.0675
 200  306.601
 201  272.3384
 202  349.4592
 203  275.3091
 204  284.1139
 205  347.1708
 206  367.5408
 207  268.9077
 208  355.2886
 209  463.6967
 210  395.2437
 211  240.2714
 212  278.7162
 213  406.9059
 214  595.9234
 215  544.7161
 216  441.6887
 217  354.4431
 218  241.0878
 219  275.8108
 220  368.9464
 221  467.413
 222  394.4992
 223  294.8143
 224  350.7803
 225  353.6896
 226  420.6113
 227  378.9156
 228  334.1641
 229  248.7948
 230  223.5313
 231  133.7455
 232  213.0261
 233  223.5381
 234  224.0976
 235  263.9333
 236  169.0356
 237  280.6535
 238  368.8832
 239  209.5888
 240  225.2667
 241  344.5175
 242  379.7922
 243  348.8096
 244  364.4446
 245  392.9793
 246  387.5281
 247  446.8542
 248  297.1911
 249  251.1116
 250  279.3718
 251  337.0706
 252  282.4215
 253  238.5302
 254  311.8412
 255  389.1222
 256  342.4244
 257  356.8156
 258  349.0848
 259  290.2006
 260  332.6473
 261  205.6375
 262  206.818
 263  245.5096
 264  373.3201
 265  305.2623
 266  187.5514
 267  170.6581
 268  251.2911
 269  304.7657
 270  281.7175
 271  214.1187
 272  158.9887
 273  282.761
 274  402.6982
 275  297.3735
 276  339.6998
 277  311.586
 278  344.7759
 279  349.0498
 280  244.3182
 281  378.9527
 282  411.6165
 283  391.7634
 284  386.1339
 285  235.8963
 286  294.6133
 287  306.9119
 288  229.5021
 289  213.1738
 290  288.5469
 291  291.4517
 292  224.3836
 293  307.062
 294  493.9616
 295  344.866
 296  284.8596
 297  353.4347
 298  383.0898
 299  401.6441
 300  312.8021
 301  379.1695
 302  413.3799
 303  383.0194
 304  313.7126
 305  402.3712
 306  427.6167
 307  302.1564
 308  300.7374
 309  399.3729
 310  216.8149
 311  284.4711
 312  394.1304
 313  349.8443
 314  344.8148
 315  343.7031
 316  347.3116
 317  343.252
 318  409.6477
 319  435.2539
 320  401.3248
 321  278.7135
 322  242.4303
 323  255.7411
 324  311.7456
 325  293.2175
 326  317.6117
 327  277.1644
 328  84.6346
 329  122.6905
 330  329.1731
 331  326.3698
 332  269.0484
 333  212.3985
 334  180.8833
 335  195.4326
 336  285.6439
 337  323.3505
 338  307.1721
 339  235.6853
 340  263.2875
 341  355.7251
 342  454.2952
 343  255.0033
 344  241.183
 345  244.056
 346  263.7572
 347  224.3248
 348  231.102
 349  276.7284
 350  291.1299
 351  361.3028
 352  247.4944
 353  180.6192
 354  214.8833
 355  257.3331
 356  142.4172
 357  120.7914
 358  127.5201
 359  97.35528
 360  132.6746
 361  127.2999
 362  146.1105
 363  190.2268
 364  279.553
 365  187.3867
 366  202.504
 367  248.3457
 368  229.3385
 369  258.5857
 370  292.7129
 371  358.9271
 372  334.9152
 373  126.8598
 374  174.1574
 375  253.8164
 376  260.8503
 377  245.5347
 378  143.8176
 379  300.8288
 380  212.9381
 381  139.53
 382  122.7209
 383  244.7939
 384  191.5052
 385  261.9148
 386  203.4788
 387  105.395
 388  188.5993
 389  224.3
 390  205.257
 391  289.3092
 392  220.1429
 393  363.2043
 394  247.4438
 395  263.8152
 396  279.6465
 397  248.4373
 398  259.8003
 399  263.189
 400  289.34
 401  396.4425
 402  258.0137
 403  180.9442
 404  276.9839
 405  293.3416
 406  267.2281
 407  288.0046
 408  249.1599
 409  128.6582
 410  237.0465
 411  193.6024
 412  275.0971
 413  203.4737
 414  239.7238
 415  264.8271
 416  298.8974
 417  294.5022
 418  182.7026
 419  289.5159
 420  224.0159
 421  186.6526
 422  118.3565
 423  144.8772
 424  107.9432
 425  312.6278
 426  358.2601
 427  341.1572
 428  393.2473
 429  331.3496
 430  222.5852
 431  225.4731
 432  337.7962
 433  304.2583
 434  235.8409
 435  229.6218
 436  81.54541
 437  127.2491
 438  147.5445
 439  190.8451
 440  154.1203
 441  238.8428
 442  242.4937
 443  195.714
 444  133.7711
 445  166.4771
 446  159.8635
 447  77.64974
 448  121.0289
 449  184.2616
 450  222.9582
 451  321.8289
 452  223.8147
 453  196.8778
 454  215.7168
 455  256.0253
 456  335.4845
 457  251.2975
 458  290.8848
 459  442.1233
 460  284.3079
 461  252.4972
 462  281.6611
 463  276.5706
 464  325.5325
 465  327.076
 466  223.7442
 467  140.879
 468  172.8984
 469  162.2892
 470  285.7275
 471  250.9235
 472  336.6387
 473  252.4899
 474  224.7652
 475  365.5941
 476  321.4684
 477  359.0515
 478  294.155
 479  311.0966
 480  334.5126
 481  477.8832
 482  311.1352
 483  205.4957
 484  348.7259
 485  222.3566
 486  195.1977
 487  227.7858
 488  286.4044
 489  316.6157
 490  478.2877
 491  359.9687
 492  344.1852
 493  373.212
 494  368.8823
 495  299.0106
 496  447.605
 497  375.2737
 498  344.1199
 499  380.2688
 500  371.6807
 501  331.7464
 502  397.9088
 503  293.4571
 504  362.0687
 505  336.2393
 506  376.18
 507  568.0354
 508  567.5057
 509  665.7949
 510  813.746
 511  1000.892
