# Input file       =  1211184299.108801_cleaned.dat
# Candidate        =  PSR_0332+5434
# Telescope        =  AR
# Epoch_topo       =  58262.336586907419
# Epoch_bary       =  N/A
# T_sample         =  0.002
# Data Folded      =  7340032
# Data Avg         =  0.0312946245549429
# Data StdDev      =  0.999995089252431
# Profile Bins     =  512
# Profile Avg      =  448.491405178408 
# Profile StdDev   =  119.732448398049 
# Reduced chi-sqr  =  1.089
# Prob(Noise)      <  0.0808   (~1.4 sigma)
# P_topo (ms)      =  714.524441613573  +/- 0.000388
# P'_topo (s/s)    =  -0                +/- 2.05e-10
# P''_topo (s/s^2) =  0                 +/- 9.05e-14
# P_bary (ms)      =  N/A
# P'_bary (s/s)    =  N/A
# P''_bary (s/s^2) =  N/A
# P_orb (s)        =  N/A
# asin(i)/c (s)    =  N/A
# eccentricity     =  N/A
# w (rad)          =  N/A
# T_peri           =  N/A
######################################################
   0  1037.83
   1  945.4587
   2  762.2247
   3  652.3864
   4  594.5312
   5  425.1093
   6  426.2932
   7  419.6313
   8  433.4891
   9  478.3972
  10  485.8774
  11  569.5668
  12  570.8046
  13  486.7093
  14  461.5199
  15  489.5841
  16  554.8837
  17  454.66
  18  452.8814
  19  535.7956
  20  500.7611
  21  536.6196
  22  534.1917
  23  510.953
  24  483.7108
  25  555.3097
  26  483.1119
  27  403.9488
  28  444.8008
  29  506.4649
  30  425.9671
  31  429.9603
  32  436.5802
  33  314.7463
  34  336.4228
  35  344.9286
  36  466.7556
  37  436.1969
  38  358.4374
  39  354.7074
  40  342.9024
  41  435.1953
  42  419.4127
  43  468.9969
  44  521.7403
  45  477.3462
  46  418.1271
  47  437.7006
  48  437.0665
  49  436.9772
  50  489.7768
  51  538.6439
  52  490.7788
  53  463.1984
  54  500.694
  55  529.8315
  56  478.8954
  57  464.6577
  58  424.4816
  59  408.7202
  60  382.3548
  61  333.2802
  62  523.5693
  63  539.5278
  64  557.7678
  65  369.3903
  66  311.9689
  67  425.8914
  68  528.7214
  69  511.7018
  70  453.1516
  71  501.3091
  72  508.8761
  73  584.8705
  74  504.7888
  75  443.6852
  76  442.7339
  77  494.6308
  78  511.301
  79  509.473
  80  450.7726
  81  455.1345
  82  457.0591
  83  411.6562
  84  364.3491
  85  352.5561
  86  419.9864
  87  337.6443
  88  336.4431
  89  394.3465
  90  507.4199
  91  426.8225
  92  391.3027
  93  456.7901
  94  453.0604
  95  455.3876
  96  440.7534
  97  468.8271
  98  537.2194
  99  492.9465
 100  546.289
 101  559.4313
 102  472.9396
 103  441.664
 104  476.0853
 105  543.5085
 106  510.955
 107  495.283
 108  552.7874
 109  571.1408
 110  467.7482
 111  480.4867
 112  479.8575
 113  557.3563
 114  593.7812
 115  555.0964
 116  513.2107
 117  436.8692
 118  438.2281
 119  508.6061
 120  459.022
 121  446.9152
 122  439.1697
 123  505.6705
 124  524.3038
 125  506.8086
 126  474.763
 127  498.6112
 128  433.3712
 129  485.3021
 130  488.7068
 131  438.1921
 132  479.2655
 133  476.2321
 134  447.4409
 135  542.2137
 136  532.6241
 137  457.0878
 138  460.5087
 139  566.1778
 140  467.2154
 141  460.817
 142  470.8878
 143  456.4287
 144  395.6656
 145  394.7482
 146  398.869
 147  291.5776
 148  412.3283
 149  463.6881
 150  479.4236
 151  447.604
 152  370.7918
 153  383.3341
 154  392.4457
 155  449.6592
 156  415.271
 157  369.6098
 158  436.1391
 159  496.9381
 160  476.0256
 161  434.4901
 162  465.447
 163  402.8365
 164  305.3293
 165  395.7506
 166  428.0518
 167  387.3059
 168  433.9312
 169  388.5747
 170  372.4693
 171  277.6284
 172  252.299
 173  403.2117
 174  412.5356
 175  388.051
 176  489.3464
 177  550.8234
 178  519.8207
 179  544.5851
 180  515.4824
 181  471.4059
 182  399.1228
 183  401.8409
 184  381.1093
 185  357.3489
 186  472.3994
 187  637.0565
 188  613.0867
 189  403.1385
 190  413.032
 191  457.4281
 192  403.4
 193  442.1071
 194  431.7312
 195  496.8795
 196  392.4657
 197  330.6924
 198  402.4566
 199  516.4722
 200  505.0852
 201  503.5424
 202  527.9258
 203  584.1283
 204  531.7144
 205  568.2856
 206  564.4821
 207  536.0468
 208  670.3737
 209  603.2512
 210  611.1813
 211  583.4692
 212  562.2964
 213  468.3525
 214  478.8462
 215  458.4888
 216  500.2673
 217  544.2744
 218  443.2052
 219  426.0272
 220  309.5869
 221  295.027
 222  553.1023
 223  482.2219
 224  520.2656
 225  592.2419
 226  577.2357
 227  597.6353
 228  389.1348
 229  346.1578
 230  400.3466
 231  379.5518
 232  398.1879
 233  396.6217
 234  367.0179
 235  469.6891
 236  455.2752
 237  434.7504
 238  384.7149
 239  331.3797
 240  324.2118
 241  369.2294
 242  297.5721
 243  261.7604
 244  325.339
 245  282.2192
 246  254.4481
 247  293.9073
 248  334.9116
 249  418.0091
 250  460.3074
 251  465.2567
 252  457.6484
 253  402.1871
 254  374.2364
 255  480.6827
 256  490.8139
 257  447.0967
 258  378.5797
 259  436.1663
 260  374.6686
 261  379.7112
 262  428.8977
 263  386.4552
 264  346.5703
 265  378.7256
 266  418.0491
 267  450.5004
 268  413.4762
 269  505.5521
 270  539.3727
 271  567.0595
 272  429.1161
 273  356.8818
 274  346.0174
 275  383.9059
 276  373.5889
 277  443.7628
 278  495.5826
 279  523.1527
 280  455.2685
 281  433.5158
 282  541.0582
 283  515.5896
 284  530.0733
 285  477.5487
 286  474.2395
 287  507.5856
 288  516.9219
 289  506.4382
 290  514.9965
 291  540.283
 292  556.2933
 293  531.9866
 294  537.9411
 295  506.5583
 296  509.7622
 297  494.5358
 298  503.5355
 299  458.6924
 300  358.148
 301  416.118
 302  355.0042
 303  424.9341
 304  452.9489
 305  456.6527
 306  387.1655
 307  373.1312
 308  311.914
 309  346.5688
 310  383.211
 311  369.7033
 312  265.2909
 313  352.9724
 314  422.2419
 315  469.3632
 316  450.3283
 317  437.3164
 318  455.1086
 319  451.9508
 320  379.1108
 321  371.3196
 322  379.6982
 323  474.0536
 324  429.7508
 325  431.4281
 326  397.7559
 327  380.9273
 328  427.1142
 329  372.3423
 330  342.4236
 331  215.2684
 332  260.7764
 333  366.6519
 334  455.9993
 335  471.9655
 336  402.866
 337  361.9197
 338  339.5798
 339  396.2161
 340  440.4941
 341  403.4785
 342  364.4316
 343  335.9281
 344  343.6663
 345  334.9794
 346  285.9159
 347  401.2391
 348  459.594
 349  470.8964
 350  394.7882
 351  424.2824
 352  438.6067
 353  515.2097
 354  489.9905
 355  476.5052
 356  421.1853
 357  454.5588
 358  448.2065
 359  459.5503
 360  376.3197
 361  363.7315
 362  308.8962
 363  380.4139
 364  479.1692
 365  543.5547
 366  539.214
 367  490.3508
 368  390.0444
 369  259.6203
 370  354.4109
 371  409.2891
 372  400.713
 373  401.9901
 374  375.1012
 375  400.5223
 376  340.4382
 377  312.2822
 378  306.7686
 379  336.1449
 380  313.4465
 381  397.2314
 382  359.4553
 383  295.763
 384  324.4297
 385  383.6319
 386  400.5079
 387  324.5469
 388  345.731
 389  435.3437
 390  485.0954
 391  466.0097
 392  381.6227
 393  335.5304
 394  383.55
 395  379.2821
 396  311.7239
 397  358.9864
 398  485.0504
 399  500.7783
 400  515.4413
 401  463.7053
 402  443.8854
 403  444.3068
 404  455.9658
 405  412.682
 406  442.8836
 407  431.5772
 408  523.2748
 409  464.7037
 410  449.8669
 411  433.1978
 412  401.05
 413  386.6938
 414  398.8089
 415  349.0945
 416  480.7076
 417  455.7321
 418  424.9843
 419  499.8276
 420  566.8216
 421  487.2895
 422  525.1227
 423  493.5049
 424  475.1704
 425  482.9494
 426  553.616
 427  545.977
 428  543.2121
 429  497.9911
 430  551.1475
 431  428.0221
 432  514.0833
 433  534.7493
 434  553.1951
 435  439.1027
 436  396.266
 437  537.8174
 438  628.9719
 439  499.4128
 440  461.8276
 441  468.3772
 442  551.0884
 443  525.134
 444  457.1491
 445  447.0515
 446  422.3742
 447  498.9001
 448  470.9286
 449  459.7819
 450  500.5388
 451  504.4809
 452  458.562
 453  471.7364
 454  485.3806
 455  523.1468
 456  515.8699
 457  435.6867
 458  446.3688
 459  473.9885
 460  433.5205
 461  443.7459
 462  452.5848
 463  429.1983
 464  356.4146
 465  348.3222
 466  404.5937
 467  316.4685
 468  384.2537
 469  465.5026
 470  435.4135
 471  295.1609
 472  292.3885
 473  252.6532
 474  294.845
 475  328.6582
 476  381.556
 477  408.7082
 478  358.6906
 479  408.4399
 480  455.4091
 481  422.8455
 482  412.014
 483  427.3947
 484  412.1257
 485  404.9309
 486  457.2065
 487  427.8228
 488  428.9516
 489  433.1426
 490  352.3896
 491  427.8026
 492  441.433
 493  420.3073
 494  387.1785
 495  409.7407
 496  496.3733
 497  435.0787
 498  388.1701
 499  375.4638
 500  354.0436
 501  385.909
 502  496.467
 503  504.0426
 504  483.483
 505  454.3214
 506  499.149
 507  596.1131
 508  709.8474
 509  791.7282
 510  871.3555
 511  984.628
