# Input file       =  1211959054.109565_cleaned.dat
# Candidate        =  PSR_0332+5434
# Telescope        =  AR
# Epoch_topo       =  58271.303658675519
# Epoch_bary       =  N/A
# T_sample         =  0.002
# Data Folded      =  7340032
# Data Avg         =  0.0277116453191337
# Data StdDev      =  1.00009223866308 
# Profile Bins     =  512
# Profile Avg      =  397.262174169349 
# Profile StdDev   =  119.744080391968 
# Reduced chi-sqr  =  1.572
# Prob(Noise)      <  2.34e-15   (~7.8 sigma)
# P_topo (ms)      =  714.515672093976  +/- 0.000413
# P'_topo (s/s)    =  -0                +/- 2.18e-10
# P''_topo (s/s^2) =  0                 +/- 9.61e-14
# P_bary (ms)      =  N/A
# P'_bary (s/s)    =  N/A
# P''_bary (s/s^2) =  N/A
# P_orb (s)        =  N/A
# asin(i)/c (s)    =  N/A
# eccentricity     =  N/A
# w (rad)          =  N/A
# T_peri           =  N/A
######################################################
   0  1102.812
   1  1100.765
   2  967.2579
   3  688.8077
   4  684.9565
   5  629.0476
   6  475.5288
   7  394.0452
   8  457.8672
   9  540.4138
  10  537.0764
  11  545.0743
  12  506.5761
  13  574.9393
  14  653.9037
  15  635.201
  16  557.7977
  17  581.0668
  18  535.9819
  19  495.6548
  20  400.9089
  21  468.0305
  22  439.1041
  23  535.506
  24  484.3375
  25  321.7535
  26  384.5233
  27  457.7195
  28  441.0897
  29  315.893
  30  330.0599
  31  513.0858
  32  440.3491
  33  331.107
  34  357.6807
  35  360.8177
  36  297.2904
  37  321.7179
  38  426.863
  39  402.1946
  40  317.4461
  41  346.3753
  42  348.1645
  43  279.6975
  44  365.1261
  45  471.8728
  46  482.3545
  47  413.1907
  48  443.7279
  49  494.4962
  50  429.8766
  51  381.2606
  52  368.0804
  53  484.4131
  54  361.2051
  55  349.787
  56  407.2744
  57  521.2656
  58  552.536
  59  519.0074
  60  407.2834
  61  297.0256
  62  352.697
  63  455.2487
  64  450.406
  65  439.4503
  66  421.6897
  67  403.8354
  68  329.8186
  69  333.5847
  70  345.2727
  71  369.506
  72  378.7231
  73  390.976
  74  409.327
  75  369.5112
  76  394.6765
  77  474.8388
  78  402.6912
  79  364.6566
  80  394.5157
  81  392.312
  82  276.361
  83  323.6226
  84  350.1064
  85  367.4368
  86  404.1229
  87  455.0457
  88  545.5967
  89  503.5407
  90  340.9319
  91  358.1035
  92  400.7328
  93  467.6445
  94  482.7265
  95  463.7151
  96  406.143
  97  438.7718
  98  284.9783
  99  345.7467
 100  387.2468
 101  353.7552
 102  428.0589
 103  482.1324
 104  400.4821
 105  411.7005
 106  382.8263
 107  376.3268
 108  418.4257
 109  335.2231
 110  238.8833
 111  334.8668
 112  445.1576
 113  455.5576
 114  399.9535
 115  551.5644
 116  501.4019
 117  438.0894
 118  411.9155
 119  442.5013
 120  496.4717
 121  399.1313
 122  342.612
 123  361.8771
 124  391.0417
 125  351.5766
 126  257.3726
 127  216.1841
 128  248.8994
 129  305.5594
 130  356.8368
 131  310.0164
 132  227.6412
 133  254.7731
 134  313.4346
 135  354.8113
 136  451.4088
 137  394.9698
 138  335.6576
 139  411.5548
 140  394.9576
 141  385.2419
 142  478.0807
 143  385.5196
 144  339.3586
 145  351.612
 146  343.244
 147  326.8402
 148  447.4504
 149  461.6007
 150  424.1424
 151  341.0744
 152  446.4042
 153  432.0758
 154  298.7844
 155  380.3982
 156  310.9862
 157  354.6743
 158  395.5966
 159  426.4504
 160  443.5467
 161  371.5943
 162  213.7722
 163  241.5592
 164  380.2906
 165  424.0996
 166  313.3279
 167  321.1253
 168  396.9713
 169  364.5684
 170  351.3625
 171  316.0588
 172  178.0488
 173  303.448
 174  448.7566
 175  324.674
 176  260.8989
 177  253.3642
 178  180.601
 179  219.8398
 180  345.8356
 181  368.5752
 182  318.783
 183  258.8915
 184  345.5637
 185  333.7744
 186  333.1293
 187  302.3839
 188  304.0044
 189  316.9182
 190  396.774
 191  396.8046
 192  342.5233
 193  424.5302
 194  350.4987
 195  314.7899
 196  371.6912
 197  452.7856
 198  453.0561
 199  430.8398
 200  281.6925
 201  352.5885
 202  367.2284
 203  461.3634
 204  491.2345
 205  517.4808
 206  420.6681
 207  395.9608
 208  444.3559
 209  409.4224
 210  272.0567
 211  335.1661
 212  279.5476
 213  307.926
 214  273.3355
 215  297.3114
 216  314.5854
 217  354.6836
 218  360.9846
 219  348.632
 220  407.7474
 221  411.2071
 222  426.2614
 223  390.1059
 224  505.03
 225  454.5339
 226  481.1894
 227  492.2007
 228  523.6584
 229  489.5724
 230  450.0611
 231  403.3117
 232  384.1805
 233  434.6405
 234  488.6039
 235  480.9547
 236  461.6739
 237  473.1816
 238  313.6369
 239  334.8253
 240  329.2295
 241  347.7767
 242  320.3512
 243  268.5404
 244  286.3993
 245  400.093
 246  354.4208
 247  281.9792
 248  371.0949
 249  393.1551
 250  255.7475
 251  245.106
 252  358.3827
 253  354.1479
 254  247.9645
 255  239.4889
 256  284.5322
 257  406.6323
 258  373.1294
 259  329.2243
 260  416.1307
 261  499.3778
 262  480.1317
 263  326.5496
 264  276.9037
 265  380.2726
 266  352.4964
 267  331.0774
 268  222.8569
 269  236.9187
 270  388.2256
 271  344.136
 272  372.6673
 273  432.5732
 274  400.5586
 275  338.8204
 276  281.659
 277  379.8134
 278  338.2592
 279  312.1492
 280  357.0702
 281  388.9853
 282  443.9818
 283  386.4176
 284  410.8349
 285  507.7884
 286  414.9102
 287  362.0693
 288  331.6344
 289  329.9493
 290  303.3814
 291  348.9891
 292  321.7602
 293  354.0382
 294  413.0859
 295  380.7018
 296  315.7652
 297  308.1663
 298  411.3144
 299  385.3881
 300  486.7776
 301  505.01
 302  435.5962
 303  486.9484
 304  410.621
 305  439.2119
 306  394.6732
 307  413.4315
 308  364.2516
 309  442.5476
 310  443.0345
 311  498.4503
 312  458.6294
 313  444.2955
 314  550.6252
 315  509.079
 316  522.8641
 317  364.7662
 318  450.4064
 319  452.4649
 320  416.759
 321  430.4366
 322  487.7548
 323  482.4874
 324  441.1174
 325  304.8117
 326  257.5901
 327  257.2145
 328  358.5893
 329  425.9254
 330  481.4285
 331  467.6241
 332  484.8486
 333  361.7948
 334  312.983
 335  301.844
 336  422.6217
 337  325.0272
 338  272.5676
 339  392.8929
 340  386.3271
 341  351.7215
 342  331.6345
 343  214.2729
 344  250.9265
 345  281.4243
 346  318.2206
 347  319.8522
 348  304.4934
 349  361.9571
 350  268.8269
 351  336.6833
 352  402.8705
 353  483.2872
 354  494.5186
 355  461.1541
 356  434.9955
 357  438.8661
 358  452.0012
 359  423.2137
 360  404.5866
 361  334.0178
 362  290.4962
 363  305.2662
 364  398.4668
 365  324.8848
 366  307.0827
 367  290.7224
 368  431.0643
 369  374.7885
 370  422.8192
 371  389.8536
 372  447.6682
 373  394.5063
 374  279.1273
 375  214.1691
 376  357.5156
 377  407.3105
 378  371.2506
 379  352.1305
 380  384.4748
 381  276.6491
 382  205.299
 383  317.2504
 384  434.3266
 385  344.9882
 386  327.7629
 387  452.0619
 388  439.7256
 389  540.7504
 390  501.268
 391  299.4689
 392  318.9785
 393  392.0198
 394  459.0142
 395  478.431
 396  452.4023
 397  298.1532
 398  330.972
 399  356.7249
 400  490.7506
 401  513.0726
 402  394.0269
 403  358.6567
 404  370.1094
 405  337.2922
 406  464.0488
 407  403.5072
 408  345.8566
 409  303.9394
 410  349.0677
 411  477.6064
 412  322.6902
 413  304.4359
 414  376.3871
 415  347.9576
 416  268.6812
 417  269.1722
 418  334.0975
 419  313.6128
 420  270.7708
 421  280.4446
 422  323.929
 423  361.8668
 424  419.4139
 425  313.2645
 426  357.6338
 427  396.4121
 428  382.4426
 429  287.2429
 430  342.7226
 431  350.3349
 432  325.3977
 433  421.907
 434  428.1062
 435  414.8058
 436  416.3199
 437  350.7057
 438  470.2155
 439  462.0071
 440  324.4816
 441  305.1554
 442  472.2569
 443  457.4779
 444  366.4858
 445  348.1905
 446  481.7886
 447  391.0503
 448  258.8573
 449  370.3493
 450  417.7589
 451  149.5498
 452  260.5574
 453  408.1785
 454  486.2144
 455  467.0884
 456  398.2333
 457  342.3828
 458  307.6661
 459  273.2679
 460  268.4551
 461  263.8711
 462  296.0763
 463  289.7
 464  266.0847
 465  397.4593
 466  468.3254
 467  402.9878
 468  405.5052
 469  366.9335
 470  370.9433
 471  339.3511
 472  346.9742
 473  330.9683
 474  279.1726
 475  338.3638
 476  373.5418
 477  478.9357
 478  511.515
 479  394.9318
 480  430.1378
 481  454.4338
 482  447.0812
 483  447.1773
 484  526.2262
 485  549.3211
 486  502.0827
 487  503.929
 488  492.1297
 489  419.5473
 490  435.2907
 491  402.8403
 492  420.3669
 493  450.4362
 494  500.9319
 495  454.6843
 496  424.1376
 497  551.4671
 498  505.1656
 499  423.9411
 500  396.8058
 501  524.0132
 502  485.6527
 503  431.2567
 504  525.0384
 505  660.1005
 506  626.8075
 507  672.887
 508  701.7487
 509  844.2903
 510  955.6548
 511  1123.156
