# Input file       =  1211715512.106801_cleaned.dat
# Candidate        =  PSR_0332+5434
# Telescope        =  AR
# Epoch_topo       =  58268.484885495382
# Epoch_bary       =  N/A
# T_sample         =  0.002
# Data Folded      =  7340032
# Data Avg         =  0.0167203844658027
# Data StdDev      =  1.00006004169855 
# Profile Bins     =  512
# Profile Avg      =  239.707591289147 
# Profile StdDev   =  119.740225351643 
# Reduced chi-sqr  =  1.278
# Prob(Noise)      <  1.97e-05   (~4.1 sigma)
# P_topo (ms)      =  714.518750697562  +/- 0.000261
# P'_topo (s/s)    =  -0                +/- 1.38e-10
# P''_topo (s/s^2) =  0                 +/- 6.09e-14
# P_bary (ms)      =  N/A
# P'_bary (s/s)    =  N/A
# P''_bary (s/s^2) =  N/A
# P_orb (s)        =  N/A
# asin(i)/c (s)    =  N/A
# eccentricity     =  N/A
# w (rad)          =  N/A
# T_peri           =  N/A
######################################################
   0  830.263
   1  822.2516
   2  839.6138
   3  676.7094
   4  442.8062
   5  242.9421
   6  171.9493
   7  267.4687
   8  216.8747
   9  155.9203
  10  298.5989
  11  294.9073
  12  221.2923
  13  197.17
  14  77.5545
  15  165.6943
  16  258.6175
  17  199.3689
  18  114.2125
  19  205.809
  20  271.5412
  21  191.2831
  22  137.3763
  23  261.1106
  24  228.448
  25  322.4641
  26  276.3831
  27  270.4438
  28  239.5273
  29  220.7411
  30  126.8027
  31  170.7342
  32  242.9399
  33  224.2034
  34  206.4942
  35  210.7586
  36  158.8218
  37  262.6345
  38  180.6921
  39  45.03336
  40  65.83611
  41  159.186
  42  124.6799
  43  161.2809
  44  177.9688
  45  232.3274
  46  261.5349
  47  342.1704
  48  284.9745
  49  118.6339
  50  183.0112
  51  167.2114
  52  217.8889
  53  203.842
  54  225.9329
  55  204.6354
  56  152.5851
  57  201.2411
  58  283.1909
  59  408.7903
  60  393.471
  61  340.9937
  62  321.5733
  63  412.72
  64  240.47
  65  311.2784
  66  274.8453
  67  230.1709
  68  235.9756
  69  264.6046
  70  278.1538
  71  208.9152
  72  251.3427
  73  93.17287
  74  128.7534
  75  295.4601
  76  406.9878
  77  323.8025
  78  181.2856
  79  114.4616
  80  187.4207
  81  299.1815
  82  262.1812
  83  282.836
  84  326.8223
  85  147.6217
  86  86.80769
  87  199.1395
  88  293.5579
  89  173.5672
  90  229.2092
  91  244.8512
  92  320.276
  93  266.8841
  94  144.0437
  95  88.36624
  96  164.5629
  97  196.3489
  98  146.6602
  99  234.3274
 100  174.8405
 101  153.4066
 102  192.4743
 103  139.4915
 104  199.2057
 105  90.25557
 106  156.8048
 107  262.1695
 108  135.4412
 109  106.4551
 110  207.6112
 111  184.5994
 112  166.4257
 113  220.5695
 114  117.2511
 115  115.0964
 116  154.4136
 117  298.1441
 118  111.8983
 119  251.6064
 120  289.3528
 121  134.9659
 122  123.1152
 123  133.3866
 124  198.2372
 125  151.0667
 126  177.1199
 127  253.5308
 128  282.092
 129  207.007
 130  308.9263
 131  288.2266
 132  137.5042
 133  169.0622
 134  313.933
 135  335.0416
 136  309.364
 137  260.4301
 138  238.5656
 139  253.5283
 140  227.8057
 141  153.6697
 142  226.9231
 143  243.1834
 144  336.9844
 145  343.0768
 146  201.7772
 147  208.9273
 148  261.7643
 149  152.5342
 150  148.5261
 151  190.5668
 152  254.9497
 153  229.8765
 154  243.1702
 155  231.5677
 156  135.5062
 157  248.5997
 158  329.2997
 159  265.7334
 160  286.168
 161  226.125
 162  135.3589
 163  52.88198
 164  97.59622
 165  82.4258
 166  164.5293
 167  175.9675
 168  250.7285
 169  280.3854
 170  332.0822
 171  182.5942
 172  219.172
 173  356.5409
 174  301.2118
 175  146.0399
 176  131.0437
 177  243.9342
 178  443.284
 179  401.9083
 180  328.0784
 181  310.1401
 182  148.7386
 183  177.6593
 184  228.6792
 185  199.9181
 186  173.5972
 187  239.7227
 188  235.4116
 189  275.8388
 190  238.285
 191  290.9677
 192  314.0967
 193  250.146
 194  262.9375
 195  305.3868
 196  282.3009
 197  314.194
 198  288.0172
 199  176.6899
 200  90.24639
 201  193.4033
 202  170.9961
 203  111.0653
 204  211.1231
 205  206.9636
 206  186.2858
 207  186.671
 208  156.725
 209  39.77191
 210  183.3915
 211  293.5971
 212  221.4455
 213  186.5457
 214  187.7836
 215  233.3137
 216  224.4312
 217  307.7408
 218  269.3405
 219  170.8864
 220  205.536
 221  211.7045
 222  174.6717
 223  145.246
 224  230.667
 225  248.8224
 226  282.5602
 227  217.2807
 228  127.726
 229  325.4787
 230  397.9032
 231  269.9044
 232  172.3265
 233  161.6203
 234  195.8614
 235  224.2678
 236  333.505
 237  305.2614
 238  137.7349
 239  132.3668
 240  246.8683
 241  289.2884
 242  155.3467
 243  175.8661
 244  135.2194
 245  116.1135
 246  121.7757
 247  62.54934
 248  123.5455
 249  113.4334
 250  299.8063
 251  461.2509
 252  363.5982
 253  447.6325
 254  350.0864
 255  267.5746
 256  220.0114
 257  188.5099
 258  255.0421
 259  322.2357
 260  312.1807
 261  320.5882
 262  367.1642
 263  342.5017
 264  252.2214
 265  215.0817
 266  336.0719
 267  304.0575
 268  381.059
 269  310.0674
 270  196.4068
 271  202.9245
 272  449.5385
 273  425.3492
 274  323.3653
 275  289.7066
 276  359.2265
 277  252.8582
 278  211.588
 279  308.9697
 280  331.8632
 281  347.6251
 282  246.8667
 283  215.4582
 284  257.023
 285  273.1932
 286  337.2795
 287  321.7293
 288  211.6525
 289  174.475
 290  130.6989
 291  157.6854
 292  225.6972
 293  113.9244
 294  155.8042
 295  137.7661
 296  187.0011
 297  214.2629
 298  180.6028
 299  152.8807
 300  63.01717
 301  80.31144
 302  185.2449
 303  155.3156
 304  252.8085
 305  313.6229
 306  321.7383
 307  162.2914
 308  139.6994
 309  205.563
 310  216.7841
 311  177.1203
 312  379.8159
 313  264.6096
 314  96.94436
 315  216.3453
 316  149.0061
 317  75.23735
 318  155.8099
 319  218.2204
 320  243.6154
 321  165.6887
 322  302.1188
 323  303.1753
 324  128.0112
 325  181.1863
 326  213.4912
 327  250.2933
 328  249.8137
 329  249.308
 330  158.002
 331  139.4404
 332  116.1799
 333  183.5993
 334  319.7585
 335  272.5723
 336  262.339
 337  313.2843
 338  257.5551
 339  209.4125
 340  217.6758
 341  285.0695
 342  245.2641
 343  238.6181
 344  129.6985
 345  129.7823
 346  132.2325
 347  132.8135
 348  174.5187
 349  158.4829
 350  255.1235
 351  207.2311
 352  300.7572
 353  329.9946
 354  358.5329
 355  223.7799
 356  192.8406
 357  198.7826
 358  218.9617
 359  244.1992
 360  210.0189
 361  195.2397
 362  344.4642
 363  296.7646
 364  266.0825
 365  230.8062
 366  287.0487
 367  320.5462
 368  221.0449
 369  304.7916
 370  245.4051
 371  168.1665
 372  179.9177
 373  140.9811
 374  193.4965
 375  217.0613
 376  227.7707
 377  241.7938
 378  294.1337
 379  328.5446
 380  232.3104
 381  200.5618
 382  255.4594
 383  279.2262
 384  176.4711
 385  213.7322
 386  228.3389
 387  308.1161
 388  221.5131
 389  182.4862
 390  115.6558
 391  251.7687
 392  422.6392
 393  384.7325
 394  291.3519
 395  218.6485
 396  154.1381
 397  21.79739
 398  216.0437
 399  279.178
 400  255.9477
 401  340.1508
 402  156.6767
 403  182.2002
 404  99.57762
 405  168.8108
 406  255.623
 407  112.9155
 408  140.7679
 409  291.0226
 410  250.8154
 411  235.7951
 412  278.4461
 413  317.2384
 414  258.2135
 415  359.1558
 416  374.4822
 417  291.1375
 418  273.7876
 419  365.1213
 420  312.1848
 421  173.0677
 422  245.9695
 423  240.601
 424  253.6703
 425  190.456
 426  293.368
 427  482.8065
 428  245.0502
 429  192.5676
 430  272.093
 431  352.3348
 432  229.9178
 433  123.1416
 434  204.0735
 435  271.7205
 436  352.2619
 437  346.58
 438  273.4935
 439  107.4576
 440  251.6885
 441  248.3001
 442  225.7817
 443  267.9622
 444  349.8484
 445  355.9577
 446  340.6748
 447  342.0931
 448  259.7607
 449  277.1421
 450  323.9134
 451  266.2308
 452  239.8204
 453  344.1356
 454  352.8932
 455  188.3525
 456  225.9415
 457  134.2742
 458  256.4778
 459  371.2129
 460  308.5503
 461  284.5325
 462  318.5417
 463  241.9085
 464  118.034
 465  232.666
 466  404.311
 467  306.2029
 468  238.2267
 469  272.5018
 470  202.0287
 471  259.1898
 472  322.6298
 473  198.9304
 474  206.7688
 475  315.0135
 476  348.6027
 477  232.4344
 478  229.9466
 479  266.0982
 480  296.1722
 481  199.5294
 482  281.2425
 483  202.0451
 484  233.3623
 485  289.7969
 486  171.5258
 487  216.7829
 488  252.6866
 489  294.2503
 490  216.4359
 491  270.7232
 492  312.5519
 493  221.8148
 494  298.0673
 495  272.8421
 496  310.6689
 497  298.0677
 498  300.7292
 499  60.41768
 500  83.56358
 501  186.21
 502  233.9704
 503  223.7401
 504  141.2978
 505  115.037
 506  166.8711
 507  384.9778
 508  431.0816
 509  499.0608
 510  612.1653
 511  762.6904
