# Input file       =  1211284752.109416_cleaned.dat
# Candidate        =  PSR_0332+5434
# Telescope        =  AR
# Epoch_topo       =  58263.499237377502
# Epoch_bary       =  N/A
# T_sample         =  0.002
# Data Folded      =  7340032
# Data Avg         =  0.0373744471907602
# Data StdDev      =  1.00013849404563 
# Profile Bins     =  512
# Profile Avg      =  535.788333919419 
# Profile StdDev   =  119.74961868937  
# Reduced chi-sqr  =  1.182
# Prob(Noise)      <  0.00278   (~2.8 sigma)
# P_topo (ms)      =  714.523626871058  +/- 0.000363
# P'_topo (s/s)    =  -0                +/- 1.91e-10
# P''_topo (s/s^2) =  0                 +/- 8.45e-14
# P_bary (ms)      =  N/A
# P'_bary (s/s)    =  N/A
# P''_bary (s/s^2) =  N/A
# P_orb (s)        =  N/A
# asin(i)/c (s)    =  N/A
# eccentricity     =  N/A
# w (rad)          =  N/A
# T_peri           =  N/A
######################################################
   0  1089.004
   1  943.2509
   2  927.0736
   3  797.6093
   4  679.791
   5  685.0042
   6  563.9116
   7  583.4315
   8  621.3688
   9  638.0331
  10  648.0918
  11  617.7015
  12  538.4285
  13  611.3218
  14  743.7456
  15  768.0179
  16  634.1647
  17  576.9675
  18  474.9251
  19  428.9626
  20  496.1694
  21  526.3442
  22  481.6335
  23  520.2059
  24  527.7285
  25  492.3868
  26  519.1207
  27  569.4192
  28  537.9487
  29  475.0583
  30  437.7973
  31  419.2995
  32  445.6728
  33  511.8531
  34  552.7791
  35  571.2405
  36  556.8324
  37  622.4507
  38  485.2464
  39  473.8721
  40  498.9379
  41  571.58
  42  524.6947
  43  491.8822
  44  549.5681
  45  569.4292
  46  506.883
  47  499.4042
  48  607.5892
  49  574.6
  50  482.2277
  51  523.8975
  52  568.7164
  53  569.0561
  54  485.4076
  55  512.5164
  56  573.9068
  57  562.5606
  58  613.3399
  59  448.5562
  60  521.0123
  61  638.9714
  62  510.6039
  63  521.0765
  64  461.1005
  65  538.4456
  66  485.7052
  67  527.6991
  68  580.091
  69  584.5854
  70  543.1864
  71  527.6395
  72  433.8665
  73  517.9626
  74  429.0476
  75  418.4265
  76  405.7506
  77  506.2336
  78  517.601
  79  435.3628
  80  471.2053
  81  407.9228
  82  483.3841
  83  597.9908
  84  569.5811
  85  422.9668
  86  470.5508
  87  447.122
  88  363.5654
  89  487.6798
  90  492.1949
  91  484.3857
  92  398.5818
  93  423.1829
  94  475.8446
  95  454.6945
  96  377.3528
  97  431.1076
  98  325.394
  99  406.3035
 100  428.0249
 101  490.7794
 102  532.4285
 103  566.327
 104  525.719
 105  443.5479
 106  472.5092
 107  380.0591
 108  458.4991
 109  507.6538
 110  370.5126
 111  352.9983
 112  456.1738
 113  501.711
 114  555.7391
 115  534.1339
 116  509.2401
 117  505.464
 118  598.3332
 119  541.8796
 120  451.6005
 121  594.104
 122  695.2247
 123  594.9585
 124  672.3594
 125  630.7401
 126  633.3152
 127  655.3702
 128  565.1632
 129  560.3239
 130  545.6016
 131  606.9776
 132  617.6596
 133  597.0128
 134  538.7205
 135  551.5479
 136  482.3352
 137  505.7694
 138  540.1377
 139  642.7523
 140  596.1576
 141  587.418
 142  502.4992
 143  510.3804
 144  491.8677
 145  591.9536
 146  555.5303
 147  517.074
 148  562.4077
 149  515.6166
 150  492.9821
 151  514.6482
 152  517.7473
 153  501.5736
 154  489.6658
 155  397.3997
 156  490.5593
 157  509.4926
 158  646.8005
 159  551.716
 160  494.9242
 161  523.4948
 162  450.6409
 163  577.5116
 164  590.7994
 165  678.4193
 166  598.1455
 167  565.4932
 168  617.7692
 169  519.4153
 170  513.6289
 171  475.4091
 172  466.6654
 173  417.6107
 174  547.3201
 175  590.9527
 176  556.8784
 177  495.8071
 178  485.145
 179  558.1727
 180  590.8343
 181  606.9053
 182  658.0782
 183  515.2017
 184  467.4229
 185  475.0389
 186  533.0435
 187  619.3084
 188  561.239
 189  426.0793
 190  503.5775
 191  447.4698
 192  447.6335
 193  432.3958
 194  452.2277
 195  452.6895
 196  532.007
 197  536.4955
 198  434.2773
 199  550.6072
 200  551.5316
 201  472.1257
 202  405.4832
 203  477.3856
 204  529.8341
 205  550.465
 206  557.0444
 207  429.1013
 208  470.2038
 209  513.3655
 210  544.5663
 211  419.9073
 212  391.3139
 213  539.3395
 214  423.8044
 215  452.7849
 216  502.0448
 217  432.7137
 218  510.7271
 219  493.4034
 220  518.5641
 221  523.6637
 222  458.2026
 223  412.1411
 224  440.37
 225  557.8643
 226  598.691
 227  532.5579
 228  588.1158
 229  603.2239
 230  489.5722
 231  420.5978
 232  455.1688
 233  513.5555
 234  463.7834
 235  483.3891
 236  424.9226
 237  427.416
 238  541.5973
 239  471.1762
 240  500.3381
 241  521.1539
 242  515.2479
 243  441.4279
 244  391.0709
 245  435.4364
 246  522.8564
 247  508.2914
 248  486.3096
 249  390.4931
 250  404.9666
 251  354.3157
 252  417.695
 253  535.6159
 254  625.9513
 255  413.0509
 256  298.4099
 257  477.3354
 258  538.5262
 259  583.8641
 260  560.4622
 261  555.5239
 262  501.6759
 263  477.802
 264  598.3626
 265  530.9279
 266  503.1643
 267  616.6414
 268  613.5379
 269  703.1837
 270  567.1868
 271  502.5991
 272  513.2507
 273  592.0933
 274  485.0077
 275  557.5584
 276  537.0425
 277  495.4137
 278  368.2392
 279  527.8837
 280  574.4562
 281  553.0408
 282  438.9413
 283  454.5109
 284  469.2639
 285  403.2654
 286  511.5061
 287  581.5189
 288  570.371
 289  639.8245
 290  618.5534
 291  537.1567
 292  466.9168
 293  402.0846
 294  486.7391
 295  648.6967
 296  673.017
 297  631.4979
 298  586.6865
 299  607.691
 300  543.7697
 301  537.4144
 302  497.1239
 303  481.2205
 304  396.0991
 305  458.128
 306  497.9393
 307  524.9532
 308  494.8186
 309  538.5869
 310  623.5837
 311  503.4878
 312  496.4084
 313  484.2061
 314  406.9232
 315  473.0409
 316  567.6895
 317  690.5226
 318  647.6863
 319  530.4677
 320  512.5658
 321  525.5477
 322  568.5129
 323  732.8855
 324  688.4557
 325  638.7896
 326  529.7605
 327  468.7351
 328  562.5676
 329  655.5371
 330  613.1544
 331  574.8846
 332  548.983
 333  577.4222
 334  564.7405
 335  573.7983
 336  618.2139
 337  683.2451
 338  573.0798
 339  591.7678
 340  523.3629
 341  518.3622
 342  570.7185
 343  625.9177
 344  598.157
 345  551.0992
 346  548.1949
 347  586.4899
 348  597.5929
 349  633.7473
 350  644.3478
 351  605.2716
 352  580.4591
 353  533.4824
 354  495.7281
 355  481.2826
 356  487.339
 357  575.5933
 358  602.3203
 359  594.0187
 360  517.8649
 361  490.098
 362  685.6175
 363  547.776
 364  584.2789
 365  454.3891
 366  544.9658
 367  653.0209
 368  601.8974
 369  593.1064
 370  504.6233
 371  515.9876
 372  455.8219
 373  435.607
 374  572.7455
 375  732.1878
 376  611.6457
 377  521.0922
 378  506.7569
 379  554.3235
 380  625.1658
 381  560.2389
 382  544.4059
 383  537.8462
 384  501.8897
 385  436.3635
 386  519.7703
 387  626.3583
 388  637.1675
 389  640.5315
 390  578.8245
 391  573.7616
 392  550.5261
 393  548.9502
 394  492.7416
 395  498.8162
 396  623.8148
 397  612.7182
 398  573.4794
 399  574.4156
 400  473.687
 401  493.9752
 402  537.9564
 403  616.2288
 404  537.2974
 405  509.0716
 406  630.6058
 407  442.0085
 408  534.2701
 409  683.5446
 410  629.8478
 411  524.0158
 412  520.4642
 413  667.3714
 414  729.0934
 415  649.8718
 416  641.7272
 417  670.8496
 418  589.2452
 419  429.8342
 420  354.6872
 421  444.1964
 422  497.6283
 423  561.8417
 424  589.7105
 425  703.4298
 426  646.9969
 427  685.9338
 428  631.3077
 429  538.2911
 430  535.3804
 431  554.9578
 432  524.1005
 433  543.6134
 434  638.0529
 435  686.5229
 436  513.4495
 437  469.1466
 438  474.1153
 439  477.9285
 440  455.131
 441  530.4617
 442  470.0487
 443  549.6486
 444  530.1065
 445  509.2104
 446  559.0068
 447  473.7728
 448  542.306
 449  518.4337
 450  447.4607
 451  389.8555
 452  374.2755
 453  466.3152
 454  524.0316
 455  471.3959
 456  429.6952
 457  482.9518
 458  336.8403
 459  395.6886
 460  387.8068
 461  315.5809
 462  375.3167
 463  422.5458
 464  435.5779
 465  403.5141
 466  373.0546
 467  474.118
 468  540.5018
 469  582.5447
 470  584.5076
 471  601.6119
 472  559.8572
 473  614.953
 474  647.7511
 475  610.9528
 476  522.6954
 477  363.0695
 478  542.0168
 479  552.2563
 480  605.6939
 481  658.1185
 482  605.8643
 483  537.2509
 484  566.7795
 485  562.8798
 486  504.8842
 487  656.4684
 488  653.3693
 489  532.4703
 490  452.0291
 491  539.6176
 492  481.4626
 493  455.6902
 494  442.1615
 495  502.1413
 496  467.6869
 497  526.3297
 498  664.5368
 499  711.5737
 500  658.0184
 501  560.5215
 502  514.3566
 503  621.248
 504  528.1634
 505  517.6761
 506  483.9368
 507  541.3669
 508  746.9887
 509  839.3819
 510  1100.922
 511  1078.116
