# Input file       =  1211872896.115322_cleaned.dat
# Candidate        =  PSR_0332+5434
# Telescope        =  AR
# Epoch_topo       =  58270.306459668078
# Epoch_bary       =  N/A
# T_sample         =  0.002
# Data Folded      =  7340032
# Data Avg         =  0.024545570273626
# Data StdDev      =  1.0001283338563  
# Profile Bins     =  512
# Profile Avg      =  351.883653308698 
# Profile StdDev   =  119.748402179051 
# Reduced chi-sqr  =  1.109
# Prob(Noise)      <  0.0442   (~1.7 sigma)
# P_topo (ms)      =  714.516641896897  +/- 0.00054
# P'_topo (s/s)    =  -0                +/- 2.85e-10
# P''_topo (s/s^2) =  0                 +/- 1.26e-13
# P_bary (ms)      =  N/A
# P'_bary (s/s)    =  N/A
# P''_bary (s/s^2) =  N/A
# P_orb (s)        =  N/A
# asin(i)/c (s)    =  N/A
# eccentricity     =  N/A
# w (rad)          =  N/A
# T_peri           =  N/A
######################################################
   0  877.4227
   1  794.1701
   2  653.6847
   3  664.3829
   4  573.0552
   5  468.4968
   6  357.1166
   7  383.3646
   8  365.9839
   9  351.7516
  10  271.0214
  11  289.7099
  12  414.9034
  13  330.0293
  14  287.8332
  15  280.3279
  16  323.8094
  17  318.9055
  18  411.4123
  19  357.0417
  20  391.4707
  21  285.4314
  22  370.5292
  23  412.1673
  24  341.7473
  25  335.8006
  26  345.3358
  27  282.407
  28  315.9344
  29  401.8931
  30  398.1736
  31  317.8381
  32  232.267
  33  177.6053
  34  322.0262
  35  358.9937
  36  266.8686
  37  205.0597
  38  316.7999
  39  410.5766
  40  416.6929
  41  322.3072
  42  314.8476
  43  288.71
  44  355.1168
  45  357.0422
  46  245.8042
  47  350.8309
  48  260.8573
  49  108.6877
  50  199.1562
  51  187.0047
  52  322.1209
  53  399.6608
  54  354.9943
  55  442.1214
  56  478.0077
  57  315.8343
  58  328.8681
  59  388.8805
  60  503.9025
  61  435.2681
  62  291.5788
  63  395.3266
  64  493.0987
  65  382.5686
  66  391.9001
  67  346.3554
  68  273.0276
  69  286.9589
  70  241.6171
  71  370.9002
  72  292.4578
  73  274.8427
  74  374.3515
  75  322.6833
  76  297.3122
  77  333.9902
  78  300.4943
  79  352.5807
  80  439.7973
  81  386.7501
  82  302.653
  83  377.197
  84  365.2431
  85  279.9348
  86  272.0412
  87  239.5927
  88  266.9774
  89  398.5529
  90  403.7148
  91  237.0494
  92  244.4067
  93  186.1953
  94  288.201
  95  301.5687
  96  245.0166
  97  289.1991
  98  340.9436
  99  346.4953
 100  209.9077
 101  219.226
 102  270.273
 103  304.072
 104  248.8216
 105  322.7933
 106  386.8508
 107  299.2748
 108  276.9058
 109  317.9203
 110  382.6981
 111  289.1258
 112  263.7416
 113  269.0938
 114  361.2312
 115  267.589
 116  275.6938
 117  356.6686
 118  431.3492
 119  381.1365
 120  219.0177
 121  203.1785
 122  341.9901
 123  285.0803
 124  404.7602
 125  346.6702
 126  335.4067
 127  331.4486
 128  202.71
 129  287.4992
 130  262.4218
 131  284.8362
 132  444.5484
 133  315.2829
 134  280.497
 135  272.2289
 136  289.5836
 137  260.1717
 138  248.8726
 139  286.8452
 140  237.6272
 141  174.0795
 142  314.2684
 143  288.4153
 144  286.0558
 145  218.2491
 146  254.959
 147  220.8048
 148  271.9746
 149  338.738
 150  323.8972
 151  301.2518
 152  331.8907
 153  354.49
 154  270.5515
 155  410.8737
 156  411.978
 157  375.3189
 158  399.3622
 159  476.4812
 160  362.1895
 161  369.787
 162  396.5211
 163  371.8564
 164  415.6299
 165  482.9532
 166  369.4698
 167  283.2194
 168  345.4061
 169  359.669
 170  289.4137
 171  356.8171
 172  443.1251
 173  406.1432
 174  330.0368
 175  355.6786
 176  399.7415
 177  506.9068
 178  421.2507
 179  325.5454
 180  348.3344
 181  367.8928
 182  325.2137
 183  381.1685
 184  416.6242
 185  451.397
 186  322.0333
 187  269.6697
 188  346.293
 189  377.5201
 190  420.5627
 191  505.661
 192  458.2563
 193  413.1384
 194  404.4523
 195  452.1367
 196  435.5654
 197  357.3593
 198  317.8018
 199  318.5686
 200  390.236
 201  430.2632
 202  549.6034
 203  471.3347
 204  479.8917
 205  389.6524
 206  408.1572
 207  415.4694
 208  400.5227
 209  448.7238
 210  520.6516
 211  450.9615
 212  386.5485
 213  509.4073
 214  475.6684
 215  546.2744
 216  523.0198
 217  457.9102
 218  516.3145
 219  534.4637
 220  550.5693
 221  516.5974
 222  445.1889
 223  415.0027
 224  463.5612
 225  406.2514
 226  374.6934
 227  410.8464
 228  507.2025
 229  419.6523
 230  384.4992
 231  496.0455
 232  510.9208
 233  485.2695
 234  470.0239
 235  379.6923
 236  282.2326
 237  338.5845
 238  429.0661
 239  485.737
 240  400.8031
 241  423.8774
 242  439.705
 243  442.02
 244  395.4287
 245  360.7917
 246  549.0685
 247  610.379
 248  466.5801
 249  323.0247
 250  316.1456
 251  353.7619
 252  429.8118
 253  432.0727
 254  452.8403
 255  352.6812
 256  358.1824
 257  450.2849
 258  435.3505
 259  373.8717
 260  409.2585
 261  406.6339
 262  389.3056
 263  320.2703
 264  194.0433
 265  170.2378
 266  286.0762
 267  272.2919
 268  269.7138
 269  268.8566
 270  290.6442
 271  424.8306
 272  411.6601
 273  348.6206
 274  335.2376
 275  334.8181
 276  399.0708
 277  361.6083
 278  348.5411
 279  347.2347
 280  304.6756
 281  290.6564
 282  229.5194
 283  280.4933
 284  328.7275
 285  286.6153
 286  223.3094
 287  354.4836
 288  437.1122
 289  295.2918
 290  311.0724
 291  415.5761
 292  343.7609
 293  317.9625
 294  322.9368
 295  286.0321
 296  308.7235
 297  311.2652
 298  387.5125
 299  308.7475
 300  229.2641
 301  363.15
 302  350.6978
 303  398.9841
 304  419.9807
 305  387.9587
 306  375.7262
 307  366.4632
 308  288.9431
 309  185.3831
 310  228.0211
 311  352.7632
 312  352.6883
 313  313.8348
 314  346.8082
 315  341.6516
 316  354.4188
 317  347.9973
 318  415.0969
 319  434.851
 320  240.7065
 321  194.4672
 322  327.9181
 323  414.0022
 324  398.9339
 325  465.4237
 326  399.5064
 327  524.8457
 328  518.6199
 329  508.5211
 330  440.5966
 331  454.4069
 332  409.4445
 333  367.2793
 334  321.2653
 335  461.9413
 336  400.9582
 337  417.3252
 338  443.3281
 339  387.7324
 340  339.4422
 341  376.5499
 342  343.2569
 343  446.4809
 344  325.2764
 345  285.6545
 346  333.2389
 347  399.8739
 348  322.5096
 349  332.7255
 350  407.2747
 351  456.0491
 352  360.8304
 353  297.1111
 354  301.0004
 355  328.6483
 356  456.1924
 357  348.2318
 358  347.4099
 359  296.1602
 360  213.8848
 361  254.8906
 362  312.8351
 363  214.5534
 364  293.5786
 365  338.7046
 366  316.3665
 367  238.0563
 368  308.2568
 369  393.9894
 370  321.4931
 371  305.3652
 372  384.0889
 373  397.7484
 374  364.4102
 375  371.9736
 376  283.7364
 377  249.7682
 378  217.6067
 379  269.1872
 380  245.1238
 381  154.0385
 382  234.2557
 383  323.9961
 384  340.4954
 385  353.8093
 386  369.3279
 387  256.5299
 388  181.5147
 389  294.6146
 390  392.8992
 391  400.6747
 392  391.1122
 393  351.3067
 394  290.1192
 395  342.9986
 396  424.3266
 397  304.5221
 398  218.2161
 399  326.168
 400  358.3428
 401  281.9284
 402  312.5838
 403  311.4538
 404  301.1104
 405  303.5891
 406  421.5811
 407  416.8306
 408  291.5453
 409  279.1512
 410  283.2345
 411  324.0222
 412  297.501
 413  231.938
 414  291.5267
 415  270.7126
 416  403.2358
 417  264.2302
 418  241.6634
 419  314.1629
 420  393.2794
 421  305.2008
 422  356.6594
 423  448.5266
 424  408.9062
 425  306.7083
 426  400.3737
 427  390.3169
 428  157.7985
 429  277.8526
 430  349.3643
 431  343.9532
 432  254.0275
 433  303.4661
 434  275.871
 435  328.078
 436  283.5763
 437  254.532
 438  293.492
 439  354.1204
 440  264.0046
 441  357.5044
 442  373.2737
 443  257.5546
 444  241.7883
 445  275.1438
 446  280.9631
 447  211.1765
 448  235.1276
 449  239.7773
 450  334.4214
 451  266.4471
 452  222.5648
 453  322.5808
 454  327.2321
 455  263.5891
 456  282.6821
 457  424.457
 458  401.3772
 459  338.5987
 460  400.8608
 461  451.3913
 462  408.772
 463  304.9386
 464  342.2491
 465  385.6434
 466  356.9924
 467  366.8152
 468  346.5451
 469  350.9486
 470  363.359
 471  479.7148
 472  338.5985
 473  343.6315
 474  394.8499
 475  336.4431
 476  203.0479
 477  282.9241
 478  384.7677
 479  368.4377
 480  322.2536
 481  341.8043
 482  373.1624
 483  300.3831
 484  269.9801
 485  307.5017
 486  444.3636
 487  329.7876
 488  334.5468
 489  309.1367
 490  292.8289
 491  319.2425
 492  416.1097
 493  330.6179
 494  266.9811
 495  351.3158
 496  400.0615
 497  238.82
 498  308.9928
 499  382.6282
 500  360.3525
 501  222.7472
 502  260.0525
 503  377.9852
 504  367.4011
 505  302.7885
 506  421.3028
 507  503.7232
 508  589.3489
 509  629.2694
 510  664.8565
 511  873.9181
