# Input file       =  1211269825.111266_cleaned.dat
# Candidate        =  PSR_0332+5434
# Telescope        =  AR
# Epoch_topo       =  58263.326471195207
# Epoch_bary       =  N/A
# T_sample         =  0.002
# Data Folded      =  7340032
# Data Avg         =  0.0208946417127937
# Data StdDev      =  0.999962551733609
# Profile Bins     =  512
# Profile Avg      =  299.479602939012 
# Profile StdDev   =  119.728552582124 
# Reduced chi-sqr  =  0.989
# Prob(Noise)      <  0.56   (~0.0 sigma)
# P_topo (ms)      =  714.523461446789  +/- 0.000411
# P'_topo (s/s)    =  -0                +/- 2.17e-10
# P''_topo (s/s^2) =  0                 +/- 9.57e-14
# P_bary (ms)      =  N/A
# P'_bary (s/s)    =  N/A
# P''_bary (s/s^2) =  N/A
# P_orb (s)        =  N/A
# asin(i)/c (s)    =  N/A
# eccentricity     =  N/A
# w (rad)          =  N/A
# T_peri           =  N/A
######################################################
   0  689.4374
   1  649.4212
   2  496.4284
   3  350.2241
   4  323.9818
   5  290.49
   6  299.9951
   7  302.2758
   8  272.0229
   9  201.7598
  10  201.5906
  11  101.6474
  12  196.8863
  13  272.5579
  14  248.151
  15  132.4294
  16  118.0041
  17  238.9863
  18  360.4391
  19  331.2328
  20  296.1143
  21  253.0094
  22  230.5075
  23  288.0736
  24  276.9459
  25  246.1438
  26  175.0804
  27  179.2166
  28  186.9319
  29  112.389
  30  158.0916
  31  230.7634
  32  216.416
  33  207.7838
  34  235.7724
  35  242.7749
  36  210.7694
  37  245.2971
  38  156.0397
  39  173.4144
  40  191.9293
  41  241.2193
  42  336.4824
  43  353.8971
  44  287.6379
  45  276.664
  46  218.1613
  47  119.6805
  48  196.296
  49  295.9047
  50  180.3151
  51  102.9861
  52  270.0297
  53  236.1417
  54  242.9065
  55  329.6204
  56  396.2142
  57  408.5611
  58  413.4033
  59  359.3471
  60  279.6665
  61  310.2966
  62  326.3565
  63  291.6194
  64  276.5609
  65  349.5131
  66  296.6682
  67  361.1698
  68  296.2643
  69  316.6857
  70  401.1884
  71  441.9473
  72  401.1151
  73  429.361
  74  446.636
  75  432.6345
  76  302.3051
  77  373.7016
  78  436.2961
  79  393.3748
  80  357.5243
  81  490.2042
  82  432.4723
  83  346.0035
  84  408.6119
  85  373.7548
  86  441.6429
  87  417.38
  88  403.2712
  89  430.5063
  90  459.1076
  91  567.2667
  92  514.0835
  93  462.7879
  94  386.8136
  95  440.2121
  96  418.1582
  97  444.4538
  98  428.103
  99  385.5363
 100  423.9733
 101  435.3564
 102  373.9123
 103  304.6184
 104  330.5431
 105  396.3244
 106  369.3231
 107  385.7117
 108  462.2743
 109  410.8335
 110  324.2882
 111  355.3201
 112  402.6762
 113  387.947
 114  318.7345
 115  308.3619
 116  304.8405
 117  368.0605
 118  394.3855
 119  434.5544
 120  382.3215
 121  394.276
 122  336.5743
 123  349.3728
 124  412.4387
 125  387.6701
 126  360.773
 127  406.9462
 128  469.6672
 129  376.1326
 130  391.3433
 131  394.0488
 132  352.3787
 133  362.6548
 134  373.1336
 135  309.5946
 136  391.1786
 137  413.6314
 138  432.7764
 139  447.9522
 140  394.0338
 141  402.6594
 142  309.428
 143  263.0581
 144  248.1841
 145  293.4639
 146  344.3546
 147  297.369
 148  238.9626
 149  297.7582
 150  162.5452
 151  220.6334
 152  241.9067
 153  281.1577
 154  264.67
 155  295.8556
 156  301.7361
 157  405.2803
 158  389.8441
 159  388.2794
 160  340.1327
 161  320.4276
 162  253.6075
 163  233.6042
 164  281.7629
 165  314.9481
 166  235.931
 167  217.2117
 168  159.58
 169  143.0634
 170  231.0895
 171  275.3572
 172  317.9955
 173  295.4847
 174  164.1382
 175  144.1074
 176  223.5147
 177  352.3725
 178  323.9368
 179  284.0593
 180  439.4925
 181  441.5809
 182  420.4393
 183  400.1451
 184  409.2446
 185  438.144
 186  409.1354
 187  393.2602
 188  319.6642
 189  328.5376
 190  267.5163
 191  290.3343
 192  277.8026
 193  258.453
 194  196.7963
 195  310.0359
 196  348.2749
 197  273.2061
 198  281.5167
 199  292.6454
 200  310.874
 201  274.8476
 202  273.0449
 203  286.3846
 204  320.2245
 205  330.4117
 206  300.5794
 207  210.397
 208  208.6678
 209  313.9881
 210  352.8466
 211  301.3088
 212  224.7512
 213  197.6468
 214  199.4471
 215  220.7047
 216  245.6914
 217  211.6915
 218  303.9833
 219  323.3087
 220  318.9007
 221  319.0471
 222  373.6549
 223  385.8303
 224  374.3358
 225  223.9984
 226  306.7025
 227  232.3815
 228  228.7621
 229  235.6564
 230  241.4108
 231  257.821
 232  230.9007
 233  253.0926
 234  221.9004
 235  126.5306
 236  187.1871
 237  213.7764
 238  132.9131
 239  269.129
 240  281.9699
 241  177.7516
 242  222.982
 243  281.0334
 244  204.3234
 245  140.5425
 246  112.1124
 247  221.3746
 248  261.5454
 249  295.1942
 250  207.5776
 251  211.1579
 252  228.021
 253  247.9495
 254  285.7235
 255  240.3358
 256  153.3664
 257  176.5199
 258  206.9259
 259  262.6573
 260  310.5644
 261  291.6733
 262  267.6763
 263  384.9316
 264  300.1785
 265  172.0254
 266  183.6412
 267  222.4038
 268  269.768
 269  294.6877
 270  275.2348
 271  286.7495
 272  289.5401
 273  193.8619
 274  179.024
 275  248.218
 276  271.231
 277  348.1623
 278  236.1008
 279  265.8091
 280  227.2079
 281  216.2706
 282  243.9577
 283  212.0999
 284  215.191
 285  272.3015
 286  258.7576
 287  161.3041
 288  249.1881
 289  315.7733
 290  290.4259
 291  237.2378
 292  276.9782
 293  235.1775
 294  177.8271
 295  105.5077
 296  173.2247
 297  279.8888
 298  367.0949
 299  374.1374
 300  259.8389
 301  157.3345
 302  233.6053
 303  208.0889
 304  202.759
 305  224.343
 306  280.82
 307  288.8169
 308  264.54
 309  241.1455
 310  239.4877
 311  266.3331
 312  239.3674
 313  177.8032
 314  261.3977
 315  316.062
 316  252.6838
 317  165.6768
 318  102.2059
 319  196.4217
 320  306.0022
 321  253.7498
 322  255.8689
 323  203.2584
 324  287.411
 325  220.762
 326  169.4044
 327  308.5257
 328  302.1231
 329  338.7097
 330  389.6517
 331  275.5698
 332  235.8285
 333  241.752
 334  308.5892
 335  262.8047
 336  245.3027
 337  208.8555
 338  260.7781
 339  199.5759
 340  287.6441
 341  361.5293
 342  253.3933
 343  221.7193
 344  302.8553
 345  308.7249
 346  252.6655
 347  278.5387
 348  237.5771
 349  191.7773
 350  277.7506
 351  335.2431
 352  268.7492
 353  231.1925
 354  250.7682
 355  261.2393
 356  327.5759
 357  274.2608
 358  342.4662
 359  276.5413
 360  291.7288
 361  230.6897
 362  336.3886
 363  340.8689
 364  244.4389
 365  296.7096
 366  383.976
 367  383.0292
 368  320.5024
 369  395.9844
 370  410.4065
 371  340.3025
 372  380.3355
 373  357.0454
 374  384.2975
 375  324.9125
 376  292.0534
 377  170.2951
 378  252.8263
 379  329.9051
 380  338.8367
 381  283.9214
 382  245.8272
 383  368.5962
 384  418.654
 385  413.3335
 386  451.1168
 387  419.7477
 388  348.7563
 389  325.7042
 390  362.3068
 391  336.4186
 392  297.318
 393  355.9083
 394  345.2407
 395  458.2585
 396  404.8311
 397  341.631
 398  279.784
 399  280.4388
 400  267.8008
 401  315.106
 402  309.5746
 403  286.428
 404  239.1634
 405  231.8264
 406  267.1408
 407  218.6733
 408  210.1556
 409  211.6142
 410  269.2078
 411  270.6627
 412  187.8596
 413  345.3093
 414  271.4182
 415  166.9151
 416  293.2879
 417  309.8952
 418  381.7763
 419  387.4346
 420  339.0106
 421  308.5055
 422  325.3206
 423  379.6495
 424  300.1672
 425  317.8488
 426  312.4655
 427  318.33
 428  403.296
 429  394.5862
 430  416.361
 431  358.756
 432  335.1178
 433  289.2814
 434  272.6433
 435  279.8038
 436  344.3344
 437  339.3805
 438  435.1933
 439  371.0478
 440  367.4619
 441  393.4821
 442  370.2337
 443  388.3127
 444  287.0468
 445  284.9484
 446  365.8253
 447  328.0918
 448  239.756
 449  212.5706
 450  162.1452
 451  167.7327
 452  108.07
 453  171.097
 454  144.9932
 455  264.8895
 456  298.9908
 457  197.7924
 458  202.0654
 459  287.517
 460  268.8752
 461  340.1773
 462  418.5834
 463  318.6593
 464  288.213
 465  270.7618
 466  276.2737
 467  256.1131
 468  273.472
 469  256.9424
 470  340.2264
 471  339.9512
 472  272.9665
 473  259.5344
 474  237.9772
 475  294.1942
 476  226.5183
 477  270.0264
 478  329.716
 479  359.7522
 480  349.9147
 481  337.5965
 482  259.6482
 483  273.3762
 484  269.61
 485  255.3711
 486  254.0034
 487  338.1751
 488  401.4418
 489  328.0305
 490  341.0567
 491  307.6317
 492  277.9591
 493  291.241
 494  339.3146
 495  344.321
 496  324.1293
 497  314.2448
 498  318.5514
 499  309.024
 500  343.0518
 501  393.2851
 502  322.2943
 503  235.2698
 504  305.7684
 505  339.9863
 506  280.6662
 507  306.29
 508  425.4315
 509  535.2661
 510  610.9546
 511  677.9404
