# Input file       =  1211872896.115322_cleaned.dat
# Candidate        =  PSR_0332+5434
# Telescope        =  AR
# Epoch_topo       =  58270.306459668078
# Epoch_bary       =  N/A
# T_sample         =  0.002
# Data Folded      =  7340032
# Data Avg         =  0.024545570273626
# Data StdDev      =  1.0001283338563  
# Profile Bins     =  512
# Profile Avg      =  351.883653309679 
# Profile StdDev   =  119.748402179051 
# Reduced chi-sqr  =  1.103
# Prob(Noise)      <  0.0541   (~1.6 sigma)
# P_topo (ms)      =  714.516642100543  +/- 0.00054
# P'_topo (s/s)    =  -0                +/- 2.85e-10
# P''_topo (s/s^2) =  0                 +/- 1.26e-13
# P_bary (ms)      =  N/A
# P'_bary (s/s)    =  N/A
# P''_bary (s/s^2) =  N/A
# P_orb (s)        =  N/A
# asin(i)/c (s)    =  N/A
# eccentricity     =  N/A
# w (rad)          =  N/A
# T_peri           =  N/A
######################################################
   0  830.899
   1  725.5486
   2  640.1904
   3  640.9641
   4  492.5202
   5  419.2028
   6  348.667
   7  398.5054
   8  356.0006
   9  302.1982
  10  259.54
  11  366.4546
  12  396.5988
  13  276.2128
  14  289.2596
  15  305.2486
  16  318.5472
  17  380.6221
  18  374.2175
  19  396.3851
  20  333.9612
  21  303.3549
  22  427.1425
  23  351.7751
  24  323.583
  25  355.0207
  26  313.1279
  27  286.2884
  28  369.1174
  29  407.3807
  30  372.5534
  31  259.7856
  32  184.2775
  33  249.2767
  34  368.7788
  35  321.3403
  36  198.2207
  37  254.1373
  38  373.2133
  39  440.9053
  40  369.8328
  41  304.2051
  42  309.7186
  43  290.0066
  44  401.042
  45  267.6485
  46  300.4377
  47  345.5373
  48  137.098
  49  158.4794
  50  189.7981
  51  252.539
  52  385.8358
  53  378.8611
  54  366.905
  55  504.576
  56  387.1718
  57  313.7092
  58  351.8217
  59  451.0291
  60  506.5332
  61  345.7054
  62  320.9376
  63  473.6987
  64  422.6983
  65  381.7295
  66  375.4961
  67  303.2143
  68  274.3268
  69  263.465
  70  296.9253
  71  373.0963
  72  217.3518
  73  358.17
  74  350.9032
  75  306.9635
  76  326.6907
  77  314.5125
  78  315.9193
  79  406.4086
  80  430.3695
  81  324.2878
  82  333.5017
  83  395.912
  84  301.2173
  85  282.3091
  86  243.2556
  87  250.6366
  88  320.6866
  89  448.2744
  90  295.6018
  91  242.0702
  92  207.2066
  93  234.5309
  94  321.2166
  95  264.0942
  96  267.6801
  97  301.7109
  98  362.1615
  99  268.4394
 100  191.6593
 101  253.9922
 102  299.3693
 103  261.4322
 104  284.7166
 105  381.4063
 106  355.2617
 107  266.6564
 108  271.1705
 109  373.2714
 110  331.923
 111  277.5287
 112  253.622
 113  327.7751
 114  333.7527
 115  241.7019
 116  318.917
 117  406.9158
 118  420.6028
 119  302.4944
 120  163.0949
 121  303.6121
 122  309.5906
 123  332.4235
 124  417.9841
 125  292.8391
 126  378.9963
 127  228.5291
 128  248.3193
 129  284.1483
 130  259.3897
 131  386.6293
 132  391.2632
 133  279.3519
 134  273.3531
 135  287.7777
 136  275.4354
 137  251.9182
 138  261.937
 139  282.8039
 140  184.6804
 141  246.1184
 142  323.8834
 143  271.8852
 144  246.7518
 145  230.6669
 146  258.6013
 147  221.6872
 148  318.5692
 149  338.1516
 150  306.885
 151  303.7653
 152  361.3365
 153  290.3306
 154  345.6423
 155  432.3043
 156  386.6248
 157  373.2872
 158  466.2597
 159  414.8659
 160  345.6409
 161  405.6153
 162  363.2443
 163  390.5431
 164  454.1533
 165  454.3037
 166  297.4922
 167  320.0044
 168  353.498
 169  339.9206
 170  288.2741
 171  428.7543
 172  423.2215
 173  358.5084
 174  347.1504
 175  369.5815
 176  468.499
 177  472.4742
 178  356.8915
 179  333.0325
 180  365.6852
 181  328.6855
 182  359.5388
 183  389.2001
 184  470.0935
 185  379.3737
 186  285.1939
 187  299.1056
 188  371.1318
 189  391.3839
 190  472.6323
 191  499.5964
 192  410.0435
 193  420.1683
 194  410.2118
 195  484.9544
 196  373.2366
 197  328.5473
 198  310.0718
 199  346.3884
 200  409.8294
 201  504.9918
 202  522.7955
 203  473.9595
 204  437.8281
 205  380.3465
 206  426.7774
 207  400.9953
 208  423.7196
 209  491.2755
 210  509.1921
 211  378.9802
 212  459.456
 213  494.6757
 214  507.0376
 215  556.8649
 216  480.7979
 217  477.7071
 218  529.9326
 219  533.67
 220  538.6516
 221  479.3102
 222  424.2828
 223  444.8463
 224  436.6688
 225  391.5393
 226  372.6696
 227  479.1654
 228  478.3246
 229  369.2372
 230  453.0976
 231  514.6437
 232  495.1843
 233  477.9406
 234  433.016
 235  311.6142
 236  292.0349
 237  402.4243
 238  468.9161
 239  452.4154
 240  397.4288
 241  428.035
 242  448.7849
 243  419.9647
 244  351.5317
 245  457.0969
 246  611.7817
 247  553.5281
 248  368.815
 249  317.7781
 250  316.066
 251  401.0808
 252  428.9122
 253  467.1422
 254  398.0854
 255  329.7311
 256  407.8654
 257  479.2811
 258  391.8086
 259  381.2487
 260  416.746
 261  377.2657
 262  383.4151
 263  234.968
 264  164.4102
 265  217.6013
 266  303.4648
 267  252.1154
 268  301.9886
 269  251.6496
 270  393.3792
 271  415.6637
 272  379.7597
 273  316.891
 274  341.8462
 275  371.297
 276  382.1634
 277  345.8296
 278  352.2333
 279  315.6522
 280  310.9893
 281  248.4771
 282  259.6921
 283  306.0676
 284  329.6608
 285  221.795
 286  290.6889
 287  426.1084
 288  377.7047
 289  273.4077
 290  369.3728
 291  395.9858
 292  306.1692
 293  333.7005
 294  292.8459
 295  307.9988
 296  301.2242
 297  355.7878
 298  361.7283
 299  237.9611
 300  306.8015
 301  359.6801
 302  368.3491
 303  423.2873
 304  395.1958
 305  384.8535
 306  365.6135
 307  343.8061
 308  222.8627
 309  189.1169
 310  295.5363
 311  378.8552
 312  314.2411
 313  339.0459
 314  337.5838
 315  373.4404
 316  330.297
 317  389.5751
 318  436.5338
 319  340.1642
 320  175.9679
 321  252.8707
 322  405.3247
 323  401.2862
 324  446.6732
 325  421.3504
 326  455.5404
 327  541.1472
 328  514.2972
 329  471.4145
 330  434.9638
 331  442.084
 332  376.6497
 333  334.6545
 334  399.1468
 335  445.8993
 336  390.6436
 337  436.7988
 338  428.1366
 339  349.4722
 340  374.2292
 341  339.8853
 342  405.097
 343  394.1851
 344  288.2118
 345  305.9743
 346  380.8995
 347  356.6049
 348  309.4782
 349  381.2573
 350  442.5479
 351  429.2908
 352  294.9171
 353  318.7516
 354  279.9702
 355  417.6142
 356  405.6638
 357  335.0204
 358  347.9413
 359  254.3014
 360  204.1472
 361  311.5699
 362  235.3663
 363  259.253
 364  316.5469
 365  354.5924
 366  247.9464
 367  268.0584
 368  355.4515
 369  380.8854
 370  276.683
 371  367.5432
 372  396.4748
 373  388.7415
 374  366.3767
 375  334.7904
 376  253.6082
 377  224.4763
 378  241.2135
 379  278.1469
 380  175.0219
 381  190.3744
 382  278.5498
 383  348.7316
 384  328.2164
 385  377.7243
 386  330.7743
 387  185.4365
 388  245.4671
 389  345.561
 390  411.7767
 391  385.8712
 392  375.4372
 393  322.1553
 394  298.8864
 395  400.4521
 396  378.4467
 397  232.492
 398  269.9579
 399  367.4849
 400  311.3361
 401  288.4041
 402  320.5204
 403  311.0285
 404  279.8053
 405  368.7063
 406  442.1062
 407  332.6428
 408  287.9506
 409  272.199
 410  316.7551
 411  316.0498
 412  257.8858
 413  254.8143
 414  279.2916
 415  329.7812
 416  360.8026
 417  226.8802
 418  272.0547
 419  383.8904
 420  341.4862
 421  318.8833
 422  407.3812
 423  456.9967
 424  342.5712
 425  331.2405
 426  450.2582
 427  231.2386
 428  200.9041
 429  339.4677
 430  341.235
 431  300.3164
 432  264.4501
 433  308.9933
 434  291.7941
 435  329.4464
 436  251.4071
 437  256.3877
 438  340.9367
 439  302.0677
 440  302.7564
 441  389.9929
 442  314.5605
 443  219.3869
 444  278.4519
 445  284.3973
 446  247.1262
 447  210.9167
 448  232.3743
 449  295.0084
 450  327.5085
 451  209.2412
 452  283.0836
 453  332.7408
 454  296.1013
 455  249.2245
 456  379.8327
 457  415.709
 458  365.0537
 459  344.9741
 460  463.5058
 461  432.1296
 462  344.3627
 463  292.2661
 464  384.5264
 465  374.4293
 466  355.3516
 467  369.2231
 468  339.8829
 469  353.9431
 470  440.8725
 471  413.7859
 472  311.7095
 473  378.4811
 474  389.9203
 475  244.4497
 476  238.0065
 477  332.4466
 478  404.0045
 479  324.5128
 480  329.2935
 481  373.6195
 482  330.5818
 483  274.2492
 484  274.5844
 485  398.1396
 486  411.6657
 487  299.1317
 488  329.4926
 489  297.5043
 490  282.4754
 491  393.8951
 492  385.0708
 493  274.9355
 494  294.7019
 495  412.8957
 496  312.8982
 497  259.7696
 498  347.1601
 499  392.5231
 500  285.7656
 501  215.9552
 502  323.0179
 503  398.0619
 504  312.0292
 505  368.2591
 506  468.2867
 507  546.1764
 508  622.7446
 509  636.6357
 510  766.8673
 511  910.1516
