# Input file       =  1211959054.109565_cleaned.dat
# Candidate        =  PSR_0332+5434
# Telescope        =  AR
# Epoch_topo       =  58271.303658675519
# Epoch_bary       =  N/A
# T_sample         =  0.002
# Data Folded      =  7340032
# Data Avg         =  0.0277116453191337
# Data StdDev      =  1.00009223866308 
# Profile Bins     =  512
# Profile Avg      =  397.262174171183 
# Profile StdDev   =  119.744080391968 
# Reduced chi-sqr  =  1.568
# Prob(Noise)      <  3.39e-15   (~7.8 sigma)
# P_topo (ms)      =  714.515672223806  +/- 0.000414
# P'_topo (s/s)    =  -0                +/- 2.18e-10
# P''_topo (s/s^2) =  0                 +/- 9.64e-14
# P_bary (ms)      =  N/A
# P'_bary (s/s)    =  N/A
# P''_bary (s/s^2) =  N/A
# P_orb (s)        =  N/A
# asin(i)/c (s)    =  N/A
# eccentricity     =  N/A
# w (rad)          =  N/A
# T_peri           =  N/A
######################################################
   0  1103.427
   1  1049.192
   2  827.3312
   3  648.1414
   4  690.6632
   5  533.6968
   6  414.9817
   7  412.4636
   8  522.769
   9  527.6945
  10  550.8688
  11  516.3677
  12  537.3789
  13  622.3309
  14  661.8695
  15  571.0144
  16  571.9394
  17  566.1189
  18  522.2091
  19  437.2094
  20  429.2681
  21  456.8524
  22  475.789
  23  552.2182
  24  369.5732
  25  336.7199
  26  427.0371
  27  479.1183
  28  368.0866
  29  298.8195
  30  426.3858
  31  518.1609
  32  349.5679
  33  340.6769
  34  363.8666
  35  334.1204
  36  301.2158
  37  387.6733
  38  435.9417
  39  340.2249
  40  319.4061
  41  361.4921
  42  304.4005
  43  304.7992
  44  438.8845
  45  470.9068
  46  469.7018
  47  388.8793
  48  511.7338
  49  445.3178
  50  414.5909
  51  356.8252
  52  431.4365
  53  443.9474
  54  317.463
  55  401.2778
  56  444.5942
  57  575.4124
  58  514.2837
  59  483.7798
  60  331.1539
  61  313.1015
  62  420.6933
  63  445.6247
  64  448.5366
  65  427.3669
  66  425.2108
  67  359.3083
  68  322.8953
  69  348.3565
  70  345.8405
  71  391.768
  72  367.19
  73  412.2107
  74  380.172
  75  364.3427
  76  448.0149
  77  452.8915
  78  369.2052
  79  379.8483
  80  415.7585
  81  330.5247
  82  282.4311
  83  343.8265
  84  341.0825
  85  397.2543
  86  429.9099
  87  514.8173
  88  556.2887
  89  397.2219
  90  335.0857
  91  368.456
  92  449.662
  93  476.1499
  94  485.2351
  95  417.6729
  96  429.4973
  97  354.6576
  98  299.5502
  99  395.8496
 100  357.3367
 101  383.2297
 102  464.3661
 103  458.2612
 104  387.8493
 105  411.3086
 106  363.7223
 107  395.9799
 108  394.0779
 109  259.7375
 110  285.5736
 111  404.4339
 112  475.4087
 113  390.5655
 114  485.5774
 115  542.5981
 116  461.0086
 117  425.7107
 118  421.8213
 119  473.19
 120  475.6188
 121  320.1558
 122  376.7939
 123  352.3624
 124  402.7976
 125  292.4958
 126  227.3106
 127  218.5718
 128  285.6531
 129  339.0619
 130  344.2782
 131  255.9429
 132  250.4187
 133  272.413
 134  351.2684
 135  385.1847
 136  466.8931
 137  313.4047
 138  380.7061
 139  415.2471
 140  375.5133
 141  451.7383
 142  434.4471
 143  358.2487
 144  335.1823
 145  367.4227
 146  303.5467
 147  397.3988
 148  469.2794
 149  441.9624
 150  375.1473
 151  364.7949
 152  495.1439
 153  327.3759
 154  351.965
 155  352.5063
 156  309.7627
 157  381.9642
 158  410.7688
 159  442.4796
 160  425.9249
 161  278.6148
 162  209.6358
 163  315.9121
 164  433.0355
 165  358.2445
 166  288.2351
 167  365.8382
 168  395.4258
 169  355.1519
 170  343.2858
 171  243.293
 172  195.1715
 173  418.4037
 174  399.6978
 175  261.8746
 176  271.787
 177  203.8438
 178  188.13
 179  292.5851
 180  379.7172
 181  336.0693
 182  294.5185
 183  279.2024
 184  377.4885
 185  302.2637
 186  340.1285
 187  283.6205
 188  307.2119
 189  351.4259
 190  418.8247
 191  345.9612
 192  396.2754
 193  402.1248
 194  314.4538
 195  345.8406
 196  433.444
 197  444.9144
 198  455.7609
 199  328.6981
 200  316.6909
 201  366.0395
 202  411.4092
 203  488.8826
 204  501.5192
 205  485.7198
 206  376.8537
 207  426.2693
 208  455.5471
 209  309.1051
 210  311.4387
 211  309.3989
 212  279.2038
 213  300.4564
 214  272.7746
 215  322.1945
 216  318.6691
 217  395.098
 218  314.2489
 219  409.6408
 220  391.6241
 221  437.6812
 222  388.0991
 223  456.0088
 224  485.3644
 225  455.1739
 226  495.2104
 227  518.4998
 228  499.2014
 229  488.1225
 230  393.6766
 231  408.3239
 232  388.2302
 233  472.3201
 234  497.6779
 235  449.5574
 236  498.9805
 237  381.8697
 238  308.1839
 239  341.7345
 240  325.9848
 241  359.2132
 242  280.8573
 243  260.5729
 244  348.6395
 245  405.4757
 246  289.6245
 247  324.3251
 248  399.3899
 249  334.4614
 250  222.4058
 251  313.2421
 252  369.3883
 253  286.2253
 254  229.3629
 255  254.8726
 256  355.2747
 257  415.0177
 258  344.9473
 259  364.1035
 260  473.4971
 261  502.3678
 262  393.1842
 263  270.0836
 264  333.347
 265  381.53
 266  339.473
 267  292.5944
 268  186.5831
 269  333.8904
 270  390.9726
 271  324.4055
 272  435.1068
 273  399.0945
 274  385.7453
 275  272.3419
 276  350.1503
 277  371.9326
 278  318.8755
 279  326.9824
 280  379.8091
 281  420.5296
 282  417.9049
 283  372.3122
 284  473.3474
 285  480.8597
 286  377.4542
 287  337.2511
 288  344.2988
 289  300.239
 290  343.2094
 291  325.751
 292  331.9242
 293  385.5061
 294  405.8888
 295  338.8256
 296  298.5805
 297  377.6673
 298  399.7049
 299  428.8175
 300  515.3408
 301  465.3042
 302  450.9171
 303  458.3759
 304  410.1158
 305  436.0873
 306  395.344
 307  377.2163
 308  403.0162
 309  449.6778
 310  480.9658
 311  484.7267
 312  414.9005
 313  523.4222
 314  519.3146
 315  549.9882
 316  419.2801
 317  403.03
 318  468.2293
 319  425.1796
 320  404.9315
 321  481.621
 322  475.5632
 323  495.1726
 324  345.0578
 325  287.3003
 326  234.6748
 327  322.7617
 328  382.8875
 329  469.6594
 330  458.4669
 331  501.6592
 332  408.8489
 333  334.644
 334  287.3912
 335  379.1704
 336  400.1281
 337  247.8982
 338  353.6358
 339  398.3861
 340  366.1894
 341  350.5108
 342  258.7032
 343  214.4715
 344  277.6855
 345  306.492
 346  324.5187
 347  301.1275
 348  333.9622
 349  326.007
 350  280.2174
 351  394.4867
 352  432.7649
 353  503.7196
 354  479.4653
 355  432.0878
 356  443.8297
 357  439.1912
 358  449.4804
 359  421.5502
 360  357.1194
 361  321.2614
 362  254.0285
 363  380.5623
 364  376.2799
 365  308.9768
 366  285.4203
 367  367.8459
 368  411.1756
 369  397.5641
 370  398.1945
 371  426.613
 372  424.5541
 373  355.8693
 374  214.347
 375  283.6721
 376  392.2968
 377  398.396
 378  350.5739
 379  379.1151
 380  337.2776
 381  212.5985
 382  246.3339
 383  401.2009
 384  409.3517
 385  306.809
 386  399.7243
 387  449.0236
 388  462.1416
 389  575.1567
 390  376.8691
 391  299.3638
 392  362.1192
 393  429.2011
 394  477.2175
 395  478.179
 396  339.5779
 397  322.5465
 398  321.6924
 399  448.8279
 400  503.4153
 401  457.6407
 402  362.7234
 403  378.2724
 404  348.1263
 405  390.4364
 406  462.8062
 407  344.4474
 408  333.5106
 409  304.0354
 410  439.8592
 411  418.1695
 412  277.2373
 413  357.0053
 414  373.9238
 415  304.8784
 416  244.5585
 417  312.9633
 418  331.5427
 419  293.0689
 420  264.1056
 421  301.5715
 422  338.1472
 423  413.0678
 424  364.1385
 425  318.5523
 426  374.5398
 427  414.8882
 428  311.4717
 429  320.7637
 430  361.4492
 431  317.618
 432  371.812
 433  447.5515
 434  410.6329
 435  421.4803
 436  374.2706
 437  399.123
 438  503.0931
 439  385.8429
 440  282.097
 441  395.1892
 442  488.9619
 443  404.0976
 444  336.6037
 445  421.1754
 446  476.9812
 447  290.4762
 448  296.0309
 449  441.5993
 450  265.2685
 451  156.884
 452  358.9001
 453  451.9682
 454  485.1787
 455  428.6504
 456  371.7387
 457  336.3532
 458  283.7772
 459  277.6099
 460  254.3015
 461  284.1423
 462  303.4107
 463  265.9144
 464  318.4498
 465  466.2462
 466  403.4307
 467  428.0287
 468  369.0244
 469  374.4112
 470  356.2541
 471  333.8567
 472  355.5594
 473  296.2291
 474  305.3541
 475  362.5476
 476  404.5974
 477  541.2769
 478  433.1342
 479  404.6176
 480  446.4014
 481  459.6035
 482  437.7847
 483  486.2451
 484  552.3577
 485  525.4017
 486  491.3226
 487  514.0152
 488  439.052
 489  439.1931
 490  407.5247
 491  414.5542
 492  421.9293
 493  483.7335
 494  503.6277
 495  405.3387
 496  498.7032
 497  537.7671
 498  467.6764
 499  393.3823
 500  456.8745
 501  525.2368
 502  453.4258
 503  451.442
 504  640.8599
 505  627.7988
 506  654.1923
 507  662.8712
 508  784.0928
 509  895.4553
 510  1062.051
 511  1117.496
