# Input file       =  1211543218.108966_cleaned.dat
# Candidate        =  PSR_0332+5434
# Telescope        =  AR
# Epoch_topo       =  58266.490742001923
# Epoch_bary       =  N/A
# T_sample         =  0.002
# Data Folded      =  7340032
# Data Avg         =  0.0353442666986959
# Data StdDev      =  1.00008285945492 
# Profile Bins     =  512
# Profile Avg      =  506.705781136088 
# Profile StdDev   =  119.742957390896 
# Reduced chi-sqr  =  1.131
# Prob(Noise)      <  0.021   (~2.0 sigma)
# P_topo (ms)      =  714.520698390637  +/- 0.000245
# P'_topo (s/s)    =  -0                +/- 1.29e-10
# P''_topo (s/s^2) =  0                 +/- 5.71e-14
# P_bary (ms)      =  N/A
# P'_bary (s/s)    =  N/A
# P''_bary (s/s^2) =  N/A
# P_orb (s)        =  N/A
# asin(i)/c (s)    =  N/A
# eccentricity     =  N/A
# w (rad)          =  N/A
# T_peri           =  N/A
######################################################
   0  1136.293
   1  1140.834
   2  870.2433
   3  634.3466
   4  575.4725
   5  601.992
   6  625.3228
   7  507.5487
   8  547.3818
   9  500.936
  10  548.2411
  11  418.4747
  12  428.1135
  13  527.2855
  14  577.7591
  15  478.8762
  16  432.4139
  17  511.4586
  18  496.6123
  19  488.0449
  20  450.4416
  21  436.8547
  22  363.1922
  23  363.4807
  24  509.0908
  25  465.9389
  26  344.0715
  27  409.773
  28  515.9312
  29  535.0618
  30  310.4277
  31  369.941
  32  469.6626
  33  457.8247
  34  591.7733
  35  619.5381
  36  515.4681
  37  521.9549
  38  524.6863
  39  663.9951
  40  580.8397
  41  437.2328
  42  493.2532
  43  591.6448
  44  530.9562
  45  537.8043
  46  572.1777
  47  599.5186
  48  585.8953
  49  620.4215
  50  593.781
  51  680.3616
  52  624.9874
  53  590.8759
  54  633.007
  55  636.5408
  56  619.2354
  57  589.7358
  58  490.3723
  59  445.8122
  60  451.461
  61  544.2783
  62  516.187
  63  574.3106
  64  631.2086
  65  615.3743
  66  574.5868
  67  424.7158
  68  439.4906
  69  466.5722
  70  554.0994
  71  496.5318
  72  405.0798
  73  526.7253
  74  616.9288
  75  518.1365
  76  512.0179
  77  670.4825
  78  592.7865
  79  447.0419
  80  453.1028
  81  429.4424
  82  565.7781
  83  541.4521
  84  450.4221
  85  452.1084
  86  551.988
  87  469.7614
  88  451.9592
  89  539.7037
  90  691.2354
  91  618.1702
  92  459.251
  93  450.2125
  94  566.1557
  95  652.0509
  96  616.2905
  97  534.4315
  98  580.6302
  99  526.3954
 100  529.6455
 101  435.3205
 102  456.5574
 103  435.3605
 104  502.6061
 105  557.6399
 106  427.3047
 107  452.4965
 108  453.4671
 109  530.5961
 110  559.3167
 111  627.1458
 112  538.1199
 113  472.7366
 114  498.3348
 115  512.8919
 116  539.923
 117  510.2161
 118  577.0439
 119  645.0414
 120  697.7934
 121  602.227
 122  565.1701
 123  554.7076
 124  453.3968
 125  545.6033
 126  686.5168
 127  528.1307
 128  548.1832
 129  586.4656
 130  643.5927
 131  691.7989
 132  712.2382
 133  575.4006
 134  508.3416
 135  456.8777
 136  426.7566
 137  553.701
 138  600.5975
 139  625.1199
 140  579.2275
 141  524.0347
 142  508.0852
 143  593.1071
 144  549.9211
 145  553.751
 146  483.2906
 147  496.3063
 148  485.6227
 149  447.1642
 150  344.4022
 151  460.6657
 152  421.0687
 153  520.064
 154  537.031
 155  575.2635
 156  530.9163
 157  641.9445
 158  554.3311
 159  457.3342
 160  630.3702
 161  665.3094
 162  450.0242
 163  392.37
 164  392.4996
 165  400.6036
 166  430.6024
 167  434.6687
 168  495.8232
 169  536.2151
 170  532.9
 171  378.8866
 172  402.6865
 173  381.1221
 174  321.5325
 175  450.1184
 176  451.901
 177  457.7281
 178  522.7672
 179  510.9248
 180  449.8685
 181  507.7477
 182  521.9165
 183  511.1516
 184  423.8001
 185  519.3424
 186  470.1044
 187  548.8904
 188  562.3744
 189  486.5736
 190  455.5835
 191  518.4688
 192  511.5641
 193  557.1426
 194  570.3125
 195  386.5396
 196  337.5666
 197  533.7931
 198  485.4543
 199  482.3847
 200  513.646
 201  387.6319
 202  306.0794
 203  353.0519
 204  421.9401
 205  407.3406
 206  411.5005
 207  488.4702
 208  463.2532
 209  486.6043
 210  524.0039
 211  426.6047
 212  496.443
 213  369.4691
 214  382.0668
 215  370.6577
 216  410.4033
 217  339.6211
 218  358.3294
 219  443.8416
 220  620.1726
 221  593.2639
 222  438.8194
 223  463.3345
 224  521.8098
 225  558.4292
 226  531.1305
 227  572.6222
 228  465.3027
 229  423.1527
 230  401.8349
 231  376.1427
 232  488.6253
 233  509.1885
 234  424.8326
 235  447.0812
 236  493.8394
 237  355.3798
 238  409.3943
 239  252.3796
 240  313.1269
 241  512.5359
 242  525.218
 243  559.2385
 244  558.4279
 245  618.4721
 246  580.2337
 247  556.5771
 248  531.5355
 249  568.8214
 250  487.2992
 251  428.5458
 252  436.6248
 253  439.5641
 254  440.7091
 255  436.2867
 256  418.3
 257  362.5145
 258  483.3224
 259  508.4069
 260  476.5315
 261  563.6323
 262  563.6517
 263  471.5511
 264  475.5588
 265  528.7576
 266  541.1711
 267  578.1067
 268  554.9041
 269  392.919
 270  521.3777
 271  545.2247
 272  538.8243
 273  595.1279
 274  667.0499
 275  530.98
 276  523.541
 277  584.7943
 278  560.8865
 279  595.6779
 280  593.1274
 281  454.7349
 282  351.4106
 283  439.4012
 284  479.7788
 285  457.4483
 286  471.1874
 287  562.1833
 288  525.4822
 289  470.8281
 290  477.0688
 291  351.2896
 292  357.1228
 293  416.3814
 294  408.0988
 295  550.3618
 296  457.259
 297  470.7618
 298  548.5261
 299  473.4142
 300  564.4497
 301  485.9367
 302  463.6057
 303  575.7043
 304  478.6123
 305  546.1216
 306  591.8235
 307  567.8436
 308  436.4503
 309  417.6204
 310  441.8817
 311  407.5913
 312  438.6802
 313  467.1654
 314  545.968
 315  492.9888
 316  474.9392
 317  480.2892
 318  475.9012
 319  513.9045
 320  449.7214
 321  507.5408
 322  471.7887
 323  440.4252
 324  471.2735
 325  526.2465
 326  428.7242
 327  467.659
 328  488.7253
 329  517.4547
 330  584.0044
 331  571.2062
 332  446.8175
 333  443.5279
 334  376.2512
 335  423.3786
 336  486.7672
 337  453.4407
 338  470.3615
 339  368.9177
 340  462.6734
 341  586.3085
 342  553.3185
 343  464.544
 344  464.2431
 345  438.3627
 346  584.0361
 347  466.5699
 348  432.3736
 349  483.1564
 350  485.4637
 351  510.779
 352  529.3409
 353  476.3994
 354  604.192
 355  639.7606
 356  620.2079
 357  693.5532
 358  627.663
 359  495.7699
 360  433.5032
 361  539.8144
 362  549.0771
 363  464.3283
 364  583.0471
 365  585.979
 366  553.0332
 367  510.5662
 368  462.3668
 369  493.5077
 370  514.9563
 371  448.7833
 372  474.3974
 373  455.7395
 374  398.5865
 375  472.597
 376  488.6338
 377  435.5782
 378  409.9635
 379  264.9272
 380  343.5475
 381  410.4434
 382  423.8905
 383  330.1619
 384  372.2708
 385  492.0711
 386  479.844
 387  520.6535
 388  576.4863
 389  491.3738
 390  485.4116
 391  683.3235
 392  603.049
 393  460.3542
 394  485.2788
 395  472.5983
 396  369.8301
 397  542.5171
 398  531.5232
 399  426.8333
 400  446.3426
 401  535.9244
 402  596.7601
 403  440.6245
 404  525.2235
 405  451.7871
 406  419.0847
 407  558.7001
 408  454.0302
 409  491.8657
 410  496.22
 411  489.8418
 412  527.9797
 413  543.8256
 414  488.5242
 415  536.9883
 416  412.7228
 417  458.6842
 418  545.8345
 419  460.111
 420  520.4871
 421  610.739
 422  623.0045
 423  625.1751
 424  533.7874
 425  467.7115
 426  517.9543
 427  520.084
 428  533.4776
 429  566.7145
 430  623.9913
 431  626.6238
 432  540.7069
 433  565.1243
 434  564.0571
 435  616.045
 436  610.128
 437  541.799
 438  461.0226
 439  516.2513
 440  605.5201
 441  579.0043
 442  503.8435
 443  515.3941
 444  453.3746
 445  526.7333
 446  456.4537
 447  436.1199
 448  417.6666
 449  419.8415
 450  414.887
 451  535.5517
 452  561.9479
 453  542.2317
 454  562.0656
 455  529.9457
 456  573.5778
 457  546.8864
 458  510.3398
 459  585.3889
 460  596.8903
 461  569.0743
 462  541.0537
 463  592.1992
 464  595.0484
 465  486.8179
 466  483.6544
 467  600.84
 468  605.9009
 469  544.7595
 470  580.505
 471  549.968
 472  513.168
 473  494.0542
 474  542.0181
 475  543.4761
 476  548.8035
 477  615.5121
 478  544.178
 479  429.7794
 480  599.6489
 481  523.5779
 482  365.1947
 483  334.2438
 484  466.0204
 485  516.2302
 486  461.8081
 487  406.1418
 488  410.08
 489  469.601
 490  380.9387
 491  386.9472
 492  362.0809
 493  352.5715
 494  398.0081
 495  394.1282
 496  435.5282
 497  454.7243
 498  412.2241
 499  576.8731
 500  536.4312
 501  430.7056
 502  373.1553
 503  307.3075
 504  387.3999
 505  557.0627
 506  586.78
 507  527.6227
 508  549.4879
 509  655.3513
 510  805.8968
 511  880.9736
