# Input file       =  1211341354.116035_cleaned.dat
# Candidate        =  PSR_0332+5434
# Telescope        =  AR
# Epoch_topo       =  58264.154353194848
# Epoch_bary       =  N/A
# T_sample         =  0.002
# Data Folded      =  7208960
# Data Avg         =  0.0278895467898245
# Data StdDev      =  1.00003140075443 
# Profile Bins     =  512
# Profile Avg      =  392.668441816954 
# Profile StdDev   =  118.66290178117  
# Reduced chi-sqr  =  1.577
# Prob(Noise)      <  1.37e-15   (~7.9 sigma)
# P_topo (ms)      =  714.522638022385  +/- 0.000246
# P'_topo (s/s)    =  -0                +/- 1.32e-10
# P''_topo (s/s^2) =  0                 +/- 5.94e-14
# P_bary (ms)      =  N/A
# P'_bary (s/s)    =  N/A
# P''_bary (s/s^2) =  N/A
# P_orb (s)        =  N/A
# asin(i)/c (s)    =  N/A
# eccentricity     =  N/A
# w (rad)          =  N/A
# T_peri           =  N/A
######################################################
   0  1051.697
   1  1129.032
   2  1082.556
   3  820.8067
   4  493.7909
   5  427.2011
   6  295.7946
   7  356.3837
   8  507.2547
   9  393.2358
  10  367.909
  11  366.4884
  12  368.0315
  13  387.3332
  14  435.6031
  15  455.1202
  16  467.91
  17  384.7094
  18  402.4948
  19  536.3907
  20  517.9896
  21  310.3426
  22  346.6089
  23  398.8614
  24  462.1764
  25  462.1341
  26  421.3157
  27  289.1815
  28  200.8544
  29  283.9243
  30  236.5807
  31  310.1999
  32  343.3654
  33  314.9124
  34  410.4669
  35  325.5237
  36  358.2559
  37  330.2427
  38  261.4723
  39  360.8183
  40  401.3107
  41  414.6055
  42  320.3393
  43  334.1799
  44  299.0107
  45  136.7396
  46  303.4807
  47  356.6067
  48  341.1451
  49  330.3177
  50  281.7614
  51  268.203
  52  268.4645
  53  244.1798
  54  365.829
  55  292.9687
  56  311.5361
  57  454.8079
  58  366.5271
  59  333.9997
  60  281.9358
  61  405.743
  62  367.9574
  63  304.4435
  64  474.768
  65  486.5723
  66  269.1448
  67  251.7735
  68  321.2159
  69  327.2831
  70  243.689
  71  219.9263
  72  225.383
  73  258.2966
  74  339.3423
  75  374.1513
  76  302.1375
  77  294.0621
  78  237.9836
  79  220.5968
  80  173.1173
  81  115.9552
  82  270.4509
  83  342.2282
  84  365.8434
  85  372.1598
  86  291.1488
  87  306.2747
  88  301.4188
  89  377.5558
  90  370.5179
  91  306.6842
  92  326.2637
  93  379.3334
  94  276.4698
  95  436.6222
  96  425.055
  97  432.0007
  98  309.9798
  99  224.7473
 100  264.2864
 101  334.1487
 102  271.5833
 103  287.359
 104  269.3556
 105  385.8986
 106  376.7621
 107  401.3158
 108  269.9443
 109  195.991
 110  375.1402
 111  473.99
 112  418.6655
 113  414.953
 114  540.4731
 115  407.6761
 116  372.07
 117  430.3075
 118  350.4287
 119  338.2574
 120  366.2514
 121  371.6767
 122  477.7969
 123  396.2695
 124  377.9457
 125  482.4239
 126  461.7669
 127  392.5211
 128  326.066
 129  340.1761
 130  460.6145
 131  376.2666
 132  458.3369
 133  676.531
 134  561.3649
 135  519.562
 136  476.8116
 137  413.9663
 138  512.9681
 139  503.8395
 140  338.4092
 141  317.5129
 142  235.2871
 143  286.7452
 144  439.1349
 145  360.1237
 146  299.1476
 147  506.9081
 148  480.7986
 149  528.6338
 150  517.1811
 151  431.5594
 152  355.7353
 153  379.5984
 154  455.2395
 155  436.5098
 156  463.5395
 157  413.4962
 158  347.2801
 159  436.789
 160  516.9604
 161  417.5338
 162  451.7591
 163  368.0524
 164  295.896
 165  441.3772
 166  467.6345
 167  358.8531
 168  400.7849
 169  426.2262
 170  417.7419
 171  330.7458
 172  367.8083
 173  437.8507
 174  454.9926
 175  348.5471
 176  235.888
 177  278.4182
 178  286.9879
 179  472.124
 180  514.1974
 181  453.7273
 182  405.7658
 183  423.5873
 184  288.6752
 185  435.8694
 186  388.1577
 187  253.2428
 188  308.9478
 189  385.3207
 190  299.7731
 191  258.7734
 192  371.9932
 193  434.1508
 194  477.1016
 195  414.3397
 196  374.202
 197  319.9175
 198  374.5681
 199  348.1075
 200  333.6374
 201  406.7966
 202  381.5819
 203  370.1374
 204  335.4361
 205  308.1122
 206  410.1064
 207  439.445
 208  467.0207
 209  284.9045
 210  314.3103
 211  394.5098
 212  339.5173
 213  460.9076
 214  403.2765
 215  481.8407
 216  410.4102
 217  453.7422
 218  336.5462
 219  270.7733
 220  246.6089
 221  276.313
 222  331.8283
 223  390.7137
 224  315.8168
 225  383.5053
 226  418.8683
 227  502.9497
 228  446.0528
 229  217.4524
 230  308.139
 231  364.1088
 232  523.7652
 233  420.2536
 234  398.1407
 235  353.0556
 236  388.366
 237  372.0997
 238  286.7439
 239  312.1302
 240  445.1353
 241  496.9803
 242  489.698
 243  514.5698
 244  402.7948
 245  375.981
 246  506.166
 247  509.3789
 248  465.7171
 249  347.1397
 250  329.5989
 251  408.809
 252  437.1748
 253  333.2305
 254  363.0559
 255  501.9412
 256  461.3181
 257  516.6974
 258  473.2661
 259  514.2624
 260  504.9229
 261  413.8885
 262  412.5159
 263  508.7177
 264  555.0607
 265  535.0286
 266  524.5316
 267  355.2993
 268  390.8815
 269  514.5035
 270  542.7506
 271  384.3383
 272  364.197
 273  450.5543
 274  276.7216
 275  375.1012
 276  566.6647
 277  390.3402
 278  407.1141
 279  465.9372
 280  366.9978
 281  382.0835
 282  381.4928
 283  314.0271
 284  427.0645
 285  493.4656
 286  543.1761
 287  455.1789
 288  503.2183
 289  489.6553
 290  399.4384
 291  492.004
 292  471.8425
 293  515.2087
 294  479.2331
 295  432.9056
 296  459.4024
 297  531.1744
 298  527.402
 299  483.6103
 300  465.8224
 301  664.2987
 302  488.6229
 303  509.0201
 304  567.6539
 305  514.5084
 306  343.2769
 307  341.5109
 308  410.558
 309  371.4923
 310  241.0907
 311  310.5741
 312  443.8769
 313  496.5588
 314  399.8456
 315  329.1599
 316  313.0287
 317  268.0468
 318  364.61
 319  375.3168
 320  434.7964
 321  426.3865
 322  375.687
 323  373.6083
 324  384.3133
 325  398.0342
 326  409.8128
 327  430.5202
 328  482.6668
 329  479.2584
 330  372.3065
 331  405.0981
 332  370.5707
 333  342.3939
 334  346.6368
 335  418.0315
 336  298.9053
 337  372.7606
 338  583.7816
 339  647.0623
 340  498.1267
 341  392.8642
 342  383.8327
 343  338.5359
 344  453.3904
 345  553.9869
 346  515.4596
 347  453.8983
 348  405.6128
 349  346.9615
 350  449.6256
 351  522.0721
 352  484.4073
 353  379.5566
 354  328.1998
 355  354.9964
 356  337.2213
 357  411.8736
 358  384.8998
 359  466.1688
 360  378.0874
 361  356.4054
 362  318.3061
 363  273.9727
 364  231.865
 365  221.9798
 366  259.7107
 367  356.8651
 368  492.9586
 369  537.7155
 370  446.7564
 371  421.9232
 372  280.7125
 373  361.6051
 374  375.749
 375  373.9388
 376  389.1266
 377  255.2895
 378  343.8956
 379  451.0085
 380  454.0851
 381  313.0929
 382  291.0851
 383  425.0988
 384  376.1882
 385  368.1363
 386  442.0279
 387  370.3065
 388  350.2563
 389  403.6091
 390  370.5092
 391  310.5984
 392  425.0312
 393  445.6342
 394  460.9063
 395  430.7563
 396  454.6092
 397  364.8625
 398  445.2097
 399  439.3124
 400  332.5797
 401  366.1769
 402  388.0901
 403  512.0258
 404  483.369
 405  503.4898
 406  502.4873
 407  512.8596
 408  280.899
 409  287.1417
 410  358.1241
 411  315.9294
 412  387.0137
 413  557.0344
 414  530.3851
 415  421.7097
 416  325.5696
 417  323.6767
 418  287.17
 419  271.0384
 420  292.8628
 421  378.4945
 422  343.0522
 423  317.9037
 424  435.5757
 425  426.8799
 426  417.7157
 427  528.1582
 428  469.9051
 429  325.7578
 430  325.5964
 431  404.6111
 432  386.9646
 433  334.5697
 434  386.3096
 435  392.7417
 436  291.6637
 437  308.6873
 438  333.8674
 439  371.5005
 440  452.1772
 441  411.5376
 442  356.3305
 443  344.3001
 444  367.1815
 445  425.2397
 446  347.8319
 447  203.17
 448  193.3968
 449  291.648
 450  318.9063
 451  339.909
 452  295.0729
 453  410.1509
 454  427.9697
 455  245.6359
 456  368.1983
 457  355.1429
 458  385.022
 459  307.1235
 460  362.2459
 461  479.1985
 462  322.0701
 463  295.7173
 464  212.0172
 465  304.5326
 466  393.0476
 467  315.6073
 468  199.4934
 469  375.4046
 470  497.7666
 471  413.4672
 472  389.4321
 473  396.5749
 474  423.8571
 475  393.8682
 476  250.3194
 477  326.9474
 478  471.1243
 479  417.1678
 480  326.0626
 481  197.7133
 482  360.7324
 483  330.4571
 484  277.0725
 485  407.2638
 486  413.5127
 487  421.8458
 488  258.0815
 489  232.3099
 490  378.5165
 491  455.3738
 492  440.2137
 493  463.94
 494  488.5311
 495  509.6273
 496  493.3365
 497  367.481
 498  332.1925
 499  143.5857
 500  162.269
 501  349.1246
 502  392.5337
 503  406.3444
 504  391.5919
 505  390.1093
 506  551.1011
 507  563.1363
 508  616.4963
 509  610.519
 510  747.3973
 511  940.2985
