# Input file       =  1211801664.116601_cleaned.dat
# Candidate        =  PSR_0332+5434
# Telescope        =  AR
# Epoch_topo       =  58269.482015238435
# Epoch_bary       =  N/A
# T_sample         =  0.002
# Data Folded      =  7340032
# Data Avg         =  0.0161189153321566
# Data StdDev      =  1.00002847709324 
# Profile Bins     =  512
# Profile Avg      =  231.055335873693 
# Profile StdDev   =  119.736446025606 
# Reduced chi-sqr  =  1.439
# Prob(Noise)      <  2.7e-10   (~6.2 sigma)
# P_topo (ms)      =  714.517778589057  +/- 0.000242
# P'_topo (s/s)    =  -0                +/- 1.28e-10
# P''_topo (s/s^2) =  0                 +/- 5.64e-14
# P_bary (ms)      =  N/A
# P'_bary (s/s)    =  N/A
# P''_bary (s/s^2) =  N/A
# P_orb (s)        =  N/A
# asin(i)/c (s)    =  N/A
# eccentricity     =  N/A
# w (rad)          =  N/A
# T_peri           =  N/A
######################################################
   0  948.0954
   1  885.0167
   2  744.231
   3  659.5453
   4  297.1421
   5  242.9164
   6  261.0963
   7  228.0319
   8  316.8218
   9  314.0061
  10  246.5369
  11  185.3218
  12  203.7744
  13  355.6817
  14  278.7022
  15  338.7365
  16  449.3623
  17  454.3963
  18  353.2701
  19  326.8446
  20  327.8332
  21  165.5439
  22  100.9949
  23  252.8322
  24  298.0705
  25  265.6698
  26  186.9163
  27  67.42673
  28  102.3319
  29  261.3887
  30  298.117
  31  144.6968
  32  143.7128
  33  350.2648
  34  270.5761
  35  238.3016
  36  191.3193
  37  256.9096
  38  281.6843
  39  259.9866
  40  120.4243
  41  -16.98349
  42  215.3223
  43  288.8391
  44  215.6604
  45  180.5756
  46  131.002
  47  215.0396
  48  206.657
  49  240.0023
  50  247.3568
  51  264.4814
  52  205.0763
  53  79.91035
  54  189.6435
  55  248.9766
  56  268.881
  57  231.7728
  58  238.122
  59  304.384
  60  238.7072
  61  355.0924
  62  261.4902
  63  151.2641
  64  117.2404
  65  170.5407
  66  218.9393
  67  138.3401
  68  299.0334
  69  292.0293
  70  222.2018
  71  321.9465
  72  428.1339
  73  242.8973
  74  186.9158
  75  174.0938
  76  210.8394
  77  174.3918
  78  111.9645
  79  174.6984
  80  282.4316
  81  284.5924
  82  310.401
  83  302.8406
  84  322.1124
  85  248.6229
  86  123.0742
  87  211.7376
  88  226.9032
  89  144.9207
  90  154.4514
  91  66.33691
  92  127.6008
  93  199.2195
  94  275.2981
  95  233.4735
  96  233.7355
  97  195.3751
  98  163.4346
  99  222.4048
 100  132.4668
 101  200.0687
 102  218.6044
 103  179.2273
 104  162.7828
 105  201.6434
 106  286.4033
 107  251.4785
 108  164.3472
 109  170.8821
 110  149.3718
 111  123.8307
 112  133.7867
 113  168.7107
 114  215.9931
 115  201.964
 116  278.3835
 117  269.7253
 118  144.447
 119  185.1724
 120  155.9732
 121  184.4688
 122  272.6047
 123  268.0519
 124  250.8247
 125  317.0989
 126  231.0746
 127  271.7022
 128  342.0503
 129  149.1551
 130  138.2516
 131  230.6621
 132  141.3757
 133  245.6984
 134  243.5025
 135  311.7831
 136  128.5541
 137  30.36561
 138  170.7479
 139  143.327
 140  93.60378
 141  188.8647
 142  285.0386
 143  286.2603
 144  296.358
 145  206.1974
 146  245.5287
 147  299.819
 148  304.9812
 149  227.0313
 150  180.2925
 151  70.93423
 152  131.0524
 153  335.8227
 154  226.1008
 155  88.06282
 156  103.0294
 157  180.9093
 158  200.1109
 159  160.25
 160  100.3121
 161  161.777
 162  229.139
 163  229.4366
 164  159.6704
 165  138.4167
 166  84.2904
 167  108.0293
 168  177.7267
 169  179.8506
 170  92.09943
 171  180.6234
 172  186.5766
 173  213.2526
 174  27.83758
 175  154.2198
 176  316.5036
 177  237.3006
 178  157.6927
 179  144.239
 180  273.6322
 181  131.3157
 182  238.9818
 183  274.5744
 184  238.0519
 185  192.3627
 186  250.4031
 187  230.5383
 188  306.5988
 189  287.6403
 190  92.8568
 191  -24.79008
 192  22.23172
 193  86.64834
 194  164.3313
 195  175.0687
 196  128.5065
 197  138.5343
 198  135.3268
 199  89.82609
 200  225.4682
 201  167.4109
 202  151.6132
 203  287.2777
 204  405.2337
 205  275.8333
 206  211.3633
 207  213.8597
 208  75.30011
 209  229.1392
 210  188.1416
 211  250.7589
 212  330.6377
 213  374.2483
 214  267.9713
 215  253.8563
 216  301.5269
 217  263.0202
 218  178.0927
 219  136.2322
 220  161.3794
 221  241.2129
 222  332.221
 223  381.6995
 224  319.5443
 225  262.4989
 226  257.1745
 227  383.8202
 228  315.9934
 229  224.9424
 230  173.9618
 231  345.8142
 232  162.7072
 233  88.13882
 234  296.9681
 235  413.3215
 236  363.7722
 237  237.3289
 238  350.788
 239  264.1176
 240  278.7912
 241  222.9796
 242  197.7457
 243  230.804
 244  285.8831
 245  352.8225
 246  226.4433
 247  205.686
 248  322.5967
 249  290.2111
 250  137.7433
 251  138.7948
 252  265.0154
 253  239.4497
 254  205.7228
 255  283.6675
 256  249.8853
 257  254.9534
 258  232.5889
 259  252.8363
 260  345.5251
 261  327.6548
 262  302.9293
 263  137.6684
 264  191.6049
 265  252.2381
 266  81.17849
 267  -23.16091
 268  102.9664
 269  242.7405
 270  226.072
 271  166.3941
 272  124.5693
 273  255.4143
 274  299.6736
 275  265.8836
 276  224.9172
 277  130.5273
 278  210.7299
 279  136.6344
 280  173.0146
 281  221.4782
 282  207.1174
 283  274.864
 284  260.9583
 285  176.5576
 286  308.1812
 287  195.8159
 288  83.14965
 289  95.78918
 290  -15.92984
 291  147.0255
 292  291.4223
 293  310.2379
 294  163.1775
 295  98.95657
 296  212.5332
 297  205.816
 298  128.2687
 299  195.3079
 300  188.237
 301  144.5352
 302  13.7331
 303  82.33601
 304  161.0082
 305  210.085
 306  286.4854
 307  326.194
 308  353.1185
 309  185.5412
 310  166.4839
 311  267.2296
 312  277.4555
 313  316.1447
 314  282.2736
 315  202.6739
 316  192.7411
 317  226.4401
 318  157.6343
 319  147.4703
 320  235.0485
 321  155.1793
 322  139.6992
 323  187.6462
 324  229.9842
 325  349.3038
 326  307.3541
 327  145.1138
 328  73.41624
 329  77.21931
 330  124.2773
 331  104.9481
 332  280.333
 333  223.6203
 334  239.6032
 335  228.4261
 336  238.9437
 337  126.4207
 338  267.3826
 339  384.8954
 340  313.0894
 341  128.518
 342  318.9366
 343  226.9439
 344  108.2267
 345  149.1059
 346  306.9357
 347  456.0875
 348  357.2616
 349  175.4119
 350  172.4538
 351  153.9625
 352  253.2226
 353  197.8442
 354  276.8804
 355  194.5255
 356  239.8171
 357  237.4714
 358  208.8893
 359  291.2006
 360  305.1226
 361  251.0202
 362  125.761
 363  281.7763
 364  283.3019
 365  201.2548
 366  233.4988
 367  259.5312
 368  259.5481
 369  229.6368
 370  357.6128
 371  184.2794
 372  82.82623
 373  139.7249
 374  151.9987
 375  144.9457
 376  172.7191
 377  224.3198
 378  104.0189
 379  170.9872
 380  217.1844
 381  177.527
 382  185.062
 383  217.2235
 384  217.4006
 385  242.4365
 386  194.3529
 387  222.3646
 388  306.0283
 389  339.6658
 390  203.3018
 391  198.4688
 392  256.6941
 393  249.1308
 394  230.4204
 395  213.954
 396  159.0363
 397  195.8753
 398  308.8501
 399  323.0152
 400  286.9602
 401  406.3239
 402  381.2592
 403  228.8284
 404  197.9217
 405  176.1681
 406  238.7296
 407  278.993
 408  375.4914
 409  464.3804
 410  322.3721
 411  217.3136
 412  338.6859
 413  348.7867
 414  254.338
 415  315.4185
 416  235.368
 417  106.1702
 418  240.928
 419  271.5048
 420  229.8004
 421  260.5777
 422  231.0318
 423  238.486
 424  155.6433
 425  100.5612
 426  118.4794
 427  118.2712
 428  178.2462
 429  226.6964
 430  260.4747
 431  248.1634
 432  131.2761
 433  295.308
 434  338.4799
 435  327.3623
 436  161.0495
 437  145.4164
 438  376.6135
 439  206.8733
 440  149.9
 441  353.102
 442  380.862
 443  259.4522
 444  261.0493
 445  221.8623
 446  175.7023
 447  218.6679
 448  251.7858
 449  118.4442
 450  109.1984
 451  150.3485
 452  215.097
 453  304.7879
 454  314.5171
 455  176.3071
 456  335.0043
 457  411.6483
 458  326.3805
 459  258.8167
 460  180.8508
 461  137.6605
 462  296.2636
 463  344.9902
 464  269.3362
 465  281.6692
 466  243.6565
 467  244.5579
 468  232.6433
 469  294.4271
 470  205.5645
 471  254.0553
 472  292.9165
 473  271.7979
 474  209.05
 475  260.1873
 476  227.428
 477  235.9286
 478  327.9092
 479  341.6228
 480  299.7511
 481  376.9783
 482  236.8591
 483  228.6828
 484  271.5175
 485  310.6681
 486  100.5793
 487  231.2471
 488  270.0281
 489  266.7648
 490  218.9172
 491  144.742
 492  141.7609
 493  213.572
 494  271.2995
 495  215.0206
 496  222.6158
 497  107.4949
 498  153.2792
 499  225.8363
 500  137.9527
 501  219.9707
 502  244.3043
 503  198.113
 504  249.4341
 505  256.1693
 506  214.8825
 507  277.131
 508  449.2601
 509  516.5327
 510  711.3231
 511  929.8102
