# Input file       =  1211528298.098192_cleaned.dat
# Candidate        =  PSR_0332+5434
# Telescope        =  AR
# Epoch_topo       =  58266.318056692035
# Epoch_bary       =  N/A
# T_sample         =  0.002
# Data Folded      =  7340032
# Data Avg         =  0.0367316039027637
# Data StdDev      =  1.00005220590206 
# Profile Bins     =  512
# Profile Avg      =  526.668900815713 
# Profile StdDev   =  119.739287147936 
# Reduced chi-sqr  =  0.938
# Prob(Noise)      <  0.837   (~0.0 sigma)
# P_topo (ms)      =  714.52053293408   +/- 0.00027
# P'_topo (s/s)    =  -0                +/- 1.43e-10
# P''_topo (s/s^2) =  0                 +/- 6.29e-14
# P_bary (ms)      =  N/A
# P'_bary (s/s)    =  N/A
# P''_bary (s/s^2) =  N/A
# P_orb (s)        =  N/A
# asin(i)/c (s)    =  N/A
# eccentricity     =  N/A
# w (rad)          =  N/A
# T_peri           =  N/A
######################################################
   0  1009.448
   1  910.5004
   2  735.2591
   3  637.8492
   4  512.3502
   5  594.6224
   6  532.0462
   7  416.6622
   8  446.2114
   9  412.666
  10  421.7174
  11  402.1563
  12  504.1458
  13  638.3181
  14  602.7343
  15  508.3087
  16  545.4874
  17  490.657
  18  445.8908
  19  520.8157
  20  413.6415
  21  454.3385
  22  521.8806
  23  438.551
  24  410.3058
  25  407.4858
  26  377.5783
  27  381.187
  28  409.4361
  29  369.3962
  30  388.9508
  31  487.1465
  32  487.1372
  33  571.0323
  34  541.1102
  35  504.1048
  36  619.4841
  37  592.4124
  38  446.8449
  39  480.1672
  40  460.019
  41  572.7151
  42  556.8915
  43  477.0652
  44  463.9073
  45  408.9791
  46  483.9547
  47  411.6914
  48  469.0616
  49  537.0651
  50  528.3426
  51  477.5339
  52  533.1031
  53  468.1058
  54  406.2666
  55  448.9919
  56  444.5009
  57  408.8305
  58  429.3593
  59  439.5412
  60  459.2665
  61  523.0544
  62  516.8439
  63  557.5898
  64  491.6844
  65  413.5288
  66  487.4042
  67  507.4169
  68  568.9022
  69  496.4438
  70  525.2022
  71  515.6416
  72  509.5452
  73  520.4047
  74  531.606
  75  451.6037
  76  451.7479
  77  602.9736
  78  578.6981
  79  525.2759
  80  545.2185
  81  454.928
  82  446.8551
  83  433.8205
  84  452.5788
  85  449.159
  86  414.4674
  87  549.8145
  88  466.8268
  89  481.2403
  90  525.1028
  91  469.7741
  92  442.0728
  93  350.4338
  94  352.3917
  95  411.9132
  96  475.1494
  97  484.875
  98  457.937
  99  509.3525
 100  443.5836
 101  381.6249
 102  478.415
 103  490.9873
 104  502.5992
 105  524.4691
 106  428.7981
 107  333.9819
 108  298.2426
 109  300.5162
 110  440.4366
 111  439.865
 112  460.5168
 113  444.2922
 114  538.7818
 115  579.5277
 116  523.0352
 117  476.2101
 118  432.034
 119  503.6435
 120  455.9947
 121  529.2486
 122  582.6415
 123  656.0223
 124  505.0934
 125  372.1344
 126  431.3944
 127  479.9451
 128  456.4314
 129  445.6639
 130  551.8322
 131  540.2828
 132  492.161
 133  523.5081
 134  601.3649
 135  492.2962
 136  394.6061
 137  390.1246
 138  459.3601
 139  448.8363
 140  502.2249
 141  475.4546
 142  343.1622
 143  363.9868
 144  476.855
 145  453.3204
 146  480.7739
 147  529.3507
 148  550.5707
 149  541.7131
 150  529.4434
 151  505.1778
 152  550.0075
 153  554.894
 154  625.009
 155  515.1678
 156  527.3391
 157  553.6846
 158  590.5634
 159  674.4228
 160  658.298
 161  581.3748
 162  609.0934
 163  642.0154
 164  701.1559
 165  724.8691
 166  669.7062
 167  614.2129
 168  528.2064
 169  613.1192
 170  557.1492
 171  632.1655
 172  699.4996
 173  728.2662
 174  569.6068
 175  536.2202
 176  575.276
 177  552.6967
 178  546.7606
 179  473.6837
 180  445.1316
 181  524.0912
 182  518.8928
 183  470.1333
 184  403.5982
 185  421.0787
 186  456.2553
 187  593.2197
 188  418.7273
 189  444.0293
 190  555.4478
 191  566.2125
 192  546.3057
 193  548.0715
 194  517.8391
 195  466.4276
 196  497.8843
 197  556.9749
 198  536.4398
 199  501.1487
 200  477.8428
 201  479.9236
 202  397.2639
 203  485.7372
 204  527.1561
 205  511.1944
 206  575.8743
 207  472.6211
 208  388.8591
 209  521.4173
 210  455.1774
 211  513.7398
 212  468.4016
 213  520.4779
 214  495.5768
 215  473.701
 216  596.2628
 217  538.7912
 218  606.0857
 219  584.8582
 220  513.3009
 221  486.1555
 222  503.6559
 223  555.1353
 224  533.0316
 225  573.1494
 226  530.6403
 227  536.8215
 228  548.6544
 229  565.7041
 230  604.4673
 231  560.9925
 232  578.9487
 233  497.8396
 234  492.7536
 235  523.6511
 236  545.435
 237  512.5378
 238  559.899
 239  614.3953
 240  612.6157
 241  626.761
 242  526.3248
 243  617.3557
 244  640.7854
 245  593.4124
 246  571.0291
 247  562.6547
 248  595.3016
 249  587.0889
 250  588.4082
 251  635.4755
 252  526.3886
 253  569.892
 254  671.4556
 255  647.2409
 256  635.342
 257  517.0294
 258  649.0461
 259  694.7448
 260  573.2585
 261  544.3816
 262  677.152
 263  640.5463
 264  585.0954
 265  673.4691
 266  635.7155
 267  485.1393
 268  542.9966
 269  627.2061
 270  613.0884
 271  633.923
 272  528.2535
 273  518.1324
 274  418.9407
 275  427.636
 276  424.8111
 277  535.5839
 278  655.509
 279  586.6249
 280  527.6652
 281  531.0944
 282  605.4508
 283  597.7889
 284  577.6694
 285  558.9645
 286  460.84
 287  409.9007
 288  564.205
 289  609.4826
 290  586.4671
 291  587.853
 292  577.7198
 293  583.8027
 294  516.0455
 295  481.9013
 296  470.7669
 297  524.6433
 298  419.8111
 299  524.1722
 300  507.8912
 301  426.2495
 302  418.2058
 303  473.8482
 304  406.959
 305  525.4659
 306  503.0605
 307  483.5303
 308  444.2758
 309  516.5492
 310  532.573
 311  445.689
 312  501.255
 313  557.3167
 314  506.5238
 315  577.987
 316  540.0023
 317  546.8914
 318  647.0063
 319  564.9774
 320  565.1703
 321  606.2458
 322  634.2856
 323  628.774
 324  546.5874
 325  533.1171
 326  622.3787
 327  651.335
 328  737.924
 329  673.1317
 330  577.2061
 331  516.8901
 332  552.8651
 333  636.3066
 334  562.0522
 335  590.8023
 336  570.1613
 337  541.4459
 338  547.9306
 339  686.4395
 340  730.4
 341  693.5328
 342  474.4115
 343  536.5715
 344  565.3534
 345  331.7007
 346  318.3505
 347  507.9999
 348  564.4637
 349  494.6579
 350  510.0786
 351  624.9571
 352  634.563
 353  652.8235
 354  609.6817
 355  549.337
 356  514.4805
 357  413.5041
 358  484.2288
 359  560.9639
 360  548.6054
 361  546.8852
 362  485.6933
 363  490.314
 364  607.1322
 365  588.0993
 366  532.4072
 367  628.4246
 368  599.8154
 369  537.5056
 370  572.933
 371  502.5957
 372  516.0161
 373  596.6491
 374  499.2982
 375  570.5519
 376  597.9581
 377  493.5909
 378  470.002
 379  433.2398
 380  450.0318
 381  546.9471
 382  516.2816
 383  527.6429
 384  516.7017
 385  508.59
 386  468.8337
 387  472.5925
 388  455.2606
 389  555.058
 390  574.507
 391  573.4324
 392  480.5525
 393  570.0724
 394  485.3373
 395  398.7162
 396  450.9018
 397  475.622
 398  467.416
 399  484.7271
 400  523.6384
 401  556.5122
 402  507.3886
 403  455.9224
 404  466.5129
 405  412.0462
 406  513.6436
 407  436.4327
 408  552.3792
 409  571.4859
 410  542.6495
 411  532.4449
 412  505.0004
 413  496.7893
 414  502.0081
 415  478.1285
 416  527.1419
 417  558.3053
 418  569.3221
 419  559.9098
 420  447.2215
 421  414.0312
 422  541.548
 423  587.3398
 424  622.6572
 425  642.1775
 426  679.7961
 427  600.8353
 428  555.1921
 429  620.8291
 430  530.5115
 431  421.269
 432  549.3426
 433  610.2932
 434  551.0847
 435  554.5228
 436  515.8284
 437  449.5474
 438  489.7563
 439  456.3827
 440  547.0023
 441  657.0845
 442  634.7998
 443  492.756
 444  473.9383
 445  501.9797
 446  529.6037
 447  489.9956
 448  515.2844
 449  497.2001
 450  435.2131
 451  475.8881
 452  499.5306
 453  571.3684
 454  561.5229
 455  463.7566
 456  459.4362
 457  460.7464
 458  503.221
 459  509.3451
 460  484.7305
 461  493.0031
 462  557.1705
 463  507.7704
 464  473.0143
 465  563.8153
 466  473.2734
 467  525.383
 468  557.2066
 469  598.9855
 470  565.8973
 471  518.9695
 472  556.9921
 473  544.7314
 474  479.5048
 475  504.2135
 476  531.389
 477  706.4522
 478  658.3436
 479  496.4949
 480  534.3062
 481  484.1529
 482  341.6998
 483  432.3541
 484  462.2291
 485  481.5023
 486  498.9927
 487  574.1868
 488  546.7914
 489  499.9161
 490  480.5719
 491  465.4955
 492  481.2968
 493  603.6234
 494  580.8779
 495  517.7501
 496  515.7932
 497  572.1483
 498  575.7247
 499  479.82
 500  447.5574
 501  567.1475
 502  623.8474
 503  629.4863
 504  593.8152
 505  545.6442
 506  568.0112
 507  633.1288
 508  649.1415
 509  750.2381
 510  829.9584
 511  986.3082
