# Input file       =  1211169117.109627_cleaned.dat
# Candidate        =  PSR_0332+5434
# Telescope        =  AR
# Epoch_topo       =  58262.160869324383
# Epoch_bary       =  N/A
# T_sample         =  0.002
# Data Folded      =  7143424
# Data Avg         =  0.0242749839097245
# Data StdDev      =  1.000051419685   
# Profile Bins     =  512
# Profile Avg      =  338.681261088765 
# Profile StdDev   =  118.124658102274 
# Reduced chi-sqr  =  1.662
# Prob(Noise)      <  2.99e-19   (~8.9 sigma)
# P_topo (ms)      =  714.524591398245  +/- 0.00019
# P'_topo (s/s)    =  -0                +/- 1.03e-10
# P''_topo (s/s^2) =  0                 +/- 4.66e-14
# P_bary (ms)      =  N/A
# P'_bary (s/s)    =  N/A
# P''_bary (s/s^2) =  N/A
# P_orb (s)        =  N/A
# asin(i)/c (s)    =  N/A
# eccentricity     =  N/A
# w (rad)          =  N/A
# T_peri           =  N/A
######################################################
   0  1144.453
   1  995.3742
   2  758.1254
   3  491.7224
   4  423.3434
   5  471.5775
   6  389.3276
   7  307.7105
   8  362.0571
   9  346.736
  10  479.0669
  11  495.4307
  12  396.6973
  13  477.1631
  14  524.8416
  15  377.4356
  16  323.251
  17  371.7582
  18  380.6422
  19  384.8995
  20  490.6335
  21  416.6176
  22  290.4019
  23  402.7147
  24  435.5622
  25  316.6414
  26  387.1141
  27  511.1398
  28  432.4601
  29  363.0692
  30  310.9696
  31  261.147
  32  305.8408
  33  311.5324
  34  397.092
  35  364.6395
  36  398.9616
  37  460.8899
  38  436.6589
  39  471.0787
  40  436.7522
  41  340.5158
  42  317.8326
  43  283.1676
  44  293.9882
  45  256.5934
  46  293.424
  47  312.0793
  48  318.4636
  49  294.4923
  50  208.161
  51  178.1416
  52  235.14
  53  335.3611
  54  406.9645
  55  336.4423
  56  217.4467
  57  284.7684
  58  242.1924
  59  338.1625
  60  352.1527
  61  328.7575
  62  307.7662
  63  307.9379
  64  262.3267
  65  227.1338
  66  240.1065
  67  292.5945
  68  357.231
  69  479.2427
  70  435.6684
  71  384.9778
  72  348.1
  73  294.7701
  74  261.1903
  75  301.8269
  76  293.8746
  77  331.7211
  78  313.7973
  79  313.3958
  80  210.1398
  81  20.4735
  82  251.3609
  83  365.4441
  84  237.3175
  85  259.8138
  86  212.4978
  87  265.659
  88  280.4611
  89  337.2741
  90  267.0254
  91  205.7797
  92  257.9651
  93  309.4807
  94  250.8461
  95  239.1492
  96  330.7771
  97  455.9301
  98  477.5084
  99  405.6109
 100  353.1555
 101  440.852
 102  286.1913
 103  280.3127
 104  320.2211
 105  347.9187
 106  349.8986
 107  301.2106
 108  216.791
 109  269.3385
 110  441.0119
 111  457.9807
 112  371.263
 113  283.0868
 114  305.8474
 115  325.5713
 116  317.7367
 117  242.4756
 118  117.6136
 119  229.5952
 120  337.9354
 121  276.5581
 122  316.1621
 123  282.268
 124  214.4862
 125  274.962
 126  390.9865
 127  338.8947
 128  289.2964
 129  218.2764
 130  202.9239
 131  195.2831
 132  234.7191
 133  209.7259
 134  200.4864
 135  313.579
 136  348.6152
 137  362.8345
 138  293.0208
 139  178.7074
 140  141.2373
 141  114.7812
 142  224.6424
 143  243.4642
 144  301.1547
 145  390.5448
 146  271.1307
 147  231.2619
 148  158.2597
 149  176.0081
 150  207.8308
 151  235.2522
 152  220.7316
 153  307.3947
 154  269.5061
 155  151.7498
 156  211.073
 157  225.3243
 158  278.5471
 159  377.6068
 160  339.9375
 161  285.1656
 162  209.2852
 163  214.0526
 164  235.1215
 165  305.7163
 166  368.5851
 167  340.087
 168  279.727
 169  252.2712
 170  218.686
 171  110.3996
 172  239.446
 173  391.1753
 174  441.2373
 175  411.3902
 176  279.9081
 177  351.9435
 178  456.7332
 179  434.4553
 180  257.5529
 181  285.6548
 182  329.257
 183  332.051
 184  349.0242
 185  323.6464
 186  418.214
 187  366.2814
 188  313.9961
 189  361.792
 190  452.9647
 191  340.1336
 192  279.4366
 193  411.5852
 194  454.0465
 195  349.7812
 196  422.7939
 197  428.7505
 198  380.6221
 199  293.7137
 200  353.064
 201  324.8675
 202  346.7098
 203  217.3446
 204  234.6634
 205  256.0663
 206  206.9826
 207  320.6081
 208  298.9607
 209  483.4066
 210  394.3147
 211  450.4074
 212  387.7059
 213  443.8907
 214  465.5441
 215  254.6174
 216  254.2717
 217  201.1658
 218  193.0747
 219  358.8986
 220  422.7362
 221  327.899
 222  158.8955
 223  278.0559
 224  291.935
 225  278.913
 226  350.5068
 227  518.0396
 228  319.2845
 229  166.3367
 230  279.6746
 231  260.284
 232  285.811
 233  232.5416
 234  209.2357
 235  112.9209
 236  278.1074
 237  337.9631
 238  351.7432
 239  289.5305
 240  296.373
 241  403.602
 242  406.9348
 243  318.4479
 244  396.9985
 245  439.1971
 246  388.5844
 247  275.7339
 248  298.6413
 249  193.8507
 250  328.7622
 251  357.3503
 252  361.5506
 253  352.7069
 254  384.1237
 255  517.6246
 256  396.2233
 257  419.2777
 258  329.063
 259  237.1774
 260  476.5223
 261  274.7279
 262  342.165
 263  316.9428
 264  191.4741
 265  320.097
 266  368.9821
 267  437.7193
 268  452.4336
 269  409.7293
 270  306.3018
 271  350.5084
 272  324.0923
 273  301.0129
 274  308.69
 275  319.3912
 276  271.0099
 277  319.2619
 278  324.4499
 279  251.9095
 280  201.6808
 281  186.8657
 282  222.267
 283  232.4891
 284  175.535
 285  366.2112
 286  339.0086
 287  268.9765
 288  200.3264
 289  284.5537
 290  367.033
 291  213.858
 292  282.9133
 293  345.8839
 294  292.1496
 295  198.7088
 296  232.1573
 297  187.4205
 298  200.9547
 299  377.5182
 300  412.9886
 301  382.0808
 302  295.541
 303  292.9088
 304  350.5161
 305  350.5546
 306  324.9584
 307  351.0943
 308  424.9049
 309  336.6895
 310  286.3669
 311  287.1888
 312  274.9244
 313  284.9951
 314  343.5735
 315  342.3029
 316  310.1576
 317  344.1443
 318  265.4401
 319  321.688
 320  405.0808
 321  349.9198
 322  395.7198
 323  313.9422
 324  290.6519
 325  445.8419
 326  394.9449
 327  378.0428
 328  276.9395
 329  245.8153
 330  317.2674
 331  339.5908
 332  349.7941
 333  330.7694
 334  314.005
 335  323.4708
 336  322.8636
 337  252.5786
 338  286.0295
 339  221.9668
 340  395.0902
 341  416.5453
 342  337.6092
 343  329.4
 344  289.8415
 345  372.9847
 346  399.4654
 347  308.5787
 348  174.4364
 349  199.9167
 350  483.4502
 351  450.8569
 352  321.9527
 353  335.4223
 354  251.8582
 355  202.3407
 356  292.964
 357  416.7943
 358  379.1985
 359  342.3328
 360  298.1413
 361  333.9666
 362  251.7715
 363  261.2308
 364  308.9206
 365  336.0463
 366  311.9362
 367  378.8748
 368  436.9327
 369  419.0492
 370  428.0989
 371  332.5198
 372  287.3425
 373  412.9549
 374  517.5327
 375  381.0927
 376  390.3391
 377  403.176
 378  290.4516
 379  299.9183
 380  445.9107
 381  362.7787
 382  566.5815
 383  551.3997
 384  376.5103
 385  333.8472
 386  189.9348
 387  377.6069
 388  411.186
 389  306.2303
 390  324.1471
 391  451.173
 392  513.303
 393  485.7163
 394  418.8472
 395  272.81
 396  122.9964
 397  349.3187
 398  547.7195
 399  437.9957
 400  344.5517
 401  403.9754
 402  574.5399
 403  443.7168
 404  232.2126
 405  373.2346
 406  436.1242
 407  457.0995
 408  479.8546
 409  362.8066
 410  362.3485
 411  431.4875
 412  453.8636
 413  438.8099
 414  353.0209
 415  345.481
 416  448.348
 417  409.7199
 418  366.2336
 419  407.3145
 420  363.5988
 421  340.414
 422  323.843
 423  312.9573
 424  283.5552
 425  313.3834
 426  334.0796
 427  276.2131
 428  233.6873
 429  236.8803
 430  213.9431
 431  215.8989
 432  301.4701
 433  305.002
 434  441.8648
 435  337.2603
 436  244.5227
 437  365.0684
 438  314.0956
 439  281.8129
 440  337.122
 441  356.2943
 442  351.5135
 443  306.0414
 444  269.0346
 445  288.756
 446  423.6582
 447  405.9857
 448  393.6745
 449  499.4938
 450  447.7581
 451  428.1138
 452  289.709
 453  283.567
 454  324.8599
 455  257.4966
 456  252.2085
 457  281.0453
 458  325.6513
 459  276.4853
 460  264.2011
 461  286.465
 462  197.2318
 463  254.1266
 464  457.0956
 465  404.9798
 466  280.6212
 467  292.7187
 468  273.1794
 469  229.5833
 470  375.5047
 471  309.0067
 472  312.773
 473  298.2484
 474  326.7732
 475  411.1424
 476  412.5656
 477  494.2997
 478  353.5384
 479  398.5987
 480  413.9551
 481  353.4847
 482  284.5145
 483  348.8264
 484  332.8441
 485  315.4888
 486  375.9199
 487  327.9012
 488  188.8396
 489  215.6098
 490  427.1647
 491  520.4222
 492  444.0029
 493  425.5958
 494  390.6227
 495  485.2385
 496  389.7819
 497  328.8808
 498  307.0067
 499  432.5069
 500  510.5431
 501  428.0248
 502  422.2689
 503  407.8018
 504  372.4538
 505  530.0352
 506  482.5394
 507  498.4461
 508  622.9219
 509  869.9584
 510  975.4751
 511  1007.708
