# Input file       =  1212749416.100264_cleaned.dat
# Candidate        =  PSR_0332+5434
# Telescope        =  AR
# Epoch_topo       =  58280.451366901201
# Epoch_bary       =  N/A
# T_sample         =  0.002
# Data Folded      =  2293760
# Data Avg         =  0.0757860423656353
# Data StdDev      =  1.00170857946267 
# Profile Bins     =  512
# Profile Avg      =  339.479463996394 
# Profile StdDev   =  67.0471621338117 
# Reduced chi-sqr  =  0.854
# Prob(Noise)      <  0.992   (~0.0 sigma)
# P_topo (ms)      =  714.507196235552  +/- 0.000635
# P'_topo (s/s)    =  -0                +/- 1.07e-09
# P''_topo (s/s^2) =  0                 +/- 1.51e-12
# P_bary (ms)      =  N/A
# P'_bary (s/s)    =  N/A
# P''_bary (s/s^2) =  N/A
# P_orb (s)        =  N/A
# asin(i)/c (s)    =  N/A
# eccentricity     =  N/A
# w (rad)          =  N/A
# T_peri           =  N/A
######################################################
   0  402.6742
   1  516.675
   2  529.795
   3  458.0083
   4  431.9894
   5  406.2593
   6  407.9286
   7  426.3246
   8  383.1581
   9  411.3924
  10  445.7237
  11  423.774
  12  412.8605
  13  393.1673
  14  296.9285
  15  254.4598
  16  308.0372
  17  360.6667
  18  372.2905
  19  364.2833
  20  277.8102
  21  237.6948
  22  314.5664
  23  362.4224
  24  390.0723
  25  376.1824
  26  366.7981
  27  394.75
  28  477.8573
  29  471.3428
  30  427.295
  31  394.543
  32  397.5857
  33  363.2297
  34  382.5497
  35  352.4957
  36  407.2638
  37  353.1276
  38  365.1704
  39  392.0147
  40  395.3406
  41  349.9977
  42  356.6006
  43  391.8085
  44  361.2519
  45  359.9472
  46  424.7555
  47  412.1214
  48  420.3517
  49  395.384
  50  375.088
  51  370.8033
  52  340.128
  53  349.3664
  54  333.9562
  55  335.6765
  56  339.6003
  57  367.6516
  58  381.5037
  59  341.8972
  60  336.5533
  61  335.1319
  62  348.6379
  63  344.8719
  64  350.5235
  65  359.2394
  66  354.5596
  67  321.8856
  68  308.6355
  69  334.4624
  70  322.999
  71  336.7942
  72  359.5828
  73  327.0147
  74  362.7828
  75  344.5436
  76  341.6533
  77  370.3761
  78  368.3423
  79  361.8933
  80  360.5439
  81  358.8409
  82  313.3116
  83  306.6075
  84  289.4034
  85  358.2312
  86  386.8588
  87  345.5594
  88  353.8606
  89  358.2012
  90  350.6467
  91  356.6599
  92  346.9263
  93  392.0092
  94  344.5921
  95  325.6162
  96  363.5039
  97  361.2643
  98  349.718
  99  305.4182
 100  291.684
 101  302.0537
 102  346.0359
 103  323.469
 104  301.6172
 105  300.4856
 106  303.6742
 107  318.1279
 108  334.6435
 109  339.9205
 110  292.2406
 111  232.6072
 112  311.7515
 113  326.85
 114  288.0945
 115  304.0444
 116  335.0212
 117  297.386
 118  338.5646
 119  325.3498
 120  341.5552
 121  320.9662
 122  352.4966
 123  404.7743
 124  438.4532
 125  432.4691
 126  402.7233
 127  378.5559
 128  399.3861
 129  384.4593
 130  377.9938
 131  377.4908
 132  357.7106
 133  389.1157
 134  361.4038
 135  339.8614
 136  327.9748
 137  316.3409
 138  405.5584
 139  392.5096
 140  354.6358
 141  360.4804
 142  356.4139
 143  352.5297
 144  284.7372
 145  275.4434
 146  331.2215
 147  389.6482
 148  360.6119
 149  304.4337
 150  307.7762
 151  291.0653
 152  240.3204
 153  299.9697
 154  307.1762
 155  313.4555
 156  322.6819
 157  379.8732
 158  384.493
 159  382.0828
 160  397.4792
 161  407.4406
 162  325.4393
 163  337.5774
 164  346.6848
 165  350.3923
 166  362.8939
 167  372.176
 168  384.7742
 169  341.9958
 170  318.5264
 171  315.1195
 172  337.6507
 173  357.2974
 174  425.0257
 175  347.874
 176  324.8954
 177  331.9102
 178  373.116
 179  339.1799
 180  353.4298
 181  365.6951
 182  331.7405
 183  307.9806
 184  291.2858
 185  328.5971
 186  334.9664
 187  330.0832
 188  343.2752
 189  383.4863
 190  352.8262
 191  330.4754
 192  351.9604
 193  356.3114
 194  382.5597
 195  378.2747
 196  330.9191
 197  306.3264
 198  273.1727
 199  310.5765
 200  331.2813
 201  372.1759
 202  382.1929
 203  320.8808
 204  304.745
 205  370.5763
 206  345.6009
 207  361.4152
 208  394.9324
 209  328.3763
 210  363.6723
 211  371.1679
 212  377.1122
 213  383.81
 214  366.0551
 215  340.1131
 216  419.1814
 217  423.0331
 218  432.9793
 219  391.101
 220  339.7681
 221  302.3304
 222  333.515
 223  270.3522
 224  275.3801
 225  249.6295
 226  245.6559
 227  287.2065
 228  303.9589
 229  275.1034
 230  287.4898
 231  295.7825
 232  274.4662
 233  339.2724
 234  388.8875
 235  346.9093
 236  367.3312
 237  354.4724
 238  306.8338
 239  324.4709
 240  294.7032
 241  322.2226
 242  349.784
 243  412.3285
 244  381.3419
 245  386.034
 246  399.2994
 247  313.9969
 248  313.7804
 249  331.7969
 250  323.6642
 251  325.0156
 252  289.7762
 253  287.0327
 254  337.4232
 255  321.4836
 256  271.0742
 257  307.1348
 258  300.7132
 259  319.7433
 260  357.3949
 261  360.9753
 262  343.4727
 263  301.1735
 264  304.0157
 265  323.4026
 266  310.7491
 267  299.6926
 268  317.0377
 269  333.6892
 270  358.6587
 271  353.5836
 272  325.9597
 273  265.9637
 274  306.5543
 275  347.6473
 276  425.8412
 277  410.3697
 278  349.0469
 279  356.9272
 280  297.5862
 281  299.619
 282  360.6985
 283  326.4308
 284  323.0602
 285  324.3789
 286  294.7836
 287  278.2614
 288  266.9344
 289  306.8283
 290  336.5645
 291  294.7901
 292  292.4998
 293  331.7961
 294  348.1693
 295  329.6511
 296  343.4918
 297  350.622
 298  349.4623
 299  372.3396
 300  336.1249
 301  353.267
 302  337.8938
 303  342.4212
 304  334.5278
 305  287.6607
 306  299.4069
 307  328.3026
 308  380.4344
 309  328.7175
 310  349.2641
 311  348.2354
 312  362.7777
 313  337.9983
 314  307.9881
 315  329.3767
 316  343.152
 317  346.2325
 318  357.8951
 319  360.3812
 320  292.2336
 321  296.2202
 322  363.9221
 323  376.252
 324  343.7939
 325  323.495
 326  276.6689
 327  262.4641
 328  289.1866
 329  330.9184
 330  339.8704
 331  321.186
 332  328.3778
 333  291.5701
 334  258.3623
 335  284.1991
 336  299.7946
 337  331.9268
 338  282.191
 339  310.3535
 340  308.3505
 341  314.1944
 342  287.6166
 343  286.8169
 344  352.3098
 345  384.0255
 346  362.4719
 347  356.925
 348  349.6554
 349  365.286
 350  360.4758
 351  326.6954
 352  296.4489
 353  340.0468
 354  363.8967
 355  357.5297
 356  368.6447
 357  357.1493
 358  379.0131
 359  336.0555
 360  354.9337
 361  408.6888
 362  413.3285
 363  411.5721
 364  389.0847
 365  376.6544
 366  397.7337
 367  443.1338
 368  399.9359
 369  343.0602
 370  370.775
 371  325.945
 372  331.2469
 373  366.567
 374  306.9216
 375  269.1116
 376  293.9881
 377  342.7808
 378  322.4846
 379  284.2351
 380  293.605
 381  323.7333
 382  217.3927
 383  209.9536
 384  229.0409
 385  247.3677
 386  304.6096
 387  354.1069
 388  325.4939
 389  281.1258
 390  233.5518
 391  283.4771
 392  327.1978
 393  349.6346
 394  295.6964
 395  279.4401
 396  265.8707
 397  282.4867
 398  296.985
 399  308.0549
 400  319.3687
 401  326.7648
 402  318.8536
 403  310.7664
 404  297.6678
 405  269.7148
 406  327.0888
 407  362.1058
 408  341.052
 409  295.8989
 410  296.3102
 411  278.7822
 412  310.485
 413  300.5624
 414  395.1489
 415  362.9434
 416  355.505
 417  335.1679
 418  378.1776
 419  368.2115
 420  355.0846
 421  348.3753
 422  308.5479
 423  257.9459
 424  262.8701
 425  241.8628
 426  237.3585
 427  254.9689
 428  309.4247
 429  333.3099
 430  296.2598
 431  217.1132
 432  218.83
 433  275.4496
 434  348.9642
 435  371.7518
 436  347.7907
 437  331.6662
 438  356.3288
 439  375.44
 440  338.024
 441  313.3947
 442  324.9355
 443  383.6684
 444  397.4175
 445  394.1785
 446  386.5871
 447  378.7316
 448  333.8829
 449  325.6986
 450  363.9199
 451  324.0905
 452  297.2406
 453  337.56
 454  342.9212
 455  360.8318
 456  329.7012
 457  320.736
 458  314.7658
 459  320.9564
 460  356.278
 461  373.5049
 462  354.4213
 463  292.5792
 464  262.6989
 465  267.2363
 466  381.0165
 467  360.125
 468  337.9599
 469  330.5125
 470  282.6302
 471  293.9964
 472  248.0655
 473  266.1059
 474  319.6655
 475  353.9322
 476  386.3338
 477  372.5952
 478  389.0703
 479  352.0231
 480  332.3314
 481  359.751
 482  347.0892
 483  328.1776
 484  371.6836
 485  315.7004
 486  332.9711
 487  383.3492
 488  368.6093
 489  407.3825
 490  399.0193
 491  375.6405
 492  390.476
 493  356.1068
 494  360.3062
 495  381.2969
 496  353.4218
 497  279.0187
 498  244.1201
 499  291.8379
 500  320.4753
 501  349.4537
 502  298.2845
 503  266.9396
 504  262.1918
 505  286.457
 506  323.0821
 507  325.5004
 508  324.8645
 509  350.3911
 510  360.7161
 511  401.0641
