# Input file       =  1212663248.110032_cleaned.dat
# Candidate        =  PSR_0332+5434
# Telescope        =  AR
# Epoch_topo       =  58279.454052199442
# Epoch_bary       =  N/A
# T_sample         =  0.002
# Data Folded      =  7340032
# Data Avg         =  0.0201134898755407
# Data StdDev      =  1.00016303549804 
# Profile Bins     =  512
# Profile Avg      =  288.283599343859 
# Profile StdDev   =  119.752557111984 
# Reduced chi-sqr  =  1.441
# Prob(Noise)      <  2.23e-10   (~6.2 sigma)
# P_topo (ms)      =  714.508145867791  +/- 0.000213
# P'_topo (s/s)    =  -0                +/- 1.13e-10
# P''_topo (s/s^2) =  0                 +/- 4.97e-14
# P_bary (ms)      =  N/A
# P'_bary (s/s)    =  N/A
# P''_bary (s/s^2) =  N/A
# P_orb (s)        =  N/A
# asin(i)/c (s)    =  N/A
# eccentricity     =  N/A
# w (rad)          =  N/A
# T_peri           =  N/A
######################################################
   0  900.3734
   1  921.0336
   2  791.0082
   3  503.9175
   4  400.8547
   5  337.153
   6  377.996
   7  409.1096
   8  538.9333
   9  412.9641
  10  360.0594
  11  392.2648
  12  382.2032
  13  376.4992
  14  331.9855
  15  388.6466
  16  316.0742
  17  282.1052
  18  294.8818
  19  259.7148
  20  218.7264
  21  364.2471
  22  341.103
  23  261.3155
  24  375.628
  25  235.6943
  26  277.7758
  27  261.574
  28  276.0095
  29  301.8841
  30  265.9044
  31  253.4724
  32  203.8402
  33  323.7808
  34  324.0601
  35  367.6827
  36  311.8384
  37  305.6231
  38  353.4958
  39  396.9662
  40  395.2829
  41  278.9347
  42  236.2864
  43  196.0208
  44  170.667
  45  244.6715
  46  351.3135
  47  434.3524
  48  380.5292
  49  431.5328
  50  491.5112
  51  271.2212
  52  266.8303
  53  407.2905
  54  424.3022
  55  283.4126
  56  307.9062
  57  431.2968
  58  338.6705
  59  266.347
  60  206.287
  61  363.8195
  62  347.2916
  63  272.7022
  64  306.4223
  65  179.4803
  66  308.3853
  67  249.6027
  68  233.479
  69  331.5592
  70  380.9806
  71  429.6483
  72  389.1107
  73  330.4437
  74  396.876
  75  256.0354
  76  302.068
  77  156.6796
  78  153.4775
  79  152.879
  80  449.1946
  81  447.1569
  82  408.4008
  83  211.9628
  84  90.83635
  85  216.0924
  86  315.6045
  87  246.3759
  88  158.6059
  89  170.2211
  90  227.5575
  91  301.8732
  92  276.1567
  93  324.6222
  94  282.4511
  95  193.9397
  96  258.5216
  97  369.8489
  98  260.566
  99  164.388
 100  243.0428
 101  257.8141
 102  140.2793
 103  219.6996
 104  162.0318
 105  200.8436
 106  236.5132
 107  350.9666
 108  251.0839
 109  331.1777
 110  359.3905
 111  305.1081
 112  277.9857
 113  254.3668
 114  239.0157
 115  323.1982
 116  302.532
 117  292.167
 118  314.5435
 119  319.8261
 120  327.5409
 121  246.2044
 122  194.352
 123  363.813
 124  288.505
 125  306.9664
 126  327.116
 127  330.4225
 128  333.2799
 129  359.0608
 130  246.4535
 131  142.1337
 132  207.3589
 133  294.2652
 134  246.4141
 135  252.3388
 136  324.4688
 137  276.7371
 138  324.8482
 139  402.0233
 140  435.0089
 141  570.169
 142  537.8011
 143  383.5094
 144  272.4121
 145  266.1
 146  399.9669
 147  438.078
 148  410.7604
 149  281.9079
 150  211.59
 151  477.6443
 152  408.0342
 153  394.1658
 154  472.6829
 155  513.6874
 156  508.5732
 157  426.4206
 158  370.7953
 159  359.2119
 160  306.003
 161  363.8286
 162  402.9583
 163  468.0426
 164  389.5969
 165  257.0326
 166  156.7027
 167  328.5591
 168  373.8544
 169  365.1652
 170  283.1003
 171  455.9822
 172  587.0584
 173  473.4323
 174  299.8591
 175  251.49
 176  244.4264
 177  217.0425
 178  227.7202
 179  261.5598
 180  288.1311
 181  322.3289
 182  243.6058
 183  222.3731
 184  301.9036
 185  346.8135
 186  252.7691
 187  225.2819
 188  367.2318
 189  356.1079
 190  259.9949
 191  270.3687
 192  225.5996
 193  218.1498
 194  385.4125
 195  474.8577
 196  437.2804
 197  212.5119
 198  344.2744
 199  227.0067
 200  160.0508
 201  134.2819
 202  199.4346
 203  305.3128
 204  371.6382
 205  319.5214
 206  309.2808
 207  346.299
 208  270.0074
 209  316.405
 210  186.5144
 211  329.2723
 212  393.2737
 213  336.2996
 214  344.6892
 215  367.4604
 216  371.7222
 217  393.4124
 218  269.4688
 219  303.7126
 220  208.2598
 221  69.10902
 222  124.0049
 223  251.7808
 224  292.8896
 225  394.4355
 226  231.464
 227  322.061
 228  365.1586
 229  204.3447
 230  237.7614
 231  358.2364
 232  292.1163
 233  240.1301
 234  229.0349
 235  302.5058
 236  234.3233
 237  148.0748
 238  310.1029
 239  420.4836
 240  358.9866
 241  199.2652
 242  204.1539
 243  286.9438
 244  278.0724
 245  203.7317
 246  325.7077
 247  239.4643
 248  212.3206
 249  102.2678
 250  222.2191
 251  207.9251
 252  205.1834
 253  272.9058
 254  262.8856
 255  170.0029
 256  366.0381
 257  349.4386
 258  264.0372
 259  362.936
 260  341.2722
 261  336.8169
 262  224.4293
 263  247.8235
 264  368.9395
 265  233.4788
 266  234.4782
 267  209.8608
 268  295.5667
 269  240.9713
 270  198.0575
 271  192.6783
 272  172.2711
 273  280.1932
 274  321.1827
 275  194.9467
 276  198.4455
 277  288.0496
 278  334.2147
 279  325.2001
 280  371.7025
 281  369.6966
 282  233.9385
 283  184.6817
 284  227.7089
 285  230.0928
 286  364.053
 287  229.1804
 288  266.2952
 289  262.2509
 290  304.5945
 291  325.6032
 292  377.3398
 293  243.4273
 294  282.1896
 295  329.2682
 296  315.5499
 297  395.7423
 298  328.4952
 299  316.3093
 300  238.2655
 301  215.4049
 302  332.6766
 303  343.8435
 304  277.1973
 305  150.2954
 306  95.91585
 307  176.3783
 308  218.2016
 309  318.4279
 310  417.59
 311  333.4233
 312  353.0465
 313  337.2426
 314  235.0882
 315  302.1508
 316  267.8846
 317  220.964
 318  251.4442
 319  276.2108
 320  335.7115
 321  285.9713
 322  235.6549
 323  202.2542
 324  206.042
 325  168.078
 326  227.4946
 327  266.7947
 328  259.8628
 329  167.8203
 330  325.739
 331  245.7066
 332  229.9633
 333  222.8542
 334  314.6773
 335  213.879
 336  148.2724
 337  281.1093
 338  270.3268
 339  146.3491
 340  130.2242
 341  261.8707
 342  245.6643
 343  246.1175
 344  167.2599
 345  150.9995
 346  321.4515
 347  487.3404
 348  393.4531
 349  83.9556
 350  121.8786
 351  262.5417
 352  254.0845
 353  221.2607
 354  209.2812
 355  259.7601
 356  222.7884
 357  165.953
 358  241.3882
 359  309.7081
 360  314.1609
 361  216.9268
 362  247.4823
 363  137.2053
 364  244.9908
 365  162.2366
 366  172.7358
 367  265.8591
 368  208.4279
 369  152.8328
 370  207.0867
 371  291.0092
 372  262.7052
 373  333.0266
 374  308.4659
 375  384.973
 376  334.4452
 377  338.8274
 378  252.8384
 379  221.9966
 380  355.1075
 381  411.6438
 382  438.6331
 383  327.2732
 384  273.2245
 385  221.3695
 386  198.2311
 387  241.9634
 388  146.22
 389  216.9402
 390  251.2038
 391  73.04456
 392  58.51739
 393  218.4872
 394  259.022
 395  367.515
 396  423.2076
 397  436.0156
 398  295.5536
 399  390.2285
 400  254.6811
 401  130.4301
 402  189.0095
 403  317.8819
 404  228.1516
 405  216.6231
 406  183.7885
 407  238.6518
 408  282.5851
 409  133.3959
 410  251.7183
 411  235.2952
 412  181.317
 413  227.9221
 414  246.9787
 415  186.0154
 416  183.9277
 417  328.6258
 418  352.2682
 419  253.1714
 420  221.6259
 421  316.4189
 422  268.5113
 423  230.035
 424  223.8617
 425  190.1213
 426  49.2784
 427  208.042
 428  174.1683
 429  215.1961
 430  324.936
 431  375.2534
 432  325.4571
 433  224.2621
 434  283.3888
 435  344.7466
 436  334.4693
 437  377.4597
 438  288.6593
 439  170.0962
 440  242.7623
 441  136.3048
 442  188.8159
 443  212.1641
 444  312.4667
 445  323.8423
 446  274.0031
 447  208.1149
 448  275.9702
 449  226.3139
 450  158.5039
 451  219.2791
 452  188.1449
 453  229.8676
 454  281.169
 455  195.3071
 456  148.6487
 457  120.7024
 458  127.5551
 459  71.53558
 460  142.6607
 461  211.2424
 462  264.2045
 463  225.1042
 464  186.7543
 465  131.9646
 466  182.61
 467  266.6742
 468  280.5721
 469  317.3958
 470  302.0014
 471  302.1086
 472  251.14
 473  126.3799
 474  249.9994
 475  378.1104
 476  165.2667
 477  162.1006
 478  124.7848
 479  272.6892
 480  427.7371
 481  294.695
 482  367.1987
 483  263.8531
 484  143.7952
 485  241.3968
 486  295.7392
 487  324.7473
 488  296.6891
 489  352.4365
 490  335.9274
 491  304.5475
 492  324.6288
 493  310.012
 494  247.5806
 495  350.2806
 496  381.2359
 497  352.89
 498  145.7753
 499  193.3403
 500  283.1614
 501  296.2282
 502  319.0618
 503  343.5865
 504  383.1387
 505  361.8633
 506  326.7688
 507  370.1673
 508  509.0231
 509  678.2228
 510  678.8239
 511  814.1356
