# Input file       =  1212633698.108952_cleaned.dat
# Candidate        =  PSR_0332+5434
# Telescope        =  AR
# Epoch_topo       =  58279.112038298059
# Epoch_bary       =  N/A
# T_sample         =  0.002
# Data Folded      =  7208960
# Data Avg         =  0.0261964721243838
# Data StdDev      =  0.999989217164162
# Profile Bins     =  512
# Profile Avg      =  368.861046003703 
# Profile StdDev   =  118.657896311117 
# Reduced chi-sqr  =  1.382
# Prob(Noise)      <  2.08e-08   (~5.5 sigma)
# P_topo (ms)      =  714.508130447417  +/- 0.000177
# P'_topo (s/s)    =  -0                +/- 9.49e-11
# P''_topo (s/s^2) =  0                 +/- 4.26e-14
# P_bary (ms)      =  N/A
# P'_bary (s/s)    =  N/A
# P''_bary (s/s^2) =  N/A
# P_orb (s)        =  N/A
# asin(i)/c (s)    =  N/A
# eccentricity     =  N/A
# w (rad)          =  N/A
# T_peri           =  N/A
######################################################
   0  1116.908
   1  1119.848
   2  940.8978
   3  597.1794
   4  287.3254
   5  377.7975
   6  350.4092
   7  286.1416
   8  257.4487
   9  264.1377
  10  259.1347
  11  393.8279
  12  506.6169
  13  430.3401
  14  486.157
  15  428.9579
  16  450.2271
  17  447.0733
  18  364.8562
  19  322.0377
  20  335.2901
  21  309.0393
  22  416.0166
  23  377.5641
  24  480.4688
  25  428.2576
  26  367.2699
  27  413.1727
  28  288.8604
  29  298.6166
  30  401.5794
  31  384.6612
  32  371.4293
  33  315.1875
  34  182.9832
  35  392.1956
  36  385.705
  37  230.8685
  38  341.9276
  39  336.2596
  40  339.1219
  41  244.7703
  42  341.7929
  43  439.9155
  44  558.9198
  45  342.5785
  46  297.1276
  47  155.4859
  48  202.4537
  49  425.0915
  50  496.9771
  51  462.2917
  52  376.4486
  53  337.7295
  54  267.7104
  55  244.5575
  56  320.5843
  57  414.7075
  58  346.9223
  59  270.3434
  60  348.0082
  61  357.9881
  62  273.4071
  63  354.0959
  64  380.7458
  65  446.1333
  66  335.7662
  67  214.7231
  68  196.9044
  69  185.7432
  70  281.2538
  71  337.6689
  72  410.6684
  73  441.3274
  74  461.0517
  75  396.9451
  76  324.9112
  77  262.0599
  78  372.8444
  79  296.0349
  80  358.0258
  81  421.7886
  82  340.2371
  83  367.9098
  84  324.1657
  85  417.5213
  86  300.3282
  87  288.0199
  88  365.5988
  89  344.9018
  90  417.5886
  91  185.6577
  92  275.4497
  93  354.7569
  94  338.7128
  95  366.575
  96  474.6333
  97  509.1689
  98  386.6028
  99  476.3442
 100  371.3496
 101  301.2325
 102  238.5787
 103  302.6702
 104  335.6354
 105  453.0855
 106  463.9604
 107  277.4279
 108  391.0282
 109  392.01
 110  402.6133
 111  367.5975
 112  391.4222
 113  362.0568
 114  276.1761
 115  255.0712
 116  243.4622
 117  282.9278
 118  379.1161
 119  400.9939
 120  354.937
 121  346.662
 122  484.3943
 123  336.9715
 124  337.0959
 125  431.8207
 126  401.9192
 127  459.718
 128  525.6222
 129  405.1954
 130  287.87
 131  222.1421
 132  291.0355
 133  311.8517
 134  340.4253
 135  393.371
 136  387.1924
 137  270.9661
 138  239.876
 139  330.0702
 140  424.1
 141  259.0243
 142  245.8759
 143  383.9821
 144  289.2183
 145  421.4464
 146  530.896
 147  423.0641
 148  400.4493
 149  372.9831
 150  425.0449
 151  411.8279
 152  370.9428
 153  362.5096
 154  405.8981
 155  396.1318
 156  345.0348
 157  290.2034
 158  265.4012
 159  336.7462
 160  385.6741
 161  362.5232
 162  458.9242
 163  371.1643
 164  377.8411
 165  422.2814
 166  457.7454
 167  423.4754
 168  372.2056
 169  376.8842
 170  293.4029
 171  358.1057
 172  417.1955
 173  365.464
 174  302.9726
 175  340.4044
 176  315.1939
 177  258.8402
 178  285.1124
 179  408.9386
 180  400.7515
 181  383.9615
 182  387.667
 183  433.9173
 184  249.6896
 185  197.3729
 186  279.6461
 187  267.596
 188  395.7085
 189  447.5089
 190  404.1462
 191  315.6629
 192  271.933
 193  280.0966
 194  468.7444
 195  456.1797
 196  325.0417
 197  294.7239
 198  426.7213
 199  472.455
 200  449.8534
 201  555.8083
 202  384.7207
 203  362.3026
 204  510.5339
 205  453.3958
 206  373.6861
 207  275.528
 208  314.2582
 209  288.7466
 210  282.9225
 211  435.5975
 212  508.8678
 213  419.5874
 214  314.8749
 215  260.7657
 216  314.8721
 217  395.787
 218  359.0355
 219  358.9756
 220  344.8678
 221  440.5943
 222  474.88
 223  407.9386
 224  360.9196
 225  273.2807
 226  335.5791
 227  426.5382
 228  413.059
 229  469.8843
 230  384.9245
 231  396.7343
 232  459.101
 233  370.8301
 234  287.8009
 235  364.0368
 236  277.4657
 237  369.5995
 238  363.1254
 239  329.9934
 240  368.5328
 241  495.9394
 242  399.1912
 243  375.1044
 244  377.432
 245  400.3029
 246  367.9951
 247  310.1409
 248  338.5796
 249  399.8766
 250  412.1974
 251  401.5156
 252  412.8191
 253  314.7986
 254  320.7053
 255  261.7314
 256  471.8571
 257  342.7535
 258  262.0446
 259  286.1775
 260  407.1614
 261  464.855
 262  347.735
 263  442.2684
 264  301.2
 265  255.1543
 266  293.8717
 267  422.6542
 268  446.0325
 269  395.4753
 270  327.4843
 271  288.294
 272  355.0189
 273  367.4554
 274  404.0881
 275  394.8881
 276  404.8143
 277  318.7612
 278  287.1876
 279  389.9709
 280  451.2706
 281  393.489
 282  341.7946
 283  345.1179
 284  355.3586
 285  310.4919
 286  362.2622
 287  402.2386
 288  343.7556
 289  322.562
 290  390.239
 291  415.2349
 292  355.1239
 293  476.6735
 294  307.3202
 295  333.1079
 296  400.4472
 297  431.9166
 298  392.2088
 299  346.3689
 300  444.6481
 301  460.2297
 302  364.4068
 303  320.4403
 304  343.0935
 305  341.6832
 306  224.2096
 307  383.2298
 308  431.6742
 309  443.7555
 310  501.2914
 311  440.5092
 312  312.5701
 313  291.3593
 314  407.2446
 315  534.48
 316  497.3804
 317  380.678
 318  394.1446
 319  328.0609
 320  222.521
 321  370.46
 322  414.8883
 323  444.9925
 324  498.9704
 325  502.8154
 326  461.2306
 327  399.5423
 328  423.3784
 329  279.1686
 330  331.7264
 331  464.4005
 332  455.5955
 333  271.5442
 334  364.2452
 335  400.8306
 336  429.5852
 337  294.2203
 338  300.2931
 339  394.0111
 340  384.5936
 341  321.8555
 342  303.2885
 343  403.7617
 344  566.998
 345  475.5801
 346  393.4268
 347  401.9927
 348  407.1691
 349  384.4716
 350  396.0841
 351  288.6117
 352  378.2446
 353  350.4725
 354  323.2574
 355  392.2538
 356  371.753
 357  403.7882
 358  262.174
 359  192.2294
 360  372.7286
 361  486.3213
 362  577.1511
 363  452.1487
 364  431.8167
 365  371.1491
 366  374.791
 367  478.4973
 368  409.7596
 369  328.8323
 370  357.293
 371  362.7686
 372  291.9405
 373  306.0886
 374  304.6978
 375  290.2418
 376  426.3802
 377  411.8838
 378  420.1908
 379  379.6295
 380  303.6276
 381  362.8646
 382  432.637
 383  448.4175
 384  337.4593
 385  317.3974
 386  295.7188
 387  293.7858
 388  340.9483
 389  341.0187
 390  282.297
 391  329.9401
 392  333.0743
 393  414.0471
 394  499.4984
 395  392.8295
 396  410.5925
 397  503.7363
 398  512.6771
 399  380.1799
 400  364.3986
 401  278.3804
 402  175.4324
 403  160.9196
 404  193.6641
 405  134.731
 406  361.1978
 407  447.557
 408  373.0403
 409  357.5416
 410  323.0069
 411  313.039
 412  274.6394
 413  225.2827
 414  188.1835
 415  284.7402
 416  352.7245
 417  391.1462
 418  422.9381
 419  400.3476
 420  384.2715
 421  430.5388
 422  306.1574
 423  200.216
 424  256.5851
 425  378.4864
 426  381.2639
 427  317.2045
 428  334.2775
 429  338.1653
 430  393.0794
 431  255.12
 432  129.6325
 433  219.1461
 434  242.4792
 435  207.3468
 436  377.1755
 437  418.0864
 438  252.5345
 439  405.0473
 440  541.1779
 441  395.1862
 442  230.1722
 443  388.33
 444  368.74
 445  378.4188
 446  434.8503
 447  357.2448
 448  344.9898
 449  261.7609
 450  323.1779
 451  391.8931
 452  324.9435
 453  333.4344
 454  388.1798
 455  514.8658
 456  446.1686
 457  385.096
 458  255.0436
 459  257.7841
 460  320.3429
 461  336.4349
 462  408.399
 463  297.433
 464  399.3329
 465  511.1247
 466  336.842
 467  415.9783
 468  394.8432
 469  389.4174
 470  354.6346
 471  296.2488
 472  376.4986
 473  380.4216
 474  329.4212
 475  289.2065
 476  317.872
 477  346.1602
 478  238.1276
 479  290.722
 480  352.1107
 481  327.3042
 482  331.5063
 483  320.8692
 484  376.5025
 485  381.0888
 486  513.5366
 487  474.5453
 488  284.6704
 489  381.2536
 490  389.4618
 491  370.7909
 492  329.1548
 493  384.2248
 494  368.3401
 495  361.8946
 496  263.2125
 497  304.5728
 498  337.3011
 499  120.7526
 500  202.5258
 501  366.7084
 502  399.8936
 503  352.1187
 504  262.1729
 505  433.2734
 506  513.5953
 507  503.4442
 508  624.769
 509  628.366
 510  845.7154
 511  984.9642
