# Input file       =  1212389877.101829_cleaned.dat
# Candidate        =  PSR_0332+5434
# Telescope        =  AR
# Epoch_topo       =  58276.290035900798
# Epoch_bary       =  N/A
# T_sample         =  0.002
# Data Folded      =  7340032
# Data Avg         =  0.032450368115265
# Data StdDev      =  1.00001203379854 
# Profile Bins     =  512
# Profile Avg      =  465.182465457581 
# Profile StdDev   =  119.734477220005 
# Reduced chi-sqr  =  1.469
# Prob(Noise)      <  2.15e-11   (~6.6 sigma)
# P_topo (ms)      =  714.510846924852  +/- 0.000402
# P'_topo (s/s)    =  -0                +/- 2.12e-10
# P''_topo (s/s^2) =  0                 +/- 9.36e-14
# P_bary (ms)      =  N/A
# P'_bary (s/s)    =  N/A
# P''_bary (s/s^2) =  N/A
# P_orb (s)        =  N/A
# asin(i)/c (s)    =  N/A
# eccentricity     =  N/A
# w (rad)          =  N/A
# T_peri           =  N/A
######################################################
   0  1244.527
   1  1132.396
   2  970.8047
   3  846.8482
   4  662.7767
   5  449.8236
   6  475.7986
   7  496.7255
   8  452.0831
   9  495.5106
  10  507.8582
  11  450.6056
  12  514.4399
  13  533.8587
  14  509.7885
  15  506.5196
  16  532.4529
  17  473.4166
  18  482.1769
  19  425.8104
  20  424.145
  21  368.8774
  22  470.5619
  23  512.793
  24  467.0126
  25  416.7845
  26  465.4318
  27  408.8139
  28  381.2744
  29  251.8666
  30  304.7101
  31  362.5702
  32  428.9741
  33  375.788
  34  477.2441
  35  515.5222
  36  441.4085
  37  451.8737
  38  351.9164
  39  444.7395
  40  445.539
  41  497.5098
  42  524.4737
  43  450.6165
  44  483.9602
  45  522.9948
  46  590.0021
  47  561.6868
  48  448.6931
  49  349.2829
  50  402.9944
  51  413.7611
  52  426.4349
  53  447.035
  54  478.6327
  55  472.6345
  56  339.5838
  57  320.5447
  58  483.3913
  59  577.7095
  60  517.8293
  61  411.9203
  62  450.2361
  63  469.4011
  64  495.5912
  65  639.181
  66  503.8508
  67  456.7998
  68  521.0238
  69  467.1718
  70  471.4995
  71  515.0598
  72  457.2296
  73  401.7092
  74  491.4924
  75  547.7168
  76  473.632
  77  365.3104
  78  407.4169
  79  446.3226
  80  448.6524
  81  561.8184
  82  544.224
  83  544.7391
  84  534.9921
  85  507.8612
  86  458.2624
  87  432.3219
  88  335.8403
  89  428.0164
  90  464.9473
  91  521.1918
  92  420.3317
  93  465.3743
  94  452.8004
  95  465.7337
  96  536.8298
  97  574.3875
  98  575.3596
  99  592.8735
 100  505.5854
 101  513.3578
 102  578.6795
 103  557.834
 104  401.3188
 105  424.8503
 106  429.7184
 107  409.7276
 108  433.2121
 109  357.511
 110  543.2458
 111  517.2791
 112  597.2275
 113  596.6316
 114  599.5866
 115  597.8015
 116  585.0674
 117  514.2452
 118  477.2374
 119  500.5891
 120  588.697
 121  676.9001
 122  592.5938
 123  499.3148
 124  521.3237
 125  605.7857
 126  529.6805
 127  568.7752
 128  583.4221
 129  460.8593
 130  474.1384
 131  639.7726
 132  714.3524
 133  584.4688
 134  521.2681
 135  449.1908
 136  480.485
 137  551.5961
 138  539.3857
 139  587.5705
 140  574.8809
 141  526.0417
 142  569.9957
 143  600.6682
 144  588.9156
 145  424.5009
 146  450.3578
 147  466.9643
 148  524.6489
 149  549.4938
 150  546.039
 151  585.8856
 152  532.1374
 153  523.1704
 154  587.757
 155  616.5575
 156  534.7499
 157  529.5196
 158  549.6705
 159  537.776
 160  585.9356
 161  533.9517
 162  410.6265
 163  427.7602
 164  610.2546
 165  615.1603
 166  551.4085
 167  576.8297
 168  518.0384
 169  567.5446
 170  535.5954
 171  480.2647
 172  487.39
 173  603.5496
 174  570.2435
 175  407.2474
 176  440.7875
 177  466.9967
 178  490.3456
 179  485.5929
 180  442.1099
 181  527.9407
 182  596.3273
 183  606.4551
 184  541.6044
 185  499.2941
 186  439.1367
 187  557.6429
 188  537.4121
 189  616.8994
 190  420.7462
 191  392.1362
 192  596.3942
 193  463.3951
 194  403.7654
 195  395.3541
 196  421.6178
 197  395.0728
 198  237.3985
 199  225.6112
 200  421.9337
 201  452.8259
 202  488.3076
 203  428.4434
 204  426.9154
 205  378.588
 206  298.2558
 207  363.4251
 208  415.8029
 209  443.9087
 210  457.1197
 211  302.0018
 212  297.2839
 213  350.4757
 214  274.62
 215  269.5711
 216  296.8373
 217  379.2708
 218  323.8186
 219  355.0142
 220  365.0803
 221  292.2943
 222  390.822
 223  425.6831
 224  348.81
 225  373.587
 226  410.7985
 227  387.2001
 228  515.6317
 229  405.9152
 230  379.9451
 231  378.5914
 232  498.8171
 233  507.7179
 234  492.7045
 235  340.6268
 236  289.9997
 237  364.9704
 238  433.5401
 239  368.7587
 240  432.0799
 241  476.4305
 242  444.3307
 243  317.6763
 244  470.6195
 245  478.3559
 246  360.0631
 247  388.6898
 248  407.0033
 249  326.0517
 250  373.8199
 251  311.4071
 252  414.2416
 253  400.4483
 254  398.6584
 255  483.1
 256  457.9086
 257  419.5986
 258  424.2103
 259  420.6363
 260  515.738
 261  466.8022
 262  408.9983
 263  532.3016
 264  539.4976
 265  563.7226
 266  537.5145
 267  568.5031
 268  431.6501
 269  434.5962
 270  430.0359
 271  389.0378
 272  423.0543
 273  458.624
 274  285.0873
 275  381.7025
 276  429.9454
 277  389.2261
 278  462.4621
 279  491.5385
 280  448.7273
 281  353.4615
 282  406.8029
 283  406.5716
 284  372.2647
 285  538.6422
 286  434.4939
 287  347.8185
 288  535.3968
 289  549.3173
 290  541.9738
 291  371.0273
 292  404.6758
 293  440.6815
 294  427.6308
 295  481.3935
 296  407.7064
 297  482.8665
 298  583.9943
 299  524.3279
 300  565.912
 301  596.6876
 302  532.5778
 303  621.0911
 304  500.2703
 305  421.6395
 306  504.2795
 307  570.3154
 308  550.4935
 309  439.0305
 310  416.0682
 311  527.6772
 312  558.0266
 313  447.2288
 314  433.7479
 315  455.6396
 316  467.1388
 317  431.1145
 318  328.6824
 319  373.1232
 320  420.7207
 321  390.5603
 322  448.6456
 323  394.6034
 324  423.6911
 325  518.9537
 326  474.5591
 327  550.2283
 328  517.895
 329  450.3714
 330  507.8068
 331  554.5216
 332  516.5385
 333  402.2669
 334  413.9698
 335  475.053
 336  436.8332
 337  488.5923
 338  436.7137
 339  420.2056
 340  449.8476
 341  596.0141
 342  477.6006
 343  419.8264
 344  488.9337
 345  581.9192
 346  576.1736
 347  455.3304
 348  440.3876
 349  364.0107
 350  341.2473
 351  404.5732
 352  562.707
 353  661.0656
 354  505.6426
 355  408.2674
 356  477.6997
 357  435.2603
 358  494.4357
 359  525.8652
 360  590.5984
 361  444.1331
 362  422.4409
 363  429.5591
 364  356.3285
 365  375.2253
 366  387.9613
 367  412.808
 368  416.142
 369  412.426
 370  379.3521
 371  398.1204
 372  484.0439
 373  625.2042
 374  596.8164
 375  608.6373
 376  527.8207
 377  471.2804
 378  467.4966
 379  467.3588
 380  499.6228
 381  606.1161
 382  509.7154
 383  465.5579
 384  504.4709
 385  454.2235
 386  574.0201
 387  625.53
 388  571.1583
 389  513.4092
 390  497.8134
 391  447.1243
 392  499.5307
 393  553.504
 394  430.5594
 395  350.4353
 396  407.2039
 397  464.838
 398  457.5978
 399  341.5394
 400  412.5867
 401  575.4775
 402  599.3181
 403  390.377
 404  367.9601
 405  516.5181
 406  452.8045
 407  466.0898
 408  517.1102
 409  555.8489
 410  500.1439
 411  437.9208
 412  408.0749
 413  450.0526
 414  450.6405
 415  458.1498
 416  440.7547
 417  450.5777
 418  287.7751
 419  325.8746
 420  319.8759
 421  367.4476
 422  425.6374
 423  335.1157
 424  416.5645
 425  371.9282
 426  390.1393
 427  384.9608
 428  376.4357
 429  308.5355
 430  345.5211
 431  419.9167
 432  456.9917
 433  387.0954
 434  459.0455
 435  390.1696
 436  341.9472
 437  348.2289
 438  412.9951
 439  426.6001
 440  471.4166
 441  345.6453
 442  364.7698
 443  336.1169
 444  238.792
 445  317.9367
 446  451.3964
 447  413.539
 448  320.2815
 449  362.9416
 450  350.8215
 451  318.7263
 452  280.0554
 453  386.7622
 454  449.6397
 455  307.8216
 456  316.3712
 457  361.4539
 458  504.2283
 459  443.9049
 460  334.2431
 461  437.9413
 462  400.9837
 463  427.4432
 464  468.3824
 465  500.6307
 466  439.0899
 467  462.127
 468  467.6333
 469  389.703
 470  370.5249
 471  426.3731
 472  389.1141
 473  337.3454
 474  346.3693
 475  502.8451
 476  550.6131
 477  332.1054
 478  348.2504
 479  467.0387
 480  410.1705
 481  452.089
 482  322.609
 483  447.1507
 484  395.607
 485  417.5818
 486  451.0589
 487  475.1008
 488  449.0872
 489  462.9464
 490  411.6373
 491  427.575
 492  456.5286
 493  452.936
 494  393.7907
 495  253.3775
 496  468.7353
 497  503.1385
 498  292.9193
 499  294.9287
 500  381.1103
 501  403.0471
 502  435.56
 503  487.4288
 504  461.6304
 505  533.3437
 506  579.3887
 507  512.3419
 508  530.8484
 509  695.0671
 510  895.7703
 511  1116.453
