# Input file       =  1212303721.111694_cleaned.dat
# Candidate        =  PSR_0332+5434
# Telescope        =  AR
# Epoch_topo       =  58275.292860089052
# Epoch_bary       =  N/A
# T_sample         =  0.002
# Data Folded      =  7340032
# Data Avg         =  0.0354602049989275
# Data StdDev      =  1.00016497920846 
# Profile Bins     =  512
# Profile Avg      =  508.391159428605 
# Profile StdDev   =  119.752789838335 
# Reduced chi-sqr  =  1.894
# Prob(Noise)      <  1.31e-30   (~11.4 sigma)
# P_topo (ms)      =  714.511808217274  +/- 0.000575
# P'_topo (s/s)    =  -0                +/- 3.03e-10
# P''_topo (s/s^2) =  0                 +/- 1.34e-13
# P_bary (ms)      =  N/A
# P'_bary (s/s)    =  N/A
# P''_bary (s/s^2) =  N/A
# P_orb (s)        =  N/A
# asin(i)/c (s)    =  N/A
# eccentricity     =  N/A
# w (rad)          =  N/A
# T_peri           =  N/A
######################################################
   0  1321.095
   1  1324.346
   2  1051.189
   3  831.4746
   4  702.8499
   5  558.0115
   6  565.6947
   7  551.9882
   8  600.1625
   9  533.416
  10  607.2962
  11  589.6454
  12  528.0945
  13  662.9013
  14  536.0931
  15  647.7822
  16  668.5706
  17  567.4129
  18  435.7968
  19  476.0726
  20  575.4316
  21  621.683
  22  627.9847
  23  455.4153
  24  477.6517
  25  568.0505
  26  583.7662
  27  661.7888
  28  579.5939
  29  598.6926
  30  446.8041
  31  508.1556
  32  555.5676
  33  542.6374
  34  626.6171
  35  544.1297
  36  417.4766
  37  509.9543
  38  478.7495
  39  453.1737
  40  528.7175
  41  454.0539
  42  537.8151
  43  529.8906
  44  508.8875
  45  576.9886
  46  573.1111
  47  632.5817
  48  538.6872
  49  545.6563
  50  645.4527
  51  574.0175
  52  465.4483
  53  427.8877
  54  501.2702
  55  495.2257
  56  489.4236
  57  497.0739
  58  508.0534
  59  507.7154
  60  597.0419
  61  603.185
  62  682.2905
  63  689.9894
  64  500.8445
  65  512.6953
  66  603.4316
  67  604.1494
  68  539.7914
  69  652.5185
  70  509.6078
  71  540.3878
  72  575.2943
  73  599.7741
  74  542.4802
  75  667.5486
  76  737.0543
  77  578.0713
  78  451.9845
  79  476.1894
  80  616.4105
  81  661.1914
  82  719.5031
  83  727.5281
  84  527.8344
  85  531.2272
  86  691.8319
  87  766.9564
  88  603.7658
  89  490.6021
  90  513.0385
  91  553.2549
  92  574.8088
  93  620.7581
  94  569.8014
  95  528.7928
  96  643.0869
  97  587.8976
  98  554.6845
  99  656.7776
 100  615.9218
 101  520.8609
 102  533.395
 103  621.0781
 104  621.3273
 105  580.3523
 106  548.5983
 107  560.8924
 108  568.8963
 109  559.2823
 110  618.4821
 111  663.0269
 112  643.6003
 113  538.0641
 114  477.6767
 115  619.9482
 116  577.6979
 117  573.9557
 118  633.6553
 119  592.1682
 120  601.6659
 121  488.9821
 122  466.0306
 123  583.2966
 124  610.835
 125  600.7394
 126  513.6492
 127  596.5848
 128  658.6852
 129  635.5738
 130  669.0693
 131  527.5476
 132  532.1813
 133  555.3024
 134  590.8447
 135  582.2102
 136  600.3369
 137  586.4238
 138  682.0521
 139  624.8204
 140  587.2787
 141  581.6522
 142  556.7591
 143  626.2277
 144  711.7457
 145  593.6757
 146  484.149
 147  443.8072
 148  513.4949
 149  583.8102
 150  698.6115
 151  802.2581
 152  625.5619
 153  523.4724
 154  605.3804
 155  644.2321
 156  615.0025
 157  619.09
 158  626.0161
 159  643.0947
 160  583.9804
 161  638.5021
 162  685.8712
 163  596.2213
 164  417.506
 165  552.7444
 166  554.1576
 167  557.1665
 168  548.2091
 169  642.4677
 170  668.8466
 171  596.0666
 172  693.8344
 173  613.8896
 174  518.278
 175  610.7697
 176  655.9111
 177  577.5435
 178  617.1431
 179  627.0614
 180  743.076
 181  589.9409
 182  561.7446
 183  574.4824
 184  503.8669
 185  607.5247
 186  556.4409
 187  502.7712
 188  419.1714
 189  503.57
 190  512.4783
 191  595.1808
 192  581.5187
 193  444.559
 194  535.8358
 195  578.2894
 196  601.8926
 197  521.5468
 198  523.2512
 199  454.1204
 200  532.7244
 201  609.0717
 202  582.7979
 203  549.0957
 204  498.1825
 205  594.4686
 206  614.8588
 207  617.5304
 208  547.1365
 209  586.4787
 210  488.3878
 211  520.822
 212  583.5432
 213  587.1598
 214  530.1705
 215  545.3972
 216  444.3622
 217  505.9611
 218  477.4521
 219  557.8648
 220  570.7484
 221  467.7075
 222  466.2171
 223  526.0806
 224  456.4095
 225  469.833
 226  480.7942
 227  580.634
 228  532.9335
 229  431.4378
 230  357.8343
 231  450.1546
 232  577.8669
 233  465.0688
 234  399.3791
 235  419.1494
 236  303.019
 237  384.658
 238  517.933
 239  421.0248
 240  371.5911
 241  415.9582
 242  404.2007
 243  428.0958
 244  451.1166
 245  417.8425
 246  486.6401
 247  452.5599
 248  369.7073
 249  338.8682
 250  393.327
 251  557.8703
 252  509.7024
 253  484.9215
 254  462.4821
 255  476.9445
 256  516.7047
 257  473.1935
 258  462.3456
 259  374.0953
 260  401.2342
 261  498.0481
 262  532.7021
 263  379.1243
 264  441.1688
 265  553.3615
 266  487.9868
 267  494.7489
 268  452.6516
 269  433.0211
 270  483.9375
 271  464.726
 272  399.0224
 273  522.4584
 274  463.997
 275  419.5864
 276  430.7062
 277  441.1626
 278  433.2871
 279  379.3154
 280  459.0867
 281  446.7501
 282  471.8844
 283  345.8292
 284  387.4504
 285  469.7181
 286  450.0152
 287  434.298
 288  400.7413
 289  393.7597
 290  480.261
 291  520.3988
 292  519.3516
 293  433.044
 294  378.0244
 295  369.4782
 296  375.7903
 297  378.1778
 298  341.1504
 299  342.3464
 300  333.5336
 301  288.8204
 302  373.4703
 303  371.0894
 304  452.4748
 305  425.7418
 306  377.2172
 307  349.1609
 308  430.1761
 309  455.8459
 310  403.5677
 311  297.5789
 312  346.159
 313  442.051
 314  343.6814
 315  403.8394
 316  442.3643
 317  355.3541
 318  344.9249
 319  385.733
 320  410.3477
 321  357.4521
 322  385.6692
 323  374.2936
 324  373.9156
 325  483.144
 326  529.9689
 327  417.2941
 328  434.8956
 329  419.7327
 330  483.4026
 331  395.9131
 332  337.6275
 333  320.1352
 334  426.1731
 335  350.7788
 336  221.1822
 337  404.2826
 338  343.0577
 339  403.6832
 340  470.6875
 341  380.8113
 342  388.0811
 343  426.0797
 344  471.0495
 345  341.294
 346  361.1614
 347  443.5996
 348  390.3367
 349  373.4589
 350  288.2437
 351  350.6727
 352  371.4102
 353  413.3002
 354  489.7019
 355  373.7426
 356  233.4407
 357  325.0683
 358  385.8937
 359  399.1514
 360  362.6448
 361  364.5085
 362  388.2911
 363  472.3759
 364  368.8903
 365  250.2988
 366  253.1382
 367  277.1304
 368  385.6743
 369  455.741
 370  437.3682
 371  379.2067
 372  433.667
 373  440.403
 374  414.1958
 375  446.6823
 376  349.4796
 377  381.2523
 378  417.1573
 379  573.0603
 380  554.4148
 381  490.6726
 382  543.9423
 383  516.0098
 384  479.8271
 385  461.6507
 386  367.4003
 387  345.6519
 388  415.5203
 389  435.7036
 390  622.7329
 391  590.8439
 392  535.2411
 393  388.1753
 394  430.0117
 395  433.7116
 396  419.4977
 397  373.9268
 398  418.6357
 399  402.4073
 400  400.0859
 401  503.0518
 402  470.4655
 403  404.7057
 404  487.6597
 405  492.0374
 406  518.5187
 407  556.5008
 408  636.993
 409  494.6441
 410  506.196
 411  531.186
 412  430.8025
 413  428.8803
 414  475.3506
 415  489.2476
 416  382.0354
 417  441.6888
 418  397.1999
 419  356.8963
 420  369.4505
 421  418.8748
 422  468.1376
 423  499.2089
 424  492.3727
 425  500.3689
 426  411.6971
 427  440.241
 428  368.1557
 429  434.2591
 430  415.6987
 431  332.4338
 432  295.101
 433  372.7768
 434  413.5224
 435  384.7797
 436  442.4374
 437  383.0324
 438  414.6508
 439  467.4242
 440  546.1335
 441  525.0294
 442  553.4014
 443  532.2547
 444  443.188
 445  467.3925
 446  648.325
 447  518.99
 448  395.5545
 449  330.9579
 450  498.5174
 451  442.2963
 452  468.963
 453  554.4397
 454  513.332
 455  427.3521
 456  414.5284
 457  499.5952
 458  555.7093
 459  528.9102
 460  462.3282
 461  426.0841
 462  561.6476
 463  636.3624
 464  513.5865
 465  513.7466
 466  523.8797
 467  489.94
 468  478.6609
 469  497.2383
 470  398.6266
 471  487.4266
 472  454.4005
 473  404.8383
 474  467.3142
 475  528.4082
 476  450.2954
 477  317.4988
 478  401.8123
 479  431.4908
 480  553.2228
 481  691.479
 482  700.3453
 483  582.5145
 484  570.0741
 485  610.8317
 486  582.8193
 487  473.8951
 488  470.3047
 489  483.3586
 490  471.2559
 491  548.8911
 492  619.2846
 493  517.363
 494  378.1332
 495  480.1449
 496  582.2211
 497  533.9874
 498  560.3506
 499  545.2204
 500  502.6014
 501  493.8069
 502  499.803
 503  529.4538
 504  587.4227
 505  640.9412
 506  692.4391
 507  638.1714
 508  732.4977
 509  926.4982
 510  847.0219
 511  1086.591
