# Input file       =  1212734494.117161_cleaned.dat
# Candidate        =  PSR_0332+5434
# Telescope        =  AR
# Epoch_topo       =  58280.278658763440
# Epoch_bary       =  N/A
# T_sample         =  0.002
# Data Folded      =  7340032
# Data Avg         =  0.0357483278363578
# Data StdDev      =  1.00003969180383 
# Profile Bins     =  512
# Profile Avg      =  512.459891428943 
# Profile StdDev   =  119.737788796958 
# Reduced chi-sqr  =  1.190
# Prob(Noise)      <  0.00201   (~2.9 sigma)
# P_topo (ms)      =  714.507027471722  +/- 0.000495
# P'_topo (s/s)    =  -0                +/- 2.61e-10
# P''_topo (s/s^2) =  0                 +/- 1.15e-13
# P_bary (ms)      =  N/A
# P'_bary (s/s)    =  N/A
# P''_bary (s/s^2) =  N/A
# P_orb (s)        =  N/A
# asin(i)/c (s)    =  N/A
# eccentricity     =  N/A
# w (rad)          =  N/A
# T_peri           =  N/A
######################################################
   0  1067.978
   1  1100.576
   2  786.4821
   3  581.2929
   4  564.5168
   5  589.4279
   6  547.329
   7  447.0238
   8  533.2661
   9  586.9247
  10  577.1833
  11  668.9808
  12  738.0278
  13  633.4977
  14  623.0087
  15  669.3792
  16  589.6292
  17  469.2614
  18  400.2781
  19  509.5258
  20  494.488
  21  547.0208
  22  526.3412
  23  543.9141
  24  596.0994
  25  407.7276
  26  438.6969
  27  501.012
  28  483.1978
  29  459.3609
  30  540.6168
  31  574.2744
  32  557.5715
  33  416.5871
  34  493.6697
  35  676.5453
  36  704.113
  37  599.1127
  38  562.5271
  39  664.5338
  40  562.7959
  41  593.4072
  42  572.2712
  43  570.0571
  44  597.6261
  45  543.998
  46  511.4545
  47  533.5159
  48  580.4857
  49  495.3058
  50  488.104
  51  536.1673
  52  475.362
  53  445.2342
  54  576.2782
  55  496.5284
  56  542.8333
  57  565.3414
  58  578.0633
  59  559.9185
  60  507.5331
  61  500.3403
  62  425.5968
  63  461.3017
  64  531.8864
  65  462.0717
  66  412.6001
  67  385.1958
  68  457.5163
  69  540.3674
  70  553.5865
  71  557.425
  72  593.9179
  73  498.7515
  74  502.1961
  75  564.9877
  76  538.8596
  77  566.9241
  78  528.4216
  79  490.2508
  80  591.1912
  81  539.0714
  82  474.4287
  83  361.9253
  84  479.7757
  85  644.3143
  86  575.6959
  87  402.3976
  88  586.565
  89  564.1855
  90  530.1207
  91  525.4931
  92  606.5283
  93  536.9959
  94  599.2639
  95  659.3032
  96  559.368
  97  457.2664
  98  537.6036
  99  540.1899
 100  559.7166
 101  577.4357
 102  593.4957
 103  470.0622
 104  418.1526
 105  403.264
 106  476.5132
 107  577.243
 108  552.2177
 109  560.4317
 110  514.7327
 111  451.5093
 112  437.2833
 113  350.0942
 114  522.4832
 115  458.2577
 116  411.1991
 117  350.252
 118  480.4022
 119  620.6057
 120  552.6194
 121  513.7268
 122  480.0435
 123  416.3139
 124  385.172
 125  527.7468
 126  442.5945
 127  435.3113
 128  413.7876
 129  392.8792
 130  475.6607
 131  499.7747
 132  454.5414
 133  502.2665
 134  451.4998
 135  417.0748
 136  421.573
 137  502.8117
 138  455.3833
 139  442.7059
 140  470.1021
 141  465.1591
 142  454.8032
 143  455.7881
 144  524.0355
 145  620.0814
 146  442.3561
 147  337.501
 148  358.4492
 149  424.9477
 150  483.0082
 151  402.1187
 152  298.7797
 153  386.7866
 154  380.2544
 155  406.1354
 156  284.1722
 157  372.0346
 158  469.6547
 159  444.5124
 160  424.8191
 161  401.1641
 162  441.6764
 163  485.1501
 164  397.6122
 165  351.3149
 166  447.2272
 167  512.6202
 168  538.0604
 169  582.1813
 170  516.4184
 171  443.7513
 172  474.7449
 173  471.4622
 174  498.105
 175  426.3939
 176  393.2882
 177  460.601
 178  509.8643
 179  552.4008
 180  545.0638
 181  517.972
 182  387.6126
 183  500.3295
 184  455.8349
 185  436.2642
 186  476.6338
 187  493.0523
 188  495.8637
 189  520.2694
 190  510.295
 191  436.0575
 192  397.3384
 193  402.782
 194  495.2377
 195  402.2554
 196  470.6866
 197  434.9177
 198  428.9827
 199  467.9653
 200  446.5707
 201  428.332
 202  521.4487
 203  553.1733
 204  572.0566
 205  566.1509
 206  505.9062
 207  461.9307
 208  534.7528
 209  566.8788
 210  416.6152
 211  492.9988
 212  525.2759
 213  474.9717
 214  442.5888
 215  432.272
 216  479.9824
 217  434.7539
 218  526.7551
 219  529.3424
 220  506.9988
 221  491.4523
 222  399.3123
 223  432.5611
 224  389.0367
 225  377.8488
 226  414.4283
 227  408.0076
 228  319.7523
 229  387.0891
 230  480.1271
 231  469.5842
 232  345.5759
 233  358.5363
 234  427.8458
 235  562.3434
 236  454.3438
 237  341.7417
 238  486.0741
 239  531.568
 240  447.7664
 241  359.0251
 242  312.3211
 243  456.617
 244  421.1692
 245  501.8108
 246  594.4409
 247  552.827
 248  498.5495
 249  492.3306
 250  388.5868
 251  414.8916
 252  443.0942
 253  505.9837
 254  471.0589
 255  462.6018
 256  514.7592
 257  538.236
 258  598.6015
 259  501.523
 260  450.6389
 261  510.0091
 262  546.417
 263  566.0115
 264  510.8086
 265  375.8398
 266  392.6559
 267  405.8213
 268  505.0574
 269  551.9895
 270  512.4733
 271  529.0835
 272  496.996
 273  474.0735
 274  448.8117
 275  410.3624
 276  429.0483
 277  373.6806
 278  365.7814
 279  472.6624
 280  564.7261
 281  505.7163
 282  381.7043
 283  374.5441
 284  345.0693
 285  410.2961
 286  449.7733
 287  497.4117
 288  549.978
 289  657.9658
 290  531.9097
 291  418.0341
 292  483.2655
 293  548.2099
 294  595.5662
 295  573.7979
 296  501.3936
 297  457.5673
 298  445.4876
 299  522.9874
 300  512.6635
 301  552.9694
 302  509.6773
 303  521.0657
 304  533.1309
 305  593.6145
 306  605.1193
 307  601.9471
 308  550.4352
 309  483.4304
 310  514.0653
 311  556.6393
 312  596.9041
 313  598.2135
 314  603.4359
 315  583.41
 316  613.3187
 317  587.0184
 318  584.0387
 319  644.5934
 320  538.329
 321  543.744
 322  647.4453
 323  622.3645
 324  534.2343
 325  647.064
 326  569.8914
 327  491.0887
 328  452.6184
 329  541.6539
 330  703.8692
 331  676.7488
 332  655.6648
 333  600.1791
 334  515.8669
 335  453.2513
 336  549.3103
 337  566.5281
 338  570.2773
 339  522.1451
 340  484.9758
 341  454.8386
 342  490.6401
 343  548.3744
 344  663.5821
 345  540.0744
 346  611.3392
 347  637.199
 348  515.4638
 349  542.1668
 350  703.9273
 351  580.8162
 352  423.4113
 353  525.0005
 354  615.2903
 355  624.2034
 356  507.3955
 357  373.4926
 358  358.1034
 359  395.2845
 360  401.0266
 361  486.9902
 362  576.4565
 363  627.8868
 364  488.303
 365  500.576
 366  594.0147
 367  440.6241
 368  330.5726
 369  450.46
 370  532.8077
 371  512.1859
 372  513.2011
 373  509.4024
 374  412.6307
 375  516.2111
 376  529.069
 377  508.7109
 378  497.1021
 379  622.6682
 380  672.1849
 381  457.3249
 382  487.6872
 383  526.4338
 384  581.9429
 385  491.6346
 386  553.212
 387  535.0817
 388  621.6849
 389  591.7699
 390  623.2405
 391  534.074
 392  407.7448
 393  396.9151
 394  570.145
 395  562.5477
 396  637.7026
 397  516.9152
 398  433.7553
 399  553.135
 400  749.8809
 401  604.3871
 402  508.4272
 403  559.3269
 404  562.279
 405  543.4598
 406  518.2464
 407  386.8402
 408  412.1156
 409  497.4785
 410  579.9332
 411  618.6426
 412  478.1938
 413  428.831
 414  521.7916
 415  517.8981
 416  554.9911
 417  523.4049
 418  555.2761
 419  619.4571
 420  570.4387
 421  550.9525
 422  524.78
 423  520.6318
 424  451.118
 425  466.4715
 426  535.703
 427  526.0648
 428  380.3391
 429  469.6759
 430  586.3457
 431  528.5253
 432  441.8764
 433  479.8021
 434  439.1194
 435  466.053
 436  398.5161
 437  402.0499
 438  465.7308
 439  405.712
 440  463.9808
 441  422.7071
 442  480.4334
 443  482.8514
 444  473.8384
 445  476.1009
 446  378.0977
 447  530.5663
 448  457.7319
 449  338.9667
 450  351.5375
 451  492.4494
 452  493.4704
 453  399.425
 454  506.4823
 455  565.4379
 456  456.6097
 457  527.0045
 458  470.2258
 459  475.7415
 460  459.1796
 461  415.0227
 462  546.2072
 463  553.1129
 464  532.5079
 465  555.548
 466  517.184
 467  593.6016
 468  551.5241
 469  488.8023
 470  481.9802
 471  505.394
 472  454.5254
 473  617.4006
 474  577.7434
 475  551.3012
 476  498.7003
 477  412.0216
 478  458.2011
 479  532.7938
 480  587.5796
 481  519.9022
 482  506.2429
 483  550.7698
 484  590.2358
 485  509.3641
 486  531.3536
 487  586.4202
 488  581.4717
 489  606.2797
 490  587.7379
 491  594.8109
 492  652.9163
 493  605.3796
 494  579.4976
 495  549.5198
 496  590.9046
 497  545.8817
 498  549.7849
 499  591.1738
 500  554.0908
 501  498.8725
 502  573.7654
 503  626.9014
 504  622.0095
 505  656.9836
 506  666.6815
 507  719.1684
 508  754.7335
 509  946.4177
 510  957.2094
 511  1020.896
