# Input file       =  1212303721.111694_cleaned.dat
# Candidate        =  PSR_0332+5434
# Telescope        =  AR
# Epoch_topo       =  58275.292860089052
# Epoch_bary       =  N/A
# T_sample         =  0.002
# Data Folded      =  7340032
# Data Avg         =  0.0354602049989275
# Data StdDev      =  1.00016497920846 
# Profile Bins     =  512
# Profile Avg      =  508.391159428481 
# Profile StdDev   =  119.752789838335 
# Reduced chi-sqr  =  1.892
# Prob(Noise)      <  1.71e-30   (~11.4 sigma)
# P_topo (ms)      =  714.51180828621   +/- 0.000583
# P'_topo (s/s)    =  -0                +/- 3.08e-10
# P''_topo (s/s^2) =  0                 +/- 1.36e-13
# P_bary (ms)      =  N/A
# P'_bary (s/s)    =  N/A
# P''_bary (s/s^2) =  N/A
# P_orb (s)        =  N/A
# asin(i)/c (s)    =  N/A
# eccentricity     =  N/A
# w (rad)          =  N/A
# T_peri           =  N/A
######################################################
   0  1365.638
   1  1195.634
   2  906.736
   3  763.4829
   4  613.3054
   5  563.398
   6  554.2856
   7  574.9607
   8  572.2863
   9  545.7004
  10  644.8649
  11  510.6776
  12  632.0314
  13  584.7867
  14  573.7835
  15  682.9243
  16  634.728
  17  486.0843
  18  431.8108
  19  534.1505
  20  594.4577
  21  657.0016
  22  527.2103
  23  451.6288
  24  527.6053
  25  577.4708
  26  623.0603
  27  640.3467
  28  581.8865
  29  529.7271
  30  432.8787
  31  575.4905
  32  528.5441
  33  603.9077
  34  595.2955
  35  459.6954
  36  444.0573
  37  528.6512
  38  435.67
  39  504.4424
  40  506.0304
  41  464.227
  42  570.7966
  43  486.9826
  44  554.9679
  45  576.1149
  46  616.1122
  47  582.6056
  48  527.7125
  49  593.6431
  50  636.6121
  51  501.5828
  52  431.0818
  53  480.4758
  54  497.8632
  55  485.4297
  56  487.2065
  57  504.9366
  58  514.1749
  59  543.3747
  60  624.9636
  61  616.8789
  62  722.3498
  63  579.1467
  64  491.5295
  65  551.7477
  66  635.4252
  67  531.3001
  68  628.7374
  69  589.3135
  70  499.4896
  71  572.3091
  72  581.013
  73  576.0225
  74  589.5754
  75  744.3546
  76  660.2809
  77  483.6747
  78  439.0974
  79  553.01
  80  666.2021
  81  684.8137
  82  746.6901
  83  620.9764
  84  497.7531
  85  608.5554
  86  771.1309
  87  670.6014
  88  528.3694
  89  495.6967
  90  541.8179
  91  573.4796
  92  587.9442
  93  620.0425
  94  507.8991
  95  613.1299
  96  616.8442
  97  565.8139
  98  599.2681
  99  668.7153
 100  544.7861
 101  521.2504
 102  567.7397
 103  638.3622
 104  586.741
 105  566.474
 106  557.3027
 107  563.564
 108  565.5432
 109  586.7154
 110  655.7855
 111  656.9171
 112  591.0577
 113  476.3913
 114  562.5068
 115  628.064
 116  539.8746
 117  624.8166
 118  597.0685
 119  596.5088
 120  561.9699
 121  439.5884
 122  542.9792
 123  601.4409
 124  617.8589
 125  547.3577
 126  527.6708
 127  669.6398
 128  636.6544
 129  679.912
 130  585.3734
 131  501.0546
 132  551.7745
 133  571.3556
 134  595.9053
 135  587.9034
 136  598.5822
 137  612.3703
 138  684.9327
 139  575.4521
 140  611.2945
 141  568.2515
 142  569.7674
 143  689.9252
 144  661.9911
 145  523.2955
 146  452.4519
 147  470.638
 148  559.2692
 149  643.6981
 150  773.636
 151  734.1033
 152  530.2201
 153  555.1177
 154  643.6169
 155  614.2192
 156  629.5322
 157  615.2588
 158  639.182
 159  611.9705
 160  597.6443
 161  687.6744
 162  657.3936
 163  470.1727
 164  476.1253
 165  578.1342
 166  549.6856
 167  539.359
 168  594.2564
 169  676.3157
 170  635.5826
 171  632.0078
 172  692.2276
 173  532.9106
 174  548.358
 175  669.5729
 176  595.9578
 177  597.8417
 178  615.6946
 179  698.9886
 180  685.4282
 181  530.9536
 182  596.0901
 183  504.5409
 184  578.2786
 185  575.4479
 186  548.8695
 187  432.7996
 188  464.7473
 189  504.0704
 190  554.7256
 191  622.9925
 192  490.9557
 193  471.9007
 194  567.3383
 195  602.8975
 196  563.3414
 197  526.4738
 198  480.9763
 199  480.1098
 200  579.4882
 201  598.3538
 202  575.2541
 203  504.5187
 204  554.962
 205  601.1058
 206  636.5809
 207  565.9349
 208  572.6605
 209  544.6028
 210  477.5817
 211  556.1795
 212  606.2096
 213  535.1298
 214  566.3602
 215  474.321
 216  480.5533
 217  495.2278
 218  503.4968
 219  581.424
 220  519.4692
 221  436.2547
 222  528.4382
 223  485.3796
 224  458.1973
 225  481.5226
 226  513.3234
 227  594.0643
 228  448.4715
 229  411.8905
 230  359.3372
 231  567.788
 232  521.1434
 233  421.4532
 234  412.6687
 235  360.7382
 236  306.3324
 237  478.6944
 238  485.985
 239  369.5056
 240  397.1973
 241  414.0485
 242  409.5571
 243  458.6097
 244  422.4576
 245  444.1882
 246  491.4313
 247  401.0006
 248  367.2474
 249  321.3387
 250  510.9608
 251  522.6855
 252  508.3196
 253  475.0045
 254  459.4496
 255  515.9395
 256  481.1847
 257  486.9222
 258  410.2879
 259  371.2528
 260  446.0923
 261  530.9666
 262  463.9124
 263  357.8233
 264  541.2873
 265  515.579
 266  490.3823
 267  489.3267
 268  430.2457
 269  446.8703
 270  502.7038
 271  384.1807
 272  474.5776
 273  517.2439
 274  421.187
 275  438.5802
 276  418.1483
 277  466.2113
 278  382.9627
 279  418.9467
 280  448.6927
 281  480.8369
 282  414.4117
 283  340.5122
 284  449.2802
 285  448.5642
 286  456.2037
 287  400.7155
 288  391.9605
 289  435.7116
 290  503.6253
 291  540.4649
 292  467.3089
 293  408.8001
 294  361.7856
 295  380.0619
 296  381.2116
 297  363.1119
 298  333.8784
 299  348.8586
 300  284.9193
 301  339.6656
 302  367.0234
 303  404.2914
 304  467.7392
 305  380.5631
 306  368.1598
 307  376.5539
 308  462.0439
 309  430.3939
 310  340.9714
 311  294.0645
 312  427.9469
 313  402.9467
 314  344.6116
 315  449.0827
 316  395.279
 317  339.0475
 318  357.7859
 319  420.2105
 320  372.3427
 321  378.017
 322  377.5302
 323  350.9333
 324  439.4771
 325  526.8567
 326  480.8158
 327  416.7136
 328  418.3926
 329  466.2621
 330  437.7437
 331  367.6741
 332  317.2872
 333  359.9487
 334  438.9967
 335  236.2229
 336  319.4646
 337  396.7027
 338  324.713
 339  473.6308
 340  419.7262
 341  377.1473
 342  408.1134
 343  458.6853
 344  413.1464
 345  318.1172
 346  435.316
 347  409.0333
 348  382.0785
 349  322.1121
 350  314.2682
 351  386.2079
 352  373.7166
 353  469.5139
 354  445.6875
 355  262.5131
 356  278.0603
 357  355.8744
 358  414.2787
 359  363.9354
 360  388.5186
 361  357.6484
 362  441.9111
 363  431.9437
 364  296.8611
 365  227.9453
 366  283.9287
 367  296.4528
 368  457.6579
 369  442.7472
 370  408.3362
 371  400.0354
 372  446.1243
 373  424.8141
 374  444.4141
 375  398.0423
 376  356.5349
 377  382.1518
 378  505.2905
 379  588.5396
 380  501.2567
 381  519.0034
 382  539.0898
 383  491.6216
 384  477.2002
 385  413.2863
 386  327.7365
 387  406.7499
 388  406.772
 389  537.6575
 390  620.6808
 391  563.0811
 392  451.7339
 393  390.0972
 394  450.8557
 395  427.741
 396  404.3549
 397  375.3344
 398  419.2942
 399  384.7508
 400  456.3582
 401  521.5096
 402  402.0534
 403  464.4494
 404  476.5403
 405  526.2073
 406  513.4462
 407  626.7837
 408  569.7631
 409  461.2192
 410  553.0355
 411  469.7578
 412  424.7977
 413  455.9041
 414  500.1293
 415  412.3012
 416  406.9824
 417  428.1663
 418  371.425
 419  368.1563
 420  388.9552
 421  437.9075
 422  492.2302
 423  490.936
 424  523.3184
 425  443.5302
 426  427.2687
 427  388.479
 428  394.0691
 429  444.82
 430  382.7385
 431  284.5895
 432  339.1874
 433  390.0716
 434  404.3878
 435  421.8667
 436  418.9065
 437  396.4214
 438  434.8479
 439  524.66
 440  524.497
 441  544.4202
 442  538.4435
 443  489.1387
 444  416.357
 445  600.1109
 446  601.5551
 447  448.4734
 448  317.5562
 449  422.6488
 450  498.294
 451  420.0702
 452  550.3332
 453  533.0031
 454  477.6371
 455  390.6241
 456  463.0165
 457  544.6714
 458  538.9595
 459  496.0301
 460  418.2146
 461  483.5855
 462  636.728
 463  575.5627
 464  499.2454
 465  529.0836
 466  508.6517
 467  466.9277
 468  505.7198
 469  431.23
 470  441.2948
 471  479.7625
 472  426.3983
 473  422.4172
 474  516.3503
 475  514.4053
 476  344.4747
 477  362.8015
 478  423.9152
 479  481.6718
 480  631.5996
 481  721.124
 482  628.6667
 483  573.2435
 484  586.9782
 485  614.2635
 486  524.5414
 487  454.5104
 488  488.9568
 489  459.2312
 490  511.3092
 491  601.9171
 492  597.4341
 493  413.8678
 494  412.2083
 495  555.1757
 496  555.8512
 497  528.4238
 498  563.3313
 499  530.3507
 500  489.0244
 501  506.7499
 502  496.5724
 503  569.9681
 504  596.6606
 505  696.4748
 506  658.444
 507  651.9388
 508  886.1748
 509  870.9251
 510  946.4357
 511  1218.081
