# Input file       =  1212060153.117047_cleaned.dat
# Candidate        =  PSR_0332+5434
# Telescope        =  AR
# Epoch_topo       =  58272.473786076931
# Epoch_bary       =  N/A
# T_sample         =  0.002
# Data Folded      =  7340032
# Data Avg         =  0.0113025537557618
# Data StdDev      =  1.00003587501474 
# Profile Bins     =  512
# Profile Avg      =  162.001542035486 
# Profile StdDev   =  119.737331801211 
# Reduced chi-sqr  =  1.386
# Prob(Noise)      <  1.55e-08   (~5.5 sigma)
# P_topo (ms)      =  714.514869778801  +/- 0.000269
# P'_topo (s/s)    =  -0                +/- 1.42e-10
# P''_topo (s/s^2) =  0                 +/- 6.27e-14
# P_bary (ms)      =  N/A
# P'_bary (s/s)    =  N/A
# P''_bary (s/s^2) =  N/A
# P_orb (s)        =  N/A
# asin(i)/c (s)    =  N/A
# eccentricity     =  N/A
# w (rad)          =  N/A
# T_peri           =  N/A
######################################################
   0  789.6163
   1  780.374
   2  559.2039
   3  440.9971
   4  274.7468
   5  195.0362
   6  175.1177
   7  102.0047
   8  32.4254
   9  84.1049
  10  34.98833
  11  87.13598
  12  219.7138
  13  143.2167
  14  315.841
  15  230.9066
  16  296.8834
  17  163.2275
  18  64.26633
  19  115.0063
  20  212.0586
  21  221.3069
  22  161.237
  23  53.59438
  24  63.39358
  25  172.7264
  26  76.70819
  27  55.43444
  28  114.1585
  29  156.3906
  30  311.5419
  31  291.9463
  32  160.0072
  33  97.70473
  34  203.2793
  35  191.993
  36  83.29069
  37  126.1639
  38  132.467
  39  85.72189
  40  219.8527
  41  115.2586
  42  102.9735
  43  146.1636
  44  172.2503
  45  32.14524
  46  56.52282
  47  143.5163
  48  108.0712
  49  92.75301
  50  168.759
  51  183.0164
  52  121.0571
  53  149.3091
  54  101.4341
  55  113.8059
  56  124.8187
  57  83.23373
  58  88.04771
  59  226.6985
  60  125.243
  61  154.0195
  62  277.4355
  63  284.7939
  64  161.7983
  65  169.1734
  66  156.3066
  67  -13.81887
  68  104.4295
  69  159.7141
  70  27.34586
  71  79.4737
  72  75.1755
  73  142.7225
  74  252.7273
  75  230.2731
  76  330.9253
  77  65.67622
  78  -44.46639
  79  47.35432
  80  27.19771
  81  67.17773
  82  157.2685
  83  90.09617
  84  156.0444
  85  138.4958
  86  137.5623
  87  211.34
  88  136.5351
  89  39.76258
  90  28.21012
  91  -21.86987
  92  91.29763
  93  49.39539
  94  134.4674
  95  196.3361
  96  230.7496
  97  156.9628
  98  36.44773
  99  -21.80902
 100  44.08894
 101  207.9173
 102  10.51074
 103  4.195079
 104  39.1625
 105  53.14354
 106  128.1207
 107  109.7985
 108  58.2655
 109  0.3396294
 110  45.1828
 111  105.1293
 112  62.05747
 113  126.1665
 114  119.2894
 115  31.71522
 116  106.2815
 117  102.0754
 118  -4.311338
 119  51.52361
 120  128.1936
 121  143.3365
 122  66.77937
 123  71.28
 124  33.51306
 125  96.52509
 126  95.14085
 127  195.9351
 128  112.0092
 129  121.4492
 130  199.4227
 131  216.9018
 132  201.5296
 133  152.3766
 134  153.5938
 135  199.0224
 136  271.4781
 137  179.3551
 138  156.5521
 139  128.4792
 140  167.105
 141  150.7969
 142  222.3589
 143  183.3253
 144  220.632
 145  126.528
 146  141.6542
 147  260.499
 148  205.9229
 149  136.2521
 150  67.51314
 151  81.94896
 152  84.33129
 153  74.1046
 154  139.6585
 155  124.5491
 156  217.6541
 157  170.8447
 158  177.8583
 159  187.3269
 160  281.2629
 161  235.2422
 162  207.2471
 163  159.9252
 164  290.4081
 165  273.5236
 166  91.08605
 167  172.0512
 168  190.0172
 169  86.73203
 170  105.956
 171  164.8799
 172  160.9856
 173  101.2138
 174  150.1035
 175  136.2443
 176  132.548
 177  167.9903
 178  200.7876
 179  191.3923
 180  199.0575
 181  178.7191
 182  222.4594
 183  140.0265
 184  240.5321
 185  98.48042
 186  13.07613
 187  114.228
 188  158.6364
 189  189.6561
 190  139.0166
 191  66.79429
 192  73.88997
 193  82.12577
 194  279.8412
 195  244.2505
 196  202.9174
 197  230.2672
 198  257.9149
 199  169.4605
 200  103.8018
 201  269.2302
 202  436.5065
 203  341.0143
 204  235.0897
 205  364.0508
 206  315.483
 207  238.0659
 208  345.6545
 209  319.5212
 210  324.0398
 211  210.6696
 212  315.4898
 213  372.3638
 214  240.8596
 215  228.5224
 216  250.6715
 217  117.9139
 218  100.3022
 219  291.2306
 220  322.1463
 221  238.0001
 222  206.7701
 223  204.3729
 224  162.7367
 225  169.4319
 226  258.2814
 227  300.8304
 228  289.5534
 229  265.549
 230  231.3319
 231  168.8433
 232  243.6888
 233  402.5441
 234  327.3427
 235  280.1442
 236  275.0662
 237  195.9121
 238  102.4889
 239  64.72999
 240  196.1377
 241  256.9162
 242  120.1056
 243  244.0497
 244  124.2888
 245  177.8186
 246  307.7802
 247  364.441
 248  194.1653
 249  86.51359
 250  108.5057
 251  87.80553
 252  20.9589
 253  96.55685
 254  151.8579
 255  207.6352
 256  112.695
 257  113.2024
 258  147.9595
 259  236.9925
 260  173.2543
 261  172.5425
 262  225.0232
 263  178.8245
 264  201.2347
 265  95.00297
 266  210.4868
 267  232.7127
 268  151.1286
 269  175.5378
 270  107.7812
 271  164.8507
 272  212.0638
 273  198.9601
 274  166.7853
 275  101.1769
 276  117.5898
 277  190.0437
 278  293.9378
 279  137.3628
 280  53.05143
 281  211.3414
 282  83.36758
 283  32.24039
 284  27.52663
 285  184.0172
 286  111.3917
 287  48.59059
 288  53.70729
 289  101.9515
 290  203.2515
 291  202.1093
 292  219.6213
 293  139.3111
 294  273.161
 295  280.7797
 296  122.3312
 297  73.18047
 298  139.9852
 299  59.99368
 300  65.68174
 301  82.86951
 302  63.3554
 303  150.7927
 304  153.3974
 305  18.29558
 306  39.73575
 307  119.0273
 308  102.648
 309  114.9789
 310  167.9841
 311  239.2064
 312  148.3546
 313  73.27505
 314  202.5414
 315  233.9785
 316  205.5241
 317  118.2903
 318  73.58287
 319  192.2812
 320  153.8546
 321  112.8726
 322  37.23949
 323  82.68407
 324  156.1339
 325  204.8219
 326  221.59
 327  199.6582
 328  187.8444
 329  247.3805
 330  221.5556
 331  120.0623
 332  73.50957
 333  88.52633
 334  98.48356
 335  85.40025
 336  95.91869
 337  166.7899
 338  181.3766
 339  215.2931
 340  136.3653
 341  -19.75703
 342  21.48136
 343  -88.9594
 344  130.6793
 345  219.2213
 346  118.2059
 347  74.17957
 348  55.76754
 349  123.7161
 350  44.90624
 351  -26.00245
 352  182.4326
 353  187.4346
 354  222.12
 355  86.82487
 356  119.1521
 357  245.7053
 358  346.9962
 359  250.0916
 360  94.58011
 361  99.74218
 362  61.31403
 363  24.01553
 364  74.87222
 365  95.80625
 366  237.8713
 367  231.7256
 368  155.3949
 369  157.0762
 370  163.9129
 371  97.23468
 372  81.7645
 373  245.7323
 374  297.9836
 375  151.5418
 376  43.50643
 377  224.5862
 378  252.3935
 379  212.9732
 380  267.8649
 381  198.2186
 382  165.0027
 383  195.3513
 384  199.8134
 385  253.3822
 386  179.5486
 387  243.4543
 388  231.2894
 389  215.4514
 390  262.1513
 391  246.4957
 392  155.4304
 393  118.1249
 394  142.5925
 395  147.2659
 396  106.4791
 397  63.53699
 398  16.97194
 399  112.2088
 400  205.7026
 401  196.3052
 402  118.196
 403  130.6819
 404  114.0319
 405  127.9462
 406  53.5731
 407  195.9956
 408  179.2279
 409  196.0429
 410  205.1233
 411  173.8341
 412  33.23481
 413  62.94556
 414  178.8015
 415  250.6687
 416  290.1141
 417  291.2703
 418  207.6302
 419  93.8065
 420  251.3136
 421  185.5867
 422  57.11262
 423  55.62933
 424  62.48412
 425  238.9536
 426  330.6759
 427  93.58986
 428  -44.61208
 429  36.75642
 430  138.0731
 431  215.9068
 432  124.125
 433  132.9693
 434  34.01756
 435  121.1494
 436  154.9239
 437  -36.02774
 438  63.86686
 439  38.69607
 440  133.4771
 441  197.3316
 442  170.8371
 443  112.1447
 444  274.3999
 445  192.1899
 446  169.1797
 447  169.0042
 448  135.9985
 449  236.5678
 450  180.5571
 451  211.0384
 452  207.2507
 453  167.4497
 454  148.5462
 455  97.38248
 456  135.7181
 457  235.472
 458  225.4918
 459  263.8541
 460  190.7518
 461  154.0947
 462  67.34761
 463  46.26705
 464  107.4202
 465  69.14131
 466  57.37259
 467  58.93651
 468  230.0777
 469  60.4193
 470  138.5883
 471  216.715
 472  193.0845
 473  232.1852
 474  158.8733
 475  144.3437
 476  142.7168
 477  167.761
 478  175.5748
 479  148.7081
 480  169.1192
 481  167.8599
 482  217.6031
 483  84.01898
 484  104.7633
 485  84.60501
 486  -0.3276183
 487  -17.41226
 488  130.3773
 489  194.4529
 490  182.122
 491  133.2093
 492  198.0136
 493  155.9845
 494  298.5161
 495  271.6376
 496  175.8989
 497  163.802
 498  197.6714
 499  120.6961
 500  81.93382
 501  206.0284
 502  173.7511
 503  158.2516
 504  187.296
 505  254.562
 506  235.4336
 507  344.7316
 508  474.2135
 509  458.6392
 510  751.9131
 511  796.0385
