# Input file       =  1212404813.114432_cleaned.dat
# Candidate        =  PSR_0332+5434
# Telescope        =  AR
# Epoch_topo       =  58276.462906417037
# Epoch_bary       =  N/A
# T_sample         =  0.002
# Data Folded      =  7340032
# Data Avg         =  0.0118519784500976
# Data StdDev      =  1.00003801043794 
# Profile Bins     =  512
# Profile Avg      =  169.913565081148 
# Profile StdDev   =  119.737587481915 
# Reduced chi-sqr  =  1.976
# Prob(Noise)      <  4.61e-35   (~12.3 sigma)
# P_topo (ms)      =  714.511014289762  +/- 0.000203
# P'_topo (s/s)    =  -0                +/- 1.07e-10
# P''_topo (s/s^2) =  0                 +/- 4.72e-14
# P_bary (ms)      =  N/A
# P'_bary (s/s)    =  N/A
# P''_bary (s/s^2) =  N/A
# P_orb (s)        =  N/A
# asin(i)/c (s)    =  N/A
# eccentricity     =  N/A
# w (rad)          =  N/A
# T_peri           =  N/A
######################################################
   0  1052.756
   1  905.4677
   2  812.9885
   3  520.009
   4  301.8374
   5  354.1173
   6  312.4502
   7  189.1436
   8  247.3851
   9  204.3017
  10  216.356
  11  316.2262
  12  420.3594
  13  290.5687
  14  211.3336
  15  277.8907
  16  288.2716
  17  227.8323
  18  167.9383
  19  210.7419
  20  256.7686
  21  187.4856
  22  91.05031
  23  65.36901
  24  211.4428
  25  236.2458
  26  250.9329
  27  186.6647
  28  116.3468
  29  212.0724
  30  173.2894
  31  86.43682
  32  184.6408
  33  170.6787
  34  61.48508
  35  131.1006
  36  198.427
  37  122.3322
  38  50.48879
  39  42.32396
  40  103.1133
  41  188.2744
  42  232.6586
  43  191.5804
  44  256.6362
  45  223.8522
  46  183.815
  47  130.0246
  48  226.4358
  49  240.8152
  50  161.5706
  51  160.0925
  52  207.5999
  53  163.8724
  54  210.3372
  55  121.2415
  56  275.466
  57  291.8468
  58  221.1106
  59  187.0317
  60  270.9175
  61  289.0662
  62  241.7005
  63  248.1206
  64  215.2074
  65  47.75729
  66  114.4979
  67  183.9335
  68  94.44427
  69  219.6299
  70  289.4442
  71  228.3543
  72  236.8944
  73  203.8949
  74  150.2527
  75  117.9794
  76  202.3011
  77  266.7252
  78  183.2434
  79  173.0812
  80  -15.14017
  81  58.03436
  82  222.8582
  83  180.8843
  84  201.1279
  85  56.97157
  86  -33.38186
  87  108.2216
  88  192.9113
  89  315.4808
  90  287.4352
  91  148.4233
  92  228.3259
  93  175.1721
  94  128.5216
  95  140.7098
  96  151.6657
  97  285.7732
  98  277.9055
  99  80.89206
 100  86.96664
 101  54.53051
 102  165.2371
 103  316.3919
 104  37.18963
 105  -88.19524
 106  100.9182
 107  116.0516
 108  128.8097
 109  148.6635
 110  208.3035
 111  94.85381
 112  -26.51059
 113  65.15263
 114  137.7253
 115  164.9953
 116  71.23328
 117  140.5474
 118  194.1357
 119  328.4055
 120  287.8491
 121  206.9813
 122  369.4075
 123  299.717
 124  234.8736
 125  176.1889
 126  183.5731
 127  267.3141
 128  183.5439
 129  160.4817
 130  189.0392
 131  267.1732
 132  246.3031
 133  276.1254
 134  261.1856
 135  251.5032
 136  245.41
 137  83.70618
 138  204.1782
 139  306.6974
 140  165.9701
 141  207.0707
 142  298.7388
 143  315.6435
 144  222.987
 145  219.0871
 146  181.0982
 147  207.5851
 148  130.4063
 149  84.59697
 150  331.9812
 151  387.2401
 152  233.0405
 153  64.23092
 154  84.18618
 155  199.8626
 156  193.9681
 157  183.077
 158  98.94501
 159  125.5437
 160  206.7656
 161  287.5954
 162  213.826
 163  243.6204
 164  234.4948
 165  255.2028
 166  256.4284
 167  222.1251
 168  55.37547
 169  142.3394
 170  253.9144
 171  267.0893
 172  190.5139
 173  229.0944
 174  153.9603
 175  128.7277
 176  46.73507
 177  186.1784
 178  238.8242
 179  245.9098
 180  239.0454
 181  158.5838
 182  241.0763
 183  158.7861
 184  86.6264
 185  163.1194
 186  193.9109
 187  253.6861
 188  198.2865
 189  30.32654
 190  210.1739
 191  233.3861
 192  141.8751
 193  181.6624
 194  196.2899
 195  56.34083
 196  59.64862
 197  95.62431
 198  226.1512
 199  281.496
 200  277.2464
 201  115.7006
 202  -13.84517
 203  87.01711
 204  132.3392
 205  284.778
 206  262.649
 207  190.5401
 208  159.2324
 209  175.2998
 210  172.3406
 211  139.8269
 212  161.5368
 213  183.1948
 214  290.8288
 215  246.6951
 216  119.2607
 217  112.3351
 218  133.1275
 219  60.28183
 220  121.567
 221  166.4416
 222  225.5728
 223  180.1752
 224  292.8083
 225  264.3388
 226  112.5396
 227  79.49947
 228  83.25227
 229  181.8218
 230  223.8266
 231  123.2567
 232  207.9859
 233  272.5087
 234  127.3215
 235  79.66888
 236  141.791
 237  148.4728
 238  27.6301
 239  2.186372
 240  71.00603
 241  50.0764
 242  44.2138
 243  70.62086
 244  154.3419
 245  201.3466
 246  210.4177
 247  166.6553
 248  77.49133
 249  330.4535
 250  236.8126
 251  120.4259
 252  154.8872
 253  49.021
 254  125.5961
 255  158.7562
 256  243.4073
 257  248.2871
 258  81.34823
 259  -36.50908
 260  108.2694
 261  115.9946
 262  120.7117
 263  159.9474
 264  115.7711
 265  123.2935
 266  141.9257
 267  145.7298
 268  177.7209
 269  131.3289
 270  164.8517
 271  184.6478
 272  346.3996
 273  229.9575
 274  165.2967
 275  207.1261
 276  166.7386
 277  95.93505
 278  -7.77492
 279  47.82159
 280  332.4179
 281  225.3736
 282  69.87289
 283  1.507324
 284  81.57726
 285  232.243
 286  230.611
 287  187.4766
 288  116.0628
 289  20.27863
 290  226.1247
 291  230.6817
 292  240.0767
 293  96.0626
 294  22.81484
 295  32.21853
 296  -9.133873
 297  174.3016
 298  277.2393
 299  119.4619
 300  114.0492
 301  139.8335
 302  89.69964
 303  56.76303
 304  109.2355
 305  189.9489
 306  100.3444
 307  120.5915
 308  148.387
 309  192.909
 310  163.596
 311  229.8045
 312  67.10841
 313  193.5019
 314  179.7642
 315  207.685
 316  237.4395
 317  84.46013
 318  62.07143
 319  166.078
 320  241.6466
 321  187.3662
 322  117.076
 323  169.0367
 324  247.6173
 325  225.5256
 326  222.2406
 327  68.43417
 328  -14.96668
 329  27.12183
 330  56.13458
 331  247.2352
 332  249.725
 333  122.6979
 334  1.832793
 335  56.04198
 336  171.4954
 337  175.4323
 338  268.903
 339  361.7372
 340  211.3258
 341  168.2671
 342  133.4144
 343  282.274
 344  143.6779
 345  146.5074
 346  192.0134
 347  223.2887
 348  104.6997
 349  182.4519
 350  275.6714
 351  367.2114
 352  330.1521
 353  207.5732
 354  245.317
 355  190.0256
 356  217.2663
 357  213.6598
 358  253.9858
 359  273.0813
 360  224.245
 361  187.3137
 362  188.1953
 363  137.8236
 364  179.6977
 365  137.6049
 366  110.7995
 367  96.59178
 368  129.4573
 369  106.1913
 370  150.0845
 371  179.3308
 372  204.1412
 373  235.06
 374  225.187
 375  327.8254
 376  141.6007
 377  78.79449
 378  13.8788
 379  10.37838
 380  -13.05408
 381  -34.4108
 382  133.2135
 383  66.62997
 384  44.36172
 385  1.06957
 386  39.682
 387  141.6707
 388  210.7821
 389  99.91185
 390  29.99054
 391  86.39491
 392  135.3677
 393  171.1063
 394  262.5194
 395  131.6326
 396  160.9442
 397  235.177
 398  181.4067
 399  129.1807
 400  136.7583
 401  266.0024
 402  259.7686
 403  328.8794
 404  137.1942
 405  140.2995
 406  142.147
 407  136.791
 408  17.05699
 409  20.5419
 410  122.9642
 411  104.4692
 412  35.1254
 413  16.41081
 414  25.88331
 415  -49.28653
 416  -10.84776
 417  102.3575
 418  6.302709
 419  66.82763
 420  59.50284
 421  48.44733
 422  142.1436
 423  -52.01506
 424  119.1937
 425  193.6635
 426  -87.35159
 427  -95.01038
 428  7.571675
 429  137.0355
 430  175.8297
 431  189.981
 432  176.3098
 433  175.5955
 434  183.795
 435  222.7016
 436  182.6176
 437  7.160854
 438  -2.280622
 439  99.54461
 440  90.21161
 441  169.0561
 442  225.0499
 443  99.02224
 444  137.8071
 445  84.66174
 446  87.33478
 447  123.0909
 448  138.2124
 449  37.71215
 450  77.30058
 451  76.71713
 452  26.86051
 453  50.09306
 454  -53.95761
 455  -10.90402
 456  110.7526
 457  0.9084538
 458  -1.42748
 459  186.3357
 460  191.1524
 461  292.9096
 462  240.0877
 463  134.2591
 464  66.41675
 465  27.26532
 466  119.287
 467  114.782
 468  35.8467
 469  25.43018
 470  102.0188
 471  168.1722
 472  108.0225
 473  162.405
 474  150.2567
 475  151.8166
 476  47.09108
 477  43.66025
 478  129.8899
 479  36.68058
 480  259.7698
 481  167.7311
 482  145.0378
 483  233.2157
 484  80.60426
 485  38.61092
 486  -37.29593
 487  -24.03039
 488  319.0731
 489  200.7148
 490  234.6891
 491  318.8139
 492  185.0968
 493  83.39628
 494  119.9139
 495  75.11176
 496  259.9436
 497  128.1791
 498  201.6595
 499  203.0844
 500  124.8511
 501  154.6386
 502  90.54019
 503  126.1134
 504  262.6537
 505  352.7758
 506  369.6313
 507  463.3052
 508  527.007
 509  589.8924
 510  896.1794
 511  1038.649
