# Input file       =  1212577115.126887_cleaned.dat
# Candidate        =  PSR_0332+5434
# Telescope        =  AR
# Epoch_topo       =  58278.457142672305
# Epoch_bary       =  N/A
# T_sample         =  0.002
# Data Folded      =  7340032
# Data Avg         =  0.0245447794680995
# Data StdDev      =  0.999999193063907
# Profile Bins     =  512
# Profile Avg      =  351.880375484894 
# Profile StdDev   =  119.732939759858 
# Reduced chi-sqr  =  1.592
# Prob(Noise)      <  3.21e-16   (~8.1 sigma)
# P_topo (ms)      =  714.509099448369  +/- 0.000267
# P'_topo (s/s)    =  -0                +/- 1.41e-10
# P''_topo (s/s^2) =  0                 +/- 6.22e-14
# P_bary (ms)      =  N/A
# P'_bary (s/s)    =  N/A
# P''_bary (s/s^2) =  N/A
# P_orb (s)        =  N/A
# asin(i)/c (s)    =  N/A
# eccentricity     =  N/A
# w (rad)          =  N/A
# T_peri           =  N/A
######################################################
   0  1164.321
   1  1057.189
   2  932.8596
   3  672.9851
   4  358.7592
   5  318.326
   6  324.1643
   7  297.4583
   8  379.4757
   9  374.5259
  10  281.3928
  11  304.6833
  12  307.9674
  13  310.2989
  14  330.7373
  15  396.2324
  16  327.9222
  17  289.8995
  18  322.6456
  19  351.9934
  20  466.3138
  21  331.2326
  22  337.5852
  23  421.5268
  24  350.8455
  25  265.8563
  26  352.0885
  27  362.75
  28  271.6493
  29  241.9313
  30  406.6432
  31  308.0847
  32  256.2028
  33  301.5776
  34  249.5609
  35  199.9204
  36  280.3413
  37  380.0875
  38  359.3443
  39  285.6377
  40  313.1383
  41  304.6801
  42  319.5935
  43  351.2373
  44  375.4787
  45  410.7813
  46  475.3931
  47  373.0948
  48  310.9389
  49  265.6879
  50  311.7737
  51  355.0806
  52  298.5844
  53  199.8761
  54  279.6815
  55  371.1624
  56  338.6061
  57  339.3802
  58  382.7351
  59  386.1314
  60  276.5229
  61  202.133
  62  322.2693
  63  382.0819
  64  409.2599
  65  384.8235
  66  395.0634
  67  414.7903
  68  398.4194
  69  442.0721
  70  286.3138
  71  313.6086
  72  445.4924
  73  485.337
  74  397.9092
  75  380.5898
  76  320.1003
  77  415.6623
  78  325.7654
  79  379.3169
  80  469.168
  81  517.8726
  82  436.6913
  83  372.1545
  84  361.7682
  85  409.9278
  86  447.4211
  87  463.2386
  88  518.8964
  89  392.9678
  90  324.796
  91  307.9428
  92  274.8325
  93  352.8506
  94  317.9198
  95  306.7866
  96  247.3933
  97  311.2453
  98  348.1861
  99  379.9579
 100  304.987
 101  340.5158
 102  376.5524
 103  312.9356
 104  370.0835
 105  321.931
 106  407.5343
 107  401.1266
 108  340.6636
 109  391.8241
 110  480.0532
 111  405.5088
 112  239.5197
 113  378.4406
 114  427.1379
 115  397.5019
 116  389.1033
 117  393.7841
 118  360.2278
 119  332.3519
 120  357.2204
 121  390.8452
 122  266.8887
 123  262.2401
 124  249.4226
 125  354.0125
 126  446.7647
 127  410.866
 128  358.2661
 129  289.064
 130  326.5888
 131  345.2268
 132  384.414
 133  283.9502
 134  394.672
 135  507.2258
 136  384.9839
 137  336.4329
 138  350.9038
 139  269.4075
 140  178.9439
 141  238.8213
 142  252.5573
 143  282.0665
 144  296.6396
 145  278.7889
 146  386.3842
 147  508.0509
 148  504.3745
 149  439.0348
 150  377.2427
 151  397.8247
 152  523.8885
 153  574.4534
 154  506.5096
 155  444.2393
 156  311.0112
 157  359.9396
 158  305.1924
 159  362.0246
 160  491.8404
 161  471.7292
 162  444.6839
 163  409.3562
 164  443.7275
 165  348.4962
 166  318.8365
 167  417.1617
 168  372.4368
 169  152.9368
 170  212.4223
 171  337.627
 172  385.5968
 173  320.7862
 174  363.1379
 175  384.3823
 176  243.9356
 177  293.6466
 178  430.6853
 179  456.4193
 180  454.097
 181  374.7965
 182  352.3148
 183  327.6851
 184  307.0715
 185  362.7986
 186  380.2772
 187  459.595
 188  372.0081
 189  320.9822
 190  358.1619
 191  437.4792
 192  496.9493
 193  526.6219
 194  375.4202
 195  328.2559
 196  306.8185
 197  333.3301
 198  360.925
 199  289.5936
 200  330.9788
 201  304.8028
 202  178.7193
 203  171.0819
 204  181.2078
 205  396.533
 206  383.1801
 207  206.3909
 208  195.9703
 209  350.8388
 210  315.86
 211  362.0109
 212  345.4674
 213  323.0538
 214  464.5681
 215  393.6721
 216  280.0851
 217  299.814
 218  396.8311
 219  359.2334
 220  353.5838
 221  257.2255
 222  314.2558
 223  403.2295
 224  319.6941
 225  294.4175
 226  368.3875
 227  433.8502
 228  460.9517
 229  470.5504
 230  392.1381
 231  343.446
 232  395.7084
 233  471.3019
 234  396.4364
 235  367.1665
 236  397.2338
 237  445.1898
 238  360.7424
 239  274.3016
 240  235.8316
 241  317.2777
 242  290.0941
 243  371.5836
 244  304.4534
 245  233.3584
 246  91.56571
 247  230.2099
 248  272.0085
 249  226.5513
 250  272.9342
 251  331.7875
 252  252.441
 253  316.842
 254  317.859
 255  246.6995
 256  167.4706
 257  364.4267
 258  354.1072
 259  298.4899
 260  352.5154
 261  413.276
 262  424.4065
 263  283.7229
 264  266.0257
 265  335.4473
 266  270.9948
 267  268.0753
 268  469.3715
 269  361.0434
 270  268.3246
 271  351.3102
 272  402.766
 273  386.2579
 274  534.7457
 275  542.0389
 276  318.8461
 277  310.5616
 278  418.0137
 279  418.9731
 280  375.5769
 281  414.1017
 282  395.701
 283  424.6642
 284  394.337
 285  330.4207
 286  450.6402
 287  422.6655
 288  312.2567
 289  439.4619
 290  457.337
 291  331.2973
 292  345.1016
 293  423.7415
 294  380.2378
 295  260.885
 296  262.8933
 297  321.4477
 298  242.2719
 299  246.1176
 300  351.1242
 301  400.2642
 302  406.3975
 303  193.3152
 304  201.3738
 305  177.0579
 306  187.3674
 307  204.8484
 308  190.4342
 309  334.4657
 310  364.5374
 311  311.5201
 312  241.1735
 313  210.4068
 314  311.6163
 315  377.5691
 316  354.3579
 317  464.7786
 318  426.5879
 319  491.6425
 320  443.1148
 321  435.0898
 322  421.5071
 323  395.8564
 324  391.0789
 325  380.513
 326  374.885
 327  415.3462
 328  315.6948
 329  262.381
 330  350.5431
 331  304.4738
 332  237.1583
 333  344.3915
 334  279.663
 335  250.3087
 336  275.1276
 337  330.9376
 338  268.7079
 339  278.2518
 340  388.2894
 341  292.9342
 342  296.9038
 343  294.4573
 344  351.962
 345  265.73
 346  248.5314
 347  375.1595
 348  318.8251
 349  306.6892
 350  315.2845
 351  336.286
 352  335.7822
 353  373.5383
 354  557.4628
 355  356.4473
 356  262.541
 357  190.9241
 358  333.0308
 359  272.5806
 360  338.6495
 361  465.7584
 362  434.8892
 363  394.4077
 364  376.7343
 365  378.7518
 366  410.7072
 367  284.9205
 368  298.4886
 369  369.635
 370  501.8858
 371  396.4369
 372  453.9521
 373  371.6018
 374  443.3189
 375  377.13
 376  349.3387
 377  272.8149
 378  249.6903
 379  358.0437
 380  362.7297
 381  338.0936
 382  464.6625
 383  459.1592
 384  360.8519
 385  270.7414
 386  188.4483
 387  229.7006
 388  163.0719
 389  234.7483
 390  338.0262
 391  373.3283
 392  212.9045
 393  254.7498
 394  286.4054
 395  236.9458
 396  230.3177
 397  294.5544
 398  401.3699
 399  271.5893
 400  171.3995
 401  191.3923
 402  165.066
 403  230.3847
 404  278.6714
 405  343.0569
 406  228.3503
 407  242.1808
 408  194.724
 409  173.0827
 410  393.8092
 411  427.9723
 412  285.1834
 413  420.1294
 414  302.9404
 415  355.0492
 416  370.2648
 417  412.7849
 418  467.0594
 419  490.6895
 420  304.2093
 421  281.9279
 422  276.2626
 423  234.0128
 424  260.1064
 425  297.2587
 426  396.1284
 427  383.9409
 428  394.8243
 429  402.4974
 430  326.6095
 431  349.5359
 432  278.1523
 433  201.0208
 434  214.5534
 435  323.1105
 436  234.494
 437  265.8863
 438  343.92
 439  221.715
 440  210.2377
 441  172.7461
 442  276.5901
 443  257.3579
 444  259.2076
 445  395.5435
 446  293.0504
 447  356.2728
 448  265.5665
 449  280.7171
 450  333.19
 451  341.2109
 452  353.6804
 453  412.5952
 454  319.7514
 455  322.4996
 456  289.4676
 457  290.7391
 458  278.6667
 459  392.4911
 460  230.6282
 461  190.9626
 462  330.8604
 463  359.0302
 464  287.5787
 465  321.2563
 466  256.7091
 467  220.6054
 468  299.2025
 469  179.3601
 470  129.6617
 471  240.5276
 472  244.086
 473  308.9507
 474  363.192
 475  358.0747
 476  248.6503
 477  174.0488
 478  334.6677
 479  367.3324
 480  344.2122
 481  261.2302
 482  352.3667
 483  434.1363
 484  323.3348
 485  405.3233
 486  514.2439
 487  438.3366
 488  437.2748
 489  422.8175
 490  498.3685
 491  600.913
 492  567.0295
 493  556.3532
 494  580.4809
 495  441.938
 496  475.5683
 497  498.7299
 498  405.9662
 499  386.5093
 500  427.7091
 501  399.4933
 502  406.4407
 503  423.2534
 504  492.5456
 505  489.4254
 506  443.0728
 507  486.72
 508  590.9227
 509  671.5425
 510  880.4497
 511  1082.168
