# Input file       =  1178800781.100998_cleaned.dat
# Candidate        =  PSR_0332+5434
# Telescope        =  AR
# Epoch_topo       =  57887.527778946736
# Epoch_bary       =  N/A
# T_sample         =  0.002
# Data Folded      =  7340032
# Data Avg         =  0.016585535646067
# Data StdDev      =  1.00006195733943 
# Profile Bins     =  512
# Profile Avg      =  237.825762299079 
# Profile StdDev   =  119.740454717142 
# Reduced chi-sqr  =  1.158
# Prob(Noise)      <  0.00756   (~2.4 sigma)
# P_topo (ms)      =  714.53406165849   +/- 0.000222
# P'_topo (s/s)    =  -0                +/- 1.17e-10
# P''_topo (s/s^2) =  0                 +/- 5.18e-14
# P_bary (ms)      =  N/A
# P'_bary (s/s)    =  N/A
# P''_bary (s/s^2) =  N/A
# P_orb (s)        =  N/A
# asin(i)/c (s)    =  N/A
# eccentricity     =  N/A
# w (rad)          =  N/A
# T_peri           =  N/A
######################################################
   0  173.187
   1  291.5555
   2  185.5769
   3  253.6725
   4  193.9976
   5  85.86433
   6  299.7033
   7  313.5825
   8  339.5979
   9  342.9725
  10  209.8742
  11  89.72646
  12  143.9676
  13  160.6357
  14  235.8159
  15  264.5521
  16  182.8495
  17  67.20315
  18  103.9461
  19  320.774
  20  177.3807
  21  195.8514
  22  216.7835
  23  303.5607
  24  160.0015
  25  174.4353
  26  164.9849
  27  180.7509
  28  292.004
  29  262.2535
  30  325.2331
  31  294.2395
  32  315.5466
  33  308.2448
  34  87.01507
  35  210.474
  36  258.2376
  37  332.6003
  38  271.1096
  39  285.4461
  40  276.8847
  41  230.767
  42  257.8712
  43  268.4087
  44  202.7865
  45  161.9853
  46  154.6075
  47  103.6947
  48  128.1038
  49  279.0992
  50  259.606
  51  243.249
  52  267.8806
  53  215.4184
  54  106.7895
  55  124.8677
  56  181.3238
  57  99.91079
  58  39.66921
  59  0.8452638
  60  97.66944
  61  123.7205
  62  205.5443
  63  371.1396
  64  344.2431
  65  247.5694
  66  255.3573
  67  223.7184
  68  265.295
  69  170.1275
  70  219.84
  71  261.4174
  72  132.5955
  73  326.4523
  74  265.7177
  75  298.8068
  76  250.4165
  77  226.3576
  78  189.9697
  79  186.2336
  80  211.0076
  81  252.5097
  82  264.3463
  83  308.4139
  84  286.5739
  85  118.5258
  86  150.7767
  87  74.55453
  88  150.1662
  89  137.3036
  90  128.6622
  91  155.572
  92  70.1328
  93  104.7581
  94  188.4932
  95  198.1054
  96  200.2703
  97  44.9794
  98  89.01416
  99  94.99319
 100  119.5029
 101  196.269
 102  206.7954
 103  239.1723
 104  242.5367
 105  235.8075
 106  90.25272
 107  201.7265
 108  123.1047
 109  150.7281
 110  161.5211
 111  56.92743
 112  157.0117
 113  317.4673
 114  200.1199
 115  201.7259
 116  141.6258
 117  230.0383
 118  225.8955
 119  278.701
 120  268.7461
 121  309.4524
 122  211.3407
 123  168.8569
 124  152.2046
 125  172.7588
 126  234.9594
 127  327.1621
 128  319.8965
 129  299.6832
 130  206.7958
 131  221.168
 132  247.1354
 133  167.4121
 134  331.4268
 135  274.1935
 136  170.0786
 137  249.931
 138  318.4974
 139  368.5465
 140  333.9907
 141  334.2747
 142  390.3806
 143  585.4224
 144  786.7919
 145  840.687
 146  705.3204
 147  460.4055
 148  238.1925
 149  214.886
 150  323.1732
 151  159.3606
 152  94.07801
 153  180.7027
 154  218.4202
 155  286.6375
 156  325.1621
 157  227.5965
 158  246.2626
 159  251.7001
 160  354.8625
 161  267.7166
 162  114.9946
 163  154.5828
 164  166.3559
 165  231.6705
 166  349.5483
 167  255.6019
 168  268.3842
 169  241.5748
 170  256.6379
 171  261.502
 172  287.9012
 173  163.9838
 174  226.8582
 175  382.9842
 176  294.0607
 177  138.5612
 178  112.4234
 179  190.3355
 180  222.2834
 181  330.5439
 182  235.9639
 183  247.5925
 184  186.3928
 185  276.4354
 186  162.5785
 187  117.7265
 188  81.29384
 189  190.4938
 190  281.5532
 191  199.521
 192  41.45971
 193  91.43446
 194  259.3208
 195  190.2234
 196  291.3482
 197  270.509
 198  159.0777
 199  267.4695
 200  131.5071
 201  153.6822
 202  279.0815
 203  171.7559
 204  279.6592
 205  252.3461
 206  287.3618
 207  245.5532
 208  65.69327
 209  160.975
 210  266.4811
 211  244.7287
 212  197.2204
 213  323.2386
 214  277.946
 215  167.2989
 216  266.688
 217  369.9143
 218  346.972
 219  324.5625
 220  342.9106
 221  424.1004
 222  299.9838
 223  269.6035
 224  296.3167
 225  275.0635
 226  279.8436
 227  248.2974
 228  215.2308
 229  222.6697
 230  207.5728
 231  270.4566
 232  171.0037
 233  284.3629
 234  263.6276
 235  184.3319
 236  256.425
 237  239.1012
 238  172.4683
 239  118.1464
 240  123.8162
 241  6.019475
 242  205.2216
 243  287.824
 244  228.6675
 245  176.2798
 246  234.55
 247  259.244
 248  388.0168
 249  373.534
 250  324.9507
 251  198.2397
 252  224.3925
 253  193.4378
 254  89.12304
 255  197.7039
 256  215.0964
 257  311.9746
 258  458.8657
 259  354.3644
 260  201.7755
 261  180.5736
 262  199.6525
 263  284.5891
 264  237.3194
 265  230.4493
 266  336.1754
 267  399.3638
 268  265.8292
 269  180.036
 270  313.7512
 271  315.1116
 272  153.2239
 273  58.9107
 274  138.8156
 275  220.3752
 276  138.7276
 277  218.0796
 278  238.0526
 279  170.63
 280  58.00541
 281  142.7765
 282  245.2345
 283  363.2763
 284  376.1112
 285  234.8478
 286  288.6458
 287  395.7294
 288  365.6976
 289  383.2916
 290  332.6141
 291  214.9362
 292  261.217
 293  203.2729
 294  237.8788
 295  324.0586
 296  266.2555
 297  197.3519
 298  226.3163
 299  149.189
 300  151.2646
 301  231.8999
 302  340.9703
 303  343.2759
 304  232.3536
 305  164.8105
 306  260.4004
 307  187.6977
 308  284.2355
 309  234.7813
 310  227.5503
 311  200.6249
 312  196.1163
 313  246.2518
 314  108.3606
 315  166.2354
 316  77.31744
 317  213.2216
 318  190.0428
 319  181.7975
 320  258.9922
 321  316.2741
 322  320.9525
 323  183.7886
 324  313.086
 325  281.6726
 326  240.1269
 327  271.4213
 328  220.8174
 329  220.6713
 330  372.3563
 331  494.106
 332  258.7446
 333  59.33715
 334  28.93467
 335  205.4603
 336  197.5964
 337  179.7192
 338  191.1781
 339  104.6927
 340  36.31596
 341  207.5615
 342  198.5717
 343  238.7949
 344  155.7779
 345  134.4798
 346  261.3221
 347  209.6093
 348  218.3437
 349  241.1449
 350  113.9671
 351  33.32502
 352  158.2137
 353  151.2601
 354  110.2502
 355  99.05029
 356  168.247
 357  143.5521
 358  136.8975
 359  140.7459
 360  91.83851
 361  121.9947
 362  204.1097
 363  132.125
 364  135.2162
 365  211.3655
 366  307.6318
 367  299.3501
 368  254.3802
 369  196.4591
 370  95.14204
 371  171.8839
 372  173.4301
 373  189.6612
 374  273.4045
 375  341.6887
 376  176.3915
 377  302.6084
 378  281.3182
 379  284.3907
 380  223.4903
 381  288.3936
 382  374.9298
 383  309.4389
 384  329.1129
 385  262.9841
 386  207.5531
 387  360.0896
 388  377.2148
 389  390.3444
 390  318.0007
 391  184.3154
 392  189.1773
 393  171.4308
 394  129.0555
 395  256.8811
 396  211.5928
 397  324.5984
 398  309.4836
 399  274.7451
 400  280.1626
 401  246.3125
 402  454.9966
 403  434.1515
 404  339.4847
 405  366.7127
 406  405.1618
 407  327.3371
 408  205.2915
 409  343.3318
 410  358.1474
 411  317.7541
 412  242.8364
 413  232.4904
 414  336.3725
 415  321.5191
 416  267.5019
 417  136.2756
 418  207.2705
 419  310.7942
 420  318.7196
 421  270.4834
 422  221.2967
 423  313.7506
 424  248.9939
 425  166.8835
 426  326.2416
 427  292.5093
 428  318.9618
 429  282.1318
 430  272.1434
 431  225.8672
 432  235.9762
 433  293.3035
 434  244.9453
 435  312.6201
 436  295.051
 437  260.0604
 438  254.574
 439  271.636
 440  175.6849
 441  258.6796
 442  375.4194
 443  269.324
 444  267.758
 445  201.3301
 446  310.4378
 447  261.0812
 448  352.1506
 449  205.0952
 450  153.1345
 451  285.6052
 452  239.7981
 453  208.5233
 454  194.0675
 455  228.5167
 456  254.0478
 457  279.1379
 458  350.9162
 459  389.8034
 460  361.9207
 461  188.4232
 462  122.3342
 463  315.0947
 464  282.2993
 465  165.3654
 466  216.2545
 467  144.1309
 468  159.4924
 469  306.5618
 470  327.5739
 471  293.8107
 472  292.5472
 473  291.8338
 474  214.4628
 475  219.6744
 476  224.6553
 477  313.7901
 478  245.8265
 479  301.7867
 480  292.5538
 481  268.5603
 482  311.0463
 483  312.0758
 484  314.8134
 485  352.4223
 486  322.9596
 487  371.9753
 488  259.7068
 489  197.6106
 490  148.1086
 491  305.3299
 492  356.5745
 493  265.0772
 494  361.0255
 495  277.8959
 496  330.7076
 497  265.4142
 498  255.0881
 499  281.0451
 500  283.9914
 501  224.1938
 502  230.3641
 503  294.5853
 504  184.2547
 505  133.5353
 506  177.6009
 507  258.6187
 508  164.5285
 509  141.0505
 510  133.3432
 511  180.1773
