# Input file       =  1178699751.103657_cleaned.dat
# Candidate        =  PSR_0332+5434
# Telescope        =  AR
# Epoch_topo       =  57886.358450273809
# Epoch_bary       =  N/A
# T_sample         =  0.002
# Data Folded      =  7340032
# Data Avg         =  0.0536251112644096
# Data StdDev      =  2.29541211965309 
# Profile Bins     =  1024
# Profile Avg      =  384.457628312515 
# Profile StdDev   =  194.338868000182 
# Reduced chi-sqr  =  1.311
# Prob(Noise)      <  6.18e-11   (~6.4 sigma)
# P_topo (ms)      =  714.534853220985  +/- 0.000219
# P'_topo (s/s)    =  -0                +/- 1.15e-10
# P''_topo (s/s^2) =  0                 +/- 5.1e-14
# P_bary (ms)      =  N/A
# P'_bary (s/s)    =  N/A
# P''_bary (s/s^2) =  N/A
# P_orb (s)        =  N/A
# asin(i)/c (s)    =  N/A
# eccentricity     =  N/A
# w (rad)          =  N/A
# T_peri           =  N/A
######################################################
   0  377.8455
   1  375.8316
   2  382.0056
   3  422.5978
   4  364.6672
   5  311.7371
   6  219.778
   7  206.0559
   8  248.8804
   9  311.2468
  10  406.6489
  11  439.2225
  12  521.2515
  13  515.8858
  14  481.422
  15  329.8922
  16  235.9737
  17  291.3292
  18  398.5903
  19  444.565
  20  441.9431
  21  472.4507
  22  495.7148
  23  414.3928
  24  244.0186
  25  236.33
  26  307.6367
  27  493.143
  28  425.891
  29  407.5026
  30  313.1219
  31  308.9277
  32  318.1967
  33  383.5023
  34  424.3484
  35  402.0753
  36  271.8921
  37  157.7478
  38  134.5659
  39  237.0311
  40  336.3664
  41  366.5816
  42  369.3147
  43  391.5518
  44  393.9075
  45  410.1426
  46  401.3914
  47  396.7021
  48  347.0893
  49  271.2596
  50  210.8987
  51  159.1888
  52  198.075
  53  336.345
  54  496.8782
  55  607.262
  56  570.5878
  57  537.5438
  58  472.3581
  59  336.8899
  60  239.6369
  61  181.8938
  62  215.4509
  63  240.1441
  64  348.8165
  65  458.4104
  66  431.2936
  67  411.5405
  68  426.6114
  69  425.3263
  70  433.0392
  71  421.2196
  72  441.9485
  73  454.7735
  74  456.2131
  75  456.2555
  76  388.262
  77  430.3524
  78  441.2756
  79  584.5517
  80  508.235
  81  514.5701
  82  440.9383
  83  522.7835
  84  554.8847
  85  579.9343
  86  515.4764
  87  325.4205
  88  269.5027
  89  222.9596
  90  295.3983
  91  377.9346
  92  445.487
  93  454.5278
  94  403.0759
  95  382.2992
  96  317.6673
  97  322.1873
  98  352.6953
  99  372.7813
 100  427.3205
 101  417.3913
 102  429.6158
 103  375.2242
 104  395.1449
 105  462.2312
 106  453.2216
 107  457.2045
 108  383.2785
 109  378.3108
 110  378.4159
 111  349.1725
 112  292.6987
 113  273.1599
 114  298.1377
 115  373.9796
 116  419.0715
 117  420.439
 118  400.932
 119  486.4729
 120  572.4701
 121  640.6008
 122  604.8094
 123  557.045
 124  486.347
 125  440.012
 126  415.8561
 127  475.0344
 128  505.7784
 129  596.7116
 130  552.0051
 131  458.6517
 132  328.5695
 133  335.985
 134  382.071
 135  375.8826
 136  374.8715
 137  355.0281
 138  399.1393
 139  388.7596
 140  341.8304
 141  346.222
 142  365.5404
 143  375.6893
 144  389.1589
 145  485.7223
 146  585.6149
 147  519.4371
 148  466.2708
 149  414.4103
 150  416.3904
 151  338.634
 152  222.2923
 153  174.2342
 154  270.037
 155  434.5543
 156  468.5072
 157  574.0145
 158  621.5092
 159  649.7515
 160  573.8068
 161  450.8406
 162  399.206
 163  404.838
 164  461.7448
 165  515.9595
 166  407.4855
 167  336.6752
 168  305.7861
 169  343.3946
 170  394.638
 171  416.3101
 172  418.6695
 173  345.6342
 174  291.5039
 175  269.1661
 176  286.5671
 177  320.4277
 178  385.1779
 179  330.3376
 180  321.5347
 181  304.9761
 182  325.2708
 183  318.6058
 184  329.983
 185  327.6888
 186  283.0347
 187  245.1233
 188  287.8157
 189  321.6784
 190  249.8628
 191  222.5231
 192  188.7252
 193  275.0667
 194  161.1455
 195  232.0332
 196  347.5105
 197  452.4673
 198  434.2632
 199  383.4402
 200  391.822
 201  344.7974
 202  363.8481
 203  319.046
 204  281.6709
 205  230.7126
 206  330.6516
 207  334.6245
 208  397.5211
 209  441.0279
 210  604.0916
 211  541.6747
 212  434.1102
 213  313.5252
 214  324.2964
 215  310.1668
 216  294.6809
 217  219.5968
 218  228.5489
 219  310.3485
 220  336.84
 221  322.3161
 222  302.4694
 223  363.2043
 224  433.1446
 225  439.4123
 226  479.8708
 227  491.5608
 228  461.0604
 229  325.0484
 230  308.2341
 231  339.9047
 232  318.0313
 233  311.2932
 234  257.3906
 235  184.4829
 236  140.6592
 237  216.9965
 238  295.4695
 239  243.2418
 240  180.9168
 241  215.253
 242  336.0586
 243  332.524
 244  284.3489
 245  296.2837
 246  309.4079
 247  278.1586
 248  254.498
 249  309.9207
 250  326.0916
 251  353.4822
 252  376.1086
 253  475.4283
 254  613.0065
 255  630.4013
 256  581.0027
 257  514.5973
 258  460.0675
 259  463.9979
 260  347.4974
 261  315.6724
 262  299.2415
 263  375.412
 264  397.2609
 265  448.5849
 266  456.761
 267  449.6813
 268  508.6368
 269  510.5899
 270  491.8438
 271  396.5612
 272  406.3967
 273  390.3988
 274  323.3198
 275  325.6487
 276  385.6992
 277  507.8105
 278  507.9533
 279  476.9254
 280  344.94
 281  306.6335
 282  318.9416
 283  427.3691
 284  491.967
 285  493.4925
 286  534.6362
 287  494.0406
 288  446.4363
 289  336.6981
 290  362.2448
 291  343.9925
 292  369.0376
 293  348.0052
 294  347.45
 295  394.2446
 296  346.1829
 297  280.0664
 298  209.6695
 299  235.5993
 300  281.0841
 301  295.8836
 302  255.9943
 303  240.1232
 304  193.1234
 305  271.9277
 306  306.5103
 307  357.5398
 308  359.5485
 309  354.9772
 310  348.3776
 311  380.9225
 312  436.8658
 313  482.7793
 314  514.2653
 315  572.9209
 316  531.9069
 317  464.4498
 318  431.9065
 319  462.3891
 320  449.0273
 321  428.6446
 322  397.7642
 323  422.2002
 324  399.8814
 325  337.2733
 326  316.2736
 327  316.1814
 328  364.7959
 329  376.667
 330  443.029
 331  569.0404
 332  594.813
 333  454.5536
 334  305.254
 335  314.0941
 336  413.1458
 337  404.4339
 338  349.2205
 339  365.8604
 340  386.788
 341  422.4382
 342  457.9976
 343  522.7763
 344  531.08
 345  477.7288
 346  378.1535
 347  288.5428
 348  296.541
 349  355.4849
 350  420.4422
 351  365.4324
 352  334.1219
 353  316.5108
 354  399.7932
 355  492.6834
 356  441.0755
 357  415.7859
 358  289.8689
 359  269.6678
 360  204.7515
 361  289.265
 362  379.2177
 363  454.5828
 364  420.6893
 365  340.2771
 366  412.3923
 367  491.5476
 368  415.2387
 369  238.6141
 370  231.4522
 371  302.8972
 372  291.0444
 373  213.0467
 374  204.7539
 375  254.4471
 376  327.0773
 377  329.4955
 378  311.0554
 379  261.0982
 380  195.1371
 381  228.7062
 382  205.7454
 383  277.1361
 384  234.3871
 385  239.2625
 386  238.6351
 387  273.3016
 388  260.2527
 389  263.674
 390  273.2685
 391  332.9772
 392  372.6364
 393  417.9671
 394  401.8511
 395  390.8635
 396  335.5316
 397  373.4031
 398  329.0463
 399  362.2794
 400  313.1813
 401  279.7717
 402  354.653
 403  354.9611
 404  334.1936
 405  273.0638
 406  286.3463
 407  376.5787
 408  359.686
 409  309.8824
 410  299.3233
 411  311.2023
 412  365.7897
 413  417.1224
 414  510.0056
 415  526.1684
 416  445.9017
 417  363.343
 418  289.1858
 419  287.0851
 420  365.0839
 421  335.558
 422  259.6028
 423  248.0361
 424  359.2028
 425  403.9258
 426  348.9998
 427  347.3246
 428  441.4191
 429  499.271
 430  474.7346
 431  347.7699
 432  354.5905
 433  395.6357
 434  483.4382
 435  398.4128
 436  370.3627
 437  319.294
 438  396.6901
 439  408.9028
 440  401.6572
 441  338.5439
 442  245.941
 443  298.8716
 444  374.157
 445  369.5879
 446  309.8448
 447  265.7842
 448  342.2268
 449  366.2259
 450  316.9286
 451  247.898
 452  239.3459
 453  291.3127
 454  349.3303
 455  387.5634
 456  400.8229
 457  363.0571
 458  287.1469
 459  185.3714
 460  112.27
 461  96.01762
 462  131.4391
 463  214.069
 464  324.2999
 465  314.9057
 466  269.0784
 467  195.1718
 468  226.7235
 469  222.9013
 470  214.972
 471  263.7279
 472  299.7328
 473  276.8232
 474  288.7968
 475  316.3182
 476  309.2818
 477  375.1811
 478  415.6196
 479  501.9734
 480  464.6183
 481  457.9435
 482  452.5175
 483  501.2237
 484  494.7988
 485  487.2108
 486  387.1313
 487  403.9336
 488  509.4734
 489  540.6788
 490  461.519
 491  352.5621
 492  289.5179
 493  334.5258
 494  359.4683
 495  375.4226
 496  303.0533
 497  289.4669
 498  360.1217
 499  421.1357
 500  468.5301
 501  399.7784
 502  498.0608
 503  569.8817
 504  511.6329
 505  396.9514
 506  314.7055
 507  345.2744
 508  345.153
 509  424.9442
 510  437.5135
 511  399.8338
 512  358.4698
 513  343.5618
 514  341.3291
 515  328.1382
 516  428.383
 517  464.5283
 518  411.9341
 519  364.6565
 520  367.2256
 521  447.9993
 522  444.4956
 523  434.821
 524  430.699
 525  524.1011
 526  495.3141
 527  464.4756
 528  408.233
 529  435.2486
 530  431.8763
 531  480.5869
 532  467.2037
 533  473.7788
 534  413.7604
 535  448.5456
 536  433.2097
 537  487.4778
 538  435.8539
 539  382.4516
 540  401.4704
 541  448.2764
 542  447.456
 543  366.8679
 544  423.7977
 545  573.9417
 546  597.8065
 547  537.8587
 548  451.8516
 549  493.8683
 550  429.5585
 551  406.4253
 552  320.0663
 553  259.8253
 554  175.9412
 555  163.2964
 556  312.5976
 557  381.7285
 558  480.9168
 559  450.1718
 560  375.8096
 561  321.4815
 562  386.1241
 563  467.8376
 564  416.451
 565  329.6978
 566  252.9894
 567  222.3304
 568  177.7247
 569  160.6106
 570  240.7339
 571  360.3774
 572  487.855
 573  492.2834
 574  474.5553
 575  394.5856
 576  339.9407
 577  326.7419
 578  288.2328
 579  298.6145
 580  325.1556
 581  374.9809
 582  300.8658
 583  312.0876
 584  356.3197
 585  323.7343
 586  231.6712
 587  273.0495
 588  405.5064
 589  492.1203
 590  448.746
 591  354.3335
 592  268.2278
 593  227.8533
 594  287.716
 595  448.1498
 596  535.4534
 597  510.2669
 598  402.7289
 599  362.7791
 600  320.1976
 601  275.6086
 602  367.7922
 603  410.935
 604  390.017
 605  295.4323
 606  298.4989
 607  351.45
 608  379.6574
 609  303.3917
 610  325.0129
 611  368.5499
 612  417.154
 613  404.8016
 614  301.3751
 615  287.2496
 616  184.5203
 617  233.8094
 618  311.0855
 619  306.3891
 620  328.1076
 621  408.9443
 622  468.5501
 623  388.9698
 624  313.6154
 625  369.8263
 626  370.7971
 627  267.7668
 628  235.4342
 629  194.9952
 630  293.9191
 631  342.1705
 632  494.562
 633  549.825
 634  523.0142
 635  552.2059
 636  437.735
 637  431.2844
 638  343.4772
 639  457.8626
 640  450.2992
 641  435.8131
 642  363.8161
 643  393.4965
 644  351.874
 645  318.9846
 646  405.9278
 647  508.8005
 648  422.7929
 649  260.8368
 650  222.956
 651  266.6043
 652  227.7552
 653  189.0353
 654  280.4951
 655  392.5649
 656  409.5685
 657  368.7257
 658  359.1341
 659  424.8836
 660  458.5395
 661  401.8448
 662  433.1855
 663  379.9001
 664  340.2621
 665  293.9763
 666  354.1147
 667  403.0004
 668  388.148
 669  346.8382
 670  461.8545
 671  509.8292
 672  561.1265
 673  500.5678
 674  560.3633
 675  550.6013
 676  538.2473
 677  405.763
 678  348.0788
 679  335.8107
 680  363.2016
 681  401.2319
 682  345.6168
 683  325.1961
 684  274.5432
 685  371.0798
 686  441.5523
 687  462.3503
 688  478.3554
 689  451.0408
 690  434.2315
 691  393.6801
 692  405.0659
 693  533.8782
 694  459.7685
 695  444.1351
 696  328.4945
 697  294.8259
 698  216.3315
 699  316.3308
 700  506.8582
 701  560.4224
 702  516.535
 703  435.9517
 704  468.5637
 705  446.8432
 706  373.4088
 707  315.1531
 708  266.8438
 709  317.6055
 710  327.1595
 711  311.6654
 712  349.6915
 713  333.0488
 714  336.9266
 715  281.154
 716  332.4768
 717  377.8646
 718  359.3083
 719  359.3907
 720  387.8689
 721  378.1245
 722  402.5363
 723  290.6866
 724  231.3496
 725  215.0061
 726  302.6815
 727  369.8505
 728  333.7896
 729  397.3441
 730  470.4668
 731  593.2732
 732  486.5587
 733  368.2553
 734  320.2067
 735  375.4937
 736  441.3596
 737  462.8099
 738  506.3728
 739  486.1508
 740  492.7607
 741  435.4986
 742  379.7274
 743  292.694
 744  307.905
 745  395.6486
 746  472.5934
 747  501.2784
 748  541.843
 749  530.7828
 750  585.0984
 751  655.6627
 752  722.7381
 753  837.564
 754  982.7275
 755  1077.108
 756  1141.339
 757  1183.945
 758  1265.549
 759  1234.371
 760  1206.032
 761  1180.105
 762  1076.676
 763  938.6178
 764  738.9683
 765  584.7913
 766  386.2473
 767  353.8236
 768  417.3864
 769  388.6934
 770  431.4041
 771  350.5869
 772  406.6961
 773  318.0842
 774  344.3156
 775  402.1276
 776  464.022
 777  498.1489
 778  507.8505
 779  512.8275
 780  477.683
 781  394.0672
 782  425.6369
 783  503.4141
 784  587.3886
 785  693.3589
 786  640.2418
 787  600.017
 788  625.5318
 789  658.2555
 790  614.9472
 791  505.6363
 792  548.9528
 793  562.4817
 794  536.8781
 795  360.7187
 796  287.8461
 797  257.3838
 798  364.876
 799  351.2144
 800  308.8342
 801  270.2729
 802  348.8078
 803  389.0749
 804  447.3086
 805  471.3657
 806  378.9449
 807  309.4566
 808  326.8543
 809  381.7591
 810  338.5364
 811  248.6675
 812  273.5421
 813  332.3506
 814  363.5913
 815  340.9335
 816  340.9482
 817  323.4817
 818  370.6796
 819  384.7628
 820  408.1809
 821  269.5893
 822  238.351
 823  275.9161
 824  357.1925
 825  419.8052
 826  451.6374
 827  499.3937
 828  443.5332
 829  432.2181
 830  368.5583
 831  394.2264
 832  355.2202
 833  295.2638
 834  198.9655
 835  175.9141
 836  331.9793
 837  409.0054
 838  424.4521
 839  280.543
 840  367.0052
 841  420.4097
 842  437.6527
 843  425.3169
 844  471.076
 845  470.8742
 846  421.2288
 847  363.1403
 848  308.815
 849  250.5646
 850  202.2054
 851  280.6924
 852  401.4669
 853  531.3845
 854  542.6558
 855  524.5019
 856  468.6494
 857  435.9525
 858  354.5507
 859  352.3389
 860  331.4942
 861  322.9317
 862  248.9768
 863  245.667
 864  345.4304
 865  378.0477
 866  325.6901
 867  287.8907
 868  397.2656
 869  401.593
 870  380.7556
 871  407.7288
 872  456.3796
 873  395.2031
 874  347.5704
 875  282.5858
 876  216.6581
 877  111.9579
 878  125.602
 879  235.3351
 880  343.7369
 881  403.5132
 882  433.8534
 883  399.607
 884  388.9545
 885  299.3571
 886  259.2661
 887  262.01
 888  277.7591
 889  283.8339
 890  345.6137
 891  445.9508
 892  512.5113
 893  495.4572
 894  452.9556
 895  402.4999
 896  358.6258
 897  375.1682
 898  392.6038
 899  416.2784
 900  490.6513
 901  458.0939
 902  338.0621
 903  295.7219
 904  307.1799
 905  419.0374
 906  440.9151
 907  342.047
 908  228.046
 909  124.4136
 910  162.0042
 911  239.5851
 912  302.9003
 913  417.5047
 914  412.9916
 915  384.6062
 916  417.1737
 917  333.9112
 918  266.1927
 919  122.7692
 920  162.1212
 921  220.5547
 922  284.6499
 923  346.119
 924  292.3966
 925  206.2794
 926  259.6671
 927  296.0383
 928  401.3633
 929  381.4749
 930  380.1628
 931  412.4565
 932  515.8143
 933  576.8793
 934  497.6679
 935  472.437
 936  523.6937
 937  398.4738
 938  263.0892
 939  245.9055
 940  347.3175
 941  431.8519
 942  445.3141
 943  446.7771
 944  374.2136
 945  259.5192
 946  276.349
 947  328.4941
 948  382.9487
 949  346.631
 950  359.617
 951  365.7977
 952  401.7972
 953  461.8792
 954  424.1616
 955  396.5476
 956  313.0002
 957  346.5996
 958  395.8177
 959  405.2468
 960  348.4633
 961  363.4961
 962  415.3206
 963  428.7195
 964  359.7807
 965  391.1822
 966  392.3588
 967  403.1956
 968  395.5338
 969  433.687
 970  469.662
 971  475.3035
 972  517.5898
 973  425.2149
 974  406.4869
 975  314.0154
 976  339.3446
 977  360.8302
 978  523.396
 979  556.0172
 980  490.4613
 981  293.2609
 982  251.7989
 983  360.8853
 984  479.3149
 985  495.7699
 986  425.2974
 987  331.3235
 988  316.2956
 989  380.8766
 990  452.5703
 991  440.6302
 992  368.1954
 993  349.0567
 994  389.3372
 995  402.0616
 996  472.0381
 997  393.1999
 998  351.6124
 999  325.4082
1000  370.1571
1001  403.234
1002  379.9807
1003  379.7437
1004  367.8617
1005  363.3646
1006  343.4236
1007  328.9059
1008  271.2775
1009  312.3876
1010  322.9709
1011  344.6936
1012  239.6257
1013  248.7513
1014  251.7578
1015  349.5164
1016  357.1346
1017  365.5052
1018  322.987
1019  358.7617
1020  413.2823
1021  445.0117
1022  400.6283
1023  393.8344
