# Input file       =  1178512740.104834-PSRB0329-2ms-sampling-dd.dat
# Candidate        =  PSR_0332+5434
# Telescope        =  AR
# Epoch_topo       =  57884.193971120767
# Epoch_bary       =  N/A
# T_sample         =  0.002
# Data Folded      =  7274496
# Data Avg         =  -2.67664397395488e-09
# Data StdDev      =  57.1774319327648 
# Profile Bins     =  512
# Profile Avg      =  -0.149402007643878
# Profile StdDev   =  6815.39638819548 
# Reduced chi-sqr  =  0.726
# Prob(Noise)      <  1   (~0.0 sigma)
# P_topo (ms)      =  714.53691085844   +/- 0.000141
# P'_topo (s/s)    =  -0                +/- 7.51e-11
# P''_topo (s/s^2) =  0                 +/- 3.34e-14
# P_bary (ms)      =  N/A
# P'_bary (s/s)    =  N/A
# P''_bary (s/s^2) =  N/A
# P_orb (s)        =  N/A
# asin(i)/c (s)    =  N/A
# eccentricity     =  N/A
# w (rad)          =  N/A
# T_peri           =  N/A
######################################################
   0  3250.293
   1  169.8233
   2  -920.5081
   3  3930.383
   4  5766.664
   5  5610.954
   6  213.5868
   7  -2485.243
   8  -2322.056
   9  3510.672
  10  4484.781
  11  4322.821
  12  746.725
  13  -143.1266
  14  2245.869
  15  4959.29
  16  11329.02
  17  10037.43
  18  2853.677
  19  1460.419
  20  2537.249
  21  9837.64
  22  14040.49
  23  13648.87
  24  4753.389
  25  1909.472
  26  2142.715
  27  8826.952
  28  10037.69
  29  8533.334
  30  4353.09
  31  4319.399
  32  7076.472
  33  4728.197
  34  4021.147
  35  3490.48
  36  6028.053
  37  2877.176
  38  1959.616
  39  1988.377
  40  2111.262
  41  3700.003
  42  2419.708
  43  3919.941
  44  2246.412
  45  4424.292
  46  3357.211
  47  2833.393
  48  3073.274
  49  4425.429
  50  -1534.688
  51  -822.3913
  52  3962.365
  53  2650.078
  54  2305.773
  55  2810.863
  56  4300.459
  57  -433.5125
  58  983.3018
  59  1635.814
  60  -246.7286
  61  4946.489
  62  5339.959
  63  4655.211
  64  7040.466
  65  5428.738
  66  769.9002
  67  -2286.381
  68  -4814.428
  69  -1855.904
  70  4253.263
  71  6259.271
  72  4178.71
  73  678.9252
  74  -2523.141
  75  -6194.978
  76  -288.7138
  77  865.0574
  78  4944.492
  79  4549.778
  80  -2698.785
  81  -7178.868
  82  -2858.874
  83  4176.703
  84  5693.438
  85  4578.234
  86  1003.941
  87  -3622.927
  88  -2268.837
  89  -1153.621
  90  3528.394
  91  2279.922
  92  1603.438
  93  -3295.868
  94  -1761.608
  95  -2950.55
  96  -1216.889
  97  -2840.14
  98  -1064.493
  99  -4495.206
 100  -2978.006
 101  -5001.111
 102  -7879.83
 103  -5090.746
 104  -3634.38
 105  -1945.154
 106  -1945.077
 107  142.3168
 108  -3084.134
 109  -4753.831
 110  -6257.818
 111  -1369.474
 112  -2946.652
 113  -1671.73
 114  -5346.748
 115  -5398.945
 116  -6631.674
 117  -5814.515
 118  -2599.502
 119  -1401.306
 120  -1926.151
 121  -2459.512
 122  -4274.939
 123  -3362.624
 124  -7138.811
 125  -7174.021
 126  -4060.605
 127  -2313.75
 128  -4154.653
 129  -7547.673
 130  -9035.222
 131  -4495.461
 132  -1052.053
 133  737.4129
 134  -3370.41
 135  -3591.63
 136  -4523.291
 137  -3296.396
 138  3156.864
 139  -50.68941
 140  -1553.715
 141  -5861.058
 142  -3429.328
 143  -858.6726
 144  833.1397
 145  -1655.807
 146  -3741.914
 147  -4747.592
 148  -5740.099
 149  -2566.217
 150  -1863.735
 151  -1896.584
 152  -887.2677
 153  -2143.1
 154  -1420.9
 155  -489.797
 156  3406.262
 157  1524.159
 158  2704.03
 159  5096.041
 160  3422.885
 161  -369.7233
 162  3905.333
 163  7719.732
 164  6986.502
 165  7793.047
 166  5237.865
 167  1992.382
 168  1882.391
 169  2879.086
 170  5246.718
 171  4297.753
 172  1739.855
 173  1489.137
 174  -1099.783
 175  4232.094
 176  1239.034
 177  -3557.746
 178  -10285.96
 179  -6022.276
 180  -1935.785
 181  -3262.026
 182  -646.8784
 183  -995.118
 184  -4903.83
 185  -6593.913
 186  -3497.552
 187  -48.2157
 188  3978.699
 189  5089.164
 190  -1115.791
 191  -4352.417
 192  -3496.745
 193  -705.0087
 194  -556.2669
 195  2035.545
 196  44.48281
 197  -1461.984
 198  -644.7999
 199  -1004.639
 200  -4567.813
 201  -4874.193
 202  -4411.878
 203  -1693.623
 204  -676.9673
 205  958.9056
 206  -450.2066
 207  -783.8297
 208  -6263.808
 209  -5841.815
 210  -2227.559
 211  2525.986
 212  1524.506
 213  -2401.909
 214  -6266.756
 215  -6176.068
 216  -6222.97
 217  -3117.382
 218  -2296.341
 219  -2970.318
 220  -2500.951
 221  -7899.959
 222  -6027.155
 223  3757.105
 224  2948.582
 225  275.1632
 226  1720.243
 227  -658.5861
 228  1097.064
 229  -2487.593
 230  2698.662
 231  1693.802
 232  624.203
 233  1797.32
 234  -111.8574
 235  3517
 236  -443.6101
 237  -208.7941
 238  -6392.427
 239  -6779.752
 240  -154.278
 241  1943.854
 242  1791.474
 243  -82.46406
 244  -7235.971
 245  -4305.688
 246  -3714.745
 247  508.5686
 248  -1201.446
 249  -7227.709
 250  -7942.435
 251  -6895.948
 252  3302.99
 253  2436.575
 254  491.2372
 255  -3578.933
 256  -5222.25
 257  -4886.729
 258  1953.257
 259  7928.352
 260  7757.819
 261  2163.582
 262  252.5472
 263  -3657.466
 264  -7256.478
 265  -5866.301
 266  -5147.433
 267  -1731.758
 268  2512.393
 269  738.3954
 270  -692.9953
 271  -5957.403
 272  -4832.172
 273  -1401.775
 274  95.97915
 275  2162.226
 276  1979.028
 277  2357.037
 278  1797.502
 279  2010.326
 280  2116.327
 281  26.6498
 282  -129.5954
 283  -350.66
 284  1500.649
 285  2964.25
 286  2017.959
 287  2615.517
 288  4013.697
 289  1410.294
 290  -603.9245
 291  1853.162
 292  913.6356
 293  1817.293
 294  2574.27
 295  3611.153
 296  47.77885
 297  -3222.134
 298  -4262.966
 299  -2902.177
 300  2053.984
 301  6820.948
 302  2536.722
 303  1032.776
 304  -1290.477
 305  -5728.016
 306  -690.9757
 307  4666.5
 308  3153.849
 309  5516.909
 310  2993.184
 311  3411.306
 312  -3178.563
 313  -1020.527
 314  -287.3672
 315  -654.6366
 316  1089.364
 317  -2525.991
 318  -7218.519
 319  -10001.49
 320  -8030.959
 321  -6545.061
 322  -5545.174
 323  -7207.907
 324  -5852.847
 325  -5043.797
 326  -4585.78
 327  -5517.864
 328  -2744.244
 329  -4276.556
 330  -6847.398
 331  -4272.323
 332  -2243.075
 333  -200.0158
 334  -4502.761
 335  -5678.535
 336  -9069.079
 337  -7791.87
 338  -8188.237
 339  -5950.289
 340  -5464.582
 341  -4122.816
 342  -7547.915
 343  -5296.714
 344  -5234.869
 345  -7107.697
 346  -6692.328
 347  -6490.965
 348  -2298.443
 349  244.174
 350  416.4073
 351  -2984.665
 352  -8482.611
 353  -7229.98
 354  -3176.502
 355  1899.981
 356  2305.455
 357  -3228.123
 358  -3519.286
 359  -3216.141
 360  -2534.78
 361  -2174.912
 362  -2455.065
 363  -2611.679
 364  -1178.826
 365  -684.6245
 366  -1891.464
 367  -4567.097
 368  -2857.527
 369  -5404.11
 370  -7129.517
 371  -4586.57
 372  -7272.304
 373  -7191.114
 374  -4024.959
 375  -6687.865
 376  -5866.244
 377  -5283.377
 378  -8982.467
 379  -8476.012
 380  -6802.609
 381  -4865.998
 382  -2998.412
 383  -1376.64
 384  -1161.93
 385  -1275.578
 386  156.342
 387  2003.255
 388  2611.097
 389  6850.783
 390  6779.784
 391  5201.358
 392  7860.896
 393  8228.074
 394  2947.906
 395  2960.325
 396  4619.621
 397  2076.879
 398  1458.59
 399  -784.0659
 400  -2466.228
 401  -3763.561
 402  -872.0285
 403  2108.275
 404  -78.71618
 405  -3600.548
 406  -5320.416
 407  -3328.384
 408  1776.294
 409  2098.704
 410  2692.917
 411  -88.60007
 412  -2574.62
 413  1590.151
 414  2113.385
 415  4516.527
 416  900.1163
 417  491.9052
 418  -1198.552
 419  1317.251
 420  4929.175
 421  2686.82
 422  1586.069
 423  616.5043
 424  3374.499
 425  4237.776
 426  5447.032
 427  3897.469
 428  793.0734
 429  1428.137
 430  19.61893
 431  699.7534
 432  1010.982
 433  1581.907
 434  429.2812
 435  52.50572
 436  -1013.713
 437  2871.683
 438  1611.14
 439  1801.824
 440  1592.194
 441  3130.366
 442  5515.766
 443  5676.201
 444  4570.344
 445  -946.6962
 446  -3822.041
 447  -635.3246
 448  2673.001
 449  6472.348
 450  3752.935
 451  -2890.015
 452  -857.6854
 453  -781.6848
 454  36.86927
 455  3612.505
 456  1846.361
 457  5323.905
 458  3366.429
 459  1221.686
 460  3742.279
 461  3650.895
 462  9170.407
 463  3939.349
 464  967.3659
 465  1923.081
 466  6816.234
 467  7612.719
 468  4488.792
 469  132.1537
 470  3927.707
 471  3295.58
 472  6767.148
 473  5605.447
 474  6105.208
 475  3351.319
 476  1519.362
 477  427.5826
 478  4513.332
 479  5757.789
 480  5831.832
 481  2809.76
 482  2604.636
 483  155.4396
 484  -1756.673
 485  -1861.021
 486  -2003.795
 487  -552.7237
 488  3256.197
 489  1255.398
 490  2199.004
 491  -64.17019
 492  -1753.878
 493  3192.025
 494  6121.333
 495  6997.25
 496  5668.208
 497  2149.306
 498  2341.384
 499  5351.694
 500  9088.609
 501  7990.794
 502  2939.278
 503  980.8624
 504  -1040.588
 505  -1116.398
 506  6003.133
 507  6540.528
 508  5247.361
 509  6009.596
 510  7352.759
 511  3987.812
