# Input file       =  1178527507.106305_cleaned.dat
# Candidate        =  PSR_0332+5434
# Telescope        =  AR
# Epoch_topo       =  57884.364885489638
# Epoch_bary       =  N/A
# T_sample         =  0.002
# Data Folded      =  7340032
# Data Avg         =  0.0338018296770894
# Data StdDev      =  1.00012501443111 
# Profile Bins     =  512
# Profile Avg      =  484.552363041816 
# Profile StdDev   =  119.748004734194 
# Reduced chi-sqr  =  1.303
# Prob(Noise)      <  4.4e-06   (~4.4 sigma)
# P_topo (ms)      =  714.536760778833  +/- 0.000187
# P'_topo (s/s)    =  -0                +/- 9.85e-11
# P''_topo (s/s^2) =  0                 +/- 4.35e-14
# P_bary (ms)      =  N/A
# P'_bary (s/s)    =  N/A
# P''_bary (s/s^2) =  N/A
# P_orb (s)        =  N/A
# asin(i)/c (s)    =  N/A
# eccentricity     =  N/A
# w (rad)          =  N/A
# T_peri           =  N/A
######################################################
   0  554.0536
   1  525.1694
   2  512.8352
   3  486.5399
   4  492.1164
   5  477.7608
   6  464.9586
   7  516.946
   8  518.1031
   9  540.8038
  10  554.4753
  11  515.9679
  12  572.7667
  13  400.5185
  14  335.7689
  15  459.7531
  16  468.4154
  17  532.0388
  18  449.5533
  19  455.3832
  20  349.3626
  21  368.438
  22  373.0476
  23  328.9453
  24  407.6816
  25  495.3146
  26  598.9053
  27  386.7051
  28  358.8799
  29  433.879
  30  550.7512
  31  661.3276
  32  561.873
  33  504.2956
  34  491.459
  35  505.2016
  36  494.3986
  37  546.7147
  38  516.7438
  39  343.7722
  40  362.5691
  41  393.0626
  42  389.4117
  43  499.1232
  44  554.1705
  45  553.7341
  46  459.5652
  47  453.3692
  48  407.6097
  49  513.1816
  50  553.9003
  51  636.3114
  52  754.3724
  53  905.5461
  54  957.4463
  55  1119.627
  56  1179.686
  57  1064.665
  58  922.0298
  59  659.3135
  60  488.3813
  61  500.9942
  62  525.6218
  63  556.5608
  64  489.5352
  65  478.4065
  66  440.272
  67  519.2286
  68  536.0957
  69  480.3668
  70  484.6745
  71  533.953
  72  410.3466
  73  413.7524
  74  467.573
  75  433.3313
  76  330.067
  77  381.7879
  78  371.1735
  79  499.0646
  80  491.7463
  81  505.3154
  82  503.502
  83  574.7827
  84  528.9457
  85  540.1379
  86  525.7468
  87  570.9312
  88  423.6514
  89  401.4534
  90  404.5396
  91  409.1976
  92  378.7164
  93  368.9786
  94  423.1709
  95  302.7391
  96  262.8962
  97  424.547
  98  325.6574
  99  255.1632
 100  336.9741
 101  427.0233
 102  406.8422
 103  309.3051
 104  423.5476
 105  462.8756
 106  515.2485
 107  393.4612
 108  393.9807
 109  429.8857
 110  516.6821
 111  574.5435
 112  620.1186
 113  705.0741
 114  628.4739
 115  623.1148
 116  541.6618
 117  392.0981
 118  456.6885
 119  591.3345
 120  605.7362
 121  485.1915
 122  452.9125
 123  330.0634
 124  460.6261
 125  403.8022
 126  443.4164
 127  445.0005
 128  514.7775
 129  478.2894
 130  489.077
 131  415.4914
 132  372.5062
 133  343.4772
 134  407.9536
 135  545.8438
 136  479.4682
 137  487.3351
 138  495.4558
 139  510.7063
 140  425.6151
 141  560.7034
 142  463.9341
 143  540.0769
 144  541.4138
 145  498.0274
 146  534.9237
 147  587.2305
 148  531.1627
 149  428.4661
 150  508.9241
 151  500.1087
 152  547.5372
 153  438.4461
 154  476.0775
 155  391.0361
 156  444.1248
 157  519.6221
 158  540.9301
 159  614.5078
 160  660.6086
 161  474.9952
 162  462.8485
 163  631.6619
 164  525.3919
 165  427.2156
 166  449.3559
 167  407.875
 168  476.8264
 169  610.9415
 170  540.2134
 171  414.4975
 172  507.6476
 173  596.2126
 174  515.767
 175  459.3701
 176  410.9665
 177  393.5253
 178  434.0182
 179  549.0347
 180  546.3494
 181  407.5625
 182  383.6501
 183  405.358
 184  500.3296
 185  551.26
 186  474.5277
 187  576.2068
 188  498.7305
 189  415.1191
 190  359.2526
 191  493.5868
 192  473.7581
 193  422.1958
 194  436.2948
 195  409.0668
 196  375.5044
 197  383.2684
 198  355.7394
 199  462.4563
 200  521.4033
 201  571.3462
 202  616.7328
 203  560.6611
 204  431.1293
 205  564.9231
 206  448.9559
 207  376.8128
 208  390.3439
 209  427.7687
 210  600.2952
 211  621.3119
 212  604.4497
 213  513.0211
 214  488.7228
 215  444.4178
 216  402.5345
 217  428.0247
 218  510.3735
 219  544.2779
 220  504.1886
 221  494.8069
 222  418.9704
 223  545.2422
 224  475.5917
 225  433.7567
 226  536.5851
 227  510.8883
 228  564.8951
 229  486.0841
 230  585.2168
 231  508.369
 232  526.0557
 233  468.7515
 234  426.3601
 235  432.1196
 236  608.3495
 237  630.7914
 238  488.9905
 239  425.7669
 240  238.0015
 241  259.2738
 242  498.2862
 243  597.559
 244  559.2314
 245  604.1204
 246  613.3206
 247  564.6153
 248  528.416
 249  598.9912
 250  634.6572
 251  596.9328
 252  529.4244
 253  418.9705
 254  445.7166
 255  468.1113
 256  484.8604
 257  398.1225
 258  463.6616
 259  599.4401
 260  496.5011
 261  346.3752
 262  339.6158
 263  451.4732
 264  472.5205
 265  551.4758
 266  436.2854
 267  441.3089
 268  438.8307
 269  457.4436
 270  460.917
 271  425.6971
 272  382.2
 273  415.8228
 274  459.8718
 275  501.4445
 276  502.5047
 277  487.7885
 278  487.2285
 279  445.7898
 280  423.0834
 281  380.7448
 282  395.8669
 283  379.0919
 284  440.4673
 285  380.238
 286  462.0654
 287  490.8238
 288  444.1598
 289  394.4958
 290  412.9142
 291  373.7805
 292  341.3086
 293  422.7068
 294  563.2994
 295  582.3366
 296  459.1077
 297  405.0156
 298  458.2123
 299  551.8145
 300  532.6449
 301  596.3215
 302  619.6938
 303  683.1937
 304  531.9379
 305  482.4096
 306  490.3958
 307  406.1903
 308  430.0106
 309  430.5441
 310  413.0637
 311  432.8763
 312  441.0287
 313  504.9929
 314  401.4875
 315  363.5108
 316  366.0811
 317  364.8521
 318  400.9133
 319  488.3332
 320  516.2635
 321  396.4411
 322  477.1308
 323  492.6405
 324  434.9287
 325  449.9728
 326  430.4281
 327  528.7051
 328  636.1421
 329  606.9979
 330  548.3433
 331  460.4492
 332  356.298
 333  300.7733
 334  335.295
 335  349.594
 336  402.9738
 337  388.3728
 338  436.4882
 339  469.8688
 340  418.7721
 341  433.0901
 342  489.8471
 343  371.0091
 344  287.323
 345  409.1514
 346  521.905
 347  346.7368
 348  432.373
 349  547.2744
 350  509.1031
 351  455.1708
 352  547.1308
 353  536.5142
 354  491.5429
 355  519.2439
 356  517.1064
 357  475.209
 358  410.3983
 359  374.4845
 360  401.0356
 361  442.2951
 362  410.427
 363  305.0712
 364  380.5653
 365  384.0424
 366  268.4449
 367  383.6566
 368  505.6303
 369  438.7711
 370  353.2327
 371  516.7451
 372  480.7723
 373  397.5331
 374  429.4479
 375  445.9156
 376  493.6691
 377  530.3892
 378  571.6053
 379  532.6479
 380  417.4797
 381  553.9862
 382  536.881
 383  507.6955
 384  511.6952
 385  462.7918
 386  405.7219
 387  497.0721
 388  535.6719
 389  490.0628
 390  496.4734
 391  373.2629
 392  421.6487
 393  463.7782
 394  561.5747
 395  546.0289
 396  479.7305
 397  354.9216
 398  451.1638
 399  579.0614
 400  613.1239
 401  585.0828
 402  413.2765
 403  399.535
 404  417.7552
 405  456.1455
 406  512.5219
 407  456.5587
 408  436.3076
 409  451.163
 410  381.5138
 411  437.0998
 412  629.0041
 413  536.7725
 414  374.7165
 415  456.6927
 416  396.3117
 417  426.7201
 418  450.9112
 419  441.2055
 420  476.9763
 421  488.8198
 422  482.1314
 423  407.7806
 424  412.4264
 425  380.7731
 426  356.903
 427  511.7117
 428  500.1006
 429  363.95
 430  437.6212
 431  446.8408
 432  459.0245
 433  452.4877
 434  409.622
 435  449.8026
 436  528.4211
 437  606.691
 438  530.8943
 439  370.435
 440  396.547
 441  407.4709
 442  494.0938
 443  451.4706
 444  533.9232
 445  494.7414
 446  437.3342
 447  518.4361
 448  586.9018
 449  579.1956
 450  527.3745
 451  537.2961
 452  590.3809
 453  564.1279
 454  548.5076
 455  491.1149
 456  570.5173
 457  568.8683
 458  578.312
 459  612.1687
 460  569.1633
 461  541.4624
 462  596.8249
 463  544.9393
 464  531.3835
 465  590.1139
 466  502.8883
 467  417.6263
 468  452.588
 469  548.1827
 470  507.0257
 471  509.5966
 472  552.0834
 473  584.7574
 474  482.1362
 475  423.3365
 476  518.9322
 477  584.9229
 478  461.5385
 479  544.7792
 480  495.4002
 481  486.6105
 482  459.2993
 483  546.2198
 484  567.6569
 485  556.0148
 486  603.4166
 487  532.5653
 488  510.395
 489  462.0685
 490  548.6624
 491  575.8772
 492  525.3492
 493  587.283
 494  640.2807
 495  564.0862
 496  527.0096
 497  529.5538
 498  519.9307
 499  385.605
 500  503.7366
 501  577.5291
 502  513.8983
 503  529.1145
 504  532.6833
 505  485.8891
 506  523.3108
 507  465.9395
 508  422.9432
 509  468.5781
 510  463.2072
 511  566.151
