# Input file       =  1178886977.099836_cleaned.dat
# Candidate        =  PSR_0332+5434
# Telescope        =  AR
# Epoch_topo       =  57888.525417822180
# Epoch_bary       =  N/A
# T_sample         =  0.002
# Data Folded      =  7340032
# Data Avg         =  0.0160919694589484
# Data StdDev      =  0.999888847278711
# Profile Bins     =  512
# Profile Avg      =  230.635108522105 
# Profile StdDev   =  119.719727723945 
# Reduced chi-sqr  =  1.370
# Prob(Noise)      <  4.87e-08   (~5.3 sigma)
# P_topo (ms)      =  714.533099381926  +/- 0.000233
# P'_topo (s/s)    =  -0                +/- 1.23e-10
# P''_topo (s/s^2) =  0                 +/- 5.43e-14
# P_bary (ms)      =  N/A
# P'_bary (s/s)    =  N/A
# P''_bary (s/s^2) =  N/A
# P_orb (s)        =  N/A
# asin(i)/c (s)    =  N/A
# eccentricity     =  N/A
# w (rad)          =  N/A
# T_peri           =  N/A
######################################################
   0  219.9518
   1  169.6139
   2  160.2898
   3  145.5881
   4  332.2471
   5  362.2355
   6  246.922
   7  218.9432
   8  254.9882
   9  141.2128
  10  185.9791
  11  230.8465
  12  369.2945
  13  436.1991
  14  414.1496
  15  352.6296
  16  243.4386
  17  274.0908
  18  338.8583
  19  291.9666
  20  247.066
  21  260.007
  22  304.9273
  23  323.474
  24  228.0061
  25  87.54546
  26  267.149
  27  309.9687
  28  162.1151
  29  305.0437
  30  342.8361
  31  273.4919
  32  298.1424
  33  192.2911
  34  294.7123
  35  204.89
  36  245.3283
  37  159.1848
  38  220.5053
  39  282.5391
  40  303.5968
  41  309.6398
  42  351.5312
  43  289.259
  44  327.5121
  45  251.5236
  46  298.2463
  47  297.2964
  48  258.0383
  49  274.038
  50  181.7529
  51  111.3847
  52  175.1174
  53  225.5493
  54  225.0377
  55  113.3549
  56  130.3996
  57  112.4154
  58  136.5719
  59  240.7797
  60  362.6944
  61  348.9453
  62  143.9797
  63  144.8028
  64  209.249
  65  151.0303
  66  237.1483
  67  287.6005
  68  334.9977
  69  281.7649
  70  219.9458
  71  172.6643
  72  168.2755
  73  120.6316
  74  251.4421
  75  307.0708
  76  203.5904
  77  220.5794
  78  248.9038
  79  249.5645
  80  176.2859
  81  282.3941
  82  243.2135
  83  226.9751
  84  303.8351
  85  198.0256
  86  212.3812
  87  279.4579
  88  193.7152
  89  126.2309
  90  32.4509
  91  170.4714
  92  227.5677
  93  168.2124
  94  208.7025
  95  198.7882
  96  296.6189
  97  244.3192
  98  63.06554
  99  157.5104
 100  221.1178
 101  280.8978
 102  257.3492
 103  178.3154
 104  170.3894
 105  99.67112
 106  106.1962
 107  209.8897
 108  318.4363
 109  268.7434
 110  247.6727
 111  300.0661
 112  307.5084
 113  267.2255
 114  201.7123
 115  214.5529
 116  131.1009
 117  174.6944
 118  263.3645
 119  260.2292
 120  238.365
 121  166.329
 122  153.3089
 123  267.1872
 124  228.8514
 125  197.9154
 126  274.9884
 127  179.3628
 128  167.7829
 129  227.2488
 130  385.7429
 131  332.3608
 132  238.8736
 133  405.9532
 134  311.1737
 135  237.3631
 136  232.1473
 137  253.869
 138  214.5904
 139  279.743
 140  320.6958
 141  301.2097
 142  190.1283
 143  108.587
 144  3.178431
 145  122.1872
 146  235.2595
 147  250.4845
 148  284.2175
 149  130.2038
 150  96.48274
 151  215.07
 152  226.2172
 153  298.2154
 154  295.1136
 155  246.6641
 156  172.7383
 157  103.6339
 158  183.3711
 159  236.7741
 160  267.1977
 161  245.5556
 162  331.5366
 163  217.4426
 164  174.0682
 165  376.4446
 166  158.111
 167  72.3042
 168  114.6815
 169  173.0271
 170  241.707
 171  202.3824
 172  114.2662
 173  121.2161
 174  -8.539843
 175  42.0425
 176  134.3207
 177  99.2499
 178  221.9457
 179  189.7178
 180  213.6034
 181  214.4026
 182  120.2453
 183  274.9652
 184  286.0233
 185  107.6073
 186  91.75071
 187  129.9994
 188  146.65
 189  243.5543
 190  302.4186
 191  152.5687
 192  113.6858
 193  170.0491
 194  343.2982
 195  379.5277
 196  321.4978
 197  299.7467
 198  369.149
 199  335.2329
 200  278.8453
 201  248.3221
 202  278.6959
 203  217.0126
 204  211.0083
 205  260.5247
 206  401.2493
 207  310.847
 208  271.5647
 209  279.5402
 210  199.3855
 211  199.5389
 212  151.372
 213  218.427
 214  295.133
 215  275.8292
 216  170.3993
 217  183.6221
 218  173.4468
 219  249.6026
 220  218.554
 221  206.0114
 222  220.4943
 223  233.7129
 224  143.7517
 225  141.4863
 226  132.3129
 227  130.7
 228  111.1335
 229  76.54005
 230  202.8871
 231  98.7945
 232  120.6542
 233  188.632
 234  206.3496
 235  243.0135
 236  224.5714
 237  287.5145
 238  211.2574
 239  81.78379
 240  166.9844
 241  315.8044
 242  238.8022
 243  154.5929
 244  187.6182
 245  331.8596
 246  235.907
 247  168.4886
 248  282.7613
 249  297.2512
 250  247.1524
 251  249.0503
 252  291.7772
 253  284.0691
 254  159.0678
 255  236.3167
 256  254.3547
 257  214.5781
 258  223.4783
 259  293.4687
 260  208.0994
 261  189.8483
 262  271.4582
 263  287.2154
 264  235.3626
 265  365.7847
 266  404.1859
 267  450.5293
 268  249.7334
 269  220.3681
 270  203.6907
 271  174.9408
 272  204.1294
 273  216.0845
 274  254.3413
 275  205.0361
 276  171.2092
 277  198.1625
 278  248.9318
 279  191.6086
 280  105.9384
 281  162.8489
 282  279.2882
 283  274.4417
 284  159.1712
 285  44.30042
 286  95.95301
 287  112.8729
 288  159.4451
 289  129.0969
 290  204.393
 291  170.2285
 292  159.4974
 293  222.6599
 294  221.5347
 295  250.708
 296  221.408
 297  165.3936
 298  62.54538
 299  232.5516
 300  356.4279
 301  194.1421
 302  169.1903
 303  221.3047
 304  207.1826
 305  184.7581
 306  253.4125
 307  200.1319
 308  140.0986
 309  303.7169
 310  300.9178
 311  260.8059
 312  269.3549
 313  147.3861
 314  118.5165
 315  133.1925
 316  235.7452
 317  181.8457
 318  96.25742
 319  117.1335
 320  149.7563
 321  104.531
 322  130.0294
 323  221.4436
 324  258.2377
 325  177.7538
 326  170.3962
 327  276.3413
 328  273.7485
 329  333.5474
 330  181.9956
 331  209.9356
 332  215.0369
 333  124.9811
 334  191.9775
 335  216.1048
 336  171.9412
 337  38.10173
 338  128.7505
 339  156.3283
 340  201.8778
 341  268.8092
 342  80.05799
 343  223.8656
 344  260.1182
 345  198.8051
 346  230.9399
 347  337.9563
 348  199.3451
 349  132.5887
 350  6.24679
 351  30.80751
 352  166.9299
 353  144.642
 354  227.0307
 355  163.838
 356  119.7069
 357  220.3637
 358  207.1203
 359  214.0652
 360  127.6666
 361  247.6351
 362  294.8463
 363  245.0372
 364  332.2364
 365  202.332
 366  385.4396
 367  282.8445
 368  214.3915
 369  354.9774
 370  433.013
 371  366.9222
 372  347.433
 373  410.2651
 374  380.9825
 375  445.6159
 376  599.0428
 377  781.1924
 378  958.8869
 379  994.1577
 380  815.4572
 381  466.4885
 382  325.6796
 383  290.9858
 384  259.7081
 385  246.7456
 386  242.7386
 387  249.2655
 388  223.9973
 389  176.6527
 390  378.7347
 391  413.2725
 392  373.9741
 393  352.0812
 394  167.3661
 395  153.5814
 396  340.5787
 397  267.0112
 398  78.59957
 399  186.7318
 400  220.283
 401  89.68505
 402  113.3954
 403  224.6697
 404  95.37553
 405  70.81281
 406  338.4186
 407  266.8979
 408  235.1836
 409  253.3258
 410  214.0996
 411  139.4115
 412  210.1
 413  214.8987
 414  166.4454
 415  161.1163
 416  268.5304
 417  213.5736
 418  147.3265
 419  117.3283
 420  181.3356
 421  131.2243
 422  140.4658
 423  161.8813
 424  44.15688
 425  63.01926
 426  120.7735
 427  116.3662
 428  224.9009
 429  256.9492
 430  160.3925
 431  174.197
 432  162.2848
 433  192.886
 434  148.1211
 435  142.1071
 436  131.892
 437  162.6145
 438  192.4628
 439  145.1591
 440  282.3107
 441  244.2294
 442  245.8764
 443  264.4591
 444  305.9336
 445  268.7744
 446  177.5699
 447  242.0816
 448  204.8572
 449  139.5807
 450  123.3737
 451  255.0562
 452  252.5138
 453  267.511
 454  297.1149
 455  220.8883
 456  197.2231
 457  222.4302
 458  288.9709
 459  263.0457
 460  212.3593
 461  364.1328
 462  342.2081
 463  294.6979
 464  251.9577
 465  231.1188
 466  293.8212
 467  350.7004
 468  405.7866
 469  422.345
 470  446.3462
 471  321.2804
 472  291.4601
 473  259.8526
 474  266.1883
 475  188.8211
 476  303.3241
 477  370.0445
 478  262.7256
 479  197.214
 480  141.2445
 481  230.8358
 482  220.4158
 483  317.5733
 484  242.2893
 485  182.9075
 486  184.21
 487  174.9436
 488  255.1073
 489  177.9531
 490  176.9689
 491  267.9878
 492  138.2875
 493  164.277
 494  173.0544
 495  222.9231
 496  246.1955
 497  300.2996
 498  203.5408
 499  156.6683
 500  213.1595
 501  321.2772
 502  299.4135
 503  258.4823
 504  314.9869
 505  303.5464
 506  424.6485
 507  333.1451
 508  201.4046
 509  337.3903
 510  310.9221
 511  205.6264
