# Input file       =  1178943567.104165_cleaned.dat
# Candidate        =  PSR_0332+5434
# Telescope        =  AR
# Epoch_topo       =  57889.180394724135
# Epoch_bary       =  N/A
# T_sample         =  0.002
# Data Folded      =  7143424
# Data Avg         =  0.184992538201153
# Data StdDev      =  4.71695531267498 
# Profile Bins     =  512
# Profile Avg      =  2581.02930721739 
# Profile StdDev   =  557.160084597392 
# Reduced chi-sqr  =  0.505
# Prob(Noise)      <  1   (~0.0 sigma)
# P_topo (ms)      =  714.532120025254  +/- 8.32e-05
# P'_topo (s/s)    =  -0                +/- 4.51e-11
# P''_topo (s/s^2) =  0                 +/- 2.05e-14
# P_bary (ms)      =  N/A
# P'_bary (s/s)    =  N/A
# P''_bary (s/s^2) =  N/A
# P_orb (s)        =  N/A
# asin(i)/c (s)    =  N/A
# eccentricity     =  N/A
# w (rad)          =  N/A
# T_peri           =  N/A
######################################################
   0  2593.181
   1  2908.792
   2  2950.865
   3  2766.05
   4  2377.949
   5  2696.421
   6  2830.71
   7  2888.409
   8  2543.424
   9  2753.356
  10  2429.158
  11  2546.142
  12  2658.723
  13  2548.424
  14  2410.896
  15  2388.695
  16  2792.458
  17  2870.43
  18  2730.889
  19  2941.653
  20  2332.615
  21  2452.149
  22  2395.741
  23  2584.215
  24  2480.296
  25  2346.637
  26  2398.066
  27  2490.692
  28  2168.811
  29  1889.012
  30  2283.526
  31  2310.205
  32  2221.933
  33  2276.258
  34  2632.763
  35  2725.495
  36  2441.984
  37  2548.484
  38  2297.206
  39  2120.99
  40  2289.641
  41  2008.835
  42  2628.692
  43  2451.544
  44  2422.462
  45  2101.374
  46  2212.879
  47  2497.809
  48  2506.114
  49  2211.975
  50  2448.095
  51  2869.136
  52  2777.472
  53  2416.999
  54  2499.69
  55  2288.053
  56  2202.401
  57  1890.697
  58  2278.491
  59  2488.886
  60  2697.57
  61  2239.323
  62  1967.626
  63  2334.532
  64  2014.407
  65  2440.109
  66  2678.996
  67  3268.44
  68  3227.591
  69  3430.43
  70  3437.823
  71  3190.647
  72  3847.722
  73  2991.252
  74  2947.374
  75  2490.281
  76  2649.692
  77  2720.561
  78  2425.15
  79  2468.329
  80  2390.556
  81  2623.716
  82  2690.138
  83  2899.114
  84  2911.515
  85  2712.437
  86  2357.275
  87  2060.649
  88  2133.872
  89  2085.879
  90  2558.604
  91  2707.949
  92  2699.457
  93  3042.372
  94  2683.012
  95  2483.446
  96  2271.891
  97  2740.975
  98  2500.425
  99  2723.98
 100  2792.296
 101  2642.827
 102  2800.847
 103  2655.979
 104  2500.905
 105  2500.599
 106  2466.572
 107  2704.854
 108  2537.113
 109  2569.679
 110  2737.526
 111  2718.348
 112  2598.271
 113  2747.841
 114  2815.612
 115  2231.398
 116  2538.532
 117  2466.94
 118  2425.131
 119  2232.547
 120  2144.387
 121  2272.079
 122  2251.663
 123  2387.525
 124  2447.105
 125  2567.742
 126  2382.657
 127  2403.882
 128  2341.391
 129  2679.839
 130  2783.548
 131  2479.883
 132  2632.541
 133  2995.814
 134  3164.439
 135  2570.417
 136  2460.073
 137  2330.109
 138  2170.877
 139  2314.917
 140  1941.528
 141  2531.683
 142  2873.046
 143  3177.216
 144  2583.731
 145  1871.701
 146  2327.952
 147  2048.263
 148  2601.92
 149  2694.697
 150  3245.002
 151  3265.533
 152  2561.482
 153  2038.101
 154  1906.745
 155  2308.048
 156  2154.317
 157  2462.332
 158  2225.712
 159  2306.416
 160  2644.994
 161  2580.664
 162  2702.312
 163  2492.77
 164  2725.935
 165  2626.138
 166  2910.84
 167  2679.409
 168  2648.329
 169  3016.787
 170  2774.838
 171  2875.666
 172  2503.218
 173  2767.606
 174  2591.715
 175  2345.077
 176  2576.243
 177  2795.811
 178  2921.53
 179  2700.812
 180  2606.801
 181  2376.534
 182  2294.016
 183  2933.918
 184  3232.451
 185  3163.146
 186  2288.165
 187  2490.929
 188  2495.48
 189  2306.956
 190  2446.751
 191  2489.844
 192  2852.298
 193  2486.45
 194  2586.62
 195  2742.577
 196  2846.659
 197  2681.096
 198  2605.308
 199  2384.992
 200  2652.894
 201  2739.863
 202  2816.141
 203  2341.869
 204  2442.591
 205  2423.438
 206  2431.775
 207  1996.161
 208  2365.654
 209  2526.053
 210  2845.346
 211  2795.061
 212  2413.34
 213  2893.715
 214  2469.932
 215  2485.903
 216  2810.312
 217  2866.563
 218  2759.415
 219  2411.549
 220  2429.168
 221  2595.893
 222  2425.274
 223  1907.114
 224  2698.808
 225  2516.593
 226  2534.992
 227  2193.554
 228  2113.936
 229  2403.927
 230  2314.005
 231  2483.201
 232  2804.018
 233  2878.58
 234  2628.434
 235  2868.949
 236  2659.071
 237  2284.152
 238  2088.797
 239  1710.539
 240  2177.283
 241  2209.681
 242  2546.115
 243  2733.985
 244  2266.226
 245  2324.709
 246  2266.618
 247  2200.698
 248  2159.382
 249  2531.243
 250  2911.448
 251  2755.963
 252  2574.73
 253  2525.775
 254  2487.051
 255  2093.723
 256  2297.472
 257  2592.806
 258  2478.465
 259  2981.084
 260  2672.261
 261  2793.143
 262  2429.055
 263  2453.908
 264  2187.425
 265  2041.211
 266  2351.73
 267  2827.971
 268  2940.571
 269  2484.88
 270  2499.688
 271  2619.349
 272  2430.438
 273  2740.712
 274  2631.441
 275  2749.056
 276  2703.654
 277  2570.302
 278  2749.601
 279  2806.223
 280  2512.628
 281  2600.539
 282  2561.467
 283  2645.883
 284  2963.653
 285  3087.786
 286  2652.329
 287  2433.041
 288  2311.559
 289  2795.642
 290  2551.069
 291  2436.528
 292  2239.809
 293  2260.102
 294  2384.972
 295  2615.578
 296  2540.609
 297  2098.633
 298  2866.645
 299  3149.551
 300  3260.906
 301  2860.001
 302  2505.088
 303  2650.942
 304  2256.916
 305  2632.922
 306  3144.426
 307  3321.868
 308  2919.346
 309  2852.275
 310  2882.81
 311  2476.821
 312  2507.026
 313  2762.146
 314  3176.696
 315  3195.25
 316  2950.185
 317  2772.636
 318  2878.199
 319  2624.166
 320  2144.62
 321  2214.064
 322  2452.271
 323  2749.052
 324  3009.147
 325  2934.058
 326  3053.876
 327  3128.543
 328  2858.11
 329  2195.91
 330  2675.314
 331  2551.786
 332  2548.661
 333  2557.343
 334  2593.054
 335  2669.043
 336  2228.794
 337  2597.945
 338  2318.674
 339  2512.919
 340  2644.573
 341  2758.839
 342  3123.102
 343  2923.867
 344  2581.25
 345  2721.017
 346  2425.238
 347  2351.375
 348  2648.767
 349  2996.681
 350  3237.05
 351  3125.81
 352  2827.613
 353  2613.26
 354  2701.453
 355  2566.18
 356  2548.215
 357  2974.073
 358  3002.862
 359  2649.853
 360  2743.783
 361  2721.891
 362  2696.33
 363  2430.683
 364  2894.734
 365  3083.837
 366  3073.756
 367  3286.326
 368  3071.973
 369  3048.152
 370  2691.417
 371  2701.114
 372  3012.492
 373  2457.027
 374  2684.916
 375  2703.282
 376  2586.073
 377  2416.347
 378  2580.545
 379  2430.312
 380  2723.434
 381  2886.15
 382  2900.597
 383  2970.952
 384  2522.147
 385  2360.168
 386  2515.073
 387  2471.203
 388  2436.688
 389  2434.058
 390  2713.999
 391  2734.005
 392  2480.663
 393  2719.367
 394  2377.265
 395  1944.85
 396  2125.11
 397  2554.462
 398  2899.831
 399  2726.771
 400  2474.654
 401  2633.672
 402  2476.481
 403  2298.376
 404  2780.164
 405  2661.088
 406  3007.614
 407  2987.797
 408  2680.485
 409  2828.062
 410  2747.543
 411  2874.829
 412  2547.129
 413  2584.05
 414  2451.886
 415  2496.92
 416  2545.303
 417  2398.576
 418  2509.999
 419  2292.232
 420  2275.973
 421  2199.1
 422  2155.316
 423  2488.901
 424  2931.788
 425  2755.045
 426  2679.889
 427  2712.9
 428  2501.569
 429  2261.69
 430  2461.088
 431  3130.019
 432  2906.138
 433  2786.565
 434  2675.835
 435  2595.888
 436  2576.833
 437  2426.296
 438  2330.814
 439  2448.483
 440  2220.662
 441  2339.378
 442  2711.11
 443  2952.868
 444  3027.926
 445  2875.842
 446  2466.995
 447  2937.298
 448  3002.039
 449  2779.925
 450  2304.468
 451  2303.913
 452  2393.288
 453  2929.021
 454  2767.682
 455  2771.805
 456  2635.145
 457  2502.462
 458  2420.104
 459  2551.784
 460  2571.249
 461  2576.539
 462  2544.184
 463  2542.615
 464  2799.776
 465  2547.395
 466  2282.51
 467  1843.947
 468  2617.843
 469  2468.442
 470  2108.19
 471  2613.405
 472  2756.814
 473  2567.288
 474  2416.645
 475  2459.172
 476  2427.399
 477  2273.339
 478  2539.696
 479  2508.161
 480  2621.761
 481  2767.76
 482  2604.441
 483  2652.894
 484  2315.403
 485  2249.874
 486  2285.838
 487  2358.493
 488  2484.377
 489  2829.91
 490  2778.143
 491  2611.399
 492  2870.734
 493  2467.573
 494  2541.577
 495  2552.901
 496  2739.617
 497  2583.575
 498  2404.063
 499  2405.541
 500  2293.469
 501  2443.097
 502  2267.486
 503  2620.088
 504  2281.886
 505  2189.312
 506  2562.552
 507  2576.679
 508  2480.275
 509  2242.069
 510  2726.392
 511  2312.273
