# Input file       =  1178527507.106305_cleaned.dat
# Candidate        =  PSR_0332+5434
# Telescope        =  AR
# Epoch_topo       =  57884.364885489638
# Epoch_bary       =  N/A
# T_sample         =  0.002
# Data Folded      =  7340032
# Data Avg         =  0.0338018296770894
# Data StdDev      =  1.00012501443111 
# Profile Bins     =  512
# Profile Avg      =  484.55237499613  
# Profile StdDev   =  119.748004734194 
# Reduced chi-sqr  =  1.299
# Prob(Noise)      <  5.7e-06   (~4.4 sigma)
# P_topo (ms)      =  714.536760182295  +/- 0.000187
# P'_topo (s/s)    =  -0                +/- 9.86e-11
# P''_topo (s/s^2) =  0                 +/- 4.35e-14
# P_bary (ms)      =  N/A
# P'_bary (s/s)    =  N/A
# P''_bary (s/s^2) =  N/A
# P_orb (s)        =  N/A
# asin(i)/c (s)    =  N/A
# eccentricity     =  N/A
# w (rad)          =  N/A
# T_peri           =  N/A
######################################################
   0  1191.341
   1  1077.976
   2  962.0352
   3  717.4601
   4  500.7813
   5  499.047
   6  515.9962
   7  555.5473
   8  507.5436
   9  475.7655
  10  453.3904
  11  490.6119
  12  545.7338
  13  495.0569
  14  465.8035
  15  541.7918
  16  426.3749
  17  406.8339
  18  460.3604
  19  450.1537
  20  332.5239
  21  384.6947
  22  356.4415
  23  477.3354
  24  496.5512
  25  499.0175
  26  507.9815
  27  565.6064
  28  544.4693
  29  535.7493
  30  518.4671
  31  566.2375
  32  462.8436
  33  385.8798
  34  422.9066
  35  385.3701
  36  401.1267
  37  355.4646
  38  430.8541
  39  334.4529
  40  250.5361
  41  400.3098
  42  351.9164
  43  253.074
  44  324.8669
  45  414.5432
  46  422.3219
  47  313.9681
  48  397.2392
  49  459.9291
  50  510.9045
  51  418.4568
  52  392.7128
  53  417.0177
  54  493.8286
  55  569.4277
  56  602.3304
  57  697.7833
  58  653.3859
  59  604.0844
  60  578.6702
  61  409.1026
  62  424.9967
  63  582.1423
  64  609.887
  65  514.9319
  66  453.4117
  67  356.7414
  68  418.6911
  69  429.6255
  70  426.8837
  71  443.6845
  72  507.68
  73  478.0803
  74  497.2342
  75  433.4048
  76  376.9646
  77  346.4252
  78  384.1073
  79  532.5514
  80  493.6973
  81  479.1968
  82  485.2242
  83  524.1696
  84  415.7132
  85  553.5723
  86  480.4064
  87  526.2968
  88  541.5995
  89  514.6815
  90  507.301
  91  594.0328
  92  550.2864
  93  442.7544
  94  486.0381
  95  498.9776
  96  548.6183
  97  457.7611
  98  476.7424
  99  396.6438
 100  424.5288
 101  497.4291
 102  551.1016
 103  589.2584
 104  671.4756
 105  513.35
 106  434.8353
 107  618.2334
 108  559.6104
 109  433.7799
 110  438.3735
 111  416.4398
 112  451.3293
 113  593.5295
 114  587.6353
 115  406.6466
 116  484.7303
 117  596.7237
 118  545.7613
 119  451.7419
 120  422.8264
 121  388.5227
 122  426.5275
 123  526.0125
 124  561.3883
 125  430.3228
 126  380.4888
 127  394.907
 128  484.0634
 129  555.7888
 130  482.009
 131  554.655
 132  527.2658
 133  425.6249
 134  359.7992
 135  461.6913
 136  497.5728
 137  423.4052
 138  433.193
 139  422.5287
 140  376.0704
 141  388.2356
 142  352.3419
 143  436.5343
 144  514.2787
 145  558.3472
 146  617.6515
 147  579.2707
 148  441.3919
 149  535.3107
 150  494.2205
 151  370.4527
 152  390.5326
 153  398.0344
 154  578.2464
 155  628.6107
 156  612.9371
 157  529.5969
 158  490.9863
 159  453.9241
 160  413.9147
 161  418.8604
 162  485.7971
 163  548.1901
 164  506.0587
 165  504.109
 166  421.5712
 167  523.6454
 168  499.4778
 169  419.9193
 170  531.9118
 171  507.892
 172  569.802
 173  487.2396
 174  572.298
 175  528.6722
 176  529.985
 177  480.4902
 178  431.1306
 179  415.5244
 180  570.8986
 181  654.622
 182  499.6387
 183  450.1092
 184  266.2444
 185  236.7
 186  442.8396
 187  612.0269
 188  551.8707
 189  595.9395
 190  603.1911
 191  586.3409
 192  522.1833
 193  594.7465
 194  633.6596
 195  598.8112
 196  558.2297
 197  423.742
 198  446.942
 199  453.824
 200  497.0254
 201  406.5825
 202  454.798
 203  559.49
 204  548.3174
 205  350.9221
 206  334.407
 207  433.0934
 208  469.0557
 209  541.3025
 210  472.8565
 211  415.2958
 212  453.6792
 213  450.9418
 214  462.3338
 215  443.9621
 216  378.3816
 217  402.8051
 218  451.3744
 219  495.641
 220  507.4521
 221  492.1401
 222  486.0769
 223  464.1614
 224  417.321
 225  391.2353
 226  387.9575
 227  379.947
 228  431.4344
 229  388.9509
 230  444.496
 231  490.6646
 232  457.3702
 233  399.2249
 234  410.7877
 235  377.8508
 236  351.3381
 237  388.0507
 238  538.8194
 239  595.1738
 240  493.7415
 241  402.7313
 242  445.9706
 243  525.1238
 244  539.3092
 245  583.5516
 246  614.0054
 247  675.2336
 248  574.326
 249  476.5457
 250  494.9887
 251  420.7513
 252  422.8407
 253  427.0153
 254  423.6303
 255  425.3306
 256  431.2554
 257  504.0388
 258  431.9502
 259  360.172
 260  362.422
 261  361.2032
 262  392.3473
 263  469.2943
 264  533.5295
 265  420.8016
 266  441.3254
 267  505.9846
 268  425.8759
 269  467.7166
 270  419.8357
 271  506.9084
 272  620.1467
 273  627.0019
 274  548.2354
 275  491.9936
 276  367.1654
 277  309.3004
 278  331.9741
 279  339.9063
 280  400.2948
 281  391.5223
 282  414.2379
 283  471.7174
 284  433.3309
 285  414.1977
 286  490.1278
 287  399.4096
 288  298.5135
 289  366.755
 290  528.8082
 291  377.0969
 292  392.8646
 293  543.0215
 294  514.0546
 295  466.1719
 296  514.0944
 297  561.3988
 298  484.6327
 299  532.2304
 300  507.4154
 301  496.5917
 302  404.4735
 303  391.5109
 304  383.7312
 305  445.2117
 306  417.4694
 307  323.2996
 308  347.7653
 309  411.1846
 310  272.4707
 311  351.9696
 312  490.3195
 313  466.5783
 314  348.6678
 315  487.1425
 316  509.2848
 317  396.6841
 318  427.181
 319  442.0813
 320  482.353
 321  530.7589
 322  547.6793
 323  571.6709
 324  405.3933
 325  539.3109
 326  545.241
 327  509.2242
 328  516.8527
 329  479.2732
 330  405.8367
 331  465.6662
 332  546.1978
 333  492.1839
 334  511.4534
 335  385.1942
 336  405.3772
 337  461.3076
 338  538.4756
 339  564.2735
 340  486.066
 341  383.0058
 342  409.1692
 343  569.971
 344  600.8489
 345  603.0656
 346  451.3832
 347  388.9466
 348  425.1024
 349  434.8798
 350  510.1867
 351  464.0277
 352  435.5813
 353  455.4412
 354  389.6007
 355  411.8589
 356  595.1637
 357  598.4533
 358  362.1951
 359  459.1085
 360  395.9872
 361  428.4464
 362  451.7828
 363  430.1366
 364  468.4359
 365  486.2843
 366  488.7694
 367  428.9629
 368  408.1007
 369  403.1506
 370  341.5856
 371  477.5317
 372  525.4478
 373  379.5325
 374  410.6928
 375  453.8409
 376  455.7711
 377  461.2078
 378  411.0146
 379  433.8732
 380  516.7462
 381  588.674
 382  565.6813
 383  395.6225
 384  383.2362
 385  402.7419
 386  477.6406
 387  453.4117
 388  524.0589
 389  513.2773
 390  440.2611
 391  497.3112
 392  582.875
 393  580.7099
 394  535.4971
 395  525.2079
 396  593.8964
 397  565.4908
 398  558.0324
 399  491.0882
 400  553.6475
 401  585.4717
 402  559.7866
 403  617.4405
 404  569.5581
 405  544.3138
 406  583.3762
 407  567.8183
 408  518.6618
 409  589.9975
 410  524.1996
 411  426.1631
 412  432.1844
 413  537.5952
 414  525.028
 415  501.218
 416  541.6343
 417  584.5095
 418  514.4011
 419  426.6455
 420  489.8609
 421  589.2453
 422  472.8202
 423  530.5281
 424  505.1907
 425  485.0264
 426  456.3574
 427  530.9097
 428  576.1191
 429  550.8817
 430  604.0498
 431  544.8602
 432  527.3743
 433  454.6027
 434  527.5562
 435  582.48
 436  525.0297
 437  577.8705
 438  636.3217
 439  588.6219
 440  517.6996
 441  525.4847
 442  535.1237
 443  407.4591
 444  461.2102
 445  575.4821
 446  526.7379
 447  515.3984
 448  547.9672
 449  476.0181
 450  534.4037
 451  486.083
 452  415.3672
 453  471.5661
 454  439.1104
 455  560.7358
 456  550.0126
 457  545.8784
 458  508.7794
 459  494.0655
 460  482.5909
 461  493.2659
 462  457.9659
 463  509.6758
 464  522.7459
 465  531.0244
 466  566.9302
 467  493.2803
 468  583.5371
 469  425.9283
 470  346.4853
 471  432.7946
 472  468.088
 473  527.3508
 474  462.8025
 475  461.1021
 476  370.4326
 477  355.2718
 478  387.2971
 479  330.2016
 480  375.0457
 481  481.4166
 482  595.5108
 483  436.3333
 484  339.839
 485  427.0266
 486  510.8356
 487  666.7761
 488  569.9717
 489  521.6052
 490  492.4301
 491  502.6382
 492  504.2729
 493  513.8094
 494  546.7555
 495  371.4947
 496  349.6581
 497  403.9385
 498  365.5159
 499  482.9504
 500  546.3278
 501  568.6208
 502  464.3208
 503  460.0874
 504  406.1735
 505  506.5859
 506  525.881
 507  632.2393
 508  709.9957
 509  898.2035
 510  939.0823
 511  1086.98
