# Input file       =  1178714656.122629_cleaned.dat
# Candidate        =  PSR_0332+5434
# Telescope        =  AR
# Epoch_topo       =  57886.530962067467
# Epoch_bary       =  N/A
# T_sample         =  0.002
# Data Folded      =  7340032
# Data Avg         =  0.0146749571390289
# Data StdDev      =  1.00002085010361 
# Profile Bins     =  512
# Profile Avg      =  210.315840638206 
# Profile StdDev   =  119.73553282298  
# Reduced chi-sqr  =  1.154
# Prob(Noise)      <  0.0091   (~2.4 sigma)
# P_topo (ms)      =  714.535021038431  +/- 0.000103
# P'_topo (s/s)    =  -0                +/- 5.41e-11
# P''_topo (s/s^2) =  0                 +/- 2.39e-14
# P_bary (ms)      =  N/A
# P'_bary (s/s)    =  N/A
# P''_bary (s/s^2) =  N/A
# P_orb (s)        =  N/A
# asin(i)/c (s)    =  N/A
# eccentricity     =  N/A
# w (rad)          =  N/A
# T_peri           =  N/A
######################################################
   0  709.7423
   1  518.6876
   2  469.5464
   3  426.3741
   4  242.9944
   5  185.7995
   6  240.6247
   7  113.5501
   8  134.5368
   9  304.6246
  10  266.7563
  11  315.0956
  12  335.8439
  13  230.4502
  14  176.4301
  15  232.0368
  16  189.4868
  17  115.2486
  18  267.11
  19  341.364
  20  251.1216
  21  157.2502
  22  83.62224
  23  252.6694
  24  258.2564
  25  196.8087
  26  96.35719
  27  157.6953
  28  204.9242
  29  231.5686
  30  96.98563
  31  113.2383
  32  258.4857
  33  339.7062
  34  261.9207
  35  140.7439
  36  210.8388
  37  201.0336
  38  186.4845
  39  248.8226
  40  152.6779
  41  144.0529
  42  160.0549
  43  131.1841
  44  194.1818
  45  183.1616
  46  159.325
  47  109.7346
  48  180.2086
  49  137.5684
  50  176.166
  51  62.59457
  52  191.766
  53  118.7382
  54  229.4402
  55  298.7222
  56  151.8239
  57  -52.9679
  58  -17.23238
  59  38.96473
  60  168.0498
  61  327.8143
  62  251.2472
  63  49.50556
  64  -83.20295
  65  -31.35385
  66  105.2288
  67  247.2527
  68  274.3587
  69  188.9889
  70  96.13056
  71  132.0048
  72  274.8787
  73  166.4767
  74  204.826
  75  182.3788
  76  21.45127
  77  85.23903
  78  150.0692
  79  181.9806
  80  158.6252
  81  196.0855
  82  166.0886
  83  223.8233
  84  82.37178
  85  50.14787
  86  157.5267
  87  283.3983
  88  173.9014
  89  135.521
  90  127.3746
  91  101.4237
  92  264.7716
  93  246.5763
  94  196.045
  95  110.0088
  96  282.359
  97  229.974
  98  251.3307
  99  166.9726
 100  172.5309
 101  237.4664
 102  147.2663
 103  53.95635
 104  243.1037
 105  272.8533
 106  283.6029
 107  262.9319
 108  176.9103
 109  170.1593
 110  289.1126
 111  185.9924
 112  122.9874
 113  323.669
 114  483.2184
 115  322.2993
 116  127.7753
 117  240.2724
 118  219.5089
 119  203.0792
 120  141.0716
 121  144.4013
 122  123.2955
 123  158.6219
 124  266.3811
 125  354.5707
 126  216.6282
 127  161.8679
 128  198.5845
 129  280.0578
 130  178.8102
 131  335.6579
 132  216.3496
 133  88.11626
 134  212.1112
 135  278.4231
 136  246.8499
 137  157.0916
 138  287.6471
 139  236.9076
 140  166.4727
 141  139.0538
 142  185.0955
 143  232.0779
 144  181.5463
 145  54.00447
 146  85.41464
 147  168.8973
 148  276.5117
 149  243.46
 150  200.874
 151  347.4303
 152  301.6491
 153  171.0651
 154  184.1116
 155  142.6143
 156  61.50883
 157  107.0243
 158  54.06878
 159  176.6643
 160  362.6741
 161  219.8063
 162  160.167
 163  250.278
 164  242.9258
 165  182.7809
 166  206.9695
 167  168.0132
 168  210.0487
 169  102.3607
 170  80.9088
 171  195.2494
 172  120.4217
 173  154.5245
 174  99.71324
 175  97.47957
 176  222.7182
 177  329.3757
 178  399.9674
 179  296.6729
 180  140.9422
 181  163.3647
 182  228.218
 183  208.0214
 184  230.1449
 185  222.6822
 186  298.1503
 187  271.1972
 188  191.5879
 189  151.8378
 190  187.4155
 191  269.1545
 192  297.1732
 193  262.2989
 194  254.048
 195  204.3256
 196  373.362
 197  356.7834
 198  249.6696
 199  267.9177
 200  270.2771
 201  236.4772
 202  183.5726
 203  95.04957
 204  199.1801
 205  190.4514
 206  220.8524
 207  261.198
 208  302.7045
 209  296.9346
 210  325.3694
 211  287.5793
 212  222.7354
 213  39.92941
 214  85.55312
 215  131.3711
 216  158.4081
 217  199.6545
 218  217.8231
 219  246.5098
 220  184.7066
 221  -55.63506
 222  120.6004
 223  164.424
 224  98.34428
 225  296.0002
 226  270.38
 227  266.9426
 228  267.2245
 229  300.0406
 230  205.8004
 231  214.2279
 232  219.2408
 233  239.3178
 234  293.6994
 235  228.2544
 236  352.4055
 237  403.4954
 238  249.5997
 239  223.1117
 240  217.0195
 241  254.2319
 242  142.7174
 243  90.8213
 244  95.61208
 245  70.08197
 246  106.2924
 247  211.7725
 248  185.8206
 249  273.7729
 250  350.0493
 251  234.2532
 252  104.3103
 253  337.6453
 254  238.2527
 255  315.411
 256  255.7073
 257  222.0056
 258  116.4291
 259  68.97201
 260  299.0372
 261  353.7582
 262  310.1759
 263  288.1524
 264  297.3947
 265  293.332
 266  259.7899
 267  417.78
 268  371.5793
 269  279.1705
 270  201.7692
 271  232.2993
 272  194.745
 273  207.3595
 274  270.1025
 275  138.8419
 276  243.52
 277  203.5269
 278  179.1932
 279  221.1253
 280  217.9218
 281  105.4864
 282  189.3733
 283  419.2355
 284  298.6995
 285  217.9749
 286  222.2274
 287  326.0909
 288  313.6995
 289  199.4619
 290  281.1942
 291  220.8317
 292  125.803
 293  67.83276
 294  81.17515
 295  174.712
 296  227.0356
 297  124.6194
 298  64.7975
 299  175.5434
 300  212.4673
 301  331.9674
 302  174.0385
 303  198.641
 304  91.73012
 305  124.0248
 306  155.9696
 307  171.9235
 308  134.6541
 309  140.6391
 310  97.85438
 311  189.6288
 312  240.0898
 313  345.7944
 314  217.9985
 315  154.1888
 316  248.0214
 317  258.5777
 318  285.6088
 319  298.8337
 320  131.9594
 321  115.1385
 322  129.6683
 323  212.4359
 324  296.6076
 325  230.0688
 326  256.4472
 327  260.118
 328  150.8316
 329  225.3792
 330  100.6922
 331  195.0583
 332  325.6837
 333  200.3499
 334  148.3042
 335  194.2509
 336  259.1749
 337  175.0334
 338  134.6905
 339  223.0904
 340  289.0773
 341  199.7656
 342  53.82753
 343  222.7858
 344  257.682
 345  67.20715
 346  146.9627
 347  171.19
 348  89.61655
 349  58.91973
 350  158.9593
 351  296.5978
 352  271.8229
 353  306.1148
 354  222.9875
 355  172.652
 356  185.6353
 357  243.7106
 358  264.4912
 359  185.6261
 360  106.0632
 361  186.8514
 362  218.9762
 363  215.5789
 364  314.3524
 365  350.4839
 366  225.5437
 367  215.2028
 368  117.941
 369  33.07935
 370  186.5473
 371  247.7311
 372  99.81127
 373  86.76035
 374  95.29836
 375  192.1378
 376  139.937
 377  172.4715
 378  304.3543
 379  105.8923
 380  183.3564
 381  275.0782
 382  216.3059
 383  246.355
 384  253.509
 385  160.373
 386  165.1739
 387  94.84486
 388  176.4012
 389  144.4861
 390  258.9798
 391  266.4881
 392  182.8769
 393  134.7321
 394  347.3485
 395  197.1365
 396  127.555
 397  211.6579
 398  183.5191
 399  235.4843
 400  181.9778
 401  157.2343
 402  185.0999
 403  275.8008
 404  230.5303
 405  280.6252
 406  202.7125
 407  321.6503
 408  330.6163
 409  174.1512
 410  56.19037
 411  219.829
 412  171.8384
 413  237.2472
 414  198.7032
 415  198.6121
 416  171.5218
 417  134.2126
 418  120.5601
 419  204.7567
 420  308.7018
 421  161.3018
 422  150.6272
 423  280.6512
 424  191.4046
 425  65.94135
 426  243.3675
 427  155.9916
 428  93.11343
 429  147.5126
 430  162.32
 431  206.7901
 432  102.7433
 433  291.2773
 434  256.8802
 435  244.7387
 436  163.3833
 437  257.2043
 438  262.7764
 439  268.0269
 440  134.154
 441  154.2743
 442  271.6271
 443  377.76
 444  296.5096
 445  194.7037
 446  304.8971
 447  355.2957
 448  330.8636
 449  170.9054
 450  151.2034
 451  228.9438
 452  211.8549
 453  153.0397
 454  132.0681
 455  220.3904
 456  142.9662
 457  245.1051
 458  248.8223
 459  181.671
 460  208.9578
 461  208.4856
 462  276.8585
 463  372.9785
 464  211.3336
 465  168.3765
 466  142.0046
 467  293.3098
 468  481.2941
 469  307.3689
 470  265.8916
 471  205.1717
 472  155.8756
 473  257.761
 474  38.37084
 475  248.0912
 476  412.3252
 477  180.7257
 478  154.7572
 479  198.6124
 480  248.7993
 481  225.7753
 482  163.6737
 483  169.5687
 484  51.19893
 485  168.5596
 486  238.4993
 487  163.2613
 488  200.5233
 489  154.7047
 490  153.7731
 491  177.6273
 492  212.1245
 493  210.149
 494  228.2628
 495  292.2013
 496  325.7546
 497  345.905
 498  329.9239
 499  93.21752
 500  231.2181
 501  232.7979
 502  194.8081
 503  146.9515
 504  171.2707
 505  366.0559
 506  321.1611
 507  384.779
 508  366.3002
 509  584.9639
 510  619.5332
 511  697.147
