# Input file       =  1178872053.113042_cleaned.dat
# Candidate        =  PSR_0332+5434
# Telescope        =  AR
# Epoch_topo       =  57888.352686493541
# Epoch_bary       =  N/A
# T_sample         =  0.002
# Data Folded      =  7340032
# Data Avg         =  0.0223395321179353
# Data StdDev      =  1.00006591130752 
# Profile Bins     =  512
# Profile Avg      =  320.2620353739   
# Profile StdDev   =  119.740928137747 
# Reduced chi-sqr  =  1.659
# Prob(Noise)      <  4.08e-19   (~8.9 sigma)
# P_topo (ms)      =  714.532931695363  +/- 0.000194
# P'_topo (s/s)    =  -0                +/- 1.02e-10
# P''_topo (s/s^2) =  0                 +/- 4.52e-14
# P_bary (ms)      =  N/A
# P'_bary (s/s)    =  N/A
# P''_bary (s/s^2) =  N/A
# P_orb (s)        =  N/A
# asin(i)/c (s)    =  N/A
# eccentricity     =  N/A
# w (rad)          =  N/A
# T_peri           =  N/A
######################################################
   0  1007.653
   1  990.5178
   2  868.3869
   3  554.8789
   4  452.2433
   5  472.7665
   6  476.9738
   7  320.4409
   8  295.6474
   9  412.5086
  10  510.17
  11  494.2842
  12  367.1977
  13  305.3969
  14  465.6614
  15  458.4369
  16  422.0603
  17  265.1544
  18  321.0654
  19  410.0428
  20  295.8797
  21  341.2722
  22  276.5584
  23  303.578
  24  363.4396
  25  417.844
  26  417.7332
  27  483.2756
  28  428.2719
  29  415.4492
  30  282.0497
  31  141.7173
  32  220.3882
  33  308.3513
  34  432.845
  35  380.0358
  36  346.5929
  37  431.8539
  38  431.8517
  39  367.2969
  40  357.9183
  41  294.9686
  42  227.2753
  43  293.4292
  44  249.7574
  45  279.64
  46  215.0611
  47  220.622
  48  287.5021
  49  385.9632
  50  413.7333
  51  265.2251
  52  386.8391
  53  366.7878
  54  292.9784
  55  229.3205
  56  204.2862
  57  210.3639
  58  195.2896
  59  231.2127
  60  222.0186
  61  315.2205
  62  397.1964
  63  412.923
  64  437.1252
  65  461.3431
  66  475.0193
  67  488.9964
  68  351.8507
  69  375.3146
  70  542.5732
  71  446.6652
  72  231.1975
  73  148.0279
  74  193.9342
  75  324.4093
  76  422.9425
  77  354.6845
  78  333.2287
  79  298.8814
  80  311.3894
  81  371.3722
  82  308.1182
  83  403.1157
  84  400.1912
  85  411.3653
  86  577.6803
  87  510.3523
  88  353.9555
  89  384.2929
  90  354.3362
  91  267.645
  92  330.413
  93  541.2208
  94  569.293
  95  444.178
  96  351.0683
  97  295.0699
  98  307.4927
  99  367.2897
 100  310.6247
 101  218.8816
 102  339.079
 103  383.3568
 104  405.2062
 105  298.3079
 106  280.628
 107  286.5897
 108  289.7617
 109  323.4756
 110  335.843
 111  317.8318
 112  371.8092
 113  318.5193
 114  326.4173
 115  240.3938
 116  264.2259
 117  385.1662
 118  394.6161
 119  418.2623
 120  301.4382
 121  249.2452
 122  348.9002
 123  309.7771
 124  248.8318
 125  266.0507
 126  243.149
 127  340.8082
 128  461.8331
 129  325.209
 130  341.8137
 131  400.181
 132  275.5874
 133  317.6263
 134  354.9196
 135  354.1033
 136  372.2286
 137  296.721
 138  302.7114
 139  421.2891
 140  415.2887
 141  335.9724
 142  291.4865
 143  325.3467
 144  294.6273
 145  254.609
 146  330.9254
 147  470.9632
 148  250.0594
 149  182.4549
 150  401.1184
 151  448.0017
 152  530.5111
 153  507.1934
 154  336.1922
 155  323.3654
 156  262.5245
 157  301.3592
 158  300.4561
 159  189.6202
 160  94.25724
 161  231.2021
 162  239.6488
 163  254.8333
 164  151.1917
 165  278.2708
 166  315.8773
 167  206.4885
 168  264.444
 169  361.118
 170  375.8155
 171  377.3385
 172  356.6211
 173  333.0081
 174  421.2187
 175  346.9543
 176  350.1607
 177  272.2027
 178  278.2012
 179  204.9627
 180  246.3542
 181  337.5807
 182  299.8527
 183  175.6127
 184  284.9511
 185  290.538
 186  335.9213
 187  197.586
 188  226.5368
 189  335.1988
 190  436.2042
 191  340.0488
 192  228.8842
 193  255.1758
 194  261.9158
 195  260.6596
 196  301.8736
 197  321.6697
 198  235.0992
 199  201.7632
 200  186.8313
 201  164.6887
 202  64.74699
 203  244.3427
 204  305.669
 205  220.37
 206  259.2772
 207  319.1548
 208  311.032
 209  243.3566
 210  242.6769
 211  321.6017
 212  328.0258
 213  287.1682
 214  290.7252
 215  255.2553
 216  299.5119
 217  259.0615
 218  166.054
 219  212.5996
 220  177.1515
 221  110.216
 222  221.8977
 223  202.2111
 224  200.9705
 225  304.0619
 226  293.8796
 227  372.8718
 228  199.4514
 229  280.7523
 230  359.0294
 231  383.7451
 232  366.245
 233  182.0074
 234  48.95052
 235  160.6663
 236  194.7409
 237  262.7218
 238  262.0917
 239  147.7445
 240  152.6144
 241  234.4339
 242  190.0127
 243  264.7092
 244  254.9872
 245  184.788
 246  202.4518
 247  272.3528
 248  169.979
 249  141.2565
 250  210.4344
 251  330.3836
 252  393.1873
 253  249.6698
 254  313.7474
 255  252.626
 256  276.8129
 257  250.3611
 258  333.3546
 259  316.2083
 260  289.913
 261  326.3383
 262  436.0913
 263  411.8958
 264  328.3895
 265  341.3203
 266  350.0973
 267  336.8185
 268  336.9517
 269  296.2274
 270  352.102
 271  271.8804
 272  175.1135
 273  247.2871
 274  287.0236
 275  306.6502
 276  258.8062
 277  333.3471
 278  300.3031
 279  281.851
 280  466.6341
 281  465.4032
 282  345.0469
 283  288.1639
 284  240.2827
 285  406.1313
 286  426.3647
 287  357.6131
 288  294.0974
 289  311.7918
 290  388.2449
 291  332.8082
 292  202.79
 293  141.6892
 294  185.3081
 295  176.9944
 296  341.0211
 297  349.1814
 298  415.4519
 299  258.8971
 300  146.1353
 301  250.1653
 302  283.0997
 303  402.8064
 304  422.7506
 305  417.7871
 306  314.2517
 307  231.4814
 308  137.0288
 309  207.5185
 310  338.5493
 311  369.1637
 312  262.8863
 313  317.7302
 314  411.8889
 315  300.2008
 316  310.632
 317  287.0701
 318  243.6006
 319  264.0921
 320  303.7636
 321  330.5317
 322  297.6381
 323  94.62723
 324  175.0215
 325  335.2207
 326  321.9895
 327  307.7948
 328  245.5431
 329  230.21
 330  383.1911
 331  396.9872
 332  350.0072
 333  335.0329
 334  254.6878
 335  267.8294
 336  321.5686
 337  314.3494
 338  308.7433
 339  287.9404
 340  335.7438
 341  289.1033
 342  196.5962
 343  248.1434
 344  310.0046
 345  399.3745
 346  324.5471
 347  274.7878
 348  221.838
 349  194.4114
 350  124.4289
 351  136.4131
 352  128.0563
 353  282.1737
 354  365.6391
 355  183.3642
 356  192.4315
 357  156.1397
 358  75.56895
 359  73.23691
 360  268.148
 361  297.9303
 362  224.6193
 363  192.5
 364  287.9829
 365  244.0548
 366  260.999
 367  231.4375
 368  196.1397
 369  155.1829
 370  168.0199
 371  193.6011
 372  275.858
 373  363.3159
 374  235.4843
 375  192.8244
 376  351.2494
 377  204.4494
 378  279.5817
 379  293.3175
 380  168.6695
 381  192.7448
 382  226.2788
 383  333.7206
 384  299.9827
 385  279.011
 386  197.7796
 387  213.2077
 388  207.3747
 389  164.2715
 390  107.098
 391  271.2599
 392  385.5254
 393  277.2924
 394  293.8317
 395  369.7555
 396  366.7193
 397  328.778
 398  335.484
 399  313.5786
 400  411.1574
 401  314.3131
 402  461.5625
 403  476.5461
 404  232.3621
 405  148.908
 406  210.0796
 407  316.3254
 408  258.7209
 409  225.4238
 410  396.7028
 411  277.9691
 412  338.0147
 413  358.8755
 414  321.2446
 415  215.9821
 416  292.8832
 417  315.9998
 418  339.2247
 419  398.8307
 420  339.9895
 421  310.8025
 422  257.9546
 423  292.753
 424  442.6121
 425  490.8623
 426  435.9933
 427  316.4783
 428  286.2584
 429  296.7993
 430  354.8063
 431  443.7989
 432  301.2515
 433  308.7789
 434  360.8892
 435  332.4222
 436  269.1818
 437  371.5343
 438  372.0384
 439  245.1083
 440  308.3154
 441  346.9535
 442  441.8793
 443  323.6993
 444  200.2612
 445  204.788
 446  346.5076
 447  349.6194
 448  218.6001
 449  305.4091
 450  342.8638
 451  409.1769
 452  582.5585
 453  530.733
 454  427.3019
 455  539.2502
 456  451.449
 457  466.193
 458  409.2873
 459  383.4265
 460  342.068
 461  436.884
 462  342.1082
 463  254.0914
 464  265.5262
 465  420.799
 466  471.6089
 467  466.1584
 468  411.0157
 469  363.446
 470  369.7558
 471  331.5038
 472  300.2587
 473  367.2466
 474  314.1016
 475  326.5732
 476  450.0023
 477  436.3311
 478  336.9879
 479  341.4855
 480  356.0448
 481  386.0016
 482  319.8605
 483  271.6511
 484  424.1685
 485  350.3066
 486  406.6591
 487  360.0252
 488  338.1859
 489  256.1486
 490  179.691
 491  326.093
 492  314.7565
 493  275.9148
 494  374.8971
 495  312.2907
 496  271.2847
 497  357.1804
 498  414.2565
 499  392.3564
 500  400.0351
 501  400.5818
 502  411.783
 503  382.6708
 504  471.4889
 505  435.3907
 506  504.0368
 507  513.4068
 508  507.828
 509  673.2308
 510  898.5505
 511  956.8183
