# Input file       =  1178771242.111134_cleaned.dat
# Candidate        =  PSR_0332+5434
# Telescope        =  AR
# Epoch_topo       =  57887.185892489979
# Epoch_bary       =  N/A
# T_sample         =  0.002
# Data Folded      =  7208960
# Data Avg         =  0.0360820198341839
# Data StdDev      =  1.00005071508699 
# Profile Bins     =  512
# Profile Avg      =  508.046211946064 
# Profile StdDev   =  118.665193603953 
# Reduced chi-sqr  =  1.164
# Prob(Noise)      <  0.00606   (~2.5 sigma)
# P_topo (ms)      =  714.534045827569  +/- 0.000305
# P'_topo (s/s)    =  -0                +/- 1.64e-10
# P''_topo (s/s^2) =  0                 +/- 7.36e-14
# P_bary (ms)      =  N/A
# P'_bary (s/s)    =  N/A
# P''_bary (s/s^2) =  N/A
# P_orb (s)        =  N/A
# asin(i)/c (s)    =  N/A
# eccentricity     =  N/A
# w (rad)          =  N/A
# T_peri           =  N/A
######################################################
   0  1086.138
   1  989.0267
   2  869.1373
   3  819.2517
   4  586.6526
   5  453.9148
   6  540.2123
   7  648.1094
   8  680.5827
   9  588.4267
  10  569.0184
  11  550.2592
  12  544.2151
  13  627.719
  14  610.7315
  15  636.2761
  16  566.309
  17  492.9724
  18  450.8259
  19  362.6509
  20  355.0189
  21  468.5656
  22  637.6557
  23  580.8669
  24  456.7406
  25  427.2411
  26  380.3713
  27  464.5929
  28  544.4245
  29  528.815
  30  626.898
  31  537.2906
  32  549.9144
  33  480.4093
  34  561.7532
  35  542.1243
  36  534.4816
  37  534.6806
  38  571.0366
  39  575.4753
  40  531.7842
  41  589.6177
  42  582.3309
  43  494.2259
  44  550.015
  45  543.9037
  46  601.3377
  47  605.8649
  48  663.2924
  49  624.598
  50  574.3851
  51  528.0808
  52  525.5759
  53  518.2913
  54  639.5128
  55  705.5145
  56  682.838
  57  501.4253
  58  559.3848
  59  540.788
  60  525.8196
  61  557.9215
  62  595.6027
  63  596.6326
  64  520.5687
  65  512.3445
  66  560.6301
  67  424.5271
  68  436.5494
  69  542.1816
  70  570.5488
  71  512.8644
  72  558.9018
  73  600.8415
  74  479.013
  75  537.8832
  76  568.5298
  77  603.9194
  78  578.8276
  79  514.1207
  80  528.4667
  81  486.5585
  82  330.5076
  83  448.6658
  84  416.4488
  85  394.2784
  86  554.5682
  87  563.361
  88  524.3506
  89  607.697
  90  575.7774
  91  584.4846
  92  445.1167
  93  433.0689
  94  568.137
  95  523.1074
  96  454.7267
  97  562.7014
  98  511.3199
  99  457.9926
 100  478.2227
 101  435.719
 102  479.643
 103  515.0257
 104  592.3115
 105  645.5402
 106  562.4908
 107  488.3054
 108  545.0876
 109  564.6686
 110  625.8342
 111  534.5319
 112  525.9531
 113  498.2611
 114  410.8691
 115  429.3586
 116  320.8908
 117  523.9257
 118  432.6594
 119  453.1168
 120  624.3517
 121  543.3027
 122  444.144
 123  394.0032
 124  547.0526
 125  493.9548
 126  360.5546
 127  446.3441
 128  489.6432
 129  368.4788
 130  341.567
 131  567.7816
 132  632.2736
 133  490.1917
 134  543.3571
 135  598.2288
 136  563.1288
 137  635.5386
 138  664.5988
 139  630.3772
 140  649.5251
 141  655.4715
 142  622.0038
 143  631.9688
 144  531.8408
 145  549.0857
 146  604.5953
 147  524.4866
 148  562.4376
 149  509.604
 150  574.1027
 151  459.5814
 152  374.1938
 153  364.1897
 154  369.2557
 155  416.9479
 156  466.3186
 157  485.4518
 158  544.9255
 159  549.697
 160  596.5391
 161  563.0114
 162  483.2504
 163  465.7462
 164  416.2481
 165  523.1888
 166  462.524
 167  302.0662
 168  425.5167
 169  584.0138
 170  575.0463
 171  522.8791
 172  541.2052
 173  541.4998
 174  381.8684
 175  422.7229
 176  574.4379
 177  567.7936
 178  450.6159
 179  564.0746
 180  482.7398
 181  446.6758
 182  516.241
 183  513.8021
 184  412.1736
 185  484.9902
 186  419.8238
 187  427.1492
 188  415.4673
 189  372.6794
 190  379.6931
 191  448.9028
 192  440.2412
 193  490.4779
 194  492.8186
 195  453.1165
 196  435.8895
 197  406.0278
 198  491.5379
 199  503.3716
 200  375.1537
 201  319.4525
 202  392.9951
 203  468.1952
 204  571.2556
 205  548.7687
 206  520.6796
 207  579.8551
 208  483.6788
 209  492.7143
 210  574.936
 211  498.9103
 212  499.1158
 213  489.8757
 214  436.4586
 215  405.9728
 216  494.3638
 217  367.6385
 218  319.6402
 219  440.9336
 220  541.1902
 221  439.221
 222  390.7092
 223  462.9185
 224  387.9177
 225  475.2278
 226  551.299
 227  509.74
 228  366.723
 229  375.7893
 230  366.5222
 231  384.9344
 232  490.6723
 233  368.698
 234  416.6436
 235  483.5267
 236  481.356
 237  443.2619
 238  402.1606
 239  496.8079
 240  477.9356
 241  422.8826
 242  478.1448
 243  491.0912
 244  499.934
 245  417.0766
 246  356.1448
 247  421.9514
 248  328.7726
 249  365.9673
 250  343.0076
 251  383.0748
 252  459.3035
 253  511.0305
 254  442.423
 255  415.666
 256  379.4191
 257  444.6861
 258  524.2702
 259  643.048
 260  526.8178
 261  492.5589
 262  488.6924
 263  523.1682
 264  489.3871
 265  469.4878
 266  431.4509
 267  473.89
 268  504.7878
 269  527.8254
 270  465.4314
 271  502.0941
 272  623.851
 273  616.7375
 274  596.8347
 275  598.458
 276  562.6386
 277  491.436
 278  552.6625
 279  589.0677
 280  570.1871
 281  522.5355
 282  416.1044
 283  503.4267
 284  479.9915
 285  427.6339
 286  450.0533
 287  462.6447
 288  422.0349
 289  450.9553
 290  486.5954
 291  446.7496
 292  453.8055
 293  494.8969
 294  583.868
 295  625.8413
 296  538.121
 297  551.8903
 298  457.8969
 299  390.3267
 300  404.9854
 301  422.2972
 302  464.4444
 303  360.8808
 304  514.3076
 305  505.8829
 306  514.5772
 307  483.2403
 308  542.0434
 309  494.7749
 310  513.7459
 311  464.2022
 312  464.2146
 313  493.3321
 314  614.2708
 315  491.8485
 316  493.7099
 317  448.3733
 318  601.5096
 319  470.8594
 320  505.295
 321  586.1791
 322  622.4955
 323  584.3231
 324  541.0563
 325  603.5151
 326  649.2914
 327  509.2684
 328  477.7502
 329  439.3781
 330  460.0216
 331  476.2918
 332  393.7663
 333  412.0634
 334  437.0999
 335  486.6598
 336  445.1565
 337  527.0889
 338  543.3148
 339  400.0555
 340  449.4804
 341  517.9305
 342  641.1057
 343  558.002
 344  369.9633
 345  369.7988
 346  607.6277
 347  536.8136
 348  500.2762
 349  468.8331
 350  509.8878
 351  577.1844
 352  463.0544
 353  575.1651
 354  590.0568
 355  521.049
 356  563.9427
 357  572.796
 358  458.1568
 359  507.4017
 360  462.1443
 361  481.214
 362  473.0363
 363  516.6994
 364  518.3531
 365  497.2433
 366  490.1125
 367  511.6826
 368  532.797
 369  477.5773
 370  505.2116
 371  525.2195
 372  540.3952
 373  528.0716
 374  550.2819
 375  612.813
 376  425.0488
 377  389.9645
 378  507.0555
 379  594.3002
 380  510.7831
 381  380.435
 382  429.1389
 383  511.0411
 384  471.7068
 385  363.0981
 386  434.9029
 387  488.0359
 388  520.1817
 389  524.5098
 390  509.825
 391  561.4481
 392  629.0775
 393  579.9397
 394  548.6393
 395  591.3425
 396  622.3392
 397  485.5524
 398  364.8897
 399  420.4626
 400  470.0185
 401  519.6214
 402  510.143
 403  382.8827
 404  439.2922
 405  433.1913
 406  483.6988
 407  624.201
 408  613.0157
 409  479.5965
 410  473.5942
 411  389.659
 412  424.9459
 413  545.2697
 414  558.8431
 415  408.5157
 416  454.6256
 417  570.0845
 418  546.9036
 419  486.4707
 420  642.8979
 421  646.4532
 422  563.9453
 423  594.2617
 424  599.4153
 425  601.3262
 426  574.4157
 427  507.4864
 428  409.0787
 429  433.7061
 430  434.7099
 431  379.9541
 432  383.9001
 433  436.0341
 434  513.6182
 435  536.9046
 436  442.4924
 437  479.4978
 438  443.6228
 439  414.2506
 440  410.4897
 441  534.5425
 442  692.6182
 443  651.1967
 444  502.2915
 445  537.7554
 446  454.2487
 447  478.6346
 448  543.3779
 449  492.4107
 450  459.3432
 451  424.1273
 452  506.6984
 453  532.1587
 454  428.1702
 455  455.4728
 456  475.2854
 457  513.2958
 458  467.3334
 459  601.1453
 460  498.0729
 461  391.1597
 462  497.4156
 463  433.5419
 464  422.0925
 465  471.1064
 466  494.8175
 467  385.3217
 468  404.6564
 469  356.4301
 470  343.5898
 471  423.7489
 472  523.1406
 473  459.5544
 474  483.1853
 475  546.3502
 476  562.7204
 477  515.5228
 478  499.1321
 479  454.0812
 480  444.4944
 481  528.4044
 482  534.4545
 483  474.9285
 484  492.3098
 485  559.6206
 486  436.9532
 487  318.9723
 488  566.4637
 489  563.711
 490  584.4373
 491  559.1312
 492  516.8879
 493  494.3672
 494  567.572
 495  585.4035
 496  508.7429
 497  402.0129
 498  426.7514
 499  497.6006
 500  406.7664
 501  537.5557
 502  642.8724
 503  653.3672
 504  669.1161
 505  524.86
 506  609.5096
 507  620.4916
 508  695.9568
 509  800.6504
 510  936.022
 511  1039.09
