# Input file       =  1178785873.103783_cleaned.dat
# Candidate        =  PSR_0332+5434
# Telescope        =  AR
# Epoch_topo       =  57887.355232682676
# Epoch_bary       =  N/A
# T_sample         =  0.002
# Data Folded      =  7340032
# Data Avg         =  0.0294190555147868
# Data StdDev      =  1.00001634239354 
# Profile Bins     =  512
# Profile Avg      =  421.892546422504 
# Profile StdDev   =  119.734993101166 
# Reduced chi-sqr  =  1.247
# Prob(Noise)      <  0.000118   (~3.7 sigma)
# P_topo (ms)      =  714.533893532695  +/- 0.000253
# P'_topo (s/s)    =  -0                +/- 1.33e-10
# P''_topo (s/s^2) =  0                 +/- 5.88e-14
# P_bary (ms)      =  N/A
# P'_bary (s/s)    =  N/A
# P''_bary (s/s^2) =  N/A
# P_orb (s)        =  N/A
# asin(i)/c (s)    =  N/A
# eccentricity     =  N/A
# w (rad)          =  N/A
# T_peri           =  N/A
######################################################
   0  1054.915
   1  918.2338
   2  734.1614
   3  563.647
   4  538.6675
   5  420.2929
   6  428.7925
   7  433.0279
   8  424.3617
   9  391.4239
  10  406.6149
  11  541.2565
  12  489.0416
  13  376.1314
  14  358.365
  15  341.6948
  16  520.4734
  17  527.7999
  18  502.6044
  19  402.7481
  20  350.5562
  21  276.6784
  22  247.86
  23  324.0752
  24  332.4118
  25  305.0326
  26  385.3182
  27  528.8585
  28  465.6833
  29  253.8894
  30  311.5154
  31  378.9673
  32  366.2394
  33  373.1788
  34  376.868
  35  371.6317
  36  326.7346
  37  427.0504
  38  317.2452
  39  353.0623
  40  300.386
  41  461.9617
  42  469.0443
  43  339.2743
  44  388.269
  45  421.1601
  46  301.4122
  47  316.7753
  48  423.4998
  49  330.6772
  50  354.6368
  51  430.4424
  52  411.6029
  53  338.3903
  54  396.4911
  55  335.846
  56  411.5869
  57  333.4485
  58  292.599
  59  357.5329
  60  455.2581
  61  457.5245
  62  393.5509
  63  362.7304
  64  414.2321
  65  405.4705
  66  452.146
  67  391.0986
  68  266.7432
  69  296.8385
  70  328.7952
  71  367.5821
  72  364.0286
  73  436.0811
  74  392.5327
  75  314.5176
  76  404.2626
  77  489.1921
  78  471.0677
  79  272.3095
  80  375.0888
  81  472.0971
  82  431.5979
  83  463.4555
  84  498.647
  85  397.0718
  86  296.8265
  87  419.0263
  88  472.5039
  89  453.4526
  90  521.3025
  91  467.6188
  92  351.3427
  93  437.7447
  94  443.4447
  95  473.1957
  96  421.0005
  97  341.2597
  98  491.0596
  99  533.3607
 100  474.0986
 101  500.5819
 102  489.8032
 103  509.617
 104  389.1966
 105  384.0767
 106  454.9948
 107  477.0666
 108  402.2388
 109  428.0697
 110  399.0923
 111  397.9389
 112  422.1676
 113  366.8553
 114  435.1195
 115  501.5722
 116  422.2355
 117  459.0349
 118  499.6194
 119  425.454
 120  409.6345
 121  442.2336
 122  495.9937
 123  517.0542
 124  473.9439
 125  433.903
 126  439.8101
 127  388.1461
 128  376.2703
 129  377.0136
 130  304.816
 131  380.1252
 132  470.5371
 133  464.8201
 134  475.763
 135  502.0237
 136  496.097
 137  452.5276
 138  393.3141
 139  468.1791
 140  396.1759
 141  336.3481
 142  319.5257
 143  398.8555
 144  365.503
 145  384.0815
 146  375.3466
 147  385.6681
 148  507.7727
 149  491.1932
 150  321.4338
 151  401.9249
 152  459.1436
 153  435.3235
 154  395.1053
 155  590.5972
 156  565.8087
 157  561.8726
 158  493.6476
 159  394.0251
 160  383.4441
 161  361.1272
 162  434.6487
 163  457.6935
 164  377.6305
 165  396.1966
 166  509.408
 167  419.0945
 168  410.3403
 169  496.9697
 170  379.6915
 171  371.8204
 172  350.6719
 173  326.1028
 174  365.3995
 175  366.3405
 176  310.7057
 177  250.9711
 178  392.5932
 179  421.5317
 180  421.851
 181  487.7274
 182  412.4568
 183  318.6385
 184  280.5625
 185  259.1352
 186  302.0616
 187  356.4248
 188  392.2193
 189  283.2162
 190  239.3547
 191  383.5268
 192  465.2588
 193  332.9151
 194  310.1876
 195  380.7506
 196  503.2172
 197  555.7225
 198  444.8586
 199  351.303
 200  325.7688
 201  392.2999
 202  383.3906
 203  430.8756
 204  427.5764
 205  401.6027
 206  534.1147
 207  519.215
 208  605.0831
 209  473.851
 210  401.8649
 211  516.2795
 212  447.8414
 213  465.1576
 214  492.6036
 215  494.4377
 216  428.4295
 217  401.5311
 218  347.063
 219  354.0538
 220  430.8975
 221  435.0278
 222  411.2248
 223  374.7314
 224  419.9971
 225  346.9551
 226  355.7103
 227  323.3829
 228  423.8569
 229  436.8878
 230  310.6701
 231  300.1992
 232  203.8938
 233  199.7111
 234  283.2061
 235  373.8727
 236  360.7532
 237  324.0208
 238  452.0516
 239  297.3623
 240  266.6877
 241  246.8642
 242  291.7515
 243  387.6454
 244  395.5557
 245  420.713
 246  394.4429
 247  469.4836
 248  348.5719
 249  293.0779
 250  391.2557
 251  406.6363
 252  330.5322
 253  312.6119
 254  441.0815
 255  463.2779
 256  408.416
 257  370.2987
 258  459.9018
 259  514.8253
 260  520.3704
 261  494.6857
 262  484.781
 263  543.1215
 264  521.6277
 265  429.1682
 266  448.4088
 267  378.8416
 268  336.5918
 269  348.6569
 270  340.8564
 271  471.6982
 272  322.5299
 273  299.125
 274  291.4973
 275  375.8948
 276  438.9113
 277  407.232
 278  474.2707
 279  544.3191
 280  466.662
 281  269.9471
 282  216.1418
 283  495.6443
 284  498.6403
 285  479.3748
 286  362.1803
 287  334.052
 288  465.857
 289  356.9451
 290  381.0328
 291  466.5443
 292  502.7589
 293  386.6248
 294  358.7673
 295  441.5274
 296  395.5204
 297  441.0687
 298  547.7172
 299  419.1088
 300  426.3502
 301  494.2126
 302  391.4974
 303  363.444
 304  466.0165
 305  547.8605
 306  529.9148
 307  420.181
 308  374.6093
 309  403.2106
 310  501.3764
 311  585.0308
 312  666.7312
 313  407.9428
 314  314.2106
 315  369.2707
 316  417.7442
 317  392.1451
 318  359.0905
 319  415.4588
 320  491.0865
 321  349.2636
 322  364.7075
 323  507.5559
 324  473.4473
 325  315.4172
 326  397.1431
 327  485.9302
 328  399.1201
 329  198.1195
 330  268.1166
 331  408.0889
 332  413.2467
 333  409.3471
 334  337.469
 335  330.0122
 336  375.2565
 337  534.0234
 338  464.1887
 339  424.8856
 340  360.997
 341  445.3583
 342  474.7769
 343  387.8082
 344  340.9699
 345  429.6212
 346  430.2485
 347  364.3041
 348  372.2751
 349  353.1904
 350  371.8173
 351  219.5589
 352  209.3483
 353  328.5052
 354  294.0919
 355  226.3284
 356  311.3757
 357  270.6995
 358  224.8513
 359  382.6199
 360  379.4707
 361  400.7665
 362  353.3385
 363  316.4148
 364  407.008
 365  365.0056
 366  393.091
 367  449.4129
 368  409.3582
 369  342.8051
 370  281.3405
 371  327.3086
 372  413.7886
 373  410.2075
 374  446.1992
 375  515.9572
 376  496.1846
 377  602.2599
 378  594.6796
 379  497.381
 380  449.2596
 381  350.8526
 382  298.4619
 383  330.551
 384  393.2098
 385  419.8815
 386  332.3556
 387  394.2774
 388  421.7843
 389  518.6349
 390  360.2821
 391  366.1214
 392  433.2483
 393  523.811
 394  468.3256
 395  470.7149
 396  362.4194
 397  335.9258
 398  439.3435
 399  555.1085
 400  485.103
 401  510.4229
 402  387.295
 403  428.3907
 404  456.6056
 405  526.7029
 406  422.4916
 407  451.048
 408  479.6235
 409  489.7074
 410  500.0186
 411  492.706
 412  485.6963
 413  438.9474
 414  461.1732
 415  397.4234
 416  370.3651
 417  341.845
 418  413.9015
 419  370.162
 420  399.3689
 421  491.9237
 422  511.5828
 423  605.2766
 424  487.0377
 425  565.1654
 426  516.4247
 427  569.1194
 428  448.9354
 429  391.7283
 430  466.8313
 431  437.2737
 432  456.3609
 433  409.936
 434  410.1668
 435  510.5339
 436  431.9673
 437  506.6387
 438  531.0906
 439  397.7496
 440  442.6724
 441  452.6586
 442  420.5074
 443  384.8944
 444  392.4272
 445  435.285
 446  344.016
 447  346.6266
 448  370.3586
 449  371.3996
 450  417.4437
 451  403.0771
 452  461.5765
 453  580.0724
 454  554.6721
 455  496.2874
 456  388.2437
 457  455.5471
 458  510.7667
 459  478.7212
 460  465.4487
 461  409.848
 462  518.8693
 463  539.7802
 464  497.9228
 465  438.9794
 466  486.6016
 467  422.3817
 468  393.2762
 469  379.5282
 470  453.8629
 471  474.9748
 472  519.8154
 473  507.99
 474  478.6663
 475  496.3459
 476  465.7052
 477  532.4031
 478  488.976
 479  396.3139
 480  301.4579
 481  293.1425
 482  342.2256
 483  345.5751
 484  274.2648
 485  372.8095
 486  479.5269
 487  367.3031
 488  456.4402
 489  596.4597
 490  561.1178
 491  509.39
 492  377.9434
 493  507.0124
 494  513.1108
 495  484.4366
 496  507.6318
 497  451.6161
 498  547.2428
 499  531.437
 500  486.6898
 501  386.1814
 502  358.6985
 503  538.46
 504  600.8779
 505  582.324
 506  515.3605
 507  503.0444
 508  604.1512
 509  735.3191
 510  920.9474
 511  1125.931
