# Input file       =  1178542452.102663_cleaned.dat
# Candidate        =  PSR_0332+5434
# Telescope        =  AR
# Epoch_topo       =  57884.537859984528
# Epoch_bary       =  N/A
# T_sample         =  0.002
# Data Folded      =  7340032
# Data Avg         =  0.0328723839026809
# Data StdDev      =  3.51431303505337 
# Profile Bins     =  512
# Profile Avg      =  471.17055082183  
# Profile StdDev   =  420.779370465389 
# Reduced chi-sqr  =  0.913
# Prob(Noise)      <  0.92   (~0.0 sigma)
# P_topo (ms)      =  714.536932024877  +/- 0.000392
# P'_topo (s/s)    =  -0                +/- 2.07e-10
# P''_topo (s/s^2) =  0                 +/- 9.12e-14
# P_bary (ms)      =  N/A
# P'_bary (s/s)    =  N/A
# P''_bary (s/s^2) =  N/A
# P_orb (s)        =  N/A
# asin(i)/c (s)    =  N/A
# eccentricity     =  N/A
# w (rad)          =  N/A
# T_peri           =  N/A
######################################################
   0  595.3997
   1  591.3135
   2  623.324
   3  503.8625
   4  544.2722
   5  626.9562
   6  689.7206
   7  804.1547
   8  997.7746
   9  1148.5
  10  1087.163
  11  979.6872
  12  401.1494
  13  37.41715
  14  482.8293
  15  472.2956
  16  601.9601
  17  559.5481
  18  320.3447
  19  8.023904
  20  196.9279
  21  42.88111
  22  138.2706
  23  279.9763
  24  251.6325
  25  -406.6349
  26  -133.2319
  27  184.3297
  28  753.5756
  29  632.5043
  30  258.2243
  31  467.1608
  32  195.6652
  33  323.504
  34  791.9752
  35  780.2756
  36  743.7225
  37  564.3928
  38  590.2324
  39  538.9395
  40  357.3651
  41  382.6543
  42  323.7802
  43  426.7902
  44  488.2105
  45  378.1367
  46  360.4488
  47  581.6691
  48  482.5521
  49  160.5913
  50  275.559
  51  610.8844
  52  533.0682
  53  50.29375
  54  62.84049
  55  402.9411
  56  -47.65369
  57  -81.06364
  58  257.8902
  59  678.4008
  60  574.1318
  61  657.4792
  62  183.5744
  63  122.3817
  64  359.2027
  65  770.2126
  66  1008.299
  67  1052.729
  68  811.8979
  69  346.1961
  70  683.9717
  71  711.3849
  72  364.1992
  73  491.4568
  74  406.6731
  75  594.2655
  76  604.8749
  77  155.168
  78  215.2438
  79  161.1164
  80  347.66
  81  623.6703
  82  691.3109
  83  701.3872
  84  353.9342
  85  344.3432
  86  545.6539
  87  481.4602
  88  639.4902
  89  459.112
  90  379.7363
  91  625.7984
  92  679.12
  93  818.444
  94  621.5298
  95  673.2934
  96  442.2641
  97  319.1868
  98  182.7137
  99  186.9851
 100  644.8458
 101  409.705
 102  755.4077
 103  528.7704
 104  314.0195
 105  239.8064
 106  261.574
 107  561.7986
 108  874.6091
 109  878.6561
 110  608.4806
 111  169.506
 112  206.5154
 113  606.0952
 114  556.7284
 115  166.446
 116  309.0739
 117  663.881
 118  258.8774
 119  488.6604
 120  456.0298
 121  165.7721
 122  437.0475
 123  724.139
 124  820.7141
 125  708.6078
 126  157.111
 127  388.5344
 128  128.7834
 129  -178.845
 130  580.0524
 131  645.2986
 132  -138.353
 133  91.27786
 134  445.5682
 135  310.3483
 136  338.3921
 137  477.2882
 138  462.6198
 139  105.0324
 140  8.449801
 141  553.5389
 142  593.4376
 143  358.1551
 144  507.0258
 145  172.5382
 146  151.8689
 147  177.8483
 148  533.2406
 149  516.0806
 150  936.4166
 151  412.6858
 152  139.7213
 153  282.7695
 154  311.6278
 155  19.23804
 156  193.4082
 157  502.7835
 158  499.318
 159  1012.936
 160  548.3987
 161  198.0735
 162  287.9384
 163  787.9185
 164  876.342
 165  724.4711
 166  336.0078
 167  506.33
 168  213.1629
 169  185.8003
 170  175.0493
 171  171.574
 172  282.9844
 173  573.6494
 174  658.5861
 175  405.498
 176  302.0719
 177  532.6024
 178  460.2463
 179  219.2036
 180  350.0957
 181  498.5605
 182  232.7884
 183  89.20332
 184  315.4566
 185  433.3864
 186  470.922
 187  427.8866
 188  435.9868
 189  335.1699
 190  293.2748
 191  500.4742
 192  726.7746
 193  604.3109
 194  460.8732
 195  228.1621
 196  469.7945
 197  134.0932
 198  218.5209
 199  482.1882
 200  694.3022
 201  625.1294
 202  382.6365
 203  255.9935
 204  354.3017
 205  226.3338
 206  435.8325
 207  761.8079
 208  541.6144
 209  529.4203
 210  644.8528
 211  645.9952
 212  271.1762
 213  83.7328
 214  355.522
 215  467.1307
 216  232.5548
 217  157.3369
 218  397.3025
 219  515.1304
 220  804.7017
 221  872.2972
 222  870.5842
 223  565.5281
 224  437.7701
 225  587.9185
 226  502.8179
 227  85.22609
 228  115.2689
 229  485.0609
 230  332.6986
 231  589.8311
 232  562.8745
 233  540.9467
 234  614.6358
 235  455.8008
 236  327.8867
 237  30.34968
 238  -13.3537
 239  305.4146
 240  245.5628
 241  353.6571
 242  496.5326
 243  113.4772
 244  -24.73111
 245  -85.00514
 246  187.6511
 247  -64.34018
 248  134.9171
 249  376.3308
 250  805.3252
 251  537.4588
 252  96.07705
 253  87.67231
 254  53.36982
 255  476.8191
 256  423.9422
 257  402.7918
 258  684.2114
 259  312.9368
 260  408.6456
 261  556.3578
 262  821.1304
 263  659.9338
 264  338.6439
 265  541.5845
 266  667.1888
 267  897.8615
 268  828.3098
 269  876.7245
 270  320.6516
 271  85.74731
 272  455.4914
 273  684.7205
 274  1002.914
 275  709.8464
 276  547.8837
 277  440.5424
 278  277.7959
 279  452.0053
 280  550.2056
 281  662.5832
 282  369.7932
 283  245.6311
 284  639.7385
 285  733.5
 286  474.6507
 287  538.894
 288  331.476
 289  47.08605
 290  -65.3587
 291  412.3263
 292  609.1733
 293  522.735
 294  729.4681
 295  804.9227
 296  860.2616
 297  525.2903
 298  335.016
 299  641.1965
 300  800.4504
 301  793.1491
 302  213.8356
 303  480.2474
 304  327.4298
 305  535.2753
 306  849.5387
 307  818.7265
 308  655.6735
 309  687.2402
 310  1073.546
 311  611.3646
 312  166.1615
 313  473.3213
 314  -53.95793
 315  560.8845
 316  853.0497
 317  690.987
 318  469.9751
 319  543.5411
 320  331.1593
 321  196.9893
 322  172.2636
 323  804.3096
 324  870.5639
 325  421.7686
 326  1086.673
 327  1729.773
 328  1739.627
 329  2017.481
 330  1902.185
 331  1878.81
 332  1948.089
 333  1344.041
 334  701.8361
 335  509.8109
 336  609.1926
 337  770.7828
 338  841.8994
 339  610.9312
 340  153.3884
 341  189.1772
 342  779.9658
 343  681.1515
 344  554.548
 345  748.5433
 346  501.3881
 347  -4.5494
 348  431.6938
 349  580.4531
 350  534.1165
 351  863.407
 352  741.6157
 353  458.496
 354  253.6588
 355  281.8399
 356  462.1854
 357  440.6739
 358  412.3108
 359  782.9204
 360  871.556
 361  811.8688
 362  642.1849
 363  675.763
 364  598.2692
 365  612.7749
 366  435.1661
 367  437.9608
 368  517.8138
 369  162.0627
 370  223.5742
 371  505.4178
 372  622.0796
 373  211.0545
 374  221.3585
 375  594.1415
 376  426.5092
 377  12.21827
 378  343.2021
 379  303.0227
 380  469.979
 381  387.1569
 382  393.8374
 383  115.8592
 384  -185.1421
 385  301.1216
 386  838.5631
 387  693.5228
 388  251.3523
 389  543.4829
 390  598.6909
 391  538.4527
 392  852.6017
 393  452.6029
 394  404.6002
 395  836.0107
 396  603.005
 397  108.0232
 398  263.5606
 399  517.6481
 400  324.5891
 401  351.6631
 402  481.0315
 403  797.4451
 404  574.3366
 405  399.6122
 406  419.8333
 407  413.767
 408  181.7719
 409  362.6892
 410  485.2097
 411  603.8851
 412  174.2999
 413  -38.10266
 414  100.8031
 415  421.5627
 416  799.8608
 417  588.8152
 418  679.4059
 419  399.9936
 420  382.493
 421  528.1743
 422  800.0305
 423  679.3979
 424  607.4225
 425  780.7275
 426  482.3112
 427  372.5577
 428  244.974
 429  22.12864
 430  434.988
 431  811.1716
 432  1075.484
 433  610.6384
 434  419.8067
 435  564.473
 436  477.3293
 437  307.7043
 438  569.1774
 439  800.2128
 440  613.4732
 441  482.9762
 442  558.0085
 443  444.9001
 444  291.8501
 445  340.9612
 446  253.7723
 447  379.7533
 448  482.7721
 449  445.8032
 450  569.283
 451  779.529
 452  655.8547
 453  18.19399
 454  629.0152
 455  474.8153
 456  578.9019
 457  463.6281
 458  415.8059
 459  346.7975
 460  517.2608
 461  594.3762
 462  70.05928
 463  384.8939
 464  426.6802
 465  335.971
 466  640.7234
 467  584.9549
 468  491.9853
 469  569.5639
 470  467.0576
 471  476.8745
 472  347.1478
 473  648.6379
 474  548.4359
 475  478.8748
 476  640.3588
 477  695.5257
 478  663.5709
 479  463.2841
 480  153.0779
 481  102.0878
 482  207.2207
 483  409.6895
 484  577.0978
 485  437.6451
 486  2.880653
 487  23.32496
 488  172.7974
 489  232.5444
 490  41.90541
 491  264.561
 492  553.7673
 493  123.5152
 494  -94.05859
 495  275.2902
 496  453.2679
 497  413.6035
 498  502.5305
 499  312.6242
 500  54.27242
 501  266.0986
 502  492.1524
 503  660.9916
 504  502.7726
 505  614.9412
 506  604.1022
 507  308.5821
 508  473.5128
 509  889.3834
 510  453.5145
 511  66.763
