# Input file       =  1178800781.100998_cleaned.dat
# Candidate        =  PSR_0332+5434
# Telescope        =  AR
# Epoch_topo       =  57887.527778946736
# Epoch_bary       =  N/A
# T_sample         =  0.002
# Data Folded      =  7340032
# Data Avg         =  0.016585535646067
# Data StdDev      =  1.00006195733943 
# Profile Bins     =  512
# Profile Avg      =  237.825760349578 
# Profile StdDev   =  119.740454717142 
# Reduced chi-sqr  =  1.145
# Prob(Noise)      <  0.0125   (~2.2 sigma)
# P_topo (ms)      =  714.534061016632  +/- 0.00023
# P'_topo (s/s)    =  -0                +/- 1.21e-10
# P''_topo (s/s^2) =  0                 +/- 5.36e-14
# P_bary (ms)      =  N/A
# P'_bary (s/s)    =  N/A
# P''_bary (s/s^2) =  N/A
# P_orb (s)        =  N/A
# asin(i)/c (s)    =  N/A
# eccentricity     =  N/A
# w (rad)          =  N/A
# T_peri           =  N/A
######################################################
   0  817.3233
   1  811.324
   2  657.3057
   3  389.4521
   4  197.3302
   5  260.2437
   6  297.6395
   7  119.1634
   8  104.9257
   9  214.2541
  10  215.8303
  11  321.6968
  12  281.8662
  13  232.504
  14  249.1477
  15  278.3702
  16  347.7647
  17  215.0016
  18  100.5431
  19  182.0473
  20  159.8843
  21  290.8178
  22  326.1653
  23  254.8746
  24  261.8185
  25  240.0334
  26  262.5948
  27  272.3571
  28  266.3563
  29  148.3036
  30  283.633
  31  375.7282
  32  244.2138
  33  117.814
  34  132.6275
  35  197.2165
  36  252.5459
  37  320.922
  38  224.4175
  39  233.3583
  40  211.5567
  41  260.0075
  42  132.1492
  43  106.8898
  44  113.8304
  45  219.6088
  46  280.1697
  47  140.6048
  48  29.32459
  49  148.0899
  50  254.5072
  51  187.5121
  52  326.8193
  53  218.1279
  54  189.2578
  55  260.8465
  56  82.70114
  57  225.9682
  58  243.8126
  59  190.6569
  60  295.3582
  61  228.4066
  62  315.3902
  63  180.2699
  64  72.40692
  65  192.3379
  66  281.1781
  67  217.834
  68  223.0742
  69  343.5
  70  216.6903
  71  187.0007
  72  297.4638
  73  378.5936
  74  341.7314
  75  324.7048
  76  364.0764
  77  405.9689
  78  273.6879
  79  285.3154
  80  292.0136
  81  279.7626
  82  263.7393
  83  246.4256
  84  209.1368
  85  226.6049
  86  216.5812
  87  252.8472
  88  179.4336
  89  309.6478
  90  224.5587
  91  214.3615
  92  246.641
  93  225.8068
  94  145.1581
  95  126.1875
  96  92.54539
  97  24.14644
  98  259.1099
  99  275.3748
 100  207.8616
 101  186.0223
 102  246.5512
 103  285.9317
 104  402.8305
 105  357.0717
 106  289.2749
 107  195.5708
 108  236.7568
 109  150.7
 110  104.8522
 111  223.5632
 112  217.199
 113  373.5757
 114  440.7641
 115  311.9257
 116  179.8832
 117  187.9349
 118  226.9324
 119  283.362
 120  216.6048
 121  256.6454
 122  360.8563
 123  400.2208
 124  192.5022
 125  226.5964
 126  317.7222
 127  291.1785
 128  117.2393
 129  48.50537
 130  187.452
 131  191.5136
 132  143.2733
 133  243.2226
 134  222.105
 135  136.8067
 136  64.37119
 137  177.5519
 138  276.438
 139  393.5461
 140  335.3812
 141  222.095
 142  340.2651
 143  390.1367
 144  356.98
 145  389.4439
 146  285.797
 147  219.5584
 148  249.7189
 149  205.2541
 150  259.3962
 151  324.7645
 152  234.27
 153  203.2404
 154  222.8864
 155  135.4316
 156  174.6592
 157  268.8216
 158  330.0008
 159  344.3198
 160  177.4258
 161  213.2525
 162  237.3136
 163  204.8086
 164  292.2545
 165  226.3743
 166  220.6246
 167  183.8967
 168  209.7932
 169  217.1439
 170  113.5589
 171  158.0418
 172  81.25674
 173  248.2994
 174  158.1207
 175  219.2115
 176  255.0765
 177  341.5562
 178  271.6378
 179  215.0064
 180  311.6404
 181  274.1188
 182  244.1601
 183  258.9996
 184  212.0139
 185  246.418
 186  432.4937
 187  441.1137
 188  200.3158
 189  30.37099
 190  84.13143
 191  219.1433
 192  187.0433
 193  161.3393
 194  198.3504
 195  55.45262
 196  96.24049
 197  207.2548
 198  203.1013
 199  230.7622
 200  117.6046
 201  190.7827
 202  266.6576
 203  180.8509
 204  253.127
 205  206.0003
 206  77.22032
 207  53.10493
 208  188.7362
 209  129.6742
 210  106.5943
 211  106.9638
 212  175.1383
 213  127.799
 214  143.0153
 215  141.3331
 216  72.36114
 217  156.0245
 218  194.1646
 219  116.4939
 220  164.003
 221  237.7944
 222  314.0414
 223  292.3701
 224  236.5692
 225  162.0886
 226  93.7291
 227  192.3789
 228  168.6765
 229  212.1364
 230  318.3322
 231  278.2777
 232  201.8217
 233  302.1094
 234  292.3759
 235  265.5231
 236  222.413
 237  320.9018
 238  366.093
 239  297.573
 240  338.7021
 241  221.859
 242  239.2715
 243  389.3389
 244  369.1711
 245  396.0791
 246  269.1672
 247  171.6214
 248  199.5296
 249  144.147
 250  168.7515
 251  245.7738
 252  236.397
 253  343.9158
 254  287.2536
 255  260.2111
 256  268.6931
 257  295.2289
 258  487.3359
 259  397.8701
 260  318.8
 261  410.2749
 262  387.46
 263  301.1125
 264  221.6328
 265  357.2981
 266  356.2607
 267  290.0539
 268  231.8021
 269  246.1856
 270  349.3436
 271  319.705
 272  225.453
 273  134.5991
 274  232.491
 275  330.1517
 276  301.1949
 277  262.2493
 278  237.255
 279  329.8698
 280  186.647
 281  212.4546
 282  338.0012
 283  285.6057
 284  313.7259
 285  264.0979
 286  272.3055
 287  213.0934
 288  274.5266
 289  278.9308
 290  249.0104
 291  321.9165
 292  287.0675
 293  247.1968
 294  269.176
 295  233.4633
 296  193.9452
 297  301.6554
 298  367.7049
 299  260.4582
 300  245.9487
 301  210.4881
 302  313.3559
 303  279.1712
 304  345.3529
 305  143.3896
 306  209.7028
 307  273.6475
 308  244.4612
 309  178.4455
 310  205.5847
 311  236.7393
 312  261.2902
 313  298.0318
 314  347.3078
 315  405.3991
 316  314.5586
 317  170.83
 318  155.3198
 319  327.9759
 320  241.4563
 321  174.0381
 322  227.1268
 323  106.8009
 324  190.5995
 325  330.2385
 326  326.1421
 327  292.1582
 328  308.02
 329  264.2261
 330  205.8651
 331  219.098
 332  251.4019
 333  312.2993
 334  242.5563
 335  317.6771
 336  265.7742
 337  281.8449
 338  310.2093
 339  309.1375
 340  335.7573
 341  348.6008
 342  332.2686
 343  347.333
 344  234.5887
 345  189.6066
 346  160.87
 347  369.5374
 348  302.8333
 349  295.8259
 350  341.4754
 351  280.9453
 352  319.6529
 353  267.2657
 354  246.6329
 355  300.2128
 356  258.5754
 357  225.0391
 358  256.6705
 359  268.2861
 360  163.1015
 361  132.1583
 362  207.6824
 363  247.2384
 364  143.4099
 365  137.6344
 366  150.1991
 367  168.2706
 368  212.0814
 369  265.2934
 370  189.8139
 371  268.7749
 372  148.4495
 373  129.6948
 374  322.2557
 375  304.8607
 376  368.0407
 377  319.4594
 378  161.1115
 379  82.0334
 380  164.1654
 381  159.4864
 382  264.1762
 383  243.5499
 384  160.1925
 385  47.60823
 386  175.3672
 387  300.0733
 388  177.4743
 389  181.0393
 390  258.4616
 391  270.681
 392  147.6477
 393  185.2432
 394  153.8047
 395  205.1519
 396  299.2179
 397  260.702
 398  341.2145
 399  258.1794
 400  359.4484
 401  226.0998
 402  114.3267
 403  230.0579
 404  288.8007
 405  310.9564
 406  264.9627
 407  280.6763
 408  285.0499
 409  212.8327
 410  297.6544
 411  229.4431
 412  200.3079
 413  144.5884
 414  153.4632
 415  99.94083
 416  169.8769
 417  281.4536
 418  246.0268
 419  257.0412
 420  262.3409
 421  177.6769
 422  103.6939
 423  150.5039
 424  172.4433
 425  76.18236
 426  23.72109
 427  3.778979
 428  133.1647
 429  119.0759
 430  266.8431
 431  388.1304
 432  311.0992
 433  237.6845
 434  247.1088
 435  238.8702
 436  237.4243
 437  161.8482
 438  255.9544
 439  215.2159
 440  171.8823
 441  332.7018
 442  258.8076
 443  302.8148
 444  234.5777
 445  218.4405
 446  191.3016
 447  178.8212
 448  217.5595
 449  273.4781
 450  274.8871
 451  319.6986
 452  235.5295
 453  112.4068
 454  134.4451
 455  77.0681
 456  170.4323
 457  132.1422
 458  139.5641
 459  132.6817
 460  57.23502
 461  121.2181
 462  219.2493
 463  191.8413
 464  178.4485
 465  12.92322
 466  112.5843
 467  87.93018
 468  146.3701
 469  209.4117
 470  200.1142
 471  260.1385
 472  235.8648
 473  215.6729
 474  90.80082
 475  203.695
 476  95.28262
 477  185.8698
 478  128.078
 479  55.88335
 480  222.6442
 481  296.7848
 482  192.7398
 483  180.3619
 484  153.3918
 485  246.6102
 486  229.8928
 487  289.1324
 488  272.682
 489  306.9556
 490  171.5127
 491  168.2825
 492  148.0995
 493  200.8455
 494  251.6022
 495  336.7807
 496  309.306
 497  279.4358
 498  200.5278
 499  233.5134
 500  225.7541
 501  194.6421
 502  361.9952
 503  222.2549
 504  188.6729
 505  254.4955
 506  345.165
 507  360.5392
 508  332.8721
 509  348.6841
 510  437.2512
 511  640.3602
