# Input file       =  1178785873.103783_cleaned.dat
# Candidate        =  PSR_0332+5434
# Telescope        =  AR
# Epoch_topo       =  57887.355232682676
# Epoch_bary       =  N/A
# T_sample         =  0.002
# Data Folded      =  7340032
# Data Avg         =  0.0294190555147868
# Data StdDev      =  1.00001634239354 
# Profile Bins     =  512
# Profile Avg      =  421.892546334019 
# Profile StdDev   =  119.734993101166 
# Reduced chi-sqr  =  1.246
# Prob(Noise)      <  0.000119   (~3.7 sigma)
# P_topo (ms)      =  714.533894298019  +/- 0.000253
# P'_topo (s/s)    =  -0                +/- 1.33e-10
# P''_topo (s/s^2) =  0                 +/- 5.89e-14
# P_bary (ms)      =  N/A
# P'_bary (s/s)    =  N/A
# P''_bary (s/s^2) =  N/A
# P_orb (s)        =  N/A
# asin(i)/c (s)    =  N/A
# eccentricity     =  N/A
# w (rad)          =  N/A
# T_peri           =  N/A
######################################################
   0  370.9412
   1  329.1709
   2  429.0595
   3  559.2424
   4  481.4767
   5  520.4818
   6  385.264
   7  430.6327
   8  449.2192
   9  531.0192
  10  422.5336
  11  449.0029
  12  480.3332
  13  491.1769
  14  494.2487
  15  493.6002
  16  489.4659
  17  438.1282
  18  462.3344
  19  400.9691
  20  372.4187
  21  339.5928
  22  410.9272
  23  376.0845
  24  390.7139
  25  493.4093
  26  501.8997
  27  610.8104
  28  481.8445
  29  567.1012
  30  518.7773
  31  570.434
  32  455.4371
  33  391.8221
  34  461.4859
  35  443.6669
  36  454.4555
  37  416.4144
  38  401.6442
  39  508.5786
  40  436.2732
  41  498.0917
  42  542.0751
  43  397.8454
  44  437.6735
  45  453.7894
  46  419.3008
  47  393.3043
  48  380.1616
  49  444.6346
  50  344.5518
  51  348.8779
  52  368.4795
  53  374.0428
  54  410.649
  55  406.3613
  56  447.4286
  57  581.7146
  58  555.6697
  59  502.7802
  60  395.4547
  61  441.9495
  62  515.5059
  63  475.3974
  64  476.6071
  65  403.6885
  66  513.149
  67  539.3403
  68  501.8134
  69  442.6596
  70  480.8838
  71  431.1803
  72  394.8903
  73  376.3304
  74  453.6249
  75  465.844
  76  522.6404
  77  507.8387
  78  481.2481
  79  495.2223
  80  466.5183
  81  524.2623
  82  495.3653
  83  406.913
  84  303.1562
  85  295.6245
  86  334.4198
  87  353.592
  88  272.7778
  89  363.1776
  90  479.41
  91  372.7763
  92  444.068
  93  590.1519
  94  564.6623
  95  517.9419
  96  384.1259
  97  495.9203
  98  516.1756
  99  482.7699
 100  508.4778
 101  453.9493
 102  538.0909
 103  541.8549
 104  485.5932
 105  395.8704
 106  349.8932
 107  529.6191
 108  599.9136
 109  586.7905
 110  516.7778
 111  501.2856
 112  593.5125
 113  729.6642
 114  896.3322
 115  1124.743
 116  1065.857
 117  927.1913
 118  748.1285
 119  570.2436
 120  543.0531
 121  426.6877
 122  422.0815
 123  438.6708
 124  429.7574
 125  388.6072
 126  402.8063
 127  531.9134
 128  496.3682
 129  384.8228
 130  359.1602
 131  338.8398
 132  505.3371
 133  535.3483
 134  500.2772
 135  412.4298
 136  353.8517
 137  280.6931
 138  246.5074
 139  318.8479
 140  334.5752
 141  306.8001
 142  376.4403
 143  524.0836
 144  475.5125
 145  263.2891
 146  295.6309
 147  388.0201
 148  361.8735
 149  373.3637
 150  375.4316
 151  376.6905
 152  324.2114
 153  427.6747
 154  315.961
 155  358.7098
 156  297.5381
 157  449.595
 158  479.8991
 159  340.1772
 160  384.5957
 161  420.9075
 162  312.832
 163  309.3042
 164  418.8659
 165  340.1436
 166  344.9118
 167  426.9591
 168  412.3236
 169  340.2628
 170  399.5527
 171  338.7038
 172  409.15
 173  339.5763
 174  288.8113
 175  353.5553
 176  449.5467
 177  459.4498
 178  399.0633
 179  360.8849
 180  414.8
 181  400.9334
 182  451.0244
 183  404.1956
 184  269.376
 185  291.3785
 186  327.631
 187  370.6063
 188  356.2679
 189  435.0855
 190  398.1508
 191  314.0919
 192  396.5149
 193  484.563
 194  480.4446
 195  284.768
 196  357.9384
 197  473.598
 198  429.4562
 199  461.5979
 200  496.761
 201  411.1873
 202  294.9453
 203  410.1364
 204  473.9757
 205  452.5843
 206  518.0298
 207  473.5434
 208  355.4164
 209  428.3853
 210  451.4163
 211  463.6904
 212  437.0104
 213  334.4632
 214  484.629
 215  532.8886
 216  477.9754
 217  497.5384
 218  491.5183
 219  507.665
 220  404.868
 221  370.5606
 222  453.9452
 223  480.7763
 224  400.8928
 225  427.0262
 226  404.5795
 227  392.8945
 228  425.9026
 229  367.433
 230  426.2009
 231  505.8542
 232  424.614
 233  451.4418
 234  503.0879
 235  431.5353
 236  409.4372
 237  439.078
 238  488.9515
 239  520.7696
 240  477.8398
 241  435.2501
 242  440.2643
 243  394.1155
 244  373.3086
 245  378.394
 246  308.4547
 247  370.7393
 248  464.8974
 249  468.931
 250  472.2992
 251  499.5359
 252  498.0287
 253  457.3293
 254  392.8205
 255  464.072
 256  404.6847
 257  339.5244
 258  314.3567
 259  398.3662
 260  368.3913
 261  380.0135
 262  381.7386
 263  377.2401
 264  500.9083
 265  501.4472
 266  325.4078
 267  397.124
 268  453.2527
 269  448.4966
 270  381.043
 271  584.7307
 272  567.8376
 273  562.0141
 274  501.6362
 275  401.5089
 276  379.5112
 277  362.6228
 278  427.2231
 279  462.8175
 280  386.5286
 281  381.3626
 282  508.5807
 283  427.2307
 284  405.3782
 285  499.9401
 286  385.5411
 287  370.3352
 288  352.0259
 289  325.8536
 290  366.6969
 291  363.2874
 292  318.5776
 293  248.5844
 294  385.4525
 295  418.9021
 296  422.7574
 297  480.9693
 298  427.4764
 299  318.6078
 300  285.4856
 301  258.1181
 302  290.4453
 303  359.2216
 304  389.8275
 305  297.0524
 306  236.3395
 307  371.8815
 308  463.6663
 309  344.3987
 310  305.6223
 311  371.2201
 312  502.1862
 313  551.4979
 314  457.52
 315  354.7008
 316  326.417
 317  384.2996
 318  389.211
 319  425.9083
 320  431.6726
 321  393.9216
 322  526.3477
 323  518.5226
 324  601.1534
 325  491.9304
 326  398.6954
 327  512.9318
 328  453.5612
 329  458.767
 330  493.6131
 331  498.4195
 332  430.4094
 333  399.793
 334  354.842
 335  345.6695
 336  427.7523
 337  436.972
 338  414.8153
 339  370.5671
 340  424.2657
 341  348.7039
 342  356.688
 343  324.565
 344  415.3987
 345  442.3758
 346  319.709
 347  299.6386
 348  211.3821
 349  193.5764
 350  282.5338
 351  363.6976
 352  364.5826
 353  320.6759
 354  447.7437
 355  314.55
 356  260.2818
 357  251.0282
 358  282.2964
 359  385.6967
 360  393.0468
 361  422.4287
 362  394.8625
 363  465.2054
 364  363.9341
 365  287.2924
 366  381.3047
 367  413.5331
 368  337.727
 369  309.5025
 370  428.73
 371  467.7538
 372  407.918
 373  373.3667
 374  451.5884
 375  511.7476
 376  523.7261
 377  496.5809
 378  481.1099
 379  538.9787
 380  528.261
 381  432.3661
 382  447.5888
 383  388.9836
 384  331.6511
 385  354.7833
 386  332.5161
 387  472.6025
 388  330.942
 389  299.2349
 390  288.7657
 391  368.8083
 392  440.4267
 393  407.7688
 394  465.343
 395  545.2899
 396  475.4885
 397  283.8816
 398  203.1913
 399  482.3546
 400  503.8866
 401  483.0033
 402  371.7372
 403  325.6575
 404  465.4513
 405  363.5142
 406  375.1674
 407  460.1211
 408  505.7786
 409  394.5583
 410  353.9041
 411  438.2485
 412  401.3058
 413  430.186
 414  555.1575
 415  424.1572
 416  416.3497
 417  495.1843
 418  398.9413
 419  364.9409
 420  454.2796
 421  548.4092
 422  527.1532
 423  434.2385
 424  369.7045
 425  404.5558
 426  494.6407
 427  572.6696
 428  672.2029
 429  426.7891
 430  316.7172
 431  360.1697
 432  421.7412
 433  391.4245
 434  363.0451
 435  404.9594
 436  492.6786
 437  358.5771
 438  356.8337
 439  499.9745
 440  486.2115
 441  319.7397
 442  383.5627
 443  487.7274
 444  411.7639
 445  203.7708
 446  250.9364
 447  410.169
 448  410.4978
 449  414.3855
 450  341.5006
 451  325.3311
 452  374.8539
 453  522.3693
 454  474.584
 455  424.4484
 456  363.0398
 457  436.944
 458  477.054
 459  397.3008
 460  341.1635
 461  424.1225
 462  432.5842
 463  366.6111
 464  371.9181
 465  349.9422
 466  376.0903
 467  230.5896
 468  200.0781
 469  323.5272
 470  308.2476
 471  222.0105
 472  308.2384
 473  276.6498
 474  218.4445
 475  375.0065
 476  380.7708
 477  396.1133
 478  362.7103
 479  314.8515
 480  403.951
 481  372.3634
 482  381.8989
 483  448.4258
 484  415.2632
 485  345.4825
 486  282.5456
 487  324.7079
 488  405.9359
 489  416.2992
 490  433.7732
 491  518.9659
 492  492.3211
 493  597.3837
 494  599.795
 495  505.0596
 496  453.0081
 497  359.324
 498  298.0095
 499  322.5001
 500  393.309
 501  421.7784
 502  333.855
 503  389.641
 504  415.921
 505  523.5691
 506  364.6919
 507  363.723
 508  427.9476
 509  520.6559
 510  475.8788
 511  470.1461
