# Input file       =  1178542452.102663_cleaned.dat
# Candidate        =  PSR_0332+5434
# Telescope        =  AR
# Epoch_topo       =  57884.537859984528
# Epoch_bary       =  N/A
# T_sample         =  0.002
# Data Folded      =  7340032
# Data Avg         =  0.0127871113278271
# Data StdDev      =  1.00005963063571 
# Profile Bins     =  512
# Profile Avg      =  183.273455333119 
# Profile StdDev   =  119.740176133841 
# Reduced chi-sqr  =  1.423
# Prob(Noise)      <  9.28e-10   (~6.0 sigma)
# P_topo (ms)      =  714.536931173839  +/- 0.000155
# P'_topo (s/s)    =  -0                +/- 8.16e-11
# P''_topo (s/s^2) =  0                 +/- 3.6e-14
# P_bary (ms)      =  N/A
# P'_bary (s/s)    =  N/A
# P''_bary (s/s^2) =  N/A
# P_orb (s)        =  N/A
# asin(i)/c (s)    =  N/A
# eccentricity     =  N/A
# w (rad)          =  N/A
# T_peri           =  N/A
######################################################
   0  737.177
   1  760.1176
   2  794.4138
   3  608.126
   4  313.9247
   5  215.9503
   6  235.5642
   7  290.215
   8  323.6803
   9  254.7362
  10  116.772
  11  62.73483
  12  272.9671
  13  268.9763
  14  235.5945
  15  291.7935
  16  213.0972
  17  29.33238
  18  178.1473
  19  236.7952
  20  180.2272
  21  231.4881
  22  257.1846
  23  141.4956
  24  87.35656
  25  85.9959
  26  117.6798
  27  190.4115
  28  162.8288
  29  256.8807
  30  236.1392
  31  312.1825
  32  269.7316
  33  272.0586
  34  293.7385
  35  274.1956
  36  253.4828
  37  195.9005
  38  247.1717
  39  151.9494
  40  127.9182
  41  198.2647
  42  288.2621
  43  184.142
  44  201.0987
  45  307.5127
  46  237.1884
  47  -12.3182
  48  102.6034
  49  169.0479
  50  247.1928
  51  187.0523
  52  138.3062
  53  42.91906
  54  -86.0621
  55  82.84661
  56  296.2609
  57  248.009
  58  144.9413
  59  218.7508
  60  213.6128
  61  194.0515
  62  251.5312
  63  130.9552
  64  152.1209
  65  277.8876
  66  190.4048
  67  45.13348
  68  96.5622
  69  200.496
  70  155.4234
  71  183.4093
  72  219.2735
  73  337.1822
  74  287.6518
  75  245.9961
  76  170.6882
  77  157.3431
  78  134.7587
  79  200.6989
  80  194.5254
  81  211.6498
  82  105.9338
  83  8.065155
  84  33.7126
  85  138.789
  86  165.5905
  87  146.5493
  88  175.77
  89  127.1547
  90  130.4962
  91  162.468
  92  310.6292
  93  223.7979
  94  160.1205
  95  239.3775
  96  228.3013
  97  206.0163
  98  103.0559
  99  -13.84206
 100  130.5645
 101  278.1852
 102  327.8635
 103  172.8478
 104  106.8297
 105  168.5214
 106  210.1663
 107  130.5065
 108  227.6997
 109  306.6545
 110  284.3616
 111  217.5444
 112  199.0932
 113  219.8282
 114  156.0498
 115  151.5545
 116  75.77515
 117  106.9585
 118  212.9935
 119  195.0749
 120  254.2547
 121  332.7103
 122  268.237
 123  65.31263
 124  218.2784
 125  235.6548
 126  227.0065
 127  185.1682
 128  153.807
 129  70.35271
 130  204.6791
 131  218.5926
 132  40.36037
 133  85.47591
 134  95.17335
 135  78.79208
 136  194.5581
 137  152.4317
 138  131.4444
 139  205.752
 140  206.11
 141  197.1327
 142  163.5915
 143  201.5259
 144  165.1587
 145  225.8024
 146  271.5244
 147  236.1467
 148  182.2793
 149  168.7816
 150  60.72498
 151  41.75951
 152  113.3421
 153  145.383
 154  225.7305
 155  149.1036
 156  -7.971562
 157  -4.620355
 158  56.86738
 159  98.91183
 160  -9.248547
 161  47.03563
 162  126.0348
 163  67.19724
 164  -12.11034
 165  143.3494
 166  212.4807
 167  144.9118
 168  210.8329
 169  111.2792
 170  4.54109
 171  146.2726
 172  235.0925
 173  235.1877
 174  178.2434
 175  220.8079
 176  170.3806
 177  109.0346
 178  172.3313
 179  294.4359
 180  169.2045
 181  50.7953
 182  208.3063
 183  248.854
 184  205.2528
 185  186.8565
 186  189.6217
 187  204.7845
 188  176.8187
 189  232.2334
 190  353.6725
 191  335.238
 192  363.2356
 193  377.7047
 194  136.3112
 195  -41.97029
 196  157.0428
 197  178.1293
 198  146.5685
 199  168.4108
 200  194.0729
 201  73.51887
 202  137.6367
 203  75.94793
 204  71.62668
 205  107.66
 206  153.2214
 207  -43.73584
 208  59.43144
 209  156.9292
 210  295.0695
 211  252.4014
 212  152.575
 213  186.2449
 214  131.7456
 215  123.4274
 216  246.0586
 217  275.7282
 218  271.1074
 219  191.3097
 220  192.5852
 221  224.7567
 222  139.2364
 223  119.7675
 224  112.9472
 225  167.0634
 226  252.8771
 227  224.959
 228  160.9319
 229  203.5841
 230  168.5167
 231  40.55885
 232  99.44296
 233  216.8293
 234  218.4469
 235  46.69792
 236  10.45941
 237  195.3236
 238  20.80118
 239  60.50482
 240  144.2231
 241  210.1819
 242  166.5845
 243  201.6501
 244  75.00842
 245  91.02401
 246  170.5925
 247  282.4427
 248  312.6134
 249  278.5925
 250  251.3493
 251  157.7083
 252  308.099
 253  321.2929
 254  215.8675
 255  217.1446
 256  194.6273
 257  272.0439
 258  263.1997
 259  149.4378
 260  147.6747
 261  136.2464
 262  167.7942
 263  251.684
 264  282.0062
 265  262.7983
 266  165.0775
 267  157.3261
 268  245.6873
 269  228.9469
 270  201.6661
 271  141.2341
 272  126.1065
 273  230.8549
 274  307.3185
 275  352.9379
 276  294.7477
 277  233.7787
 278  189.9943
 279  185.2253
 280  172.8767
 281  162.4256
 282  297.1528
 283  264.0461
 284  366.1381
 285  254.5255
 286  159.4597
 287  73.39681
 288  108.3474
 289  225.8676
 290  336.1898
 291  331.5622
 292  280.7964
 293  148.1997
 294  149.7336
 295  292.5571
 296  288.5941
 297  178.598
 298  147.6161
 299  222.3696
 300  134.8386
 301  172.6548
 302  218.9621
 303  123.008
 304  177.7291
 305  255.6073
 306  352.0261
 307  271.9432
 308  115.8774
 309  231.7537
 310  160.8622
 311  41.4992
 312  289.3739
 313  319.5067
 314  20.3392
 315  52.78156
 316  127.9264
 317  132.9319
 318  179.9343
 319  260.8442
 320  219.8051
 321  145.1899
 322  68.61842
 323  257.2231
 324  280.2198
 325  174.1938
 326  258.5003
 327  171.0669
 328  190.6513
 329  152.543
 330  244.461
 331  210.2794
 332  367.4977
 333  208.3904
 334  106.547
 335  153.2565
 336  192.0574
 337  100.7169
 338  78.00816
 339  162.4459
 340  148.7912
 341  341.893
 342  259.5509
 343  133.3873
 344  84.27776
 345  279.2693
 346  370.1584
 347  300.9919
 348  158.8188
 349  240.8387
 350  219.174
 351  103.7475
 352  61.43848
 353  98.57813
 354  130.1174
 355  197.4918
 356  174.456
 357  107.8848
 358  112.6562
 359  194.9414
 360  178.6917
 361  118.8115
 362  128.2005
 363  163.8692
 364  171.4444
 365  102.2891
 366  150.1091
 367  166.192
 368  150.5081
 369  184.9772
 370  157.5311
 371  145.4014
 372  110.1166
 373  115.6984
 374  188.3929
 375  190.7769
 376  194.465
 377  76.82244
 378  103.5729
 379  58.68515
 380  78.32698
 381  118.8267
 382  195.9861
 383  184.9025
 384  82.25761
 385  64.72058
 386  99.17964
 387  12.68867
 388  95.96939
 389  238.953
 390  61.93919
 391  65.52455
 392  165.2096
 393  186.4874
 394  105.795
 395  15.00119
 396  168.149
 397  176.2044
 398  44.8656
 399  26.07121
 400  141.1231
 401  171.7552
 402  268.4711
 403  327.2227
 404  344.9491
 405  213.1396
 406  111.6044
 407  167.0752
 408  201.4679
 409  72.14621
 410  62.60581
 411  172.1208
 412  154.9975
 413  241.3821
 414  185.0513
 415  226.5361
 416  270.7545
 417  154.3375
 418  114.0061
 419  22.00143
 420  30.20981
 421  134.652
 422  143.3647
 423  98.11974
 424  152.4986
 425  47.15463
 426  -6.013514
 427  24.5249
 428  113.3069
 429  36.76758
 430  83.87626
 431  155.6366
 432  246.7124
 433  155.2645
 434  75.0832
 435  50.45583
 436  71.38654
 437  185.4891
 438  150.6127
 439  118.9055
 440  234.1327
 441  100.8447
 442  109.5321
 443  181.8482
 444  213.1915
 445  156.826
 446  68.02955
 447  160.9037
 448  206.5534
 449  284.1969
 450  320.2732
 451  322.3013
 452  101.0977
 453  43.12416
 454  182.0741
 455  245.9361
 456  273.9886
 457  208.8499
 458  215.9227
 459  152.0153
 460  81.88451
 461  125.5293
 462  157.1985
 463  167.1036
 464  169.2592
 465  146.4103
 466  191.57
 467  273.6981
 468  222.4472
 469  257.8103
 470  195.0967
 471  95.55398
 472  31.03313
 473  151.3484
 474  258.9678
 475  179.7524
 476  238.9513
 477  298.88
 478  311.494
 479  185.1134
 480  86.30557
 481  157.8581
 482  214.8906
 483  297.5368
 484  55.31472
 485  140.4114
 486  86.31353
 487  199.821
 488  163.512
 489  163.182
 490  161.8467
 491  165.7035
 492  307.3399
 493  276.0855
 494  109.6564
 495  172.4973
 496  -14.47549
 497  157.1251
 498  267.9216
 499  223.5504
 500  260.6229
 501  259.5419
 502  135.346
 503  112.3706
 504  108.968
 505  300.6072
 506  305.1436
 507  154.1488
 508  403.6013
 509  640.9401
 510  679.0916
 511  751.0208
