# Input file       =  1178943567.104165_cleaned.dat
# Candidate        =  PSR_0332+5434
# Telescope        =  AR
# Epoch_topo       =  57889.180394724135
# Epoch_bary       =  N/A
# T_sample         =  0.002
# Data Folded      =  7143424
# Data Avg         =  0.0331860533063389
# Data StdDev      =  1.00004500087045 
# Profile Bins     =  512
# Profile Avg      =  463.017927809701 
# Profile StdDev   =  118.123899920985 
# Reduced chi-sqr  =  1.032
# Prob(Noise)      <  0.3   (~0.5 sigma)
# P_topo (ms)      =  714.532120025254  +/- 0.000243
# P'_topo (s/s)    =  -0                +/- 1.32e-10
# P''_topo (s/s^2) =  0                 +/- 5.98e-14
# P_bary (ms)      =  N/A
# P'_bary (s/s)    =  N/A
# P''_bary (s/s^2) =  N/A
# P_orb (s)        =  N/A
# asin(i)/c (s)    =  N/A
# eccentricity     =  N/A
# w (rad)          =  N/A
# T_peri           =  N/A
######################################################
   0  485.6118
   1  572.3499
   2  578.9387
   3  443.4652
   4  431.8353
   5  514.6167
   6  599.1691
   7  589.2914
   8  505.8078
   9  522.9786
  10  410.1259
  11  484.0567
  12  493.1089
  13  519.6655
  14  474.4369
  15  443.3676
  16  558.2803
  17  629.5005
  18  529.5425
  19  521.3937
  20  368.9456
  21  370.8961
  22  400.1594
  23  452.484
  24  473.9464
  25  386.0452
  26  349.3127
  27  420.8095
  28  335.8139
  29  300.2405
  30  316.7866
  31  358.5659
  32  385.6045
  33  361.6579
  34  490.9147
  35  474.575
  36  396.7554
  37  415.3511
  38  403.9402
  39  398.5657
  40  402.5586
  41  309.4049
  42  440.6069
  43  408.2716
  44  410.9965
  45  296.4312
  46  314.3454
  47  419.5537
  48  402.7858
  49  335.864
  50  395.1951
  51  444.2556
  52  422.5442
  53  336.672
  54  376.6455
  55  405.7854
  56  420.7302
  57  354.1526
  58  321.5733
  59  374.8063
  60  345.5952
  61  317.4374
  62  319.106
  63  398.1812
  64  340.9001
  65  426.3485
  66  453.1441
  67  572.7514
  68  627.8636
  69  712.7535
  70  789.4374
  71  774.296
  72  900.7567
  73  665.7204
  74  629.9124
  75  499.7022
  76  481.7954
  77  425.6459
  78  391.9907
  79  418.7657
  80  450.9543
  81  469.6116
  82  573.3014
  83  564.67
  84  493.8345
  85  439.8714
  86  390.3039
  87  332.0342
  88  331.187
  89  379.0619
  90  461.4791
  91  526.1166
  92  485.4551
  93  521.7146
  94  446.0196
  95  406.5254
  96  430.7451
  97  556.5508
  98  513.6015
  99  482.5125
 100  485.9058
 101  396.7112
 102  465.6286
 103  556.2484
 104  514.8137
 105  499.6679
 106  449.3223
 107  489.1444
 108  441.057
 109  447.6525
 110  573.0015
 111  536.3007
 112  476.3695
 113  455.8795
 114  486.7078
 115  298.7511
 116  460.9139
 117  408.8404
 118  341.1481
 119  320.636
 120  336.4405
 121  407.4472
 122  472.3728
 123  461.6911
 124  464.5759
 125  467.348
 126  415.094
 127  435.8674
 128  409.3357
 129  529.2051
 130  509.2639
 131  412.5972
 132  530.763
 133  607.592
 134  538.8561
 135  356.1442
 136  428.7427
 137  430.2464
 138  412.3476
 139  359.2425
 140  311.2463
 141  415.2379
 142  537.7324
 143  671.7655
 144  400.614
 145  282.1911
 146  394.4932
 147  317.8973
 148  410.6617
 149  451.8782
 150  592.9507
 151  612.2795
 152  433.1969
 153  249.5
 154  246.521
 155  356.2644
 156  404.6417
 157  447.9664
 158  384.8286
 159  363.2492
 160  461.0573
 161  512.5422
 162  496.3918
 163  436.2326
 164  458.9919
 165  456.357
 166  542.3431
 167  491.7974
 168  530.8704
 169  579.0854
 170  558.6562
 171  583.3907
 172  467.4923
 173  589.3416
 174  511.7056
 175  466.1695
 176  435.3672
 177  499.7957
 178  551.6564
 179  553.3242
 180  442.8003
 181  405.0124
 182  380.2069
 183  564.7153
 184  576.1066
 185  564.269
 186  398.1046
 187  403.9447
 188  421.2658
 189  401.3607
 190  484.4616
 191  463.5839
 192  558.2744
 193  416.6022
 194  417.1926
 195  469.5617
 196  549.1611
 197  510.1229
 198  518.2968
 199  387.4578
 200  416.2545
 201  428.6453
 202  498.5213
 203  397.9211
 204  450.6219
 205  440.3063
 206  365.986
 207  286.5677
 208  390.8388
 209  395.6775
 210  496.6242
 211  521.0349
 212  435.4874
 213  561.7461
 214  476.748
 215  419.4816
 216  477.7894
 217  486.7912
 218  519.5572
 219  474.286
 220  473.927
 221  529.1272
 222  353.7107
 223  292.5695
 224  486.4695
 225  379.7425
 226  413.9263
 227  367.8766
 228  378.9237
 229  413.8192
 230  415.3505
 231  390.6693
 232  508.2052
 233  462.2331
 234  407.8929
 235  515.3244
 236  472.6132
 237  449.6378
 238  325.8509
 239  273.2436
 240  356.2099
 241  312.0192
 242  387.7945
 243  408.1118
 244  334.8321
 245  390.0928
 246  429.301
 247  367.9705
 248  365.9316
 249  439.0604
 250  546.1133
 251  510.9421
 252  429.6799
 253  460.5683
 254  421.0023
 255  381.7963
 256  385.1535
 257  415.7267
 258  344.7048
 259  519.193
 260  491.2573
 261  485.7196
 262  430.0028
 263  402.9793
 264  359.3901
 265  249.3538
 266  273.8371
 267  450.0301
 268  590.2092
 269  490.0447
 270  451.8195
 271  543.8578
 272  508.2643
 273  552.2708
 274  484.2867
 275  476.8911
 276  465.2941
 277  420.7111
 278  488.8341
 279  541.5983
 280  459.6929
 281  525.4774
 282  476.1971
 283  445.0578
 284  534.5912
 285  659.5815
 286  524.4746
 287  397.0869
 288  301.2979
 289  522.3381
 290  516.3647
 291  394.9455
 292  396.649
 293  374.4012
 294  338.5424
 295  406.972
 296  398.6713
 297  347.5862
 298  499.0344
 299  532.3703
 300  587.4513
 301  501.4731
 302  438.7513
 303  495.1073
 304  463.9348
 305  457.9632
 306  615.8836
 307  661.374
 308  571.6546
 309  587.6591
 310  611.9314
 311  487.3529
 312  447.8605
 313  529.112
 314  588.8113
 315  588.3145
 316  483.1532
 317  475.1727
 318  585.2078
 319  499.019
 320  391.047
 321  313.3356
 322  520.2578
 323  595.4935
 324  609.3849
 325  544.3218
 326  565.2844
 327  568.9346
 328  461.5821
 329  390.7446
 330  525.5984
 331  477.6829
 332  405.1722
 333  356.3157
 334  401.1262
 335  443.9987
 336  374.0676
 337  499.1678
 338  486.2283
 339  507.1967
 340  524.9387
 341  458.1251
 342  521.7755
 343  497.3686
 344  393.3885
 345  546.866
 346  477.8825
 347  444.0226
 348  557.5564
 349  614.4751
 350  611.3307
 351  588.0261
 352  591.2604
 353  485.2357
 354  487.7859
 355  467.3511
 356  469.5777
 357  623.5218
 358  605.0928
 359  508.6831
 360  520.0849
 361  463.5149
 362  450.1501
 363  364.5631
 364  515.894
 365  565.5527
 366  607.7078
 367  726.881
 368  673.1158
 369  611.5473
 370  488.9753
 371  530.322
 372  522.8493
 373  379.1854
 374  453.3112
 375  584.9918
 376  497.7487
 377  404.5338
 378  475.8593
 379  456.1572
 380  507.2602
 381  577.6843
 382  606.1678
 383  633.8599
 384  473.6076
 385  439.3274
 386  404.8761
 387  471.8457
 388  460.491
 389  438.8514
 390  510.0053
 391  467.0666
 392  428.7798
 393  497.1568
 394  414.3229
 395  311.2745
 396  399.0083
 397  455.9047
 398  504.0865
 399  475.0801
 400  430.3906
 401  517.2585
 402  443.3737
 403  443.1716
 404  588.0754
 405  636.7817
 406  569.1452
 407  539.7711
 408  470.1495
 409  464.2099
 410  571.4349
 411  643.0262
 412  544.8047
 413  430.0197
 414  374.1412
 415  394.8227
 416  395.9422
 417  401.6533
 418  474.831
 419  443.137
 420  411.475
 421  398.5215
 422  308.8439
 423  381.2177
 424  491.9381
 425  477.4412
 426  447.8058
 427  416.4125
 428  471.1803
 429  426.6652
 430  487.0706
 431  670.3757
 432  611.2097
 433  545.3596
 434  446.8483
 435  486.1131
 436  517.3792
 437  474.7358
 438  418.8029
 439  421.8652
 440  425.8717
 441  401.3488
 442  470.9623
 443  517.397
 444  606.6576
 445  506.9199
 446  440.6722
 447  585.3839
 448  624.9222
 449  570.0477
 450  429.0304
 451  392.6907
 452  389.1263
 453  540.9538
 454  513.6676
 455  518.7607
 456  484.3111
 457  462.3328
 458  444.9939
 459  470.9564
 460  403.429
 461  383.4162
 462  402.374
 463  432.4509
 464  509.1839
 465  488.8307
 466  401.6488
 467  307.8469
 468  572.8099
 469  484.0022
 470  400.4758
 471  439.7489
 472  550.3407
 473  472.8399
 474  428.006
 475  422.8868
 476  406.8999
 477  370.4713
 478  408.6807
 479  502.1047
 480  469.6499
 481  480.2811
 482  399.2834
 483  436.0271
 484  366.8961
 485  368.5336
 486  417.5662
 487  460.5756
 488  482.567
 489  471.9808
 490  493.9947
 491  499.5401
 492  540.3649
 493  445.9028
 494  498.9668
 495  461.7732
 496  457.315
 497  473.0562
 498  412.7513
 499  403.9807
 500  392.6319
 501  397.663
 502  489.5557
 503  551.2608
 504  453.479
 505  335.9094
 506  354.6794
 507  430.513
 508  364.6429
 509  314.9859
 510  436.0777
 511  405.9291
