# Input file       =  1178614237.09254_cleaned.dat
# Candidate        =  PSR_0332+5434
# Telescope        =  AR
# Epoch_topo       =  57885.368704774766
# Epoch_bary       =  N/A
# T_sample         =  0.002
# Data Folded      =  7340032
# Data Avg         =  0.0302489315880465
# Data StdDev      =  1.0000252960562  
# Profile Bins     =  512
# Profile Avg      =  433.495263040439 
# Profile StdDev   =  119.736065150383 
# Reduced chi-sqr  =  1.225
# Prob(Noise)      <  0.00037   (~3.4 sigma)
# P_topo (ms)      =  714.535810712439  +/- 0.00027
# P'_topo (s/s)    =  -0                +/- 1.43e-10
# P''_topo (s/s^2) =  0                 +/- 6.3e-14
# P_bary (ms)      =  N/A
# P'_bary (s/s)    =  N/A
# P''_bary (s/s^2) =  N/A
# P_orb (s)        =  N/A
# asin(i)/c (s)    =  N/A
# eccentricity     =  N/A
# w (rad)          =  N/A
# T_peri           =  N/A
######################################################
   0  377.2625
   1  222.8275
   2  329.3887
   3  305.0688
   4  286.501
   5  435.9832
   6  455.4327
   7  522.7608
   8  445.1306
   9  378.6318
  10  398.4224
  11  382.9556
  12  446.7803
  13  410.7189
  14  361.566
  15  347.9087
  16  439.5727
  17  363.7735
  18  331.6566
  19  294.0309
  20  440.8871
  21  395.516
  22  328.2221
  23  442.5631
  24  483.8293
  25  342.6638
  26  364.5206
  27  326.8436
  28  312.2874
  29  389.9399
  30  363.1339
  31  439.1649
  32  505.323
  33  362.5701
  34  356.9981
  35  450.9186
  36  372.1314
  37  347.4812
  38  413.0454
  39  388.5314
  40  427.5096
  41  485.7966
  42  431.596
  43  329.2707
  44  379.6854
  45  413.6777
  46  347.0402
  47  399.4431
  48  466.0067
  49  321.8433
  50  249.6371
  51  323.3945
  52  349.5381
  53  408.2289
  54  397.0551
  55  277.6678
  56  335.5944
  57  383.5183
  58  257.4116
  59  248.8544
  60  365.0316
  61  366.3878
  62  426.9287
  63  492.614
  64  443.7002
  65  428.792
  66  316.6583
  67  349.6875
  68  432.3589
  69  459.086
  70  435.027
  71  370.71
  72  299.5506
  73  293.1955
  74  291.6888
  75  421.969
  76  342.5573
  77  456.5024
  78  398.4723
  79  331.9069
  80  430.3435
  81  451.9385
  82  384.7567
  83  390.9086
  84  440.9109
  85  393.2004
  86  310.2167
  87  475.981
  88  399.7249
  89  472.3129
  90  370.1113
  91  366.4271
  92  373.7234
  93  357.0055
  94  393.344
  95  389.7956
  96  349.9389
  97  418.9195
  98  514.1265
  99  499.3299
 100  449.598
 101  463.9581
 102  408.799
 103  470.905
 104  500.4197
 105  591.6628
 106  447.4118
 107  507.3493
 108  548.2186
 109  475.9064
 110  532.358
 111  515.3961
 112  518.5717
 113  414.4962
 114  363.2129
 115  281.1167
 116  386.8402
 117  432.7146
 118  508.3281
 119  543.8173
 120  472.5848
 121  358.5159
 122  405.46
 123  515.1194
 124  481.5927
 125  420.1913
 126  338.4654
 127  413.1047
 128  416.9329
 129  326.997
 130  386.0403
 131  449.7833
 132  440.6288
 133  431.8879
 134  434.7017
 135  331.0516
 136  399.777
 137  538.0142
 138  466.1713
 139  448.5998
 140  418.8987
 141  520.0644
 142  496.8018
 143  480.509
 144  525.3073
 145  513.4967
 146  465.8132
 147  526.4817
 148  439.8894
 149  342.8306
 150  484.678
 151  502.4662
 152  461.6543
 153  355.9503
 154  499.5696
 155  623.6117
 156  644.454
 157  487.1777
 158  366.4915
 159  458.3361
 160  550.3017
 161  554.1788
 162  463.941
 163  503.2764
 164  586.3756
 165  478.6892
 166  463.6607
 167  552.507
 168  616.4982
 169  508.334
 170  409.8598
 171  391.6731
 172  382.506
 173  440.7347
 174  424.7226
 175  380.8032
 176  440.5764
 177  354.8589
 178  332.5848
 179  511.0332
 180  517.9388
 181  502.7856
 182  373.202
 183  413.4103
 184  338.554
 185  422.9265
 186  458.5135
 187  418.7394
 188  407.2379
 189  397.5011
 190  309.5244
 191  415.3075
 192  343.5956
 193  223.4172
 194  334.647
 195  331.0359
 196  355.2888
 197  321.033
 198  335.522
 199  393.4766
 200  462.4773
 201  495.6161
 202  332.6602
 203  409.7766
 204  510.0752
 205  371.5458
 206  340.0516
 207  400.6783
 208  385.0426
 209  386.5381
 210  310.1957
 211  317.4023
 212  248.8951
 213  297.0031
 214  398.4001
 215  323.2458
 216  309.1528
 217  355.1288
 218  263.2866
 219  384.5514
 220  435.7834
 221  440.279
 222  404.2048
 223  269.0329
 224  246.6009
 225  323.9665
 226  428.3556
 227  496.5812
 228  377.2444
 229  263.7927
 230  242.4156
 231  384.3969
 232  480.3236
 233  435.3322
 234  437.7704
 235  442.4317
 236  410.5395
 237  426.8246
 238  439.3051
 239  382.0334
 240  486.1027
 241  470.3434
 242  488.3783
 243  441.9748
 244  364.5527
 245  218.9296
 246  371.0482
 247  490.1658
 248  494.5208
 249  488.6634
 250  462.1206
 251  288.7016
 252  272.0054
 253  379.8379
 254  410.6174
 255  342.4947
 256  404.2997
 257  406.3514
 258  312.2477
 259  321.5167
 260  476.5443
 261  392.3532
 262  374.0604
 263  486.0799
 264  532.8928
 265  380.2263
 266  386.6672
 267  399.6644
 268  437.1942
 269  468.9866
 270  444.4872
 271  440.8779
 272  440.4437
 273  405.9758
 274  474.6033
 275  545.1547
 276  496.6544
 277  470.4988
 278  488.4035
 279  569.1326
 280  576.7991
 281  414.1721
 282  432.4044
 283  416.9619
 284  485.6324
 285  469.5887
 286  384.8378
 287  407.8437
 288  420.8177
 289  392.3272
 290  347.9077
 291  481.9498
 292  529.4783
 293  389.4518
 294  238.4256
 295  424.4891
 296  482.313
 297  450.1767
 298  477.4223
 299  441.7458
 300  455.39
 301  369.2345
 302  356.4973
 303  329.3247
 304  431.8857
 305  525.0309
 306  467.2716
 307  409.9997
 308  432.5949
 309  376.4497
 310  385.4486
 311  478.6597
 312  513.6591
 313  428.8738
 314  518.4885
 315  564.1214
 316  518.3502
 317  402.0141
 318  419.2198
 319  497.119
 320  447.7285
 321  365.1439
 322  494.135
 323  615.9103
 324  568.2405
 325  478.8527
 326  471.3668
 327  425.0097
 328  361.5109
 329  501.5251
 330  508.5996
 331  475.6549
 332  359.4283
 333  461.0917
 334  612.3499
 335  511.0185
 336  499.117
 337  411.4267
 338  501.655
 339  421.8849
 340  445.0778
 341  575.1982
 342  700.1593
 343  647.46
 344  591.8481
 345  480.1967
 346  433.5263
 347  457.0239
 348  403.1509
 349  409.0418
 350  351.6933
 351  376.9428
 352  438.6689
 353  471.495
 354  399.3978
 355  382.3702
 356  486.9693
 357  444.0905
 358  494.6568
 359  426.2445
 360  363.7161
 361  363.2644
 362  388.1516
 363  384.7861
 364  501.6996
 365  387.6522
 366  430.7943
 367  310.3637
 368  421.597
 369  545.8403
 370  540.1725
 371  575.0246
 372  538.8069
 373  489.1763
 374  403.166
 375  297.8023
 376  335.9347
 377  385.5671
 378  451.9696
 379  545.0775
 380  569.6253
 381  600.5848
 382  572.7723
 383  522.0599
 384  660.8425
 385  747.2471
 386  901.8392
 387  999.5309
 388  981.1829
 389  978.6887
 390  818.0414
 391  600.3832
 392  542.3372
 393  493.3993
 394  508.7543
 395  497.2327
 396  431.4133
 397  418.057
 398  422.9414
 399  462.9815
 400  489.4084
 401  547.6509
 402  624.3329
 403  498.8121
 404  364.3094
 405  469.4883
 406  500.2374
 407  483.9496
 408  442.58
 409  435.6359
 410  438.5359
 411  507.8163
 412  485.2021
 413  524.8469
 414  475.0343
 415  462.5512
 416  460.3965
 417  544.2719
 418  447.7456
 419  321.0169
 420  361.9582
 421  371.708
 422  286.0884
 423  332.16
 424  443.6221
 425  450.5401
 426  475.8607
 427  424.1543
 428  520.1663
 429  454.1848
 430  480.2174
 431  640.0553
 432  595.8512
 433  493.726
 434  577.8587
 435  560.6904
 436  516.2245
 437  572.7963
 438  592.8377
 439  524.9484
 440  491.5563
 441  460.656
 442  350.7857
 443  450.3089
 444  483.2519
 445  380.3113
 446  271.3979
 447  324.4278
 448  438.7996
 449  634.5409
 450  653.7993
 451  452.3263
 452  342.9956
 453  422.3778
 454  322.3075
 455  403.0128
 456  477.2118
 457  382.4734
 458  422.5175
 459  412.4374
 460  334.9779
 461  286.3866
 462  378.6978
 463  439.2954
 464  354.2743
 465  394.8593
 466  272.5672
 467  390.9839
 468  423.5203
 469  340.0063
 470  416.4778
 471  436.1339
 472  440.8641
 473  506.2005
 474  485.5968
 475  309.4431
 476  426.0902
 477  475.2594
 478  420.1828
 479  357.2695
 480  435.9575
 481  461.6655
 482  443.1091
 483  469.0945
 484  484.377
 485  402.0945
 486  330.2796
 487  315.933
 488  409.5117
 489  446.6696
 490  369.3645
 491  524.8516
 492  487.6459
 493  424.0662
 494  533.0716
 495  454.2906
 496  406.5101
 497  452.4429
 498  496.775
 499  480.8858
 500  439.1692
 501  367.0171
 502  291.294
 503  421.3358
 504  399.862
 505  396.1421
 506  416.1792
 507  385.6401
 508  357.9101
 509  373.9207
 510  396.7294
 511  359.7851
