# Input file       =  1178714656.122629_cleaned.dat
# Candidate        =  PSR_0332+5434
# Telescope        =  AR
# Epoch_topo       =  57886.530962067467
# Epoch_bary       =  N/A
# T_sample         =  0.002
# Data Folded      =  7340032
# Data Avg         =  0.0391363127273508
# Data StdDev      =  2.7538652951972  
# Profile Bins     =  256
# Profile Avg      =  1121.85886189199 
# Profile StdDev   =  466.306733776849 
# Reduced chi-sqr  =  1.120
# Prob(Noise)      <  0.091   (~1.3 sigma)
# P_topo (ms)      =  714.535021570944  +/- 9.3e-05
# P'_topo (s/s)    =  -0                +/- 4.9e-11
# P''_topo (s/s^2) =  0                 +/- 2.17e-14
# P_bary (ms)      =  N/A
# P'_bary (s/s)    =  N/A
# P''_bary (s/s^2) =  N/A
# P_orb (s)        =  N/A
# asin(i)/c (s)    =  N/A
# eccentricity     =  N/A
# w (rad)          =  N/A
# T_peri           =  N/A
######################################################
   0  1144.952
   1  1063.61
   2  1365.939
   3  939.7103
   4  1222.342
   5  1445.107
   6  1172.109
   7  1828.945
   8  1124.142
   9  1217.45
  10  756.4604
  11  1005.274
  12  1243.977
  13  1528.289
  14  1669.244
  15  503.6789
  16  492.4357
  17  903.7579
  18  1437.665
  19  247.8159
  20  851.9903
  21  1256.549
  22  1500.216
  23  1568.466
  24  1076.109
  25  1190.854
  26  1507.035
  27  2153.502
  28  1242.093
  29  1308.4
  30  594.1386
  31  374.4732
  32  860.2428
  33  1258.515
  34  1203.705
  35  986.9614
  36  1430.892
  37  1402.133
  38  499.9284
  39  1936.121
  40  1784.851
  41  1615.839
  42  2085.867
  43  1782.814
  44  1169.426
  45  1076.692
  46  1070.665
  47  1193.5
  48  1064.885
  49  605.3519
  50  1538.455
  51  1209.407
  52  1516.315
  53  1319.055
  54  1350.981
  55  549.2689
  56  852.9835
  57  709.076
  58  624.3586
  59  1500.345
  60  901.7984
  61  603.4751
  62  980.0163
  63  746.9593
  64  788.709
  65  1602.634
  66  895.646
  67  1026.36
  68  1534.564
  69  406.1444
  70  913.3641
  71  1168.826
  72  1171.317
  73  1055.502
  74  818.0891
  75  1257.01
  76  851.1557
  77  972.3998
  78  792.1699
  79  1181.234
  80  944.9662
  81  655.0502
  82  839.6132
  83  550.716
  84  1234.948
  85  1282.407
  86  1013.126
  87  1166.428
  88  1145.229
  89  779.4431
  90  1107.423
  91  1794.695
  92  1087.055
  93  352.5024
  94  1228.817
  95  473.3251
  96  901.085
  97  1011.143
  98  993.0538
  99  1470.613
 100  1404.179
 101  1280.748
 102  713.8591
 103  949.8194
 104  1514.096
 105  875.8438
 106  1488.014
 107  1066
 108  1137.562
 109  1080.45
 110  1293.648
 111  1659.175
 112  1540.875
 113  1292.214
 114  953.8592
 115  1062.256
 116  1124.559
 117  875.4681
 118  962.3914
 119  1067.949
 120  1311.911
 121  819.66
 122  1046.339
 123  738.9587
 124  1038.906
 125  1181.495
 126  1199.476
 127  1368.843
 128  1546.344
 129  982.8262
 130  1791.137
 131  1651.761
 132  1858.483
 133  1320.382
 134  1070.378
 135  916.5344
 136  943.8909
 137  858.1888
 138  1080.181
 139  1052.821
 140  1666.865
 141  963.5325
 142  1150.039
 143  1732.988
 144  1101.149
 145  1084.031
 146  882.0275
 147  1430.958
 148  937.5627
 149  1238.308
 150  870.7317
 151  538.5542
 152  987.8591
 153  970.202
 154  952.2034
 155  987.5179
 156  1435.427
 157  1765.359
 158  941.6075
 159  1148.244
 160  921.9304
 161  1466.291
 162  1730.398
 163  2360.337
 164  3322.872
 165  2982.716
 166  2104.535
 167  1044.692
 168  709.3888
 169  1033.986
 170  1491.065
 171  1224.291
 172  1036.303
 173  823.6147
 174  1473.601
 175  909.9775
 176  951.8845
 177  1021.904
 178  549.0315
 179  966.1692
 180  407.4375
 181  1786.457
 182  1103.958
 183  1007.479
 184  1173.361
 185  807.6888
 186  762.0056
 187  1120.804
 188  746.5255
 189  893.5045
 190  665.4234
 191  782.5046
 192  1366.07
 193  180.4969
 194  -10.39938
 195  1356.49
 196  712.3141
 197  -116.0212
 198  1057.89
 199  1114.454
 200  782.9227
 201  1213.735
 202  1012.52
 203  382.0421
 204  896.0436
 205  1009.148
 206  1227.008
 207  321.9516
 208  1148.276
 209  702.3203
 210  812.6888
 211  1443.312
 212  899.9287
 213  1558.504
 214  1180.982
 215  1270.415
 216  701.5866
 217  1432.19
 218  1558.112
 219  1100.391
 220  1452.893
 221  1477.663
 222  2099.575
 223  1151.734
 224  1177.008
 225  713.0718
 226  855.2643
 227  1922.396
 228  933.0265
 229  1210.111
 230  1593.988
 231  838.9202
 232  1301.335
 233  1052.185
 234  1382.308
 235  865.2088
 236  1081.664
 237  419.8013
 238  637.3616
 239  1263.448
 240  1674.949
 241  966.9802
 242  728.7261
 243  652.917
 244  910.2442
 245  1696.564
 246  1176.558
 247  1250.721
 248  1040.744
 249  716.306
 250  748.2932
 251  831.4962
 252  599.2455
 253  1643.969
 254  1836.08
 255  854.5745
