# Input file       =  1178629155.093812_cleaned.dat
# Candidate        =  PSR_0332+5434
# Telescope        =  AR
# Epoch_topo       =  57885.541366826525
# Epoch_bary       =  N/A
# T_sample         =  0.002
# Data Folded      =  7340032
# Data Avg         =  0.049677919766899
# Data StdDev      =  4.10213522280239 
# Profile Bins     =  256
# Profile Avg      =  1424.38868668062 
# Profile StdDev   =  694.606697209195 
# Reduced chi-sqr  =  1.106
# Prob(Noise)      <  0.118   (~1.2 sigma)
# P_topo (ms)      =  714.535987531398  +/- 7.02e-05
# P'_topo (s/s)    =  -0                +/- 3.71e-11
# P''_topo (s/s^2) =  0                 +/- 1.64e-14
# P_bary (ms)      =  N/A
# P'_bary (s/s)    =  N/A
# P''_bary (s/s^2) =  N/A
# P_orb (s)        =  N/A
# asin(i)/c (s)    =  N/A
# eccentricity     =  N/A
# w (rad)          =  N/A
# T_peri           =  N/A
######################################################
   0  1203.5
   1  836.3448
   2  1776.121
   3  1019.142
   4  415.7007
   5  640.0068
   6  651.124
   7  1799.078
   8  1786.853
   9  1827.926
  10  1974.323
  11  1695.328
  12  1623.037
  13  1089.073
  14  1250.998
  15  955.1758
  16  2337.069
  17  987.1634
  18  915.0491
  19  606.181
  20  1311.853
  21  1171.35
  22  1704.793
  23  2661.037
  24  2223.711
  25  2361.887
  26  1908.456
  27  2494.417
  28  1727.659
  29  1764.498
  30  1997.75
  31  982.9921
  32  2035.976
  33  1257.312
  34  1338.702
  35  1058.153
  36  1346.308
  37  1123.598
  38  1086.648
  39  681.1268
  40  1248.845
  41  1703.797
  42  956.1426
  43  1079.649
  44  1066.742
  45  594.5786
  46  1433.312
  47  674.6692
  48  837.266
  49  1568.42
  50  1786.893
  51  1298.624
  52  586.2051
  53  1774.745
  54  1246.254
  55  1331.944
  56  519.9203
  57  1487.201
  58  639.7531
  59  1396.46
  60  1266.796
  61  489.5887
  62  1308.578
  63  1034.321
  64  1398.383
  65  581.1893
  66  885.3339
  67  1109.459
  68  1323.498
  69  1565.537
  70  212.1124
  71  2098.412
  72  879.9021
  73  1071.827
  74  1423.397
  75  1670.208
  76  1387.995
  77  1283.989
  78  1506.519
  79  1410.691
  80  2048.881
  81  614.5067
  82  1219.447
  83  1567.211
  84  2359.691
  85  2066.918
  86  1693.978
  87  1649.805
  88  1525.088
  89  1988.602
  90  1230.88
  91  1207.599
  92  1097.585
  93  1563.466
  94  1530.108
  95  1196.452
  96  818.059
  97  721.1885
  98  640.483
  99  996.7795
 100  1575.262
 101  565.2156
 102  361.148
 103  -126.4405
 104  1023.327
 105  760.1644
 106  484.1918
 107  952.7166
 108  600.9018
 109  1286.334
 110  1707.922
 111  1779.022
 112  1284.709
 113  498.4211
 114  1904.832
 115  1308.397
 116  1529.674
 117  988.0365
 118  1899.459
 119  1889.633
 120  1693.532
 121  1747.241
 122  922.4335
 123  1779.995
 124  1562.574
 125  1366.43
 126  739.4324
 127  2694.997
 128  1954.859
 129  2136.013
 130  2733.444
 131  2066.173
 132  1753.939
 133  2147.041
 134  2162.051
 135  1780.437
 136  1821.776
 137  1988.435
 138  2011.75
 139  1849.291
 140  1640.921
 141  1848.479
 142  2087.424
 143  1912.151
 144  1231.283
 145  1195.061
 146  1620.546
 147  71.28624
 148  1194.325
 149  1295.472
 150  1829.836
 151  1106.671
 152  2149.727
 153  2335.114
 154  1328.749
 155  1942.196
 156  1615.897
 157  1337.748
 158  905.4293
 159  1750.329
 160  2163.599
 161  2622.808
 162  2322.117
 163  3633.117
 164  4604.521
 165  5019.147
 166  2407.483
 167  1291.817
 168  1762.322
 169  1418.633
 170  1528.825
 171  365.0797
 172  1255.238
 173  1671.922
 174  1222.501
 175  904.5665
 176  1117.806
 177  1325.987
 178  1223.278
 179  1770.843
 180  1829.956
 181  2194.59
 182  1441.786
 183  1861.18
 184  2497.687
 185  1572.669
 186  1566.878
 187  880.0871
 188  1681.706
 189  1579.197
 190  1257.439
 191  1328.694
 192  1327.05
 193  1845.543
 194  1408.283
 195  2249.373
 196  1421.913
 197  2050.358
 198  1705.481
 199  1400.995
 200  1380.917
 201  821.4235
 202  1069.542
 203  842.7366
 204  1934.547
 205  1450.373
 206  1524.81
 207  703.4103
 208  816.1328
 209  968.6169
 210  823.5954
 211  461.3179
 212  676.3249
 213  891.7002
 214  1463.816
 215  1704.359
 216  1341.927
 217  1053.032
 218  2094.702
 219  1442.553
 220  1259.129
 221  1609.235
 222  2503.961
 223  2326.031
 224  1003.139
 225  1194.004
 226  1162.15
 227  1486.477
 228  908.332
 229  1069.3
 230  1545.613
 231  992.7482
 232  1526.878
 233  757.3485
 234  2125.379
 235  1400.263
 236  808.5992
 237  571.2859
 238  1118.545
 239  1096.362
 240  291.2128
 241  1571.595
 242  994.2929
 243  1222.957
 244  -2.350111
 245  1181.491
 246  438.713
 247  1469.559
 248  973.2424
 249  1317.972
 250  2210.952
 251  1386.662
 252  1999.791
 253  1079.401
 254  1973.231
 255  1784.971
