# Input file       =  1178857381.107616_cleaned.dat
# Candidate        =  PSR_0332+5434
# Telescope        =  AR
# Epoch_topo       =  57888.182871615929
# Epoch_bary       =  N/A
# T_sample         =  0.002
# Data Folded      =  7208960
# Data Avg         =  0.178778104071336
# Data StdDev      =  4.44208890012695 
# Profile Bins     =  512
# Profile Avg      =  2517.32933326534 
# Profile StdDev   =  527.094607690655 
# Reduced chi-sqr  =  0.836
# Prob(Noise)      <  0.997   (~0.0 sigma)
# P_topo (ms)      =  714.533085490245  +/- 5.81e-05
# P'_topo (s/s)    =  -0                +/- 3.12e-11
# P''_topo (s/s^2) =  0                 +/- 1.4e-14
# P_bary (ms)      =  N/A
# P'_bary (s/s)    =  N/A
# P''_bary (s/s^2) =  N/A
# P_orb (s)        =  N/A
# asin(i)/c (s)    =  N/A
# eccentricity     =  N/A
# w (rad)          =  N/A
# T_peri           =  N/A
######################################################
   0  2293.184
   1  2042.659
   2  2123.742
   3  1844.469
   4  2299.034
   5  2678.889
   6  2703.62
   7  2758.593
   8  2886.42
   9  2822.423
  10  2993.942
  11  2811.632
  12  2853.478
  13  3275.995
  14  3132.79
  15  2749.26
  16  2520.048
  17  2894.927
  18  2776.056
  19  2075.175
  20  2322.762
  21  2587.134
  22  2388.979
  23  2121.431
  24  2352.163
  25  2354.122
  26  2497.722
  27  2532.517
  28  2246.338
  29  2944.039
  30  2801.202
  31  3155.63
  32  2898.675
  33  2429.874
  34  2800.482
  35  2612.424
  36  2302.454
  37  2069.286
  38  2669.65
  39  2573.308
  40  2309.174
  41  2401.774
  42  2316.701
  43  2691.961
  44  2721.372
  45  2563.746
  46  2405.878
  47  2898.816
  48  2819.279
  49  2677.302
  50  2476.398
  51  2308.309
  52  2406.441
  53  2373.552
  54  2334.815
  55  2020.559
  56  2377.702
  57  2090.032
  58  2204.373
  59  2856.111
  60  2703.851
  61  2859.631
  62  2515.597
  63  2975.788
  64  2904.269
  65  2301.448
  66  2277.422
  67  2226.029
  68  2576.878
  69  2473.101
  70  2264.625
  71  2515.84
  72  2872.654
  73  2604.373
  74  2469.119
  75  2418.799
  76  2396.792
  77  2662.761
  78  2733.835
  79  3074.297
  80  3358.429
  81  2736.46
  82  2829.446
  83  2603.974
  84  2557.128
  85  2588.549
  86  2055.043
  87  2289.664
  88  2758.65
  89  3070.547
  90  2312.014
  91  2255.315
  92  2422.239
  93  2361.205
  94  2278.604
  95  2256.906
  96  3176.631
  97  2984.978
  98  2974.495
  99  2333.447
 100  2436.405
 101  2267.624
 102  2051.535
 103  2220.346
 104  2217.215
 105  2597.536
 106  2446.404
 107  2217.303
 108  2567.152
 109  2588.224
 110  2376.368
 111  2311.082
 112  2385.245
 113  2500.041
 114  2617.018
 115  2610.771
 116  2531.536
 117  2621.926
 118  2539.518
 119  2426.404
 120  2518.614
 121  2907.16
 122  2605.396
 123  2484.399
 124  2359.358
 125  2605.097
 126  2480.625
 127  1897.953
 128  2448.551
 129  2607.193
 130  2425.457
 131  1968.461
 132  2233.506
 133  2163.283
 134  1906.705
 135  2105.89
 136  2026.943
 137  2312.711
 138  2302.92
 139  2218.523
 140  2232.29
 141  2036.564
 142  2373.71
 143  2172.858
 144  2326.648
 145  2870.12
 146  2980.398
 147  2846.193
 148  2380.059
 149  2242.68
 150  2081.858
 151  2314.533
 152  2188.321
 153  2266.167
 154  2745.146
 155  2533.723
 156  2214.267
 157  1852.367
 158  2223.617
 159  2355.765
 160  2210.429
 161  3016.144
 162  3038.39
 163  2735.479
 164  2375.254
 165  2173.235
 166  2182.6
 167  2330.409
 168  2033.587
 169  2021.734
 170  2542.066
 171  2502.591
 172  2589.05
 173  1957.824
 174  2487.63
 175  2832.66
 176  2703.904
 177  2647.011
 178  2439.168
 179  3149.677
 180  2890.365
 181  2656.473
 182  2132.985
 183  2363.347
 184  2256.587
 185  1753.573
 186  2027.537
 187  2377.898
 188  2616.11
 189  2545.558
 190  2610.28
 191  2851.438
 192  2552.931
 193  2242.773
 194  2488.039
 195  2858.808
 196  2818.596
 197  2434.603
 198  2299.357
 199  2546.084
 200  2370.666
 201  2121.927
 202  2521.811
 203  2527.782
 204  2719.492
 205  2522.749
 206  2440.003
 207  2376.136
 208  2482.231
 209  2454.445
 210  2665.468
 211  3161.476
 212  3031.659
 213  3150.941
 214  2985.913
 215  2839.632
 216  2387.296
 217  2387.623
 218  2578.117
 219  2309.127
 220  2665.224
 221  2615.696
 222  1899.266
 223  2012.442
 224  1852.69
 225  2552.05
 226  2432.903
 227  2563.142
 228  3219.031
 229  2753.208
 230  2165.645
 231  1803.508
 232  2156.399
 233  2597.816
 234  2105.011
 235  2143.173
 236  2555.619
 237  2664.278
 238  2555.901
 239  2044.953
 240  2269.043
 241  2260.114
 242  2241.872
 243  2980.793
 244  3058.698
 245  2817.442
 246  2920.277
 247  2441.227
 248  2469.363
 249  2679.391
 250  2610.957
 251  2540.2
 252  2607.154
 253  2672.856
 254  2892.722
 255  3018.135
 256  2733.74
 257  2972.698
 258  3139.126
 259  2916.184
 260  2917.533
 261  3243.895
 262  3471.055
 263  3163.901
 264  2920.726
 265  2813.653
 266  2325.628
 267  2561.739
 268  2372.215
 269  2810.863
 270  3245.221
 271  3135.713
 272  2417.43
 273  2345.751
 274  2600.138
 275  2452.789
 276  2607.881
 277  2235.061
 278  2895.309
 279  2860.029
 280  2719.051
 281  2585.047
 282  2169.111
 283  1971.968
 284  1838.243
 285  2559.064
 286  2737.237
 287  2650.023
 288  2143.414
 289  2387.703
 290  2546.674
 291  2604.551
 292  2851.203
 293  2514.408
 294  3106.582
 295  3097.845
 296  2774.739
 297  2303.507
 298  2011.631
 299  2239.57
 300  2084.566
 301  2305.438
 302  2001.679
 303  2449.972
 304  2435.442
 305  2077.769
 306  1854.208
 307  2078.347
 308  2425.185
 309  2036.859
 310  2451.717
 311  3054.819
 312  2818.804
 313  2385.692
 314  2132.701
 315  2239.769
 316  1947.296
 317  2081.208
 318  1976.389
 319  2043.585
 320  2239.226
 321  2147.023
 322  2298.283
 323  2033.341
 324  2318.381
 325  2292.085
 326  2651.307
 327  2951.71
 328  2890
 329  2796.62
 330  2382.418
 331  2121.172
 332  2302.525
 333  2233.875
 334  2101.724
 335  2163.501
 336  2283.148
 337  2379.22
 338  2703.006
 339  2614.215
 340  2732.42
 341  2852.673
 342  2634.992
 343  2758.06
 344  3311.4
 345  3133.19
 346  2490.887
 347  2640.031
 348  2525.811
 349  2706.971
 350  2672.72
 351  2632.447
 352  2627.126
 353  2759.683
 354  2842.428
 355  2407.147
 356  2717.159
 357  2341.008
 358  2786.301
 359  3466.232
 360  2706.724
 361  2828.004
 362  2811.598
 363  2839.619
 364  3004.511
 365  2795.592
 366  2408.756
 367  1900.58
 368  2432.432
 369  2837.303
 370  2646.787
 371  2123.861
 372  2442.482
 373  2629.612
 374  2795.114
 375  2721.455
 376  2580.245
 377  2759.764
 378  2467.968
 379  2402.176
 380  2361.996
 381  2300.147
 382  2383.369
 383  2375.179
 384  2702.935
 385  2670.608
 386  2754.682
 387  2445.761
 388  2197.428
 389  2463.149
 390  2444.663
 391  2773.294
 392  2910.885
 393  3250.905
 394  3304.806
 395  2833.735
 396  2545.76
 397  2545.119
 398  2296.702
 399  2190.875
 400  2559.049
 401  2488.22
 402  3274.757
 403  3824.181
 404  3590.736
 405  3614.203
 406  3182.972
 407  3054.133
 408  2645.217
 409  2758.264
 410  2757.65
 411  2641.452
 412  2553.362
 413  2118.643
 414  2045.601
 415  1784.512
 416  1907.309
 417  2067.006
 418  2691.01
 419  3186.347
 420  2900.097
 421  2817.196
 422  2509.881
 423  2639.71
 424  2706.637
 425  2784.41
 426  3396.801
 427  3208.443
 428  3023.977
 429  2656.336
 430  2503.059
 431  2205.117
 432  1981.55
 433  2328.36
 434  2128.581
 435  2511.033
 436  2486.684
 437  2523.919
 438  2348.947
 439  2573.131
 440  2644.688
 441  2401.786
 442  2603.857
 443  2659.292
 444  2737.304
 445  2416.827
 446  2611.069
 447  2520.32
 448  1992.443
 449  1891.198
 450  1916.986
 451  2462.659
 452  2248.539
 453  2313.141
 454  2021.891
 455  2257.722
 456  2710.091
 457  2405.281
 458  2901.441
 459  2853.043
 460  2894.329
 461  2267.427
 462  2338.491
 463  2249.368
 464  2354.714
 465  2294.674
 466  1907.206
 467  2104.153
 468  2237.451
 469  2525.443
 470  2386.608
 471  1917.249
 472  2264.685
 473  2649.554
 474  2674.97
 475  2542.568
 476  2911.428
 477  2800.919
 478  2499.772
 479  2679.676
 480  2292.228
 481  2048.094
 482  1841.55
 483  2074.557
 484  2137.137
 485  2266.736
 486  1971.73
 487  1794.14
 488  1975.461
 489  1680.188
 490  1879.192
 491  2137.224
 492  2759.053
 493  2950.274
 494  2564.318
 495  2293.818
 496  1715.273
 497  2316.064
 498  2343.513
 499  2369.052
 500  2833.894
 501  2870.468
 502  2714.775
 503  2594.195
 504  2604.228
 505  2287.792
 506  2313.942
 507  2285.017
 508  3051.007
 509  3552.404
 510  2908.529
 511  2726.456
