# Input file       =  1178714656.122629_cleaned.dat
# Candidate        =  PSR_0332+5434
# Telescope        =  AR
# Epoch_topo       =  57886.530962067467
# Epoch_bary       =  N/A
# T_sample         =  0.002
# Data Folded      =  7340032
# Data Avg         =  0.0391363127273508
# Data StdDev      =  2.7538652951972  
# Profile Bins     =  512
# Profile Avg      =  560.929430942875 
# Profile StdDev   =  329.72865356656  
# Reduced chi-sqr  =  1.070
# Prob(Noise)      <  0.134   (~1.1 sigma)
# P_topo (ms)      =  714.535021635567  +/- 8.2e-05
# P'_topo (s/s)    =  -0                +/- 4.33e-11
# P''_topo (s/s^2) =  0                 +/- 1.91e-14
# P_bary (ms)      =  N/A
# P'_bary (s/s)    =  N/A
# P''_bary (s/s^2) =  N/A
# P_orb (s)        =  N/A
# asin(i)/c (s)    =  N/A
# eccentricity     =  N/A
# w (rad)          =  N/A
# T_peri           =  N/A
######################################################
   0  577.5016
   1  518.8262
   2  459.4795
   3  781.5174
   4  345.0067
   5  508.9392
   6  837.8766
   7  601.6463
   8  721.8256
   9  835.5984
  10  552.7599
  11  512.9938
  12  259.7411
  13  441.4975
  14  422.856
  15  707.4418
  16  776.4454
  17  542.6373
  18  328.3318
  19  865.233
  20  693.6191
  21  435.5804
  22  613.4208
  23  539.3535
  24  608.0515
  25  570.8
  26  543.9431
  27  444.7011
  28  728.5681
  29  815.8523
  30  911.4805
  31  560.3458
  32  854.9287
  33  978.4601
  34  572.4842
  35  177.7098
  36  645.7119
  37  522.2764
  38  564.3251
  39  507.1512
  40  601.7666
  41  448.6859
  42  443.7305
  43  436.6232
  44  464.7801
  45  690.4813
  46  483.1308
  47  422.074
  48  762.5566
  49  641.7208
  50  245.6581
  51  675.3205
  52  443.5955
  53  231.1557
  54  450.9705
  55  502.3267
  56  579.1696
  57  261.276
  58  764.6428
  59  736.6416
  60  585.8845
  61  469.2127
  62  763.7263
  63  845.1571
  64  774.861
  65  523.4852
  66  486.8545
  67  670.7482
  68  977.8428
  69  1017.23
  70  725.6428
  71  819.7167
  72  952.5336
  73  972.8014
  74  543.3675
  75  368.0069
  76  633.4901
  77  582.6293
  78  428.3292
  79  379.8115
  80  531.7835
  81  285.7322
  82  484.3243
  83  665.656
  84  528.69
  85  409.6317
  86  573.9078
  87  682.1108
  88  934.7786
  89  545.9789
  90  481.4795
  91  375.0113
  92  587.9524
  93  1159.993
  94  758.7591
  95  581.4513
  96  585.0545
  97  296.9476
  98  715.5303
  99  218.311
 100  484.2437
 101  1108.5
 102  564.9636
 103  382.8132
 104  491.5629
 105  638.6656
 106  654.1628
 107  368.0889
 108  528.0562
 109  143.8137
 110  288.8268
 111  581.2388
 112  424.203
 113  576.6049
 114  428.3664
 115  408.3746
 116  506.1131
 117  497.3791
 118  457.5117
 119  651.3522
 120  736.3682
 121  782.5038
 122  877.5359
 123  962.9125
 124  234.9707
 125  494.2682
 126  565.944
 127  546.879
 128  433.3561
 129  395.2942
 130  922.9601
 131  757.877
 132  984.7772
 133  831.9424
 134  1325.176
 135  1546.067
 136  1696.474
 137  1791.61
 138  1405.849
 139  1123.257
 140  1086.658
 141  674.2596
 142  452.4178
 143  587.0853
 144  281.2961
 145  172.4293
 146  658.2363
 147  661.7433
 148  771.938
 149  826.5385
 150  530.3687
 151  386.0757
 152  551.8827
 153  559.4274
 154  302.4261
 155  615.4351
 156  786.0252
 157  678.0241
 158  408.0941
 159  206.1376
 160  588.0671
 161  669.3248
 162  475.4988
 163  212.4937
 164  285.1476
 165  480.5927
 166  519.0795
 167  186.7608
 168  179.145
 169  620.5101
 170  1002.602
 171  862.0143
 172  426.1959
 173  563.8544
 174  474.4076
 175  414.2122
 176  673.0881
 177  465.16
 178  378.1653
 179  456.848
 180  316.7049
 181  557.0298
 182  567.1278
 183  476.1925
 184  299.0401
 185  477.7881
 186  367.17
 187  516.2481
 188  203.6397
 189  490.5535
 190  347.525
 191  438.8522
 192  791.9684
 193  469.6741
 194  -73.81996
 195  -72.69811
 196  4.455002
 197  295.4113
 198  847.3605
 199  699.8339
 200  307.8155
 201  -149.2686
 202  -36.03417
 203  227.6425
 204  611.645
 205  759.7797
 206  484.4547
 207  272.9544
 208  372.9148
 209  852.4271
 210  497.3636
 211  430.2632
 212  572.6053
 213  180.0398
 214  186.9146
 215  438.2319
 216  432.9657
 217  446.7156
 218  506.5773
 219  563.1008
 220  671.8048
 221  315.4135
 222  117.7409
 223  369.581
 224  704.3934
 225  465.7259
 226  305.6505
 227  347.6913
 228  354.011
 229  764.1163
 230  676.1413
 231  613.6376
 232  294.6473
 233  811.3164
 234  698.4796
 235  775.3903
 236  507.3958
 237  515.0346
 238  725.0671
 239  515.9791
 240  245.7863
 241  632.4786
 242  725.1749
 243  728.8124
 244  825.5279
 245  537.1024
 246  500.4246
 247  909.7987
 248  643.3864
 249  426.038
 250  835.2678
 251  1361.202
 252  971.049
 253  394.5774
 254  662.6969
 255  682.866
 256  580.9432
 257  411.8944
 258  351.3495
 259  335.3349
 260  436.3076
 261  722.088
 262  1092.774
 263  723.2444
 264  373.3603
 265  450.1942
 266  706.6252
 267  519.9323
 268  961.6257
 269  734.8718
 270  274.973
 271  539.522
 272  666.7649
 273  718.2493
 274  387.25
 275  712.238
 276  705.026
 277  472.8565
 278  409.349
 279  437.2968
 280  612.9904
 281  396.7509
 282  107.7255
 283  214.9516
 284  329.4972
 285  664.3002
 286  601.0139
 287  589.177
 288  958.2908
 289  789.2957
 290  391.0317
 291  354.7136
 292  379.0674
 293  182.1049
 294  430.7338
 295  317.5464
 296  464.5289
 297  999.7913
 298  787.4135
 299  530.205
 300  624.2952
 301  655.1887
 302  578.3794
 303  621.8288
 304  440.9704
 305  562.3041
 306  300.8575
 307  173.5219
 308  482.3492
 309  355.8878
 310  454.8005
 311  327.4129
 312  295.2824
 313  518.8563
 314  888.2684
 315  1124.272
 316  914.4048
 317  395.7288
 318  437.5934
 319  590.4167
 320  576.5629
 321  501.6643
 322  489.8301
 323  722.755
 324  675.6158
 325  493.7145
 326  470.7926
 327  523.6979
 328  632.7512
 329  726.9636
 330  713.9174
 331  705.7924
 332  488.0416
 333  892.2432
 334  944.3751
 335  560.8264
 336  570.5714
 337  662.5831
 338  604.1923
 339  500.8244
 340  297.7092
 341  505.4781
 342  499.4936
 343  501.7592
 344  602.7874
 345  779.8119
 346  736.2598
 347  840.5709
 348  855.8116
 349  597.2549
 350  107.802
 351  128.4255
 352  270.3571
 353  351.7409
 354  461.5263
 355  669.2964
 356  735.1078
 357  621.7227
 358  -152.9879
 359  318.6348
 360  477.4623
 361  254.9329
 362  796.272
 363  838.111
 364  713.532
 365  705.407
 366  850.3519
 367  612.0505
 368  510.655
 369  574.2424
 370  604.0209
 371  781.4807
 372  716.1087
 373  991.7838
 374  1150.532
 375  662.6271
 376  637.5236
 377  556.8023
 378  674.3663
 379  527.2528
 380  212.3964
 381  216.1413
 382  163.8257
 383  271.0192
 384  505.3591
 385  487.6922
 386  656.6913
 387  889.9035
 388  574.3949
 389  79.87645
 390  728.5739
 391  587.4001
 392  791.6805
 393  761.2256
 394  688.6848
 395  431.5107
 396  128.2214
 397  776.2648
 398  1048.73
 399  926.6587
 400  869.1733
 401  760.3074
 402  852.5263
 403  786.7748
 404  1126.548
 405  1179.622
 406  830.3472
 407  548.8139
 408  594.0004
 409  578.6132
 410  496.1795
 411  753.6621
 412  401.081
 413  607.7789
 414  585.8964
 415  483.7849
 416  520.0692
 417  569.188
 418  201.4193
 419  299.8462
 420  992.5554
 421  763.2012
 422  585.0657
 423  555.3141
 424  816.0335
 425  914.1259
 426  527.8851
 427  675.8873
 428  667.4717
 429  424.238
 430  238.5799
 431  256.6754
 432  475.6489
 433  572.5289
 434  334.8139
 435  59.91501
 436  435.965
 437  465.0763
 438  911.7352
 439  554.6049
 440  485.313
 441  252.2098
 442  321.4166
 443  459.8782
 444  497.3314
 445  379.071
 446  408.7714
 447  286.179
 448  476.5561
 449  567.793
 450  914.6191
 451  661.5494
 452  360.3809
 453  499.4848
 454  492.3335
 455  689.8155
 456  844.4241
 457  330.4629
 458  163.357
 459  214.6678
 460  542.3135
 461  749.3755
 462  532.9021
 463  565.2809
 464  634.4419
 465  297.0566
 466  620.7715
 467  398.8581
 468  373.051
 469  897.9205
 470  513.0089
 471  377.5237
 472  428.256
 473  582.6301
 474  471.3115
 475  265.0089
 476  434.9842
 477  692.6733
 478  588.4921
 479  143.6417
 480  589.3383
 481  812.0672
 482  70.41908
 483  279.3481
 484  496.7654
 485  301.4776
 486  233.8546
 487  454.807
 488  706.5613
 489  639.9232
 490  669.0256
 491  545.3826
 492  489.382
 493  569.2719
 494  576.3434
 495  711.4235
 496  566.4536
 497  221.2334
 498  462.1904
 499  573.1165
 500  528.6022
 501  724.7987
 502  967.5874
 503  671.2773
 504  503.741
 505  355.4844
 506  66.1241
 507  472.8332
 508  701.5519
 509  332.075
 510  236.6783
 511  224.0555
