# Input file       =  1178973071.099241_cleaned.dat
# Candidate        =  PSR_0332+5434
# Telescope        =  AR
# Epoch_topo       =  57889.521876148625
# Epoch_bary       =  N/A
# T_sample         =  0.002
# Data Folded      =  7340032
# Data Avg         =  0.0345789988845163
# Data StdDev      =  1.00073562688474 
# Profile Bins     =  512
# Profile Avg      =  495.722396889244 
# Profile StdDev   =  119.821115217317 
# Reduced chi-sqr  =  0.834
# Prob(Noise)      <  0.997   (~0.0 sigma)
# P_topo (ms)      =  714.532131910234  +/- 0.00081
# P'_topo (s/s)    =  -0                +/- 4.27e-10
# P''_topo (s/s^2) =  0                 +/- 1.89e-13
# P_bary (ms)      =  N/A
# P'_bary (s/s)    =  N/A
# P''_bary (s/s^2) =  N/A
# P_orb (s)        =  N/A
# asin(i)/c (s)    =  N/A
# eccentricity     =  N/A
# w (rad)          =  N/A
# T_peri           =  N/A
######################################################
   0  757.7719
   1  692.9227
   2  616.1586
   3  528.5842
   4  485.7759
   5  601.166
   6  600.576
   7  512.3121
   8  446.7506
   9  434.8632
  10  530.533
  11  539.7423
  12  623.9879
  13  639.8541
  14  613.1671
  15  596.9572
  16  539.9229
  17  497.172
  18  576.9573
  19  533.4088
  20  400.4238
  21  400.2037
  22  529.3903
  23  483.0432
  24  498.8254
  25  534.716
  26  408.8807
  27  376.8626
  28  507.4146
  29  498.4902
  30  387.508
  31  298.999
  32  443.155
  33  497.5355
  34  489.046
  35  548.803
  36  575.5416
  37  469.5081
  38  425.885
  39  402.3407
  40  504.0726
  41  459.6895
  42  427.1679
  43  309.9478
  44  388.0144
  45  494.7509
  46  430.2441
  47  405.8618
  48  448.115
  49  429.4828
  50  408.4431
  51  343.2499
  52  468.4727
  53  473.0621
  54  428.5619
  55  411.2994
  56  497.1188
  57  550.0434
  58  541.3823
  59  529.6054
  60  449.0478
  61  480.6224
  62  407.7255
  63  460.062
  64  495.929
  65  474.1372
  66  516.0834
  67  439.3355
  68  397.8409
  69  316.3384
  70  330.8253
  71  401.1394
  72  426.1225
  73  441.3891
  74  523.8449
  75  635.1916
  76  505.6623
  77  405.6443
  78  514.0952
  79  550.7578
  80  563.6219
  81  603.1064
  82  550.7182
  83  312.7436
  84  318.7784
  85  466.9
  86  453.8462
  87  400.2269
  88  498.3707
  89  482.8164
  90  514.5428
  91  469.7449
  92  568.6846
  93  566.6432
  94  542.5101
  95  440.5036
  96  502.1061
  97  571.8971
  98  509.4493
  99  527.886
 100  494.545
 101  470.5027
 102  399.5505
 103  435.4787
 104  593.3053
 105  610.1566
 106  693.4272
 107  636.9509
 108  503.8285
 109  403.6939
 110  405.1486
 111  499.4326
 112  486.8585
 113  572.6487
 114  508.1241
 115  488.3241
 116  468.1363
 117  494.1172
 118  464.8472
 119  462.9346
 120  586.9828
 121  610.5919
 122  535.843
 123  554.9563
 124  662.3055
 125  654.8965
 126  515.5231
 127  636.7249
 128  622.985
 129  534.4229
 130  536.2075
 131  546.2126
 132  606.2456
 133  541.5673
 134  539.9716
 135  538.6423
 136  487.9603
 137  571.3721
 138  494.0936
 139  566.7928
 140  529.5269
 141  496.7417
 142  546.9744
 143  505.8819
 144  453.7869
 145  394.7507
 146  453.8371
 147  476.38
 148  504.2681
 149  536.1626
 150  562.3031
 151  359.2528
 152  396.7364
 153  594.1942
 154  567.2082
 155  535.6515
 156  514.2174
 157  477.6668
 158  448.6949
 159  479.9389
 160  544.1633
 161  525.1556
 162  669.4424
 163  563.0895
 164  424.4592
 165  405.351
 166  430.5793
 167  519.326
 168  499.009
 169  383.3064
 170  521.2742
 171  429.6887
 172  383.7988
 173  500.1876
 174  509.9174
 175  504.4075
 176  467.7874
 177  496.9947
 178  421.8104
 179  396.8184
 180  465.1352
 181  578.5519
 182  510.7791
 183  454.7065
 184  388.3232
 185  459.2985
 186  533.5336
 187  532.2689
 188  565.2979
 189  533.0944
 190  545.6452
 191  522.7272
 192  496.8971
 193  481.5802
 194  453.1779
 195  447.4938
 196  404.2995
 197  386.463
 198  474.3377
 199  412.5268
 200  487.3921
 201  417.6253
 202  396.8288
 203  506.6744
 204  494.9848
 205  453.7819
 206  542.0638
 207  508.143
 208  430.5455
 209  532.4047
 210  505.7143
 211  426.449
 212  438.3187
 213  503.5311
 214  569.8036
 215  550.9844
 216  382.305
 217  377.3916
 218  526.3627
 219  515.23
 220  473.606
 221  582.4904
 222  582.097
 223  554.9203
 224  598.2771
 225  552.5419
 226  416.0531
 227  453.9281
 228  530.1869
 229  497.3165
 230  470.1367
 231  522.491
 232  524.5814
 233  538.7863
 234  470.2145
 235  473.7127
 236  481.2618
 237  534.0403
 238  604.8706
 239  607.2622
 240  512.8884
 241  391.6668
 242  534.3958
 243  585.716
 244  478.0391
 245  549.7003
 246  649.757
 247  532.315
 248  539.0087
 249  556.1065
 250  446.2977
 251  570.1185
 252  588.2626
 253  607.7553
 254  605.5363
 255  600.716
 256  532.9114
 257  558.9101
 258  553.8447
 259  423.2202
 260  454.4986
 261  527.2098
 262  518.7863
 263  549.8357
 264  661.6004
 265  586.8406
 266  516.7191
 267  445.4139
 268  375.6364
 269  430.2891
 270  457.4426
 271  479.5384
 272  460.7943
 273  453.297
 274  489.2725
 275  331.1974
 276  389.739
 277  380.072
 278  425.7449
 279  365.7018
 280  346.0301
 281  408.8102
 282  402.1578
 283  458.5928
 284  440.8652
 285  339.1368
 286  353.3532
 287  468.5318
 288  491.1546
 289  591.1666
 290  644.9053
 291  513.0017
 292  526.9318
 293  459.0885
 294  499.9312
 295  519.1197
 296  528.5126
 297  531.8942
 298  626.4689
 299  496.9242
 300  286.6039
 301  401.7795
 302  501.688
 303  514.494
 304  450.2014
 305  406.7346
 306  527.5352
 307  628.2094
 308  664.6841
 309  462.7358
 310  527.5049
 311  526.8776
 312  468.744
 313  477.066
 314  517.0561
 315  475.1407
 316  424.5113
 317  563.9461
 318  651.6717
 319  520.2382
 320  565.3536
 321  570.0986
 322  592.2938
 323  461.7149
 324  494.0071
 325  511.9831
 326  552.0665
 327  540.8012
 328  456.1489
 329  444.6741
 330  370.7589
 331  400.7024
 332  569.3249
 333  581.0165
 334  643.2851
 335  540.6942
 336  521.7587
 337  552.7582
 338  549.6055
 339  694.205
 340  642.4744
 341  499.3373
 342  539.5958
 343  563.1021
 344  583.3799
 345  563.1951
 346  536.8732
 347  601.2289
 348  556.8832
 349  553.6273
 350  478.696
 351  558.3896
 352  524.322
 353  528.8976
 354  515.2473
 355  550.6089
 356  621.4536
 357  604.7768
 358  509.6618
 359  446.1311
 360  546.2485
 361  632.3129
 362  550.6951
 363  498.6952
 364  459.8505
 365  530.9131
 366  469.1676
 367  495.22
 368  488.9211
 369  588.1125
 370  570.0383
 371  537.7191
 372  566.0192
 373  488.6633
 374  480.4896
 375  577.3162
 376  617.6418
 377  485.7979
 378  501.1696
 379  515.8363
 380  357.267
 381  531.5762
 382  485.2987
 383  412.5418
 384  462.7239
 385  407.8539
 386  533.449
 387  525.8888
 388  467.768
 389  370.8507
 390  411.3048
 391  302.9873
 392  350.6103
 393  375.9972
 394  423.6566
 395  414.9267
 396  369.1524
 397  410.1382
 398  488.9686
 399  465.7265
 400  532.0727
 401  360.0923
 402  296.2472
 403  398.7946
 404  484.3704
 405  418.1522
 406  318.0762
 407  432.5741
 408  498.0032
 409  530.773
 410  578.5477
 411  571.9637
 412  459.035
 413  394.4345
 414  381.9675
 415  447.0422
 416  525.0346
 417  565.8872
 418  572.1866
 419  550.7161
 420  556.2839
 421  498.1399
 422  442.8803
 423  471.1828
 424  472.4851
 425  488.2133
 426  432.7721
 427  341.5641
 428  493.3595
 429  488.4502
 430  403.7078
 431  494.1288
 432  472.9085
 433  426.5379
 434  419.239
 435  422.3005
 436  493.8124
 437  509.0048
 438  473.593
 439  615.345
 440  532.4454
 441  484.8464
 442  508.7392
 443  441.0951
 444  501.521
 445  504.5916
 446  471.5953
 447  486.9482
 448  544.6772
 449  482.4493
 450  402.25
 451  541.7972
 452  632.6817
 453  617.016
 454  431.947
 455  439.0246
 456  465.974
 457  342.76
 458  389.0404
 459  464.5141
 460  528.3345
 461  460.6671
 462  413.6424
 463  472.5109
 464  568.9876
 465  530.9756
 466  437.4493
 467  384.7778
 468  422.2625
 469  485.474
 470  365.631
 471  384.4428
 472  372.071
 473  515.7338
 474  513.0457
 475  506.2292
 476  459.033
 477  507.08
 478  412.8509
 479  426.0318
 480  526.6395
 481  499.2915
 482  543.4988
 483  525.7019
 484  486.2182
 485  385.9867
 486  458.6523
 487  418.4924
 488  383.4756
 489  350.5737
 490  458.2061
 491  455.0695
 492  361.0425
 493  383.4566
 494  544.527
 495  502.9002
 496  433.0725
 497  509.9149
 498  499.6539
 499  633.334
 500  630.5443
 501  521.0015
 502  516.5939
 503  516.5427
 504  506.342
 505  542.7061
 506  559.8637
 507  558.2455
 508  610.147
 509  647.7958
 510  823.7595
 511  831.0193
