# Input file       =  1178857381.107616_cleaned.dat
# Candidate        =  PSR_0332+5434
# Telescope        =  AR
# Epoch_topo       =  57888.182871615929
# Epoch_bary       =  N/A
# T_sample         =  0.002
# Data Folded      =  7208960
# Data Avg         =  0.178778104071336
# Data StdDev      =  4.44208890012695 
# Profile Bins     =  512
# Profile Avg      =  2517.32933331    
# Profile StdDev   =  527.094607690655 
# Reduced chi-sqr  =  0.837
# Prob(Noise)      <  0.997   (~0.0 sigma)
# P_topo (ms)      =  714.533085239956  +/- 6.3e-05
# P'_topo (s/s)    =  -0                +/- 3.39e-11
# P''_topo (s/s^2) =  0                 +/- 1.52e-14
# P_bary (ms)      =  N/A
# P'_bary (s/s)    =  N/A
# P''_bary (s/s^2) =  N/A
# P_orb (s)        =  N/A
# asin(i)/c (s)    =  N/A
# eccentricity     =  N/A
# w (rad)          =  N/A
# T_peri           =  N/A
######################################################
   0  2393.409
   1  2422.294
   2  2523.763
   3  2768.365
   4  2774.713
   5  3370.027
   6  3005.043
   7  2760.185
   8  2777.512
   9  2447.967
  10  2723.461
  11  2181.597
  12  2241.275
  13  2450.731
  14  3115.532
  15  2540.329
  16  2213.619
  17  2389.158
  18  2389.018
  19  2372.531
  20  2112.777
  21  2898.88
  22  3078.046
  23  3043.205
  24  2623.026
  25  2314.822
  26  2368.062
  27  2040.362
  28  2177.883
  29  2207.284
  30  2479.808
  31  2577.671
  32  2285.799
  33  2335.414
  34  2687.35
  35  2403.507
  36  2314.225
  37  2341.459
  38  2443.119
  39  2605.816
  40  2608.812
  41  2591.441
  42  2554.365
  43  2588.811
  44  2468.638
  45  2383.903
  46  2788.681
  47  2824.286
  48  2485.201
  49  2465.907
  50  2427.648
  51  2708.058
  52  2033.189
  53  2108.111
  54  2641.367
  55  2507.194
  56  2225.695
  57  1988.554
  58  2342.193
  59  1867.243
  60  2046.572
  61  2058.054
  62  2123.971
  63  2405.133
  64  2198.41
  65  2314.79
  66  2045.342
  67  2264.09
  68  2254.906
  69  2189.197
  70  2632.234
  71  2981.185
  72  2978.021
  73  2603.756
  74  2235.132
  75  2193.599
  76  2126.778
  77  2363.701
  78  2056.038
  79  2654.001
  80  2639.538
  81  2390.915
  82  1964.375
  83  1922.071
  84  2508.911
  85  2110.271
  86  2766.664
  87  3007.431
  88  2959.543
  89  2429.545
  90  2294.245
  91  2102.509
  92  2314.035
  93  2206.852
  94  1921.409
  95  2379.437
  96  2486.587
  97  2652.039
  98  2162.013
  99  2156.655
 100  2800.888
 101  2730.945
 102  2783.618
 103  2406.354
 104  2871.192
 105  3024.528
 106  2798.794
 107  2300.162
 108  2203.066
 109  2381.868
 110  1961.036
 111  1842.041
 112  2211.579
 113  2531.842
 114  2617.266
 115  2540.06
 116  2831.624
 117  2683.338
 118  2377.572
 119  2235.697
 120  2804.1
 121  2817.424
 122  2681.25
 123  2263.613
 124  2459.333
 125  2527.813
 126  2131.243
 127  2350.135
 128  2567.624
 129  2623.402
 130  2619.15
 131  2468.258
 132  2359.788
 133  2460.698
 134  2466.272
 135  2520.812
 136  2964.511
 137  3161.06
 138  3083.949
 139  3093.548
 140  2839.461
 141  2642.915
 142  2229.667
 143  2652.944
 144  2352.439
 145  2512.519
 146  2756.76
 147  2125.011
 148  1942.407
 149  1883.337
 150  2259.183
 151  2591.502
 152  2342.479
 153  3020.662
 154  3048.583
 155  2417.139
 156  1898.735
 157  1899.201
 158  2545.113
 159  2321.125
 160  2061.87
 161  2292.92
 162  2744.021
 163  2579.605
 164  2344.632
 165  1993.997
 166  2415.711
 167  2081.339
 168  2674.907
 169  3164.316
 170  2827.752
 171  2972.618
 172  2620.955
 173  2373.722
 174  2606.194
 175  2707.157
 176  2563.177
 177  2575.994
 178  2590.769
 179  2795.421
 180  3028.886
 181  2871.817
 182  2763.943
 183  3186.514
 184  2985.618
 185  2927.717
 186  3021.683
 187  3461.724
 188  3270.5
 189  3019.456
 190  2918.356
 191  2474.834
 192  2447.346
 193  2426.547
 194  2565.423
 195  3102.977
 196  3353.445
 197  2698.493
 198  2239.894
 199  2522.97
 200  2490.733
 201  2605.737
 202  2369.682
 203  2558.455
 204  2931.19
 205  2775.139
 206  2699.562
 207  2368.469
 208  2025.217
 209  1780.134
 210  2263.649
 211  2711.402
 212  2771.655
 213  2280.417
 214  2255.522
 215  2511.14
 216  2565.58
 217  2767.257
 218  2656.63
 219  2746.2
 220  3264.013
 221  2894.61
 222  2537.129
 223  2060.851
 224  2151.046
 225  2150.3
 226  2226.923
 227  2115.328
 228  2192.758
 229  2545.048
 230  2243.132
 231  1908.929
 232  1900.937
 233  2362.001
 234  2221.759
 235  2107.074
 236  2939.575
 237  2924.348
 238  2636.168
 239  2095.846
 240  2323.848
 241  2010.166
 242  2037.587
 243  1995.211
 244  1955.438
 245  2276.651
 246  2045.924
 247  2379.974
 248  2040.436
 249  2253.471
 250  2268.691
 251  2457.334
 252  2900.087
 253  2891.326
 254  2880.122
 255  2571.491
 256  2147.99
 257  2275.573
 258  2227.303
 259  2241.323
 260  1998.773
 261  2321.182
 262  2204.461
 263  2681.555
 264  2655.008
 265  2632.868
 266  2882.157
 267  2696.282
 268  2705.441
 269  3007.142
 270  3419.673
 271  2595.745
 272  2601.419
 273  2550.365
 274  2626.891
 275  2762.998
 276  2583.62
 277  2678.664
 278  2573.953
 279  2998.815
 280  2449.387
 281  2631.375
 282  2471.125
 283  2491.47
 284  3324.437
 285  3107.348
 286  2644.086
 287  2869.408
 288  2802.12
 289  2979.317
 290  2915.268
 291  2595.934
 292  1997.821
 293  2123.892
 294  2739.826
 295  2849.456
 296  2224.125
 297  2302.571
 298  2560.256
 299  2751.7
 300  2810.015
 301  2547.647
 302  2739.412
 303  2612.773
 304  2396.526
 305  2418.315
 306  2288.979
 307  2379.612
 308  2288.22
 309  2614.838
 310  2710.25
 311  2698.826
 312  2690.195
 313  2175.892
 314  2357.69
 315  2460.613
 316  2582.222
 317  2900.812
 318  3061.168
 319  3349.215
 320  3063.75
 321  2647.977
 322  2534.799
 323  2474.154
 324  2085.902
 325  2486.646
 326  2464.748
 327  2889.617
 328  3676.917
 329  3701.469
 330  3622.476
 331  3367.56
 332  3139.176
 333  2819.628
 334  2636.571
 335  2809.966
 336  2645.087
 337  2638.72
 338  2288.431
 339  2057.265
 340  1955.875
 341  1767.542
 342  2027.299
 343  2266.25
 344  3178.518
 345  2922.245
 346  2900.01
 347  2646.848
 348  2543.937
 349  2757.605
 350  2625.216
 351  3203.392
 352  3268.183
 353  3186.732
 354  2764.71
 355  2581.61
 356  2344.101
 357  1992.251
 358  2231.19
 359  2190.196
 360  2344.868
 361  2513.206
 362  2542.015
 363  2460.236
 364  2395.502
 365  2746.605
 366  2376.213
 367  2535.208
 368  2661.202
 369  2745.29
 370  2518.882
 371  2472.558
 372  2663.742
 373  2194.119
 374  1937.919
 375  1803.039
 376  2265.076
 377  2372.418
 378  2250.247
 379  2221.38
 380  1964.92
 381  2665.329
 382  2480.125
 383  2664.307
 384  2957.499
 385  2884.473
 386  2580.875
 387  2214.78
 388  2351.631
 389  2266.361
 390  2396.068
 391  1981.676
 392  2014.265
 393  2138.474
 394  2453.528
 395  2493.24
 396  2074.195
 397  1998.044
 398  2559.469
 399  2723.456
 400  2617.346
 401  2713.695
 402  2935.324
 403  2568.334
 404  2574.145
 405  2541.129
 406  2125.667
 407  1850.909
 408  1990.569
 409  2080.85
 410  2319.121
 411  2089.439
 412  1831.23
 413  1937.578
 414  1784.78
 415  1766.111
 416  2007.351
 417  2452.662
 418  2971.929
 419  2714.29
 420  2459.945
 421  1934.456
 422  1984.046
 423  2427.266
 424  2247.408
 425  2646.007
 426  2941.785
 427  2771.519
 428  2582.321
 429  2626.972
 430  2393.453
 431  2332.574
 432  2233.895
 433  2609.042
 434  3530.307
 435  3172.264
 436  2820.667
 437  2580.388
 438  2012.88
 439  2149.185
 440  1850.544
 441  2121.941
 442  2519.688
 443  2786.209
 444  2649.859
 445  2874.904
 446  2832.662
 447  2895.235
 448  3007.124
 449  2654.482
 450  3223.638
 451  3197.516
 452  2994.178
 453  2491.594
 454  2739.198
 455  2898.168
 456  2342.98
 457  2104.671
 458  2563.75
 459  2516.449
 460  2148.942
 461  2293.54
 462  2386.702
 463  2388.626
 464  2581.371
 465  2222.247
 466  2682.573
 467  2907.604
 468  3001.387
 469  3104.658
 470  2509.136
 471  2657.484
 472  2728.462
 473  2543.961
 474  1940.789
 475  2530.743
 476  2599.646
 477  2429.447
 478  2307.66
 479  2387.197
 480  2488.741
 481  2788.125
 482  2598.877
 483  2483.393
 484  2627.168
 485  2987.206
 486  2637.557
 487  2615.094
 488  2327.795
 489  2411.544
 490  2361.923
 491  2379.672
 492  2110.121
 493  2216.604
 494  2361.513
 495  1914.14
 496  2685.15
 497  2710.611
 498  2878.966
 499  2670.784
 500  2663.915
 501  3112.078
 502  2453.949
 503  2327.445
 504  2203.77
 505  2436.985
 506  2573.712
 507  2281.964
 508  2350.847
 509  2803.038
 510  2771.003
 511  2501.317
