# Input file       =  1178599101.100686_cleaned.dat
# Candidate        =  PSR_0332+5434
# Telescope        =  AR
# Epoch_topo       =  57885.193519683868
# Epoch_bary       =  N/A
# T_sample         =  0.002
# Data Folded      =  7405568
# Data Avg         =  0.147867975170328
# Data StdDev      =  4.10902127431716 
# Profile Bins     =  512
# Profile Avg      =  2138.58800608053 
# Profile StdDev   =  494.177077134795 
# Reduced chi-sqr  =  1.724
# Prob(Noise)      <  4.37e-22   (~9.6 sigma)
# P_topo (ms)      =  714.535955030199  +/- 2.8e-05
# P'_topo (s/s)    =  -0                +/- 1.46e-11
# P''_topo (s/s^2) =  0                 +/- 6.41e-15
# P_bary (ms)      =  N/A
# P'_bary (s/s)    =  N/A
# P''_bary (s/s^2) =  N/A
# P_orb (s)        =  N/A
# asin(i)/c (s)    =  N/A
# eccentricity     =  N/A
# w (rad)          =  N/A
# T_peri           =  N/A
######################################################
   0  1749.073
   1  1533.953
   2  1359.06
   3  1083.234
   4  1401.154
   5  1887.027
   6  2230.506
   7  2303.162
   8  2334.022
   9  2272.841
  10  1727.153
  11  1801.675
  12  2005.13
  13  2041.459
  14  1803.649
  15  2220.358
  16  2524.451
  17  2284.452
  18  1918.415
  19  1969.542
  20  2181.622
  21  2086.361
  22  2375.771
  23  2630.849
  24  2496.357
  25  2243.778
  26  1932.657
  27  1891.029
  28  1717.121
  29  1604.26
  30  1692.161
  31  2079.869
  32  1944.42
  33  1976.299
  34  1495.505
  35  1226.662
  36  1374.565
  37  1694.603
  38  2373.962
  39  2373.136
  40  2613.657
  41  2402.929
  42  2066.503
  43  1764.682
  44  1805.719
  45  1556.015
  46  1613.207
  47  2063.111
  48  2437.932
  49  1971.542
  50  1334.232
  51  1353.221
  52  1309.605
  53  1596.625
  54  2186.198
  55  2482.108
  56  2770.467
  57  2637.787
  58  2380.387
  59  1942.341
  60  1964.529
  61  1920.876
  62  1783.005
  63  2149.494
  64  2127.714
  65  2009.431
  66  1893.497
  67  1974.867
  68  2249.3
  69  2328.278
  70  2117.645
  71  2323.253
  72  2629.741
  73  2939.967
  74  3080.272
  75  2814.366
  76  2567.345
  77  1594.602
  78  1486.555
  79  1794.774
  80  2388.141
  81  2449.949
  82  2339.624
  83  2254.068
  84  1738.159
  85  1378.357
  86  1670.992
  87  2110.789
  88  2410.038
  89  2658.888
  90  2777.983
  91  2260.759
  92  2159.361
  93  1721.613
  94  1881.417
  95  1692.921
  96  1922.688
  97  2282.471
  98  2174.134
  99  2563.916
 100  2336.743
 101  2183.926
 102  1976.613
 103  2019.804
 104  2318.861
 105  2455.931
 106  2569.726
 107  2733.678
 108  2713.274
 109  2218.235
 110  1975.396
 111  1933.363
 112  2266.051
 113  1801.772
 114  2171.68
 115  2113.968
 116  1928.098
 117  1870.801
 118  1845.785
 119  2119.502
 120  2513.172
 121  2927.182
 122  3010.124
 123  2790.499
 124  2244.977
 125  1881.761
 126  1911.185
 127  2033.791
 128  2150.465
 129  2050.761
 130  2331.201
 131  2327.479
 132  2227.302
 133  2022.839
 134  1706.79
 135  1978.402
 136  2246.534
 137  2635.962
 138  3037.238
 139  3401.184
 140  3042.292
 141  2695.305
 142  2474.98
 143  2224.765
 144  1626.838
 145  1750.761
 146  2271.438
 147  2553.638
 148  2784.985
 149  2480.02
 150  2140.218
 151  1737.998
 152  1954.69
 153  2528.966
 154  2737.443
 155  2825.43
 156  2626.941
 157  2399.58
 158  1896.513
 159  1931.88
 160  1574.464
 161  1897.623
 162  1773.224
 163  1973.562
 164  2362.149
 165  1991.349
 166  1848.286
 167  1439.722
 168  1517.378
 169  1353.738
 170  2073.62
 171  2592.169
 172  2852.701
 173  2846.544
 174  2529.987
 175  2256.007
 176  1808.216
 177  1449.786
 178  1510.878
 179  1829.722
 180  2428.624
 181  2144.352
 182  1986.461
 183  1642.023
 184  1296.115
 185  1215.381
 186  1762.755
 187  2373.48
 188  2481.949
 189  2461.419
 190  2339.023
 191  2230.896
 192  2067.883
 193  1902.863
 194  2175.126
 195  2129.751
 196  2031.93
 197  2220.66
 198  2215.347
 199  2250.793
 200  2221.763
 201  1887.92
 202  1832.068
 203  2227.368
 204  2481.376
 205  2596.695
 206  2530.809
 207  2105.691
 208  1956.175
 209  1825.892
 210  1879.022
 211  1889.389
 212  1785.07
 213  2168.858
 214  1828.381
 215  1819.296
 216  1853.073
 217  2029.955
 218  1809.311
 219  2231.001
 220  2299.101
 221  2239.402
 222  2525.968
 223  2276.663
 224  2321.604
 225  2045.613
 226  1753.218
 227  1682.364
 228  1648.267
 229  2194.633
 230  2371.158
 231  2239.228
 232  2025.393
 233  1893.453
 234  1952.403
 235  1985.91
 236  2081.073
 237  2744.865
 238  3049.719
 239  2560.973
 240  2190.242
 241  1799.472
 242  1602.846
 243  1190.251
 244  1086.377
 245  1479.192
 246  2009.213
 247  2441.455
 248  2155.541
 249  1916.135
 250  1481.355
 251  1642.216
 252  1613.99
 253  2017.107
 254  2671.207
 255  2763.139
 256  2832.934
 257  2428.108
 258  2054.019
 259  1573.665
 260  1691.574
 261  2263.627
 262  2634.76
 263  2674.611
 264  2872.976
 265  2557.399
 266  2186.05
 267  2333.992
 268  2413.897
 269  2578.326
 270  3094.167
 271  3497.896
 272  3288.405
 273  2879.785
 274  2549.905
 275  2380.957
 276  2431.669
 277  2210.495
 278  2557.53
 279  2740.814
 280  2599.784
 281  2506.554
 282  2280.705
 283  2715.057
 284  2386.623
 285  2502.932
 286  2902.802
 287  3267.521
 288  3525.378
 289  3353.759
 290  2543.453
 291  2085.61
 292  2144.415
 293  2093.355
 294  2221.947
 295  2339.006
 296  2441.692
 297  2286.548
 298  2247.941
 299  1974.027
 300  2380.214
 301  2816.975
 302  2811.309
 303  3018.514
 304  3017.824
 305  2698.937
 306  2485.404
 307  2442.152
 308  2450.157
 309  2376.358
 310  2473.521
 311  2465.017
 312  2463.352
 313  2269.296
 314  2160.116
 315  1849.051
 316  1593.422
 317  1735.577
 318  1974.611
 319  2773.187
 320  3080.355
 321  3204.972
 322  2859.676
 323  2750.803
 324  2119.298
 325  2040.461
 326  2249.173
 327  2707.102
 328  2967.999
 329  3432.028
 330  3797.595
 331  3317.55
 332  2502.364
 333  2055.506
 334  1879.194
 335  2180.682
 336  2534.945
 337  2983.88
 338  2535.949
 339  1999.276
 340  1964.891
 341  2087.046
 342  2032.874
 343  2097.208
 344  1871.415
 345  2373.057
 346  2537.165
 347  2344.604
 348  2258.756
 349  1866.639
 350  1675.798
 351  2057.079
 352  2431.615
 353  2880.088
 354  3043.649
 355  2620.432
 356  2181.331
 357  2008.581
 358  1838.768
 359  2119.478
 360  1951.263
 361  2295.951
 362  2276.223
 363  2130.948
 364  1820.57
 365  1967.58
 366  2434.45
 367  2625.061
 368  2541.919
 369  2357.949
 370  2703.995
 371  2184.637
 372  2061.771
 373  2028.822
 374  1886.035
 375  1980.095
 376  1641.614
 377  2087.795
 378  2242.403
 379  2369.639
 380  2133.552
 381  1921.37
 382  2257.644
 383  2121.746
 384  2381.866
 385  2659.407
 386  3121.761
 387  3032.763
 388  2858.853
 389  2121.93
 390  1855.158
 391  1742.318
 392  1746.116
 393  1737.355
 394  2159.449
 395  2303.767
 396  2002.029
 397  1987.512
 398  1580.902
 399  1681.678
 400  1880.438
 401  2279.924
 402  2895.006
 403  2794.796
 404  2494.563
 405  2181.128
 406  1854.995
 407  1727.921
 408  1685.872
 409  1869.47
 410  2346.185
 411  2459.769
 412  2098.143
 413  1891.667
 414  1441.697
 415  1464.811
 416  1709.668
 417  2155.047
 418  2614.548
 419  2742.24
 420  2716.646
 421  2576.878
 422  2119.854
 423  1585.98
 424  1716.116
 425  1814.344
 426  1999.577
 427  2212.77
 428  2370.309
 429  2637.469
 430  2289.279
 431  1903.829
 432  1665.784
 433  1558.367
 434  1560.092
 435  2398.738
 436  2644.425
 437  2491.972
 438  2351.716
 439  1931.724
 440  1885.886
 441  1994.519
 442  2187.48
 443  2133.116
 444  2328.353
 445  2216.048
 446  1932.521
 447  2001.212
 448  1907.929
 449  2057.382
 450  2110.841
 451  2681.644
 452  2517.387
 453  2411.007
 454  2318.335
 455  2193.483
 456  2104.882
 457  1680.656
 458  1958.815
 459  1867.77
 460  2058.288
 461  2119.28
 462  1820.662
 463  1431.023
 464  1265.623
 465  1660.741
 466  1835.879
 467  1642.767
 468  2044.818
 469  2438.362
 470  2452.519
 471  2034.466
 472  1618.436
 473  1128.376
 474  1092.914
 475  1430.565
 476  1666.671
 477  1653.353
 478  1967.366
 479  1643.159
 480  912.8403
 481  1123.74
 482  1485.588
 483  1820.86
 484  2338.136
 485  2724.558
 486  1891.355
 487  1870.16
 488  1551.334
 489  1434.549
 490  1155.749
 491  1147.01
 492  1538.636
 493  1894.196
 494  1962.254
 495  1650.211
 496  1248.649
 497  981.0802
 498  832.4744
 499  1240.596
 500  1885.07
 501  2388.432
 502  2347.834
 503  2361.962
 504  2145.901
 505  1427.671
 506  709.1744
 507  1012.291
 508  1014.803
 509  1096.913
 510  1361.917
 511  1756.076
