# Input file       =  1178542452.102663_cleaned.dat
# Candidate        =  PSR_0332+5434
# Telescope        =  AR
# Epoch_topo       =  57884.537859984528
# Epoch_bary       =  N/A
# T_sample         =  0.002
# Data Folded      =  7340032
# Data Avg         =  0.0328723839026809
# Data StdDev      =  3.51431303505337 
# Profile Bins     =  256
# Profile Avg      =  942.34110164366  
# Profile StdDev   =  595.071892478966 
# Reduced chi-sqr  =  1.046
# Prob(Noise)      <  0.296   (~0.5 sigma)
# P_topo (ms)      =  714.536932024877  +/- 0.000489
# P'_topo (s/s)    =  -0                +/- 2.58e-10
# P''_topo (s/s^2) =  0                 +/- 1.14e-13
# P_bary (ms)      =  N/A
# P'_bary (s/s)    =  N/A
# P''_bary (s/s^2) =  N/A
# P_orb (s)        =  N/A
# asin(i)/c (s)    =  N/A
# eccentricity     =  N/A
# w (rad)          =  N/A
# T_peri           =  N/A
######################################################
   0  1186.713
   1  1127.187
   2  1171.228
   3  1493.875
   4  2146.274
   5  2066.85
   6  438.5666
   7  955.1249
   8  1161.508
   9  328.3686
  10  239.809
  11  418.2469
  12  -155.0024
  13  51.09774
  14  1386.08
  15  725.3851
  16  519.1691
  17  1572.251
  18  1308.115
  19  1129.172
  20  740.0194
  21  750.5704
  22  866.3472
  23  942.1179
  24  643.1434
  25  886.4434
  26  583.3619
  27  465.7816
  28  -128.7173
  29  936.291
  30  1231.611
  31  305.9561
  32  1129.415
  33  2061.028
  34  1158.094
  35  1395.357
  36  855.6559
  37  1000.939
  38  760.0429
  39  376.3602
  40  971.3303
  41  1392.698
  42  698.2774
  43  1027.114
  44  1098.602
  45  1005.535
  46  1497.564
  47  1294.823
  48  761.4509
  49  369.6988
  50  1054.551
  51  1284.178
  52  553.8259
  53  823.3726
  54  1753.265
  55  777.9866
  56  812.6105
  57  723.1744
  58  972.9548
  59  747.5378
  60  621.8019
  61  1161.186
  62  1529.322
  63  545.6454
  64  -50.06157
  65  1225.351
  66  -47.0751
  67  755.9166
  68  815.6802
  69  567.6522
  70  561.9888
  71  951.5927
  72  679.564
  73  329.7172
  74  1049.321
  75  1349.102
  76  422.4907
  77  330.8658
  78  696.1917
  79  1512.254
  80  746.4722
  81  1075.857
  82  1600.813
  83  842.3378
  84  398.9632
  85  346.6233
  86  856.6338
  87  1064.084
  88  834.6743
  89  679.4499
  90  848.6561
  91  321.9917
  92  748.843
  93  898.8085
  94  771.1567
  95  793.749
  96  1331.085
  97  689.0353
  98  603.8878
  99  700.7091
 100  1319.432
 101  638.63
 102  580.6356
 103  1197.64
 104  1071.035
 105  1290.848
 106  354.9091
 107  822.6527
 108  389.8918
 109  912.4329
 110  1676.999
 111  1436.112
 112  1025.689
 113  588.044
 114  600.3299
 115  922.5298
 116  1103.821
 117  1070.437
 118  358.2364
 119  292.0609
 120  599.2199
 121  610.0098
 122  -109.7363
 123  123.3109
 124  511.2479
 125  1342.784
 126  183.7494
 127  530.1889
 128  826.734
 129  997.1482
 130  965.0034
 131  1481.064
 132  880.2285
 133  1565.05
 134  1705.034
 135  406.3989
 136  1140.212
 137  1712.76
 138  988.4261
 139  729.8011
 140  1212.789
 141  615.4244
 142  1373.239
 143  1013.545
 144  378.562
 145  346.9677
 146  1131.908
 147  1534.391
 148  1385.552
 149  976.2125
 150  1593.6
 151  694.083
 152  862.7051
 153  1668.265
 154  1342.914
 155  1684.911
 156  639.4828
 157  506.9266
 158  1544.037
 159  1013.516
 160  528.1486
 161  976.5732
 162  1292.333
 163  2816.445
 164  3757.108
 165  3780.995
 166  3292.131
 167  1211.647
 168  1379.975
 169  1452.831
 170  342.5656
 171  1461.117
 172  1303.091
 173  496.8387
 174  1012.147
 175  1397.524
 176  1200.112
 177  535.4988
 178  902.8593
 179  1195.231
 180  1683.425
 181  1317.948
 182  1211.044
 183  873.1269
 184  679.8765
 185  728.9919
 186  833.1341
 187  815.5
 188  438.7275
 189  646.2249
 190  857.1359
 191  509.6966
 192  115.9796
 193  1532.086
 194  794.8352
 195  1137.144
 196  1305.205
 197  1240.611
 198  711.0283
 199  781.2087
 200  676.2521
 201  1278.477
 202  973.9489
 203  833.6003
 204  544.4612
 205  1089.095
 206  136.1972
 207  522.3658
 208  1388.676
 209  1079.4
 210  910.6673
 211  1479.428
 212  1388.15
 213  854.869
 214  267.1026
 215  1246.16
 216  1686.122
 217  984.2798
 218  785.0336
 219  1369.39
 220  1096.449
 221  1002.909
 222  632.8112
 223  633.5256
 224  928.5752
 225  1348.812
 226  674.0488
 227  1103.83
 228  1042.53
 229  762.6034
 230  1111.637
 231  454.9532
 232  762.6512
 233  1225.678
 234  1061.549
 235  943.9321
 236  995.7858
 237  1027.311
 238  1335.885
 239  1126.855
 240  255.1657
 241  616.9103
 242  1014.743
 243  26.20561
 244  405.3419
 245  306.4664
 246  677.2825
 247  181.2316
 248  866.8714
 249  815.1547
 250  320.371
 251  1153.144
 252  1117.714
 253  912.6844
 254  1362.896
 255  520.2775
