# Input file       =  1178958166.128444_cleaned.dat
# Candidate        =  PSR_0332+5434
# Telescope        =  AR
# Epoch_topo       =  57889.349364912545
# Epoch_bary       =  N/A
# T_sample         =  0.002
# Data Folded      =  7340032
# Data Avg         =  0.0348351044361766
# Data StdDev      =  1.00005317641168 
# Profile Bins     =  512
# Profile Avg      =  499.396502727647 
# Profile StdDev   =  119.73940335     
# Reduced chi-sqr  =  1.176
# Prob(Noise)      <  0.00364   (~2.7 sigma)
# P_topo (ms)      =  714.531966055907  +/- 0.000281
# P'_topo (s/s)    =  -0                +/- 1.48e-10
# P''_topo (s/s^2) =  0                 +/- 6.55e-14
# P_bary (ms)      =  N/A
# P'_bary (s/s)    =  N/A
# P''_bary (s/s^2) =  N/A
# P_orb (s)        =  N/A
# asin(i)/c (s)    =  N/A
# eccentricity     =  N/A
# w (rad)          =  N/A
# T_peri           =  N/A
######################################################
   0  907.5749
   1  809.8376
   2  772.7034
   3  674.1782
   4  632.1918
   5  486.5077
   6  404.743
   7  424.7694
   8  486.7678
   9  437.0882
  10  487.1161
  11  570.9614
  12  539.0092
  13  544.6042
  14  459.3178
  15  515.0854
  16  510.1974
  17  515.4995
  18  554.3276
  19  592.4957
  20  600.3298
  21  524.7708
  22  501.615
  23  550.0543
  24  498.3659
  25  554.866
  26  637.8541
  27  584.1594
  28  572.4013
  29  459.0035
  30  537.2501
  31  514.6093
  32  552.7836
  33  538.0108
  34  432.769
  35  450.3811
  36  492.7246
  37  521.3271
  38  481.6861
  39  470.7788
  40  614.3748
  41  417.1302
  42  366.7117
  43  421.4081
  44  452.3246
  45  438.8183
  46  543.1223
  47  517.2449
  48  518.0986
  49  611.716
  50  619.095
  51  501.8501
  52  315.4992
  53  311.9643
  54  411.9683
  55  530.6627
  56  571.0689
  57  477.1899
  58  584.7629
  59  574.1348
  60  540.695
  61  454.4402
  62  408.9375
  63  488.4276
  64  480.2623
  65  372.1342
  66  508.946
  67  444.5133
  68  264.1365
  69  327.0658
  70  408.3398
  71  430.9013
  72  401.493
  73  378.5073
  74  384.648
  75  400.9243
  76  519.8094
  77  478.8548
  78  523.7783
  79  556.8959
  80  534.9502
  81  489.718
  82  455.1818
  83  411.9109
  84  535.0737
  85  515.0388
  86  444.9202
  87  369.331
  88  293.8477
  89  271.7619
  90  312.7708
  91  427.2036
  92  419.9187
  93  343.8693
  94  325.3095
  95  388.0403
  96  469.5866
  97  428.8194
  98  384.4825
  99  448.1078
 100  539.4897
 101  444.6788
 102  471.3181
 103  559.8821
 104  461.3631
 105  414.2402
 106  436.9943
 107  514.048
 108  451.7621
 109  482.0721
 110  581.3378
 111  547.3051
 112  392.1191
 113  416.7455
 114  442.5004
 115  426.9761
 116  482.4148
 117  588.3463
 118  478.9478
 119  426.5531
 120  317.3199
 121  365.0694
 122  411.7182
 123  459.6685
 124  462.0833
 125  527.2928
 126  542.1098
 127  439.6814
 128  490.7492
 129  472.5168
 130  513.192
 131  558.3943
 132  561.4907
 133  485.1989
 134  504.7839
 135  466.8569
 136  451.3527
 137  452.2052
 138  577.2205
 139  609.3303
 140  504.668
 141  525.2354
 142  571.7586
 143  606.0373
 144  612.1391
 145  643.062
 146  639.258
 147  544.4902
 148  493.5122
 149  553.276
 150  526.4127
 151  494.8058
 152  521.186
 153  599.7545
 154  547.0071
 155  451.6053
 156  489.2096
 157  521.9708
 158  528.7389
 159  418.3157
 160  579.1029
 161  571.0289
 162  391.0026
 163  489.0515
 164  658.9476
 165  514.6088
 166  499.8104
 167  515.0322
 168  617.2509
 169  626.6512
 170  498.8461
 171  494.6487
 172  548.4228
 173  638.2145
 174  559.144
 175  288.5637
 176  333.1326
 177  399.9678
 178  506.7117
 179  517.2719
 180  318.3115
 181  440.4385
 182  648.0316
 183  593.0187
 184  552.2856
 185  539.9057
 186  511.4861
 187  532.1876
 188  495.3584
 189  560.46
 190  628.2297
 191  635.4406
 192  506.8345
 193  536.5854
 194  658.3062
 195  594.5247
 196  467.3271
 197  511.913
 198  546.0692
 199  563.851
 200  438.4996
 201  472.4362
 202  350.7908
 203  430.2182
 204  435.8347
 205  495.5594
 206  550.5931
 207  593.2112
 208  554.8541
 209  454.1641
 210  523.9864
 211  574.3467
 212  548.2147
 213  488.6164
 214  549.1018
 215  661.1117
 216  695.2297
 217  544.2425
 218  534.8705
 219  654.7554
 220  615.3149
 221  536.2837
 222  561.6508
 223  533.7366
 224  467.972
 225  681.3632
 226  739.52
 227  702.8898
 228  658.2367
 229  578.1591
 230  433.4926
 231  537.363
 232  632.7439
 233  554.285
 234  504.2983
 235  587.1508
 236  662.5834
 237  670.3099
 238  476.4174
 239  434.1837
 240  593.2389
 241  631.0709
 242  578.2821
 243  602.54
 244  481.9383
 245  518.8238
 246  552.6794
 247  551.3934
 248  523.2476
 249  423.4492
 250  416.1405
 251  368.1234
 252  414.4958
 253  504.4184
 254  475.3637
 255  392.2614
 256  390.3923
 257  447.8802
 258  453.4658
 259  454.257
 260  565.4839
 261  455.1456
 262  428.6627
 263  483.9921
 264  453.4782
 265  333.1715
 266  292.8545
 267  461.823
 268  584.5925
 269  494.3916
 270  549.5859
 271  637.9368
 272  710.1579
 273  688.763
 274  613.4247
 275  586.1083
 276  528.0254
 277  448.5056
 278  406.3983
 279  450.0567
 280  478.4136
 281  563.4305
 282  655.1036
 283  542.3597
 284  493.6894
 285  618.7405
 286  608.1816
 287  529.3648
 288  557.284
 289  577.2128
 290  462.302
 291  472.0742
 292  491.8105
 293  536.9368
 294  611.8669
 295  608.1958
 296  534.8454
 297  464.8771
 298  505.0153
 299  604.1987
 300  500.7373
 301  450.9484
 302  483.8461
 303  599.4981
 304  546.7725
 305  416.1857
 306  480.148
 307  563.3254
 308  414.0626
 309  414.892
 310  433.488
 311  460.5248
 312  332.4654
 313  287.0766
 314  401.9192
 315  464.1393
 316  539.3894
 317  567.6906
 318  592.8618
 319  538.3912
 320  510.3796
 321  486.3256
 322  480.1263
 323  389.6586
 324  407.773
 325  431.8483
 326  533.8906
 327  518.9595
 328  528.2002
 329  482.2878
 330  556.1851
 331  648.5773
 332  510.6496
 333  523.3104
 334  447.5351
 335  479.3875
 336  494.518
 337  553.1769
 338  471.3506
 339  532.6106
 340  576.9189
 341  462.2486
 342  465.423
 343  542.0589
 344  449.7605
 345  403.2466
 346  496.383
 347  447.3119
 348  391.7868
 349  442.7711
 350  550.8442
 351  571.1876
 352  578.7993
 353  540.2459
 354  548.6732
 355  435.2552
 356  439.0121
 357  549.2422
 358  382.2453
 359  411.3694
 360  618.8377
 361  544.8631
 362  376.8796
 363  352.5772
 364  332.0671
 365  427.4411
 366  515.3742
 367  387.4284
 368  433.1868
 369  492.9155
 370  389.1153
 371  456.5996
 372  534.5817
 373  600.4727
 374  449.296
 375  413.1377
 376  486.3945
 377  434.3378
 378  387.652
 379  470.1663
 380  499.3625
 381  506.8131
 382  447.5223
 383  415.8295
 384  527.318
 385  518.7318
 386  518.9125
 387  452.8667
 388  309.8849
 389  326.4
 390  425.6355
 391  463.6374
 392  466.0086
 393  413.9064
 394  452.8321
 395  430.7748
 396  417.0187
 397  578.3502
 398  467.1456
 399  524.403
 400  515.6473
 401  499.9407
 402  545.7791
 403  499.999
 404  327.5241
 405  447.6314
 406  522.7557
 407  481.4243
 408  501.4492
 409  430.0693
 410  478.0456
 411  504.2682
 412  560.0721
 413  555.6098
 414  494.286
 415  568.6357
 416  608.4697
 417  459.0922
 418  546.5593
 419  494.7023
 420  453.7429
 421  472.3872
 422  298.1821
 423  383.8376
 424  480.1146
 425  516.2496
 426  542.9468
 427  520.3927
 428  593.8134
 429  572.2732
 430  475.1296
 431  442.4834
 432  569.296
 433  454.0666
 434  479.8021
 435  394.6079
 436  467.4513
 437  397.2113
 438  306.434
 439  460.9697
 440  457.215
 441  456.5625
 442  468.0259
 443  492.7981
 444  472.6969
 445  495.0986
 446  530.0552
 447  438.0094
 448  351.767
 449  510.7603
 450  519.4413
 451  486.1755
 452  421.259
 453  526.2479
 454  470.781
 455  315.3342
 456  329.549
 457  382.631
 458  446.0158
 459  523.882
 460  547.2275
 461  516.9315
 462  516.193
 463  451.8552
 464  522.0505
 465  466.7673
 466  455.4807
 467  561.7559
 468  650.6042
 469  613.8619
 470  472.9126
 471  378.3486
 472  400.0723
 473  446.752
 474  422.5988
 475  387.9624
 476  502.0097
 477  298.3458
 478  396.7583
 479  563.4935
 480  456.7112
 481  495.2902
 482  475.3716
 483  373.7832
 484  406.2189
 485  442.8582
 486  501.8738
 487  399.1111
 488  324.6002
 489  403.8568
 490  472.6889
 491  439.1258
 492  447.4474
 493  440.1337
 494  527.4645
 495  550.0329
 496  494.54
 497  478.2824
 498  563.5428
 499  457.9377
 500  478.6725
 501  476.0652
 502  593.079
 503  697.4294
 504  561.7459
 505  603.4257
 506  692.569
 507  748.9007
 508  741.6494
 509  834.1765
 510  1017.682
 511  946.8486
