# Input file       =  1178699751.103657_cleaned.dat
# Candidate        =  PSR_0332+5434
# Telescope        =  AR
# Epoch_topo       =  57886.358450273809
# Epoch_bary       =  N/A
# T_sample         =  0.002
# Data Folded      =  7340032
# Data Avg         =  0.0536251112644096
# Data StdDev      =  2.29541211965309 
# Profile Bins     =  256
# Profile Avg      =  1537.83051325006 
# Profile StdDev   =  388.677736000365 
# Reduced chi-sqr  =  1.721
# Prob(Noise)      <  6.58e-12   (~6.8 sigma)
# P_topo (ms)      =  714.534853220985  +/- 0.00028
# P'_topo (s/s)    =  -0                +/- 1.48e-10
# P''_topo (s/s^2) =  0                 +/- 6.52e-14
# P_bary (ms)      =  N/A
# P'_bary (s/s)    =  N/A
# P''_bary (s/s^2) =  N/A
# P_orb (s)        =  N/A
# asin(i)/c (s)    =  N/A
# eccentricity     =  N/A
# w (rad)          =  N/A
# T_peri           =  N/A
######################################################
   0  1639.479
   1  1684.913
   2  1608.996
   3  1213.447
   4  1607.956
   5  2274.844
   6  1919.527
   7  2122.415
   8  1518.307
   9  1505.036
  10  1446.304
  11  1803.308
  12  1844.652
  13  1012.354
  14  2059.456
  15  2113.198
  16  1794.572
  17  1368.803
  18  1488.477
  19  1252.345
  20  1286.123
  21  1269.497
  22  1113.775
  23  846.4172
  24  1429.717
  25  1502.746
  26  1151.932
  27  1746.815
  28  1660.623
  29  1058.419
  30  1264.684
  31  1684.861
  32  1615.001
  33  1242.676
  34  814.9453
  35  973.2163
  36  1227.544
  37  1166.957
  38  1774.503
  39  2214.138
  40  1441.322
  41  1672.664
  42  1952.813
  43  1531.795
  44  1699.802
  45  1469.105
  46  1922.138
  47  1663.475
  48  1412.646
  49  1244.589
  50  1065.914
  51  1003.402
  52  1418.014
  53  1793.081
  54  2008.957
  55  1748.286
  56  1488.622
  57  1468.801
  58  1954.422
  59  1466.938
  60  1614.061
  61  1933.956
  62  1351.066
  63  1408.165
  64  1669.989
  65  1119.568
  66  1617.681
  67  1402.258
  68  1024.69
  69  1213.74
  70  899.1398
  71  987.2355
  72  1061.376
  73  1514.628
  74  1439.386
  75  1298.573
  76  1254.628
  77  1347.948
  78  1576.319
  79  1658.779
  80  1256.585
  81  1341.921
  82  1744.748
  83  1586.055
  84  1490.87
  85  1419.979
  86  1342.299
  87  1293.436
  88  1119.049
  89  1447.142
  90  540.4506
  91  1117.782
  92  851.3514
  93  1121.622
  94  1395.895
  95  1883.163
  96  1873.103
  97  1922.084
  98  1337.487
  99  1324.642
 100  1764.809
 101  1820.81
 102  1540.088
 103  1459.875
 104  1623.495
 105  1610.201
 106  1882.466
 107  1746.91
 108  1836
 109  1806.699
 110  1677.266
 111  1946.23
 112  1932.27
 113  1200.391
 114  1288.401
 115  1540.245
 116  1496.287
 117  795.2993
 118  1783.891
 119  1385.664
 120  1296.417
 121  1228.546
 122  1594.365
 123  1149.47
 124  1893.511
 125  1319.614
 126  1404.724
 127  1361.969
 128  1496.471
 129  1008.921
 130  1486.782
 131  1468.39
 132  992.1628
 133  1888.826
 134  1777.46
 135  1707.178
 136  1463.877
 137  1447.847
 138  943.5357
 139  1529.471
 140  1711.926
 141  1371.237
 142  1585.091
 143  2118.444
 144  1880.198
 145  1443.146
 146  1393.561
 147  1840.024
 148  1785.227
 149  1312.976
 150  1865.026
 151  1745.016
 152  1227.29
 153  1332.488
 154  1347.767
 155  1534.186
 156  1030.949
 157  1547.617
 158  1796.11
 159  1762.74
 160  1817.83
 161  1446.352
 162  2143.031
 163  3135.865
 164  4635.505
 165  4728.017
 166  2744.561
 167  1583.352
 168  1430.647
 169  1849.102
 170  1822.5
 171  2394.703
 172  2509.422
 173  2166.419
 174  1283.593
 175  1283.035
 176  1688.962
 177  1366.521
 178  1210.271
 179  1370.513
 180  1317.27
 181  1473.182
 182  1756.802
 183  1276.112
 184  1313.901
 185  1491.502
 186  1793.497
 187  1152.41
 188  1715.165
 189  1805.232
 190  1272.81
 191  1286.547
 192  1453.675
 193  1621.565
 194  755.3089
 195  1374.136
 196  1377.437
 197  1146.216
 198  1904.464
 199  1530.961
 200  1710.911
 201  1448.272
 202  897.1076
 203  1339.256
 204  1429.846
 205  778.0209
 206  1107.025
 207  1446.276
 208  1988.867
 209  1690.052
 210  1438.015
 211  1379.202
 212  1410.371
 213  1647.089
 214  1448.853
 215  1529.682
 216  1581.198
 217  1678.509
 218  1845.209
 219  1510.559
 220  1635.363
 221  1744.68
 222  1467.745
 223  1557.639
 224  1631.557
 225  1473.588
 226  1461.528
 227  1232.893
 228  1086.908
 229  1392.632
 230  1609.785
 231  1525.438
 232  1353.882
 233  1137.74
 234  1960.363
 235  1251.285
 236  1848.334
 237  1216.74
 238  1649.767
 239  1415.34
 240  1008.527
 241  1274.433
 242  1600.143
 243  1253.535
 244  1135.212
 245  2205.954
 246  1012.171
 247  1440.998
 248  1696.505
 249  1762.475
 250  1723.455
 251  2053.961
 252  2171.373
 253  1132.405
 254  1672.125
 255  1374.944
