# Input file       =  1178886977.099836_cleaned.dat
# Candidate        =  PSR_0332+5434
# Telescope        =  AR
# Epoch_topo       =  57888.525417822180
# Epoch_bary       =  N/A
# T_sample         =  0.002
# Data Folded      =  7340032
# Data Avg         =  0.0160919694589484
# Data StdDev      =  0.999888847278711
# Profile Bins     =  512
# Profile Avg      =  230.635106586573 
# Profile StdDev   =  119.719727723945 
# Reduced chi-sqr  =  1.373
# Prob(Noise)      <  3.97e-08   (~5.4 sigma)
# P_topo (ms)      =  714.53309876095   +/- 0.000252
# P'_topo (s/s)    =  -0                +/- 1.33e-10
# P''_topo (s/s^2) =  0                 +/- 5.86e-14
# P_bary (ms)      =  N/A
# P'_bary (s/s)    =  N/A
# P''_bary (s/s^2) =  N/A
# P_orb (s)        =  N/A
# asin(i)/c (s)    =  N/A
# eccentricity     =  N/A
# w (rad)          =  N/A
# T_peri           =  N/A
######################################################
   0  998.7421
   1  919.7437
   2  584.0415
   3  361.7023
   4  316.234
   5  267.4647
   6  254.3226
   7  221.9517
   8  265.6843
   9  234.0752
  10  188.2984
  11  269.8053
  12  443.3463
  13  358.2184
  14  394.1558
  15  226.5523
  16  144.7524
  17  248.1524
  18  359.8824
  19  92.8807
  20  154.0312
  21  221.53
  22  150.3337
  23  71.60914
  24  204.3347
  25  189.6975
  26  5.751468
  27  263.2313
  28  296.4231
  29  252.6016
  30  227.5357
  31  258.6111
  32  161.476
  33  157.1614
  34  238.4513
  35  177.0845
  36  155.9984
  37  223.8033
  38  253.8849
  39  176.5177
  40  113.8608
  41  163.5186
  42  153.0595
  43  118.5784
  44  163.0323
  45  101.3603
  46  22.95797
  47  139.6595
  48  91.30566
  49  179.4902
  50  272.2636
  51  173.7778
  52  180.9262
  53  151.9688
  54  194.2139
  55  171.3185
  56  130.3126
  57  134.6478
  58  149.6555
  59  191.2286
  60  163.2054
  61  212.4913
  62  284.4117
  63  225.2007
  64  254.4415
  65  292.3491
  66  297.3574
  67  196.7652
  68  227.685
  69  226.7563
  70  175.2251
  71  104.7705
  72  209.1258
  73  274.3268
  74  222.5179
  75  311.3776
  76  245.5459
  77  201.6541
  78  210.7886
  79  262.3424
  80  287.0477
  81  221.6271
  82  285.0617
  83  379.7975
  84  303.7542
  85  277.916
  86  245.458
  87  241.0543
  88  336.3185
  89  368.3146
  90  433.934
  91  443.0114
  92  388.5802
  93  279.5238
  94  287.5376
  95  252.8373
  96  223.7515
  97  235.0775
  98  372.3853
  99  305.6331
 100  229.5278
 101  147.4648
 102  208.5946
 103  214.9445
 104  277.3838
 105  290.3514
 106  190.9983
 107  197.3814
 108  159.6482
 109  225.3385
 110  211.4901
 111  156.2104
 112  250.7281
 113  198.068
 114  134.022
 115  172.4034
 116  206.3397
 117  223.0036
 118  290.9182
 119  258.3429
 120  184.2388
 121  171.5127
 122  277.8679
 123  329.8089
 124  249.2256
 125  305.2333
 126  278.4463
 127  392.0536
 128  403.847
 129  230.2928
 130  259.3723
 131  359.0421
 132  220.8217
 133  231.9928
 134  188.6609
 135  159.5875
 136  125.3138
 137  250.1502
 138  388.0527
 139  285.9295
 140  224.8241
 141  251.9443
 142  179.2647
 143  165.2438
 144  193.1868
 145  335.1018
 146  408.4707
 147  433.1943
 148  375.3563
 149  292.9504
 150  224.1931
 151  339.1123
 152  316.696
 153  269.7855
 154  243.2759
 155  284.8364
 156  322.9394
 157  278.3879
 158  124.0552
 159  174.9227
 160  339.7815
 161  194.6419
 162  228.0608
 163  361.8867
 164  294.4128
 165  307.6177
 166  202.3353
 167  264.6071
 168  235.898
 169  231.1109
 170  192.1736
 171  173.7543
 172  273.0367
 173  302.059
 174  299.4071
 175  363.9401
 176  295.2865
 177  332.1794
 178  261.1384
 179  285.9995
 180  294.6962
 181  279.3646
 182  242.8545
 183  248.3698
 184  94.55367
 185  179.2186
 186  184.4964
 187  271.2954
 188  140.0757
 189  108.6301
 190  138.1315
 191  98.48003
 192  219.9634
 193  303.4519
 194  395.6001
 195  200.7153
 196  116.9091
 197  206.9581
 198  167.5224
 199  206.2997
 200  253.904
 201  328.0484
 202  296.1837
 203  268.9879
 204  166.6041
 205  192.369
 206  119.8493
 207  185.6034
 208  333.1204
 209  213.6854
 210  208.4694
 211  227.6076
 212  282.6018
 213  178.4093
 214  246.5709
 215  288.1219
 216  203.6633
 217  281.2767
 218  244.5963
 219  175.6238
 220  286.2144
 221  216.6884
 222  175.2676
 223  46.07088
 224  99.40784
 225  245.8739
 226  171.4487
 227  198.2143
 228  192.3328
 229  243.9236
 230  307.0753
 231  108.5749
 232  109.0313
 233  209.1831
 234  253.2488
 235  269.5823
 236  213.6452
 237  157.1932
 238  162.8769
 239  76.96439
 240  161.6194
 241  285.9993
 242  306.4201
 243  234.9653
 244  292.9431
 245  294.9388
 246  304.2062
 247  199.1597
 248  218.1553
 249  158.9732
 250  143.3225
 251  252.0819
 252  268.4672
 253  244.8119
 254  198.8665
 255  135.3649
 256  218.7732
 257  270.7195
 258  187.6702
 259  263.1086
 260  218.8534
 261  154.4383
 262  201.888
 263  319.8286
 264  378.8342
 265  232.1138
 266  341.2352
 267  394.0874
 268  253.9384
 269  224.7861
 270  254.4091
 271  223.7113
 272  255.2612
 273  301.3115
 274  322.2068
 275  226.1088
 276  153.8144
 277  28.88234
 278  54.42299
 279  204.0924
 280  249.0393
 281  279.4883
 282  219.6373
 283  74.29983
 284  169.3934
 285  224.2637
 286  251.3881
 287  317.3997
 288  262.6364
 289  216.6469
 290  104.011
 291  142.833
 292  218.3442
 293  272.1488
 294  246.457
 295  306.4464
 296  295.2769
 297  140.5074
 298  331.4277
 299  257.4675
 300  74.49396
 301  103.5021
 302  147.9791
 303  208.3881
 304  237.6012
 305  141.6156
 306  127.9884
 307  39.64613
 308  -23.61992
 309  125.4974
 310  101.3452
 311  183.0668
 312  219.958
 313  186.9376
 314  228.4556
 315  134.3472
 316  195.4561
 317  333.2451
 318  175.6731
 319  66.67362
 320  125.9299
 321  128.7825
 322  204.0536
 323  300.4903
 324  219.9454
 325  108.1624
 326  127.8489
 327  277.8551
 328  379.973
 329  354.6375
 330  294.0846
 331  352.8589
 332  359.9974
 333  312.7338
 334  228.4482
 335  288.8545
 336  228.1714
 337  235.3821
 338  194.7048
 339  380.1927
 340  350.8571
 341  271.4187
 342  291.7259
 343  228.3022
 344  201.0972
 345  172.8539
 346  156.7595
 347  294.0554
 348  282.1717
 349  210.3892
 350  166.836
 351  178.7797
 352  232.6743
 353  224.51
 354  213.1283
 355  190.6266
 356  256.2352
 357  162.2105
 358  160.5442
 359  124.0356
 360  145.9995
 361  116.3404
 362  66.52235
 363  177.3218
 364  147.3698
 365  92.40684
 366  159.3489
 367  209.3384
 368  221.8403
 369  243.4328
 370  241.5006
 371  269.2234
 372  115.0413
 373  116.7906
 374  276.8643
 375  289.2965
 376  183.9189
 377  142.0225
 378  287.3034
 379  288.394
 380  180.2415
 381  214.1084
 382  326.7026
 383  245.8251
 384  264.0033
 385  266.0068
 386  315.9466
 387  185.4258
 388  193.3562
 389  260.5853
 390  220.1873
 391  215.0912
 392  274.9676
 393  248.1157
 394  191.032
 395  234.7293
 396  309.3694
 397  219.7163
 398  321.3212
 399  358.7478
 400  487.6769
 401  314.7802
 402  223.4352
 403  220.2322
 404  189.0027
 405  188.1036
 406  213.3842
 407  233.5633
 408  253.9698
 409  145.9997
 410  198.616
 411  218.3064
 412  252.8874
 413  114.8955
 414  123.7794
 415  238.4758
 416  302.6157
 417  209.3106
 418  67.38405
 419  71.98896
 420  96.38225
 421  166.5028
 422  110.2301
 423  193.948
 424  189.7231
 425  152.5723
 426  202.846
 427  211.6543
 428  251.249
 429  224.8004
 430  206.7982
 431  93.64292
 432  127.0628
 433  349.1713
 434  259.8703
 435  166.5713
 436  206.7435
 437  225.6412
 438  160.2729
 439  238.1024
 440  230.3621
 441  142.5547
 442  232.2515
 443  342.7048
 444  248.6758
 445  291.5931
 446  179.8321
 447  133.2443
 448  95.38359
 449  215.7675
 450  217.8601
 451  132.6935
 452  90.81014
 453  154.8174
 454  107.8242
 455  132.5134
 456  161.1054
 457  285.8287
 458  177.6304
 459  187.1627
 460  217.7688
 461  286.0785
 462  313.1098
 463  254.8676
 464  166.7278
 465  264.1617
 466  118.9915
 467  180.6933
 468  178.4416
 469  243.8965
 470  52.26137
 471  87.5154
 472  160.421
 473  151.1254
 474  296.4588
 475  113.3483
 476  159.6266
 477  266.5564
 478  235.4856
 479  186.0464
 480  326.1851
 481  274.2521
 482  138.6407
 483  64.77146
 484  -30.63257
 485  147.2046
 486  158.461
 487  170.7887
 488  228.9272
 489  88.69019
 490  198.8442
 491  228.5043
 492  212.3779
 493  165.6123
 494  156.259
 495  320.4574
 496  221.5779
 497  346.0859
 498  226.1423
 499  316.1707
 500  364.854
 501  205.3555
 502  296.147
 503  413.4001
 504  403.9591
 505  337.083
 506  397.4716
 507  404.2429
 508  393.1204
 509  534.2609
 510  702.1653
 511  895.6252
