# Input file       =  1178699751.103657-PSRB0329-2ms-sampling-dd.dat
# Candidate        =  PSR_0332+5434
# Telescope        =  AR
# Epoch_topo       =  57886.358450273809
# Epoch_bary       =  N/A
# T_sample         =  0.002
# Data Folded      =  7340032
# Data Avg         =  -8.19355238493257e-10
# Data StdDev      =  4.65904324930655 
# Profile Bins     =  512
# Profile Avg      =  1.01415199132527 
# Profile StdDev   =  557.841394850148 
# Reduced chi-sqr  =  0.714
# Prob(Noise)      <  1   (~0.0 sigma)
# P_topo (ms)      =  714.534853151755  +/- 0.000129
# P'_topo (s/s)    =  -0                +/- 6.81e-11
# P''_topo (s/s^2) =  0                 +/- 3.01e-14
# P_bary (ms)      =  N/A
# P'_bary (s/s)    =  N/A
# P''_bary (s/s^2) =  N/A
# P_orb (s)        =  N/A
# asin(i)/c (s)    =  N/A
# eccentricity     =  N/A
# w (rad)          =  N/A
# T_peri           =  N/A
######################################################
   0  -575.3726
   1  -542.3905
   2  22.91256
   3  204.7907
   4  143.3571
   5  357.1906
   6  853.5387
   7  1170.676
   8  1534.561
   9  1537.939
  10  1298.917
  11  458.6552
  12  -305.1023
  13  -447.2512
  14  -374.2512
  15  -339.107
  16  -325.3365
  17  -39.67662
  18  33.84147
  19  -115.3109
  20  -166.618
  21  166.594
  22  184.7281
  23  289.5182
  24  354.3175
  25  258.0424
  26  290.2512
  27  -23.55337
  28  118.1084
  29  -237.585
  30  -132.9264
  31  155.059
  32  134.7555
  33  42.65387
  34  87.86903
  35  -43.43745
  36  -67.98308
  37  -86.06149
  38  -9.802816
  39  22.63513
  40  -121.5155
  41  187.7474
  42  238.2441
  43  170.5547
  44  -152.8104
  45  -408.0725
  46  -494.96
  47  -106.6162
  48  33.09348
  49  -43.95494
  50  4.876103
  51  -26.17538
  52  -60.71105
  53  -241.1017
  54  -526.3521
  55  -50.03359
  56  192.1151
  57  79.84694
  58  -164.0735
  59  -152.8408
  60  -196.711
  61  -196.6091
  62  -227.0931
  63  -176.415
  64  -215.9299
  65  -167.8866
  66  -171.7946
  67  -246.7668
  68  -281.6395
  69  194.0085
  70  231.6865
  71  -6.577511
  72  -304.0428
  73  -67.29781
  74  214.8166
  75  496.5032
  76  460.8585
  77  329.087
  78  96.85923
  79  91.74777
  80  -72.63297
  81  101.9886
  82  688.0223
  83  446.2985
  84  263.0649
  85  431.8896
  86  180.957
  87  175.4993
  88  120.1875
  89  337.5137
  90  455.0811
  91  71.23518
  92  -194.4642
  93  -127.432
  94  -15.62362
  95  207.6052
  96  219.5231
  97  215.9462
  98  -327.8632
  99  -284.2548
 100  -154.0225
 101  -293.5172
 102  -425.356
 103  -323.5972
 104  -248.0424
 105  -24.00546
 106  87.41747
 107  -244.1102
 108  -15.64278
 109  -78.19406
 110  247.9519
 111  87.02985
 112  145.4149
 113  306.6782
 114  392.0413
 115  492.3832
 116  88.23126
 117  -68.41266
 118  277.7819
 119  194.6197
 120  -110.5536
 121  209.1566
 122  135.9536
 123  -176.5993
 124  52.64091
 125  -46.78472
 126  -13.34133
 127  164.4354
 128  -110.043
 129  -76.55563
 130  -64.28386
 131  0.8181055
 132  -39.58854
 133  -8.3207
 134  9.750071
 135  -139.9989
 136  -265.5725
 137  -168.7296
 138  -263.2761
 139  -220.3594
 140  -139.2899
 141  46.03194
 142  156.139
 143  20.63119
 144  -287.7653
 145  -460.0833
 146  -295.1812
 147  -94.33043
 148  88.07816
 149  -323.8349
 150  -99.72444
 151  91.89931
 152  204.5105
 153  -205.2048
 154  -14.58957
 155  305.9956
 156  -84.58389
 157  -317.496
 158  -37.87564
 159  -150.6334
 160  -323.8532
 161  22.0913
 162  61.67875
 163  67.19632
 164  -241.4549
 165  -238.108
 166  -472.5013
 167  -376.2736
 168  389.9081
 169  580.5808
 170  368.4002
 171  -260.3949
 172  -416.0553
 173  -209.5988
 174  59.0395
 175  247.3352
 176  281.959
 177  276.6484
 178  164.5824
 179  3.248476
 180  296.0833
 181  609.8897
 182  570.2698
 183  631.8918
 184  685.2744
 185  35.33029
 186  -151.5754
 187  184.5218
 188  145.8644
 189  -129.7683
 190  405.7059
 191  912.2448
 192  1003.044
 193  856.0848
 194  795.1466
 195  650.0722
 196  461.4856
 197  428.6432
 198  323.2443
 199  393.8323
 200  372.269
 201  611.4765
 202  681.1411
 203  398.0467
 204  227.4256
 205  286.5702
 206  428.4908
 207  77.39313
 208  294.4549
 209  298.673
 210  284.5449
 211  280.7802
 212  117.403
 213  237.8263
 214  431.7525
 215  227.5182
 216  150.0219
 217  45.58384
 218  127.2255
 219  501.2682
 220  836.9775
 221  535.0522
 222  138.7238
 223  373.0905
 224  418.0859
 225  236.7625
 226  372.2224
 227  248.1664
 228  -24.17479
 229  -114.3697
 230  -6.306693
 231  9.594654
 232  91.32006
 233  287.8082
 234  279.4608
 235  356.7926
 236  179.0234
 237  -61.51754
 238  -131.9744
 239  164.9542
 240  411.8599
 241  343.7873
 242  252.414
 243  94.46406
 244  -73.15313
 245  -29.10661
 246  406.3904
 247  320.4508
 248  29.2977
 249  -23.88203
 250  -39.74292
 251  -102.289
 252  -281.8789
 253  110.3596
 254  418.8088
 255  292.9041
 256  228.775
 257  204.7445
 258  -77.71684
 259  -428.4252
 260  -213.1977
 261  -101.1301
 262  255.0023
 263  217.0102
 264  190.8959
 265  -65.71501
 266  -188.9296
 267  -165.4987
 268  395.9768
 269  727.6739
 270  701.7772
 271  432.7469
 272  50.29773
 273  54.11388
 274  105.702
 275  421.7843
 276  643.2007
 277  723.7719
 278  715.7172
 279  587.7138
 280  493.6432
 281  -203.8672
 282  -103.8352
 283  473.8304
 284  671.9393
 285  497.8228
 286  336.4543
 287  149.1136
 288  -81.5135
 289  -149.5123
 290  -199.0822
 291  89.80661
 292  77.91294
 293  -30.68499
 294  -68.85729
 295  -215.3821
 296  -179.3701
 297  -20.14595
 298  385.4787
 299  632.3887
 300  452.3015
 301  301.6575
 302  23.8859
 303  63.01776
 304  -107.6581
 305  143.2411
 306  556.6011
 307  733.5851
 308  78.57812
 309  62.5637
 310  -87.66507
 311  -4.11581
 312  230.9501
 313  474.1694
 314  219.2552
 315  5.877615
 316  77.68632
 317  54.16643
 318  252.925
 319  718.1046
 320  653.9748
 321  464.4371
 322  422.1843
 323  287.3678
 324  128.6216
 325  231.6931
 326  -86.14326
 327  -6.543273
 328  11.10198
 329  -76.7483
 330  -243.6691
 331  -680.3427
 332  -382.4753
 333  2.76935
 334  -34.77997
 335  89.93216
 336  -70.64437
 337  123.3585
 338  55.18796
 339  165.1292
 340  310.3915
 341  274.8002
 342  262.6654
 343  113.8549
 344  -136.066
 345  -126.6396
 346  -201.0669
 347  -98.32803
 348  444.8995
 349  506.2382
 350  95.94985
 351  -73.82948
 352  -392.2523
 353  -95.30145
 354  -69.28329
 355  154.196
 356  288.6569
 357  11.544
 358  177.5579
 359  -266.9114
 360  -361.3242
 361  -377.0209
 362  -568.4873
 363  -228.852
 364  -286.8263
 365  -113.016
 366  -184.5745
 367  -431.3298
 368  -245.3797
 369  -142.8147
 370  -384.4914
 371  -609.6051
 372  -496.4366
 373  -52.06178
 374  -163.4676
 375  -327.0143
 376  -470.9113
 377  -487.7738
 378  -494.6543
 379  -369.1336
 380  -138.5585
 381  88.98882
 382  97.59799
 383  213.9996
 384  -207.4596
 385  -180.8937
 386  -239.9387
 387  -495.9595
 388  -295.9903
 389  -303.2144
 390  -197.6414
 391  0.8607419
 392  -106.6289
 393  -191.0609
 394  -590.9019
 395  -520.2634
 396  -336.2995
 397  -461.2202
 398  -404.2197
 399  -275.2117
 400  -353.4951
 401  -324.4408
 402  -150.0616
 403  -88.15115
 404  85.69003
 405  53.62241
 406  110.8341
 407  150.9294
 408  -23.26041
 409  25.3375
 410  21.40128
 411  77.17083
 412  137.987
 413  -54.7178
 414  35.7356
 415  -212.5968
 416  -379.2278
 417  -679.5848
 418  -928.0574
 419  -659.1129
 420  -286.8173
 421  -452.6075
 422  -482.1775
 423  -169.7343
 424  -486.9319
 425  -501.7087
 426  -295.1032
 427  193.6984
 428  2.213741
 429  -420.0948
 430  -399.3617
 431  -268.7313
 432  -137.7317
 433  -137.0918
 434  -445.9163
 435  -326.1263
 436  -352.6083
 437  -758.085
 438  -586.0784
 439  94.27098
 440  101.7954
 441  -109.4693
 442  -313.5279
 443  -265.9482
 444  -577.4673
 445  -600.9391
 446  -570.5669
 447  -309.8068
 448  -280.3876
 449  -613.7557
 450  -517.079
 451  -494.3567
 452  -371.8704
 453  -540.491
 454  -407.9086
 455  -554.8891
 456  -375.3052
 457  98.87585
 458  180.4213
 459  -82.1143
 460  -263.9568
 461  -1.986057
 462  -32.96575
 463  -7.946681
 464  282.5986
 465  141.4476
 466  -372.7125
 467  -540.6498
 468  -433.8028
 469  -304.0745
 470  -328.6628
 471  -62.68564
 472  0.339025
 473  -174.6125
 474  -188.756
 475  -295.8365
 476  -295.5693
 477  16.29404
 478  -8.140663
 479  -37.74039
 480  -328.1116
 481  -192.102
 482  -274.3907
 483  -494.4178
 484  -265.293
 485  -218.3606
 486  -106.2251
 487  -176.4727
 488  -208.7883
 489  -299.8215
 490  -538.0745
 491  -221.978
 492  -218.0544
 493  -301.9301
 494  -551.8832
 495  -612.3846
 496  -489.6735
 497  -379.433
 498  -421.0343
 499  -386.624
 500  -430.839
 501  -416.5981
 502  -473.1661
 503  -665.0554
 504  -466.2572
 505  -360.7766
 506  21.27727
 507  95.08905
 508  -214.166
 509  -92.3948
 510  -9.949405
 511  -219.5839
