# Input file       =  1178454286.107926_cleaned.dat
# Candidate        =  PSR_0332+5434
# Telescope        =  AR
# Epoch_topo       =  57883.517420230623
# Epoch_bary       =  N/A
# T_sample         =  0.002
# Data Folded      =  7340032
# Data Avg         =  0.0150760891775998
# Data StdDev      =  1.00011393482595 
# Profile Bins     =  512
# Profile Avg      =  216.157440868995 
# Profile StdDev   =  119.746678139426 
# Reduced chi-sqr  =  1.649
# Prob(Noise)      <  1.21e-18   (~8.7 sigma)
# P_topo (ms)      =  714.537849481299  +/- 0.00027
# P'_topo (s/s)    =  -0                +/- 1.42e-10
# P''_topo (s/s^2) =  0                 +/- 6.28e-14
# P_bary (ms)      =  N/A
# P'_bary (s/s)    =  N/A
# P''_bary (s/s^2) =  N/A
# P_orb (s)        =  N/A
# asin(i)/c (s)    =  N/A
# eccentricity     =  N/A
# w (rad)          =  N/A
# T_peri           =  N/A
######################################################
   0  1094.335
   1  885.7549
   2  703.8091
   3  505.0204
   4  278.4671
   5  183.9899
   6  168.6991
   7  172.4112
   8  134.3506
   9  173.6223
  10  170.9781
  11  271.0536
  12  158.7408
  13  64.02757
  14  114.9141
  15  122.2894
  16  137.7614
  17  158.7662
  18  233.9922
  19  302.7063
  20  232.7735
  21  307.6151
  22  267.9494
  23  151.8539
  24  207.3542
  25  224.2212
  26  227.7761
  27  116.4705
  28  122.433
  29  270.1736
  30  181.4383
  31  68.09901
  32  261.8754
  33  169.1386
  34  279.0285
  35  361.6807
  36  287.4977
  37  295.6302
  38  315.5038
  39  170.9938
  40  162.108
  41  92.73216
  42  92.12424
  43  36.41624
  44  5.312747
  45  71.62492
  46  208.247
  47  402.6251
  48  309.438
  49  252.0022
  50  312.9215
  51  274.2141
  52  144.8774
  53  222.5128
  54  313.8173
  55  146.5015
  56  158.4252
  57  68.5282
  58  198.0753
  59  241.1153
  60  211.5939
  61  105.0094
  62  202.7205
  63  185.6514
  64  151.7056
  65  169.4487
  66  104.1681
  67  201.1565
  68  205.7166
  69  224.5658
  70  100.977
  71  119.8696
  72  111.8179
  73  249.3942
  74  261.7604
  75  146.1884
  76  153.4897
  77  184.903
  78  207.0846
  79  181.9423
  80  144.5197
  81  130.8491
  82  186.7913
  83  54.12426
  84  169.7308
  85  232.1203
  86  269.3082
  87  270.4774
  88  173.2531
  89  179.515
  90  227.6731
  91  232.0273
  92  111.9324
  93  103.8235
  94  232.9373
  95  141.8527
  96  181.7045
  97  68.08269
  98  105.1744
  99  152.4465
 100  238.802
 101  329.1911
 102  226.2762
 103  173.2798
 104  213.9008
 105  257.8933
 106  368.2605
 107  246.3986
 108  205.2998
 109  148.2491
 110  201.6643
 111  156.1123
 112  207.8642
 113  234.4252
 114  184.9722
 115  240.8044
 116  208.1502
 117  232.6478
 118  176.3758
 119  262.54
 120  314.9384
 121  242.6489
 122  174.7
 123  212.2165
 124  170.4908
 125  182.5745
 126  213.3456
 127  174.789
 128  195.9765
 129  233.8922
 130  238.8663
 131  165.6236
 132  232.5925
 133  211.4237
 134  195.4751
 135  239.809
 136  192.0305
 137  252.1634
 138  217.3489
 139  214.8266
 140  193.866
 141  246.175
 142  293.444
 143  233.3376
 144  236.625
 145  289.7537
 146  132.2865
 147  195.882
 148  219.5862
 149  273.6494
 150  320.9983
 151  278.6156
 152  233.8678
 153  228.0049
 154  127.1758
 155  99.46967
 156  88.33821
 157  206.9125
 158  219.5094
 159  182.9908
 160  312.3662
 161  264.6369
 162  259.2642
 163  203.8242
 164  186.026
 165  279.6948
 166  347.291
 167  198.6022
 168  181.9156
 169  245.1698
 170  330.8855
 171  272.8818
 172  201.4113
 173  130.7152
 174  294.4804
 175  306.317
 176  323.2142
 177  310.9047
 178  195.1336
 179  165.9957
 180  108.8885
 181  297.4452
 182  208.4305
 183  172.6842
 184  209.2919
 185  254.1414
 186  261.571
 187  235.2484
 188  285.2968
 189  286.4852
 190  374.4752
 191  372.1152
 192  285.8909
 193  189.6323
 194  235.1965
 195  381.4367
 196  289.995
 197  236.1594
 198  276.8108
 199  384.2054
 200  153.3764
 201  244.1936
 202  279.1888
 203  123.7737
 204  217.2428
 205  147.4462
 206  229.7366
 207  158.3638
 208  188.4125
 209  142.0776
 210  109.3843
 211  208.8136
 212  200.949
 213  190.8469
 214  393.6855
 215  206.349
 216  262.1831
 217  452.6286
 218  381.2018
 219  247.7739
 220  421.3632
 221  378.0491
 222  227.4447
 223  276.8097
 224  272.3658
 225  154.5603
 226  141.6419
 227  118.6278
 228  159.4273
 229  196.7813
 230  210.4142
 231  182.1546
 232  312.9501
 233  291.2727
 234  282.2592
 235  341.7178
 236  292.6724
 237  258.0545
 238  194.1826
 239  320.0925
 240  278.5527
 241  246.266
 242  224.9169
 243  159.6424
 244  177.401
 245  238.3451
 246  172.9101
 247  169.8836
 248  277.9749
 249  310.8279
 250  259.6714
 251  317.5466
 252  200.9017
 253  191.9857
 254  170.3346
 255  412.9553
 256  409.895
 257  295.5885
 258  324.8174
 259  303.5726
 260  432.9373
 261  374.6027
 262  379.6233
 263  351.6263
 264  114.162
 265  220.7638
 266  265.9427
 267  161.9608
 268  126.3518
 269  101.5621
 270  185.9812
 271  227.2455
 272  291.448
 273  268.0671
 274  279.6683
 275  295.2496
 276  179.6667
 277  211.3473
 278  252.1732
 279  137.0755
 280  117.0703
 281  252.5889
 282  295.7756
 283  307.7219
 284  144.381
 285  207.0428
 286  120.7931
 287  195.1434
 288  171.6423
 289  218.7429
 290  226.6927
 291  224.6887
 292  40.37326
 293  106.6833
 294  191.9546
 295  233.9575
 296  244.8511
 297  272.9354
 298  261.3445
 299  251.9345
 300  238.0382
 301  290.6378
 302  416.3763
 303  260.509
 304  340.2866
 305  310.3422
 306  172.5524
 307  142.0901
 308  213.2174
 309  305.7697
 310  253.8707
 311  233.9081
 312  393.3992
 313  354.6595
 314  324.7158
 315  243.5942
 316  316.2284
 317  465.8499
 318  274.7213
 319  205.1306
 320  315.887
 321  348.2357
 322  227.0307
 323  232.6308
 324  208.2873
 325  186.5005
 326  216.2962
 327  244.7321
 328  197.6333
 329  35.22135
 330  194.0839
 331  265.7083
 332  104.0519
 333  185.043
 334  157.5352
 335  199.9905
 336  41.6553
 337  184.2289
 338  97.42523
 339  127.1304
 340  113.1191
 341  115.0091
 342  161.3876
 343  192.751
 344  310.9684
 345  324.4029
 346  239.4156
 347  293.8308
 348  252.1317
 349  162.6283
 350  256.9046
 351  204.7509
 352  144.4741
 353  280.0851
 354  209.3833
 355  206.7959
 356  189.9853
 357  170.7716
 358  237.2012
 359  266.6266
 360  247.4949
 361  138.5522
 362  182.9333
 363  217.6591
 364  164.5431
 365  97.87946
 366  98.491
 367  126.3432
 368  85.8873
 369  186.3959
 370  255.5526
 371  259.3488
 372  129.5629
 373  204.394
 374  267.9381
 375  330.6127
 376  209.8973
 377  112.787
 378  178.5659
 379  230.2566
 380  289.2676
 381  259.0778
 382  374.5743
 383  303.3913
 384  217.9212
 385  215.4348
 386  137.8733
 387  130.5865
 388  194.3063
 389  222.879
 390  211.99
 391  200.8701
 392  153.2148
 393  93.07411
 394  215.063
 395  313.0621
 396  202.5077
 397  249.455
 398  306.2549
 399  202.254
 400  153.1771
 401  76.10057
 402  144.6779
 403  279.417
 404  285.2237
 405  220.22
 406  135.0731
 407  246.8532
 408  129.8481
 409  104.4408
 410  263.6772
 411  206.2659
 412  59.16348
 413  256.0465
 414  344.8229
 415  215.6935
 416  125.4378
 417  197.6497
 418  181.2367
 419  86.88944
 420  37.01508
 421  116.7337
 422  228.1404
 423  161.2652
 424  107.2832
 425  135.4918
 426  60.75896
 427  -11.32977
 428  61.72017
 429  285.0767
 430  341.416
 431  90.46279
 432  149.463
 433  129.606
 434  138.1257
 435  204.6788
 436  174.4111
 437  14.49485
 438  72.87299
 439  210.4111
 440  114.5365
 441  113.9324
 442  179.6112
 443  147.1222
 444  71.4258
 445  138.8695
 446  162.2005
 447  100.9759
 448  62.59322
 449  67.67192
 450  122.638
 451  164.9627
 452  114.8059
 453  -27.25137
 454  46.03404
 455  53.22594
 456  109.4427
 457  201.8158
 458  166.2896
 459  57.78819
 460  -6.101402
 461  165.5201
 462  164.9393
 463  184.1011
 464  157.929
 465  84.77683
 466  21.22246
 467  -42.86838
 468  100.1172
 469  148.8561
 470  210.7374
 471  248.6673
 472  159.2817
 473  193.2881
 474  252.1773
 475  239.3329
 476  293.5008
 477  323.8752
 478  195.0513
 479  104.3991
 480  80.41537
 481  166.5697
 482  171.9592
 483  160.8041
 484  95.086
 485  262.5375
 486  152.0359
 487  54.14737
 488  173.3545
 489  114.312
 490  133.5843
 491  102.1113
 492  236.8925
 493  241.7902
 494  235.0938
 495  320.1859
 496  207.2497
 497  296.6613
 498  146.5348
 499  48.34796
 500  208.1228
 501  281.6945
 502  264.7656
 503  138.5429
 504  220.3925
 505  341.3517
 506  334.3527
 507  473.9012
 508  487.8107
 509  581.4069
 510  818.6782
 511  1038.416
