# Input file       =  1178886977.099836_cleaned.dat
# Candidate        =  PSR_0332+5434
# Telescope        =  AR
# Epoch_topo       =  57888.525417822180
# Epoch_bary       =  N/A
# T_sample         =  0.002
# Data Folded      =  7340032
# Data Avg         =  0.0480220950308388
# Data StdDev      =  2.80197136175232 
# Profile Bins     =  256
# Profile Avg      =  1376.60658668594 
# Profile StdDev   =  474.452441850985 
# Reduced chi-sqr  =  1.526
# Prob(Noise)      <  1.22e-07   (~5.2 sigma)
# P_topo (ms)      =  714.533099565814  +/- 0.000391
# P'_topo (s/s)    =  -0                +/- 2.06e-10
# P''_topo (s/s^2) =  0                 +/- 9.11e-14
# P_bary (ms)      =  N/A
# P'_bary (s/s)    =  N/A
# P''_bary (s/s^2) =  N/A
# P_orb (s)        =  N/A
# asin(i)/c (s)    =  N/A
# eccentricity     =  N/A
# w (rad)          =  N/A
# T_peri           =  N/A
######################################################
   0  1457.652
   1  1069.693
   2  1528.269
   3  882.261
   4  836.0342
   5  1662.288
   6  1630.396
   7  1080.37
   8  1187.586
   9  1865.218
  10  1497.261
  11  1023.82
  12  1039.746
  13  1526.88
  14  1462.85
  15  1363.926
  16  1708.07
  17  1618.261
  18  1377.529
  19  1492.208
  20  632.8386
  21  1296.97
  22  1273.559
  23  1500.05
  24  1081.412
  25  1255.164
  26  1811.706
  27  1229.536
  28  785.9119
  29  1688.617
  30  1690.304
  31  1794.346
  32  1589.324
  33  1117.923
  34  1397.645
  35  1581.504
  36  1167.625
  37  1559.392
  38  1432.328
  39  1302.238
  40  1775.824
  41  1856.614
  42  2093.827
  43  1317.49
  44  1357.439
  45  1734.371
  46  1498.254
  47  567.2442
  48  920.9901
  49  1516.688
  50  731.756
  51  1297.226
  52  1820.734
  53  1344.371
  54  845.7818
  55  1506.037
  56  1705.137
  57  1190.699
  58  1564.331
  59  733.3561
  60  1099.34
  61  974.2551
  62  385.3824
  63  546.8928
  64  831.3521
  65  1114.576
  66  1009.078
  67  1522.417
  68  688.2393
  69  863.1365
  70  1537.857
  71  804.4877
  72  1421.472
  73  2021.35
  74  2014.172
  75  1879.324
  76  1505.066
  77  1298.413
  78  1784.524
  79  1736.45
  80  1523.185
  81  1177.965
  82  1464.877
  83  1342.47
  84  1002.111
  85  1397.342
  86  1353.311
  87  1092.423
  88  771.6743
  89  739.0408
  90  774.1412
  91  646.0687
  92  1099.923
  93  1380.002
  94  1432.281
  95  732.5944
  96  1452.725
  97  1063.882
  98  1602.806
  99  1213.008
 100  1560.973
 101  1599.848
 102  1394.05
 103  1465.111
 104  1216.818
 105  1530.629
 106  1354.957
 107  1499.241
 108  2092.723
 109  2165.433
 110  1329.246
 111  1267.825
 112  1380.275
 113  1156.93
 114  1281.193
 115  1029.619
 116  1139.919
 117  1303.989
 118  424.0446
 119  817.6491
 120  983.5871
 121  925.9951
 122  1360.536
 123  1498.165
 124  885.205
 125  1604.486
 126  1270.278
 127  1422.035
 128  1441.334
 129  1217.79
 130  1727.508
 131  1583.737
 132  952.9175
 133  1156.53
 134  967.0322
 135  813.1368
 136  783.7203
 137  1396.063
 138  1194.395
 139  1581.725
 140  1631.163
 141  1328.814
 142  977.4787
 143  1172.631
 144  560.2753
 145  975.47
 146  1141.319
 147  1373.246
 148  1207.005
 149  1627.226
 150  580.8297
 151  646.364
 152  1117.803
 153  929.0783
 154  1157.073
 155  889.4079
 156  1431.368
 157  1723.374
 158  1631.516
 159  1508.2
 160  2242.097
 161  2018.779
 162  2232.471
 163  2846.349
 164  4597.152
 165  4953.647
 166  2331.856
 167  1621.209
 168  1422.248
 169  1309.914
 170  1523.915
 171  2190.059
 172  1557.26
 173  1228.576
 174  1098.734
 175  1045.546
 176  687.8802
 177  1090.783
 178  998.0137
 179  1512.534
 180  1422.011
 181  1060.618
 182  1100.47
 183  1210.535
 184  975.9044
 185  801.8559
 186  773.0988
 187  578.4582
 188  450.4357
 189  960.0172
 190  1240.178
 191  736.1352
 192  845.4141
 193  556.2464
 194  935.9759
 195  956.0446
 196  1444.435
 197  1640.4
 198  1291.91
 199  1279.019
 200  811.2367
 201  1474.009
 202  1626.81
 203  1122.8
 204  1434.224
 205  1400.401
 206  1965.89
 207  1722.763
 208  1615.835
 209  2181.335
 210  2506.045
 211  1856.999
 212  1547.776
 213  1383.463
 214  1842.27
 215  964.4028
 216  1259.532
 217  1594.208
 218  1086.205
 219  1268.109
 220  1203.563
 221  1377.883
 222  1066.173
 223  1416.981
 224  1632.607
 225  1124.701
 226  1792.572
 227  1681.668
 228  2078.727
 229  1614.996
 230  1874.504
 231  1317.937
 232  927.8937
 233  1340.246
 234  1818.317
 235  1448.944
 236  1028.065
 237  1699.668
 238  2283.45
 239  1843.876
 240  1705.168
 241  1624.893
 242  1674.987
 243  1838.485
 244  1086.287
 245  1502.774
 246  1900.235
 247  1770.886
 248  1562.459
 249  1508.525
 250  1230.465
 251  1851.467
 252  2055.54
 253  2034.607
 254  1761.545
 255  1734.904
