# Input file       =  1178943567.104165_cleaned.dat
# Candidate        =  PSR_0332+5434
# Telescope        =  AR
# Epoch_topo       =  57889.180394724135
# Epoch_bary       =  N/A
# T_sample         =  0.002
# Data Folded      =  7143424
# Data Avg         =  0.184992538201153
# Data StdDev      =  4.71695531267498 
# Profile Bins     =  512
# Profile Avg      =  2581.0293070646  
# Profile StdDev   =  557.160084597392 
# Reduced chi-sqr  =  0.505
# Prob(Noise)      <  1   (~0.0 sigma)
# P_topo (ms)      =  714.5321200968    +/- 8.35e-05
# P'_topo (s/s)    =  -0                +/- 4.53e-11
# P''_topo (s/s^2) =  0                 +/- 2.05e-14
# P_bary (ms)      =  N/A
# P'_bary (s/s)    =  N/A
# P''_bary (s/s^2) =  N/A
# P_orb (s)        =  N/A
# asin(i)/c (s)    =  N/A
# eccentricity     =  N/A
# w (rad)          =  N/A
# T_peri           =  N/A
######################################################
   0  2548.511
   1  2353.659
   2  2000.884
   3  2530.108
   4  2436.538
   5  2782.98
   6  2883.205
   7  2625.306
   8  2787.801
   9  2331.33
  10  2437.635
  11  2100.913
  12  2090.681
  13  2575.998
  14  2902.006
  15  2829.036
  16  2292.63
  17  2724.415
  18  2374.745
  19  2682.061
  20  2683.66
  21  2654.599
  22  2782.365
  23  2574.448
  24  2709.416
  25  2728.917
  26  2779.582
  27  2414.457
  28  2693.846
  29  2490.58
  30  2764.57
  31  3122.428
  32  2909.323
  33  2579.763
  34  2300.618
  35  2495.587
  36  2805.691
  37  2429.816
  38  2370.299
  39  2181.711
  40  2343.867
  41  2401.037
  42  2731.346
  43  2272.822
  44  2352.33
  45  3063.331
  46  3161.819
  47  3248.474
  48  2609.886
  49  2588.924
  50  2480.396
  51  2298.926
  52  2869.972
  53  3303.945
  54  3149.255
  55  2887.638
  56  2866.494
  57  2784.45
  58  2405.536
  59  2599.601
  60  2936.199
  61  3202.324
  62  3117.801
  63  2856.543
  64  2734.228
  65  2915.77
  66  2399.021
  67  2129.402
  68  2338.587
  69  2540.169
  70  2839.84
  71  3067.966
  72  2877.007
  73  3164.122
  74  3066.434
  75  2525.838
  76  2309.189
  77  2682.733
  78  2571.798
  79  2502.111
  80  2580.495
  81  2654.615
  82  2533.206
  83  2291.024
  84  2590.61
  85  2267.72
  86  2627.271
  87  2657.885
  88  2882.696
  89  3168.104
  90  2688.5
  91  2707.371
  92  2582.603
  93  2357.463
  94  2467.099
  95  2785.397
  96  3137.279
  97  3194.345
  98  3066.327
  99  2643.333
 100  2707
 101  2615.24
 102  2535.416
 103  2706.823
 104  3044.003
 105  2860.004
 106  2590.505
 107  2822.379
 108  2704.593
 109  2578.242
 110  2564.929
 111  2978.456
 112  3104.837
 113  3111.856
 114  3336.405
 115  2966.472
 116  3019.558
 117  2513.294
 118  2942.351
 119  2807.87
 120  2456.978
 121  2737.857
 122  2647.27
 123  2544.643
 124  2403.135
 125  2624.699
 126  2414.521
 127  2889.121
 128  2853.919
 129  2977.04
 130  2880.113
 131  2350.48
 132  2437.448
 133  2489.456
 134  2495.418
 135  2334.374
 136  2580.953
 137  2753.783
 138  2661.485
 139  2540.256
 140  2632.799
 141  2211.57
 142  1870.049
 143  2365.989
 144  2606.554
 145  3030.691
 146  2481.76
 147  2550.314
 148  2681.232
 149  2280.46
 150  2558.727
 151  2696.927
 152  2762.623
 153  3079.909
 154  2866.986
 155  2669.964
 156  2839.749
 157  2850.416
 158  2706.17
 159  2560.964
 160  2483.327
 161  2527.379
 162  2456.064
 163  2549.754
 164  2386.059
 165  2524.71
 166  2194.945
 167  2282.098
 168  2160.067
 169  2239.756
 170  2717.826
 171  2864.838
 172  2743.7
 173  2664.422
 174  2646.965
 175  2410.596
 176  2226.258
 177  2815.508
 178  3076.006
 179  2839.464
 180  2736.042
 181  2664.79
 182  2558.457
 183  2551.988
 184  2330.097
 185  2409.817
 186  2370.546
 187  2189.25
 188  2539.855
 189  2796.66
 190  2981.265
 191  3023.629
 192  2686.681
 193  2629.886
 194  2950.152
 195  3061.869
 196  2481.031
 197  2374.246
 198  2180.9
 199  2713.575
 200  2836.023
 201  2779.881
 202  2701.609
 203  2623.663
 204  2440.094
 205  2428.763
 206  2578.686
 207  2558.784
 208  2680.754
 209  2389.29
 210  2753.378
 211  2673.418
 212  2526.616
 213  2010.072
 214  2050.427
 215  2787.384
 216  2177.731
 217  2315.827
 218  2652.301
 219  2807.918
 220  2432.801
 221  2434.968
 222  2408.742
 223  2367.389
 224  2423.31
 225  2483.466
 226  2558.107
 227  2665.866
 228  2762.226
 229  2559.434
 230  2600.233
 231  2202.869
 232  2308.374
 233  2293.917
 234  2377.57
 235  2607.368
 236  2876.799
 237  2703.744
 238  2702.323
 239  2803.054
 240  2414.872
 241  2537.17
 242  2607.415
 243  2754.184
 244  2440.991
 245  2459.222
 246  2283.462
 247  2401.526
 248  2375.124
 249  2395.633
 250  2582.006
 251  2128.999
 252  2365.708
 253  2555.131
 254  2548.796
 255  2382.18
 256  2407.34
 257  2585.723
 258  2402.343
 259  2717.279
 260  2991.584
 261  2876.191
 262  2630.136
 263  2373.331
 264  2844.789
 265  2868.425
 266  2749.246
 267  2618.565
 268  2643.349
 269  2393.774
 270  2652.734
 271  2667.791
 272  2425.487
 273  2428.959
 274  2407.572
 275  2997.798
 276  2724.979
 277  2880.075
 278  2762.479
 279  2235.824
 280  2523.356
 281  2387.161
 282  2678.649
 283  2307.374
 284  2434.204
 285  2353.665
 286  2435.142
 287  2019.774
 288  1928.011
 289  2477.344
 290  2223.86
 291  2187.255
 292  2415.599
 293  2730.851
 294  2653.959
 295  2414.123
 296  2526.747
 297  2093.705
 298  2286.116
 299  2075.023
 300  2275.935
 301  2600.853
 302  2456.44
 303  2317.322
 304  2051.848
 305  2378.077
 306  2520.319
 307  2408.365
 308  2197.38
 309  2684.83
 310  2903.095
 311  2567.896
 312  2489.89
 313  2403.185
 314  2258.292
 315  2046.479
 316  1983.899
 317  2416.994
 318  2609.966
 319  2517.084
 320  2057.506
 321  2133.24
 322  2243.694
 323  2170.368
 324  2449.525
 325  3021.422
 326  3233.378
 327  3267.954
 328  3504.727
 329  3248.523
 330  3490.239
 331  3635.074
 332  2875.11
 333  2831.569
 334  2464.004
 335  2687.216
 336  2646.691
 337  2386.046
 338  2483.181
 339  2437.031
 340  2696.179
 341  2756.306
 342  2880.878
 343  2909.533
 344  2562.572
 345  2219.767
 346  2024.334
 347  2174.363
 348  2162.353
 349  2772.165
 350  2553.546
 351  2886.971
 352  2973.192
 353  2600.874
 354  2349.603
 355  2436.227
 356  2735.987
 357  2458.178
 358  2841.62
 359  2722.79
 360  2665.823
 361  2839.132
 362  2464.12
 363  2630.062
 364  2391.66
 365  2637.472
 366  2608.687
 367  2476.343
 368  2681.612
 369  2700.279
 370  2759.16
 371  2493.553
 372  2983.53
 373  2507.588
 374  2298.225
 375  2608.127
 376  2366.069
 377  2485.365
 378  2019.755
 379  2300.811
 380  2173.003
 381  2365.059
 382  2389.298
 383  2520.98
 384  2556.922
 385  2303.393
 386  2405.394
 387  2399.43
 388  2861.009
 389  2601.503
 390  2516.482
 391  2721.014
 392  3139.067
 393  2987.849
 394  2365.316
 395  2577.708
 396  2169.266
 397  2333.648
 398  2111.419
 399  2068.768
 400  2735.792
 401  2993.548
 402  3082.577
 403  2206.07
 404  2015.173
 405  2198.635
 406  2237.16
 407  2664.09
 408  2881.086
 409  3334.25
 410  3056.459
 411  2315.411
 412  1955.763
 413  2044.98
 414  2274.948
 415  2206.615
 416  2419.839
 417  2199.496
 418  2484.974
 419  2668.15
 420  2567.418
 421  2612.673
 422  2550.069
 423  2760.85
 424  2699.658
 425  2896.271
 426  2571.106
 427  2852.61
 428  2921.868
 429  2794.786
 430  2731.091
 431  2556.468
 432  2804.866
 433  2459.54
 434  2395.831
 435  2707.06
 436  2783.273
 437  2918.367
 438  2626.008
 439  2584.095
 440  2163.815
 441  2548.126
 442  3137.022
 443  3277.262
 444  2903.205
 445  2116.746
 446  2728.227
 447  2249.24
 448  2459.327
 449  2336.444
 450  2702.493
 451  2749.987
 452  2422.219
 453  2713.37
 454  2779.511
 455  2829.894
 456  2580.465
 457  2549.272
 458  2443.242
 459  2692.772
 460  2849.106
 461  2614.992
 462  2398.093
 463  2357.345
 464  2503.766
 465  2205.65
 466  2122.715
 467  2473.757
 468  2599.298
 469  2961.1
 470  2541.444
 471  2609.197
 472  2806.285
 473  2391.37
 474  2599.299
 475  2809.896
 476  2918.24
 477  2585.788
 478  2455.617
 479  2376.357
 480  2705.742
 481  2076.791
 482  2231.452
 483  2709.845
 484  2445.016
 485  2483.322
 486  2062.496
 487  2267.469
 488  2332.587
 489  2397.284
 490  2588.969
 491  2919.71
 492  2721.101
 493  2697.865
 494  2820.621
 495  2509.369
 496  2282.36
 497  1906.073
 498  1841.741
 499  2208.671
 500  2274.241
 501  2744.512
 502  2551.374
 503  2232.319
 504  2303.697
 505  2255.139
 506  2134.98
 507  2302.828
 508  2688.954
 509  2922.395
 510  2612.5
 511  2583.331
