# Input file       =  1178973071.099241-PSRB0329-2ms-sampling-dd.dat
# Candidate        =  PSR_0332+5434
# Telescope        =  AR
# Epoch_topo       =  57889.521876148625
# Epoch_bary       =  N/A
# T_sample         =  0.002
# Data Folded      =  7340032
# Data Avg         =  -7.28815812600363e-10
# Data StdDev      =  15.3478020522596 
# Profile Bins     =  512
# Profile Avg      =  0.0042459145703222
# Profile StdDev   =  1837.6389414266  
# Reduced chi-sqr  =  0.935
# Prob(Noise)      <  0.85   (~0.0 sigma)
# P_topo (ms)      =  714.532132631314  +/- 0.000378
# P'_topo (s/s)    =  -0                +/- 2e-10
# P''_topo (s/s^2) =  0                 +/- 8.81e-14
# P_bary (ms)      =  N/A
# P'_bary (s/s)    =  N/A
# P''_bary (s/s^2) =  N/A
# P_orb (s)        =  N/A
# asin(i)/c (s)    =  N/A
# eccentricity     =  N/A
# w (rad)          =  N/A
# T_peri           =  N/A
######################################################
   0  -399.9079
   1  -358.3499
   2  -527.0526
   3  -512.715
   4  -287.1058
   5  215.7802
   6  149.3848
   7  355.7307
   8  -47.47208
   9  -86.43139
  10  -282.5227
  11  -525.5524
  12  -564.7023
  13  -437.0018
  14  -463.2225
  15  -736.433
  16  -738.0604
  17  -35.7301
  18  56.75167
  19  377.3049
  20  103.3569
  21  150.3804
  22  -370.8586
  23  -143.9548
  24  20.67378
  25  453.1834
  26  532.3361
  27  489.6193
  28  -229.036
  29  -829.7254
  30  -958.29
  31  -1186.942
  32  -1087.476
  33  -1022.699
  34  -1284.576
  35  -1168.09
  36  -1066.072
  37  -566.7002
  38  -780.1137
  39  -392.496
  40  -909.7181
  41  -1682.716
  42  -1088.797
  43  -870.4066
  44  -589.4034
  45  -657.5508
  46  -710.7036
  47  -737.7537
  48  -923.77
  49  -820.8156
  50  -558.0239
  51  -282.1071
  52  112.6756
  53  -559.9356
  54  -440.1266
  55  -351.0739
  56  7.284773
  57  115.1726
  58  323.6216
  59  354.7646
  60  642.4092
  61  57.17313
  62  492.3244
  63  575.9241
  64  1379.333
  65  1605.421
  66  1557.632
  67  1007.511
  68  -348.196
  69  -407.1514
  70  -326.5827
  71  -351.4143
  72  -854.1967
  73  -1343.747
  74  -1348.472
  75  -1338.117
  76  -1161.353
  77  -1022.22
  78  -964.0428
  79  -791.387
  80  -459.1627
  81  -207.4218
  82  -486.6044
  83  -894.069
  84  -569.1071
  85  -514.1943
  86  -351.3784
  87  210.7171
  88  235.0352
  89  -414.7948
  90  -416.1545
  91  79.75529
  92  521.5195
  93  590.262
  94  344.3968
  95  110.6498
  96  -356.8283
  97  -617.4841
  98  -315.5252
  99  234.4249
 100  110.1518
 101  318.5874
 102  491.5638
 103  839.9896
 104  1044.559
 105  358.3637
 106  -6.718787
 107  189.2863
 108  828.2752
 109  824.5293
 110  1056.9
 111  1529.245
 112  977.5941
 113  1266.684
 114  979.0748
 115  697.1522
 116  565.3721
 117  786.34
 118  661.8484
 119  -36.9428
 120  2103.613
 121  2266.375
 122  2098.55
 123  1422.101
 124  172.3829
 125  -91.17574
 126  -213.0997
 127  867.7225
 128  1492.81
 129  1381.436
 130  559.5478
 131  842.0305
 132  1481.38
 133  1193.147
 134  1411.619
 135  1639.4
 136  1911.254
 137  1612.408
 138  1607.085
 139  879.2766
 140  140.2992
 141  110.4864
 142  116.2228
 143  138.3283
 144  227.4541
 145  523.584
 146  575.9787
 147  964.0236
 148  465.7885
 149  322.2847
 150  699.7738
 151  892.7751
 152  637.9689
 153  1175.335
 154  1517.915
 155  1285.547
 156  501.4312
 157  172.8098
 158  -337.1557
 159  -585.2733
 160  -397.3242
 161  -868.6929
 162  -1193.548
 163  -174.858
 164  -507.0402
 165  -364.6598
 166  -389.592
 167  -756.9274
 168  -923.3792
 169  -1540.371
 170  -801.8632
 171  -904.3998
 172  -598.0311
 173  -315.2143
 174  155.2148
 175  81.78481
 176  -404.7067
 177  -38.20348
 178  269.2457
 179  831.4655
 180  783.5638
 181  841.3678
 182  471.4823
 183  -33.49486
 184  110.4102
 185  36.80642
 186  -222.5921
 187  72.91965
 188  436.4889
 189  -347.2888
 190  -1028.688
 191  -649.056
 192  -278.2737
 193  -352.3062
 194  -533.5417
 195  659.6197
 196  1559.589
 197  7143.678
 198  7010.465
 199  7336.376
 200  8042.869
 201  2041.29
 202  470.3138
 203  3060.755
 204  7749
 205  8742.241
 206  9902.146
 207  6448.458
 208  2408.604
 209  -869.7947
 210  -372.2123
 211  -400.6997
 212  -346.8492
 213  -284.3433
 214  -703.7462
 215  -693.1162
 216  -523.8586
 217  -536.4582
 218  -405.4634
 219  -80.99653
 220  -108.5855
 221  333.1973
 222  170.5765
 223  -239.7423
 224  -171.6583
 225  -605.5357
 226  -116.9501
 227  5.622017
 228  215.2946
 229  490.5195
 230  -209.2148
 231  -497.5044
 232  -344.4358
 233  -781.647
 234  -911.732
 235  -802.3187
 236  -98.61249
 237  -83.2442
 238  -45.36569
 239  -88.62122
 240  -302.3886
 241  -244.6212
 242  -279.9161
 243  -119.332
 244  -84.72778
 245  131.8385
 246  46.88241
 247  -504.8461
 248  -696.5693
 249  -325.3828
 250  178.8407
 251  223.1279
 252  -186.882
 253  -655.8841
 254  -220.3128
 255  -119.6979
 256  141.122
 257  193.327
 258  302.5195
 259  73.83204
 260  -139.5347
 261  -188.896
 262  -146.5908
 263  -807.2119
 264  -643.444
 265  -252.7516
 266  -339.2293
 267  -663.9529
 268  -539.5721
 269  -487.0909
 270  -845.2934
 271  229.0638
 272  -548.7876
 273  -216.5527
 274  -197.2296
 275  -314.1039
 276  -398.3523
 277  -702.8319
 278  -555.745
 279  -476.1931
 280  -774.845
 281  -1183.363
 282  -1039.11
 283  -758.7122
 284  -961.9069
 285  -1034.584
 286  -1116.262
 287  -664.9083
 288  -457.4345
 289  -309.7388
 290  -754.0775
 291  -1328.394
 292  -890.4396
 293  -875.8019
 294  -542.2171
 295  -876.3747
 296  -906.7113
 297  -707.8497
 298  -491.1935
 299  -345.9119
 300  -463.364
 301  -662.772
 302  -1056.913
 303  -1085.428
 304  -1582.622
 305  -1097.317
 306  -835.3365
 307  -752.7872
 308  -446.6703
 309  -572.4495
 310  -612.9955
 311  -992.7532
 312  -945.4669
 313  -1077
 314  -767.1833
 315  -411.6176
 316  -392.415
 317  -579.991
 318  -390.3691
 319  -967.3789
 320  -1007.67
 321  -582.8611
 322  -825.4788
 323  -887.6645
 324  -1118.017
 325  -684.8527
 326  -284.4849
 327  -244.8843
 328  -58.30744
 329  -326.8506
 330  -799.5157
 331  -416.272
 332  -276.3851
 333  -969.8486
 334  -1105.438
 335  -391.62
 336  -189.5111
 337  -92.58842
 338  270.0538
 339  -538.0742
 340  -1002.449
 341  -1004.654
 342  -644.8565
 343  -757.9666
 344  -763.3576
 345  -72.1935
 346  -566.999
 347  -905.6502
 348  -1128.077
 349  -867.726
 350  -428.7031
 351  -113.8415
 352  248.1227
 353  359.3592
 354  -177.3065
 355  -1203.481
 356  -1649.11
 357  -1877.597
 358  -1726.936
 359  -1533.907
 360  -1684.575
 361  -927.2447
 362  -29.04816
 363  442.6454
 364  767.7691
 365  706.461
 366  -197.347
 367  -1377.55
 368  555.2825
 369  1295.657
 370  2013.246
 371  2118.871
 372  1241.891
 373  344.2519
 374  -1164.672
 375  -1173.838
 376  -1479.448
 377  -1526.903
 378  -1311.015
 379  -1439.095
 380  -978.274
 381  -1022.36
 382  -1153.936
 383  -837.0121
 384  -660.3156
 385  -731.0055
 386  -591.277
 387  -334.9012
 388  -23.02872
 389  540.6595
 390  -9.28111
 391  319.4356
 392  667.2285
 393  941.2329
 394  558.4386
 395  798.0867
 396  762.5168
 397  700.0959
 398  576.5464
 399  881.9026
 400  1136.542
 401  -141.931
 402  -236.7147
 403  -625.9186
 404  -629.9915
 405  -783.4355
 406  -648.9557
 407  -430.77
 408  -773.7891
 409  -1195.308
 410  -1398.76
 411  -1277.325
 412  -910.0955
 413  -699.2664
 414  -449.7058
 415  -580.8785
 416  -814.7158
 417  -792.2434
 418  -1264.662
 419  -1443.405
 420  -1240.457
 421  -1280.831
 422  -1378.35
 423  -864.5496
 424  -519.98
 425  -345.9177
 426  -480.3553
 427  -1070.647
 428  -894.7056
 429  14.20295
 430  1026.978
 431  1656.112
 432  1124.623
 433  -190.4952
 434  140.394
 435  1478.697
 436  2128.698
 437  3020.26
 438  3213.024
 439  1651.579
 440  832.479
 441  194.9574
 442  640.7474
 443  34.75351
 444  -250.2222
 445  -264.93
 446  37.45614
 447  415.7293
 448  149.3291
 449  589.1485
 450  907.4892
 451  1096.629
 452  1006.255
 453  1518.675
 454  1687.835
 455  1739.133
 456  1899.294
 457  1092.771
 458  1461.069
 459  1740.077
 460  1977.492
 461  1550.041
 462  1499.039
 463  1183.68
 464  642.4908
 465  756.9421
 466  11.82418
 467  -241.9977
 468  -710.8004
 469  -981.301
 470  -888.8705
 471  -585.646
 472  37.92606
 473  192.0732
 474  -203.534
 475  -319.324
 476  -441.523
 477  -316.3394
 478  -383.9541
 479  -358.3491
 480  159.2297
 481  164.784
 482  149.1142
 483  154.06
 484  -257.8156
 485  -792.8033
 486  -809.9811
 487  -1003.595
 488  -1219.499
 489  -670.1434
 490  -567.4116
 491  -499.3675
 492  -493.712
 493  -223.6495
 494  -405.4785
 495  -259.0992
 496  -91.94681
 497  -438.4365
 498  -241.4061
 499  52.28758
 500  454.4395
 501  103.3207
 502  -135.4662
 503  -436.0561
 504  -1001.978
 505  -629.121
 506  -689.1507
 507  -397.4371
 508  -489.1631
 509  -500.8019
 510  -455.6109
 511  -468.4908
