# Input file       =  1178872053.113042_cleaned.dat
# Candidate        =  PSR_0332+5434
# Telescope        =  AR
# Epoch_topo       =  57888.352686493541
# Epoch_bary       =  N/A
# T_sample         =  0.002
# Data Folded      =  7340032
# Data Avg         =  0.0536726598210017
# Data StdDev      =  2.30762017894956 
# Profile Bins     =  256
# Profile Avg      =  1538.91310912965 
# Profile StdDev   =  390.744903289274 
# Reduced chi-sqr  =  1.935
# Prob(Noise)      <  2.23e-17   (~8.4 sigma)
# P_topo (ms)      =  714.532932365267  +/- 0.000217
# P'_topo (s/s)    =  -0                +/- 1.14e-10
# P''_topo (s/s^2) =  0                 +/- 5.05e-14
# P_bary (ms)      =  N/A
# P'_bary (s/s)    =  N/A
# P''_bary (s/s^2) =  N/A
# P_orb (s)        =  N/A
# asin(i)/c (s)    =  N/A
# eccentricity     =  N/A
# w (rad)          =  N/A
# T_peri           =  N/A
######################################################
   0  1144.341
   1  1482.583
   2  1240.47
   3  1544.344
   4  1741.709
   5  1225.761
   6  1335.554
   7  1530.169
   8  1029.2
   9  812.2354
  10  889.1553
  11  1263.884
  12  1566.408
  13  1300.027
  14  1365.841
  15  1330.295
  16  1278.285
  17  1288.034
  18  910.0162
  19  666.6696
  20  1024.097
  21  1257.378
  22  1504.436
  23  1308.807
  24  1764.391
  25  1107.697
  26  604.7114
  27  1079.682
  28  815.538
  29  944.3074
  30  1190.155
  31  1015.155
  32  1223.267
  33  825.4557
  34  1469.599
  35  1427.492
  36  1362.286
  37  1281.597
  38  1625.594
  39  1558.634
  40  1904.323
  41  1532.539
  42  1673.869
  43  1533.506
  44  1495.887
  45  1159.082
  46  1418.956
  47  1517.832
  48  1458.183
  49  2153.316
  50  1471.628
  51  1678.63
  52  1768.182
  53  1502.395
  54  1603.281
  55  774.5016
  56  873.3894
  57  1636.707
  58  1425.993
  59  1061.454
  60  1742.749
  61  1886.445
  62  1143.752
  63  966.1108
  64  1657.354
  65  1477.401
  66  1619.74
  67  1379.183
  68  1266.148
  69  1556.842
  70  780.367
  71  1356.3
  72  1463.636
  73  1158.277
  74  1794.877
  75  1478.461
  76  1273.991
  77  1403.366
  78  1383.48
  79  1357.694
  80  1139.415
  81  1675.324
  82  1273.732
  83  871.2868
  84  628.5856
  85  1183.155
  86  1175.827
  87  856.3548
  88  512.5797
  89  1362.73
  90  1070.117
  91  1317.527
  92  1219.506
  93  872.4734
  94  901.5363
  95  1574.103
  96  1060.532
  97  1302.079
  98  1398.275
  99  910.9593
 100  1374.749
 101  1427.127
 102  997.9963
 103  749.3718
 104  1107.073
 105  1524.23
 106  1665.366
 107  1545.614
 108  1587.017
 109  1717.888
 110  2089.301
 111  953.5656
 112  1373.104
 113  1225.859
 114  1525.7
 115  1629.231
 116  1250.062
 117  1460.178
 118  1856.379
 119  1614.967
 120  1518.674
 121  2244.134
 122  1679.545
 123  1398.151
 124  1902.138
 125  1466.962
 126  1687.691
 127  1657.116
 128  1385.559
 129  1647.289
 130  1759.985
 131  1102.443
 132  1668.994
 133  1303.893
 134  1858.2
 135  2544.942
 136  2414.321
 137  2184.224
 138  1837.091
 139  1927.348
 140  1385.336
 141  1788.984
 142  2169.459
 143  1840.981
 144  1649.676
 145  1636.748
 146  1613.673
 147  2134.103
 148  1599.638
 149  1705.871
 150  1429.467
 151  1881.065
 152  1783.597
 153  1310.117
 154  1344.932
 155  1390.643
 156  1654.848
 157  1603.218
 158  1840.404
 159  2002.737
 160  1943.095
 161  2225.283
 162  2365.24
 163  2949.868
 164  4312.698
 165  4486.387
 166  2999.403
 167  2210.214
 168  1805.206
 169  1911.462
 170  2327.64
 171  1706.248
 172  2149.263
 173  1598.326
 174  1819.805
 175  1594.634
 176  1505.289
 177  1865.873
 178  2145.792
 179  1859.28
 180  970.2825
 181  1470.143
 182  1786.696
 183  1954.286
 184  1848.81
 185  1509.498
 186  1299.308
 187  1301.111
 188  1094.823
 189  1748.373
 190  1586.869
 191  1753.494
 192  1217.444
 193  1152.614
 194  1201.073
 195  1420.658
 196  1944.829
 197  2096.656
 198  2207.447
 199  1738.062
 200  2059.645
 201  878.378
 202  1373.468
 203  1779.397
 204  1460.047
 205  1573.223
 206  1836.449
 207  1999.754
 208  2464.922
 209  1880.177
 210  1456.294
 211  2279.561
 212  2199.42
 213  1508.473
 214  1750.599
 215  1278.827
 216  1768.083
 217  1586.417
 218  1394.7
 219  1494.235
 220  1588.229
 221  1571.033
 222  1330.686
 223  1668.863
 224  1817.912
 225  1265.747
 226  1632.12
 227  1303.041
 228  1537.45
 229  1839.666
 230  1831.881
 231  1580.664
 232  1704.917
 233  1495.736
 234  1849.44
 235  1727.252
 236  1444.25
 237  1302.689
 238  1918.236
 239  1079.197
 240  2139.53
 241  2480.974
 242  1527.631
 243  1405.352
 244  1054.191
 245  936.253
 246  1129.843
 247  1131.769
 248  1265.931
 249  1704.508
 250  1918.187
 251  1653.225
 252  1795.99
 253  1495.048
 254  1231.668
 255  1436.929
