# Input file       =  1178542452.102663-PSRB0329-2ms-sampling-dd.dat
# Candidate        =  PSR_0332+5434
# Telescope        =  AR
# Epoch_topo       =  57884.537859984528
# Epoch_bary       =  N/A
# T_sample         =  0.002
# Data Folded      =  7340032
# Data Avg         =  -3.58034382530379e-10
# Data StdDev      =  19.0088117721034 
# Profile Bins     =  512
# Profile Avg      =  -0.0329513101768912
# Profile StdDev   =  2275.98275138836 
# Reduced chi-sqr  =  1.189
# Prob(Noise)      <  0.00204   (~2.9 sigma)
# P_topo (ms)      =  714.53693197428   +/- 0.000229
# P'_topo (s/s)    =  -0                +/- 1.21e-10
# P''_topo (s/s^2) =  0                 +/- 5.34e-14
# P_bary (ms)      =  N/A
# P'_bary (s/s)    =  N/A
# P''_bary (s/s^2) =  N/A
# P_orb (s)        =  N/A
# asin(i)/c (s)    =  N/A
# eccentricity     =  N/A
# w (rad)          =  N/A
# T_peri           =  N/A
######################################################
   0  -1527.349
   1  -34.56097
   2  458.3293
   3  834.8505
   4  3295.16
   5  3959.657
   6  4263.832
   7  4965.543
   8  3154.025
   9  2572.687
  10  3534.785
  11  6688.106
  12  7893.006
  13  6929.487
  14  4579.657
  15  2521.814
  16  -108.3503
  17  110.6008
  18  497.006
  19  1435.044
  20  2679.502
  21  1747.097
  22  899.8323
  23  766.3035
  24  213.5665
  25  -300.315
  26  1156.26
  27  1213.11
  28  431.296
  29  282.2848
  30  1037.766
  31  592.8638
  32  308.6241
  33  582.512
  34  -16.10644
  35  -308.1797
  36  178.9228
  37  1035.626
  38  686.0322
  39  84.28636
  40  62.21458
  41  4.961782
  42  378.4167
  43  442.4376
  44  470.3953
  45  915.8445
  46  540.3363
  47  -109.4408
  48  -337.2147
  49  -945.6833
  50  -989.7369
  51  -725.717
  52  -483.8912
  53  -460.4379
  54  -4.954415
  55  614.0068
  56  150.2869
  57  115.9938
  58  -424.8614
  59  160.8312
  60  144.0594
  61  -242.0192
  62  54.70203
  63  107.6455
  64  -36.8133
  65  -759.7158
  66  -435.2063
  67  -760.0249
  68  -112.2517
  69  442.0395
  70  -202.9789
  71  -25.27339
  72  176.741
  73  422.3012
  74  1935.717
  75  3360.659
  76  5312.517
  77  5914.368
  78  5178.572
  79  2688.224
  80  1537.571
  81  2650.896
  82  6580.818
  83  9326.106
  84  9629.982
  85  8560.35
  86  2460.901
  87  412.6727
  88  -1584.934
  89  -1045.259
  90  -826.7181
  91  -1524.282
  92  -1113.253
  93  -742.9223
  94  -518.6067
  95  -277.4359
  96  238.1761
  97  949.4572
  98  971.9459
  99  547.4068
 100  82.26669
 101  -206.0217
 102  -74.47314
 103  607.5728
 104  501.9442
 105  1221.085
 106  859.5191
 107  651.8927
 108  -113.4436
 109  344.1276
 110  -777.5282
 111  -846.2455
 112  217.9359
 113  557.3083
 114  -308.3076
 115  -1101.992
 116  -737.9526
 117  -1683.116
 118  -1659.954
 119  -409.3581
 120  131.5139
 121  630.1623
 122  403.7495
 123  326.1697
 124  164.1597
 125  -758.1185
 126  779.3636
 127  2655.747
 128  3092.55
 129  2609.088
 130  1616.296
 131  726.9135
 132  79.18096
 133  501.2694
 134  1125.378
 135  2148.668
 136  808.8621
 137  197.3645
 138  587.4015
 139  -91.88683
 140  533.0752
 141  1615.23
 142  1751.537
 143  1078.904
 144  -131.4903
 145  -114.3265
 146  -519.6826
 147  -619.6505
 148  -78.78836
 149  -200.0415
 150  -1063.715
 151  -1242.754
 152  -1211.39
 153  -2214.196
 154  -2729.463
 155  -1660.281
 156  -1448.323
 157  -959.7007
 158  -1511.946
 159  -1356.788
 160  -1292.147
 161  -2244.725
 162  -1543.73
 163  -1418.762
 164  -511.0915
 165  483.9578
 166  1899.207
 167  1944.117
 168  1340.218
 169  2744.554
 170  1018.396
 171  1577.509
 172  2234.451
 173  2118.775
 174  2514.116
 175  2627.226
 176  1796.305
 177  448.5002
 178  -56.72978
 179  -575.0302
 180  -1980.061
 181  -1225.674
 182  -1726.99
 183  -1190.201
 184  -854.2723
 185  -819.6217
 186  -1041.105
 187  -1670.515
 188  -958.4404
 189  -898.2509
 190  -686.2181
 191  -1144.66
 192  -1574.932
 193  -1090.586
 194  -1162.889
 195  -1019.114
 196  -708.2387
 197  -556.5078
 198  -804.7002
 199  -1237.52
 200  -1692.939
 201  -1887.688
 202  -1576.562
 203  -608.595
 204  77.40356
 205  989.8557
 206  1045.392
 207  564.9771
 208  508.9144
 209  924.2374
 210  847.191
 211  -620.4937
 212  569.9504
 213  1049.525
 214  971.5763
 215  73.8512
 216  -526.5917
 217  -1286.103
 218  -2082.825
 219  -1656.716
 220  -1229.374
 221  -2206.913
 222  -2234.339
 223  -2984.167
 224  -2415.631
 225  -2109.043
 226  -1467.85
 227  -936.2988
 228  -1410.744
 229  -2743.762
 230  -2935.003
 231  -2432.529
 232  -1800.008
 233  -1001.139
 234  -1626.169
 235  -1615.265
 236  -1076.667
 237  -373.3128
 238  1708.324
 239  2726.172
 240  3224.018
 241  2505.486
 242  1878.727
 243  449.2862
 244  -727.5271
 245  -394.7278
 246  1442.563
 247  3125.317
 248  2476.602
 249  1299.015
 250  -949.355
 251  -1529.902
 252  -1349.111
 253  691.2811
 254  2311.208
 255  2303.171
 256  696.2992
 257  29.85057
 258  534.5661
 259  1383.594
 260  3510.145
 261  3135.438
 262  1109.136
 263  -1021.812
 264  -2465.741
 265  -2372.84
 266  -2876.866
 267  -2077.2
 268  -1865.25
 269  -1629.207
 270  -951.7112
 271  -1362.405
 272  -1830.751
 273  -2058.061
 274  -1606.332
 275  -879.8333
 276  -1378.188
 277  -1449.711
 278  -2197.516
 279  -2610.91
 280  -3062.115
 281  -3085.639
 282  -3199.252
 283  -2943.418
 284  -2414.55
 285  -2304.613
 286  -2091.436
 287  -2012.871
 288  -1583.686
 289  -1301.227
 290  -1793.453
 291  -2105.267
 292  -2310.652
 293  -2163.026
 294  -1661.781
 295  -898.7513
 296  -721.9669
 297  -1450.135
 298  -1130.2
 299  -1578.513
 300  -2141.421
 301  -2177.11
 302  -1680.219
 303  -1524.775
 304  -1524.724
 305  -1336.933
 306  -1722.205
 307  -1896.744
 308  -2166.42
 309  -2209.287
 310  -2036.892
 311  -1579.965
 312  -907.9012
 313  -737.3816
 314  -670.0046
 315  -1535.899
 316  -1827.45
 317  -1696.699
 318  -1339.93
 319  -1376.569
 320  -524.6135
 321  -598.2365
 322  -716.6054
 323  -278.294
 324  -2.343718
 325  -128.9448
 326  -895.244
 327  -534.5967
 328  -912.2491
 329  -768.9117
 330  -769.4587
 331  210.2159
 332  373.9019
 333  -638.1344
 334  -337.1795
 335  -629.012
 336  -613.6682
 337  -615.5275
 338  -348.5447
 339  -147.3275
 340  414.9741
 341  749.5974
 342  -298.6883
 343  -897.6427
 344  -849.4389
 345  -2041.429
 346  -1234.926
 347  -1780.282
 348  -987.4823
 349  -610.1725
 350  -454.4456
 351  -367.7091
 352  -179.1215
 353  253.2677
 354  -388.3682
 355  -83.58342
 356  -380.0359
 357  361.9607
 358  -728.8188
 359  -407.3365
 360  124.8589
 361  312.5741
 362  -647.2245
 363  -870.9041
 364  -1327.682
 365  -2417.027
 366  -2133.07
 367  -2151.551
 368  -1978.78
 369  -1475.688
 370  -1109.552
 371  -1600.612
 372  -1949.24
 373  -1643.315
 374  -2006.985
 375  -1568.687
 376  -1117.714
 377  -496.8813
 378  -753.5723
 379  -1530.357
 380  -1544.1
 381  -1601.816
 382  -424.9685
 383  -318.9767
 384  766.9859
 385  600.5181
 386  300.0133
 387  -395.2874
 388  -1485.297
 389  -1275.495
 390  -817.0416
 391  303.1542
 392  562.636
 393  -87.44119
 394  -269.7896
 395  -1146.024
 396  -1120.501
 397  -1344.314
 398  -1235.22
 399  -1001.228
 400  -1269.092
 401  -845.2469
 402  -665.2948
 403  -519.4414
 404  -637.4861
 405  -546.1976
 406  -375.9903
 407  -145.8175
 408  -163.4498
 409  -101.1618
 410  -38.09741
 411  -361.3649
 412  -598.9863
 413  -122.6286
 414  558.5522
 415  776.6586
 416  566.1042
 417  831.1873
 418  348.7752
 419  -867.1116
 420  -986.1779
 421  163.559
 422  666.0834
 423  905.73
 424  566.8768
 425  296.5397
 426  -44.37003
 427  611.5223
 428  691.2713
 429  1171.861
 430  2206.794
 431  1583.7
 432  1547.694
 433  466.1348
 434  -280.2721
 435  799.2733
 436  1598.202
 437  1460.07
 438  1816.691
 439  1203.267
 440  -473.6073
 441  625.6108
 442  1919.159
 443  5536.682
 444  5480.147
 445  5040.327
 446  3983.85
 447  -638.455
 448  -129.7165
 449  2421.023
 450  6189.216
 451  4678.393
 452  4345.53
 453  2224.104
 454  383.2757
 455  -335.882
 456  -190.1595
 457  -379.4729
 458  -810.6284
 459  -673.1192
 460  -630.8253
 461  -463.884
 462  -901.5522
 463  -1078.317
 464  -1208.015
 465  -755.681
 466  -713.3985
 467  -1160.191
 468  -603.4948
 469  -590.7844
 470  -221.4599
 471  -293.8481
 472  -159.8207
 473  -901.1356
 474  -1437.448
 475  -1113.594
 476  -1150.826
 477  -818.7812
 478  -898.2404
 479  -972.2039
 480  -1394.451
 481  -964.8475
 482  -614.8782
 483  -998.7194
 484  108.9562
 485  682.058
 486  1269.764
 487  935.3741
 488  1675.109
 489  1681.422
 490  1141.14
 491  937.2388
 492  748.6091
 493  1217.46
 494  1181.767
 495  1549.264
 496  1307.182
 497  1159.44
 498  517.0616
 499  370.2598
 500  -769.4655
 501  -828.6572
 502  -9.37673
 503  -288.1614
 504  239.7531
 505  92.24023
 506  129.5939
 507  -309.873
 508  -1403.211
 509  -953.7162
 510  -1480.48
 511  -1410.572
