# Input file       =  1178872053.113042_cleaned.dat
# Candidate        =  PSR_0332+5434
# Telescope        =  AR
# Epoch_topo       =  57888.352686493541
# Epoch_bary       =  N/A
# T_sample         =  0.002
# Data Folded      =  7340032
# Data Avg         =  0.0223395321179353
# Data StdDev      =  1.00006591130752 
# Profile Bins     =  512
# Profile Avg      =  320.262043381329 
# Profile StdDev   =  119.740928137747 
# Reduced chi-sqr  =  1.654
# Prob(Noise)      <  7.05e-19   (~8.8 sigma)
# P_topo (ms)      =  714.532932259719  +/- 0.000189
# P'_topo (s/s)    =  -0                +/- 9.99e-11
# P''_topo (s/s^2) =  0                 +/- 4.41e-14
# P_bary (ms)      =  N/A
# P'_bary (s/s)    =  N/A
# P''_bary (s/s^2) =  N/A
# P_orb (s)        =  N/A
# asin(i)/c (s)    =  N/A
# eccentricity     =  N/A
# w (rad)          =  N/A
# T_peri           =  N/A
######################################################
   0  478.2802
   1  462.6027
   2  420.0444
   3  368.7201
   4  361.0162
   5  354.9606
   6  288.685
   7  366.8862
   8  318.6058
   9  318.7505
  10  432.078
  11  447.7636
  12  348.9811
  13  344.923
  14  344.7296
  15  393.2066
  16  321.4321
  17  270.1337
  18  408.7586
  19  371.058
  20  388.2924
  21  373.2749
  22  334.314
  23  283.4656
  24  169.6921
  25  312.2531
  26  324.2996
  27  273.6075
  28  363.6084
  29  330.045
  30  262.6814
  31  345.0796
  32  412.0768
  33  385.084
  34  406.7758
  35  389.0974
  36  422.9246
  37  377.2568
  38  471.5413
  39  428.7713
  40  493.5906
  41  520.324
  42  501.7562
  43  640.1191
  44  882.1995
  45  938.5029
  46  1018.896
  47  985.2946
  48  906.3979
  49  589.9757
  50  459.7855
  51  461.0279
  52  495.3571
  53  332.2177
  54  296.0189
  55  384.6274
  56  513.9454
  57  494.4098
  58  387.7763
  59  287.1165
  60  458.7359
  61  466.8368
  62  434.2891
  63  279.6394
  64  296.5035
  65  419.9647
  66  298.8197
  67  341.7156
  68  284.2165
  69  296.5098
  70  351.5892
  71  417.6708
  72  414.2417
  73  473.5802
  74  442.6651
  75  419.1721
  76  312.2197
  77  149.9123
  78  200.52
  79  296.42
  80  416.0219
  81  397.1637
  82  332.9551
  83  424.0362
  84  441.561
  85  379.7077
  86  351.2616
  87  321.7026
  88  212.5156
  89  296.572
  90  252.3841
  91  272.9007
  92  235.6976
  93  207.1901
  94  278.9496
  95  363.2802
  96  428.4499
  97  272.8949
  98  367.1796
  99  381.9174
 100  305.8733
 101  234.0258
 102  202.7538
 103  209.9455
 104  191.5114
 105  223.1349
 106  237.3529
 107  292.3322
 108  388.9173
 109  410.4067
 110  429.3826
 111  464.4335
 112  466.6582
 113  497.1539
 114  372.2873
 115  358.8337
 116  526.7272
 117  478.4048
 118  249.9485
 119  156.5438
 120  173.2818
 121  307.873
 122  419.8511
 123  365.7296
 124  334.109
 125  308.2173
 126  306.6353
 127  367.8496
 128  309.2486
 129  384.8303
 130  407.7469
 131  405.1662
 132  558.3469
 133  534.3503
 134  359.6005
 135  372.1433
 136  379.7779
 137  269.575
 138  308.6417
 139  509.5283
 140  583.9119
 141  467.651
 142  354.218
 143  307.4772
 144  299.0053
 145  360.2191
 146  328.3883
 147  214.5385
 148  314.7157
 149  399.4397
 150  396.7607
 151  325.9384
 152  266.6569
 153  291.2582
 154  285.9641
 155  316.9961
 156  343.9954
 157  305.6118
 158  376.7298
 159  324.8141
 160  326.0693
 161  254.4881
 162  246.8491
 163  371.489
 164  401.2893
 165  409.2717
 166  332.7776
 167  239.7132
 168  330.6909
 169  330.0592
 170  248.6581
 171  271.5777
 172  236.2505
 173  319.1343
 174  460.8353
 175  347.8654
 176  315.8669
 177  412.5558
 178  288.107
 179  310.9257
 180  343.8893
 181  361.9487
 182  363.0498
 183  319.4338
 184  280.6564
 185  414.3612
 186  422.3142
 187  353.782
 188  284.9545
 189  328.8321
 190  300.8803
 191  255.9485
 192  307.0417
 193  467.7675
 194  288.0886
 195  170.1596
 196  371.7939
 197  455.796
 198  501.1917
 199  530.8469
 200  363.0724
 201  319.3086
 202  271.1957
 203  281.6588
 204  309.8244
 205  214.1117
 206  93.79742
 207  208.9411
 208  243.8549
 209  254.7836
 210  170.9951
 211  244.0364
 212  330.4158
 213  215.601
 214  251.5077
 215  344.845
 216  379.1738
 217  374.6896
 218  362.3448
 219  324.3405
 220  410.7307
 221  373.7366
 222  342.1414
 223  287.8247
 224  269.9769
 225  217.4766
 226  233.6278
 227  327.4584
 228  316.5457
 229  177.916
 230  271.7903
 231  289.3446
 232  338.1273
 233  221.0848
 234  211.5229
 235  315.3999
 236  436.128
 237  358.0566
 238  240.3299
 239  243.3389
 240  265.3455
 241  250.5615
 242  306.3637
 243  324.3412
 244  253.2129
 245  194.1321
 246  193.3692
 247  173.2406
 248  66.19937
 249  213.499
 250  315.0482
 251  219.026
 252  253.927
 253  310.0381
 254  324.8507
 255  247.1849
 256  243.8971
 257  300.0333
 258  340.0958
 259  278.5638
 260  299.1129
 261  259.9209
 262  289.5412
 263  276.8242
 264  169.0385
 265  203.8996
 266  193.9501
 267  108.2585
 268  209.7284
 269  213.8105
 270  186.9629
 271  303.209
 272  283.4775
 273  375.5099
 274  212.2012
 275  263.3384
 276  352.1476
 277  384.0785
 278  377.3485
 279  214.6398
 280  45.46665
 281  139.5254
 282  199.4532
 283  250.3101
 284  268.8153
 285  168.3776
 286  137.3019
 287  231.7717
 288  195.038
 289  253.693
 290  259.3987
 291  193.7873
 292  188.8078
 293  274.323
 294  188.9043
 295  141.8263
 296  192.6996
 297  309.8661
 298  401.5785
 299  261.1622
 300  309.3907
 301  254.0193
 302  273.9629
 303  248.0227
 304  323.4955
 305  318.9512
 306  298.4146
 307  321.3758
 308  426.51
 309  420.7976
 310  336.6112
 311  330.8072
 312  347.9101
 313  333.6609
 314  343.0553
 315  303.3172
 316  348.6836
 317  289.3306
 318  179.6876
 319  234.3719
 320  280.9443
 321  315.2008
 322  251.3171
 323  324.1491
 324  319.9335
 325  267.4802
 326  446.7533
 327  471.4386
 328  358.1248
 329  300.3111
 330  234.1445
 331  388.5079
 332  426.6771
 333  377.7343
 334  299.7052
 335  300.7645
 336  384.4823
 337  337.1007
 338  231.8039
 339  136.3694
 340  183.3474
 341  165.0317
 342  323.1669
 343  347.2473
 344  409.4517
 345  288.9063
 346  153.4144
 347  239.1214
 348  276.0125
 349  378.8234
 350  429.1277
 351  421.7715
 352  338.084
 353  236.059
 354  146.9394
 355  181.7121
 356  328.2913
 357  376.3395
 358  273.2707
 359  297.9634
 360  408.1036
 361  316.9129
 362  311.9043
 363  285.7793
 364  250.2169
 365  258.5123
 366  297.9978
 367  330.5368
 368  307.6268
 369  126.1921
 370  135.1039
 371  324.7722
 372  329.1566
 373  309.9775
 374  254.3273
 375  226.4919
 376  356.0941
 377  409.0221
 378  357.4065
 379  338.1279
 380  266.9177
 381  251.7975
 382  326.9322
 383  309.0307
 384  308.8059
 385  288.886
 386  327.4102
 387  312.094
 388  197.001
 389  253.1711
 390  279.8994
 391  408.05
 392  327.676
 393  289.847
 394  220.8597
 395  197.4652
 396  133.3685
 397  136.8672
 398  127.7702
 399  246.7629
 400  376.4633
 401  206.7402
 402  188.0607
 403  167.7594
 404  82.67628
 405  58.86721
 406  239.5018
 407  302.4207
 408  244.4978
 409  185.4721
 410  283.3145
 411  242.5244
 412  258.082
 413  242.1626
 414  193.2617
 415  177.5079
 416  147.3295
 417  192.0766
 418  257.8536
 419  355.848
 420  276.5248
 421  171.4645
 422  350.3796
 423  223.6422
 424  252.6033
 425  312.1402
 426  172.6997
 427  185.6084
 428  222.2242
 429  317.3843
 430  316.2762
 431  272.9786
 432  219.8468
 433  193.4923
 434  219.0825
 435  168.0512
 436  112.5388
 437  236.01
 438  391.4544
 439  292.9544
 440  281.4211
 441  361.1111
 442  367.4781
 443  336.2281
 444  339.2935
 445  298.0311
 446  411.4839
 447  318.7534
 448  437.7133
 449  494.8761
 450  263.6516
 451  152.8807
 452  199.0009
 453  304.6809
 454  271.4146
 455  208.1038
 456  391.8228
 457  296.2531
 458  322.3859
 459  366.3198
 460  326.6986
 461  224.3388
 462  277.2725
 463  317.6797
 464  336.9742
 465  395.0167
 466  350.2307
 467  311.316
 468  258.7402
 469  271.0566
 470  441.2603
 471  477.3107
 472  457.1587
 473  324.5359
 474  293.5163
 475  293.2801
 476  338.3726
 477  440.9216
 478  330.6705
 479  292.1866
 480  360.3296
 481  333.8635
 482  272.0079
 483  354.0081
 484  399.3158
 485  245.3325
 486  306.4692
 487  323.9203
 488  439.65
 489  349.0083
 490  211.1797
 491  195.5392
 492  325.3402
 493  364.4741
 494  228.0352
 495  288.833
 496  347.2368
 497  385.743
 498  566.9422
 499  542.002
 500  432.647
 501  521.7474
 502  479.3709
 503  449.8683
 504  429.7426
 505  379.3586
 506  349.6712
 507  424.7417
 508  368.5173
 509  251.4038
 510  259.0876
 511  394.904
