# Input file       =  1178629155.093812_cleaned.dat
# Candidate        =  PSR_0332+5434
# Telescope        =  AR
# Epoch_topo       =  57885.541366826525
# Epoch_bary       =  N/A
# T_sample         =  0.002
# Data Folded      =  7340032
# Data Avg         =  0.0156284393180501
# Data StdDev      =  0.99988609019954 
# Profile Bins     =  512
# Profile Avg      =  224.054231626948 
# Profile StdDev   =  119.719397610484 
# Reduced chi-sqr  =  1.263
# Prob(Noise)      <  4.84e-05   (~3.9 sigma)
# P_topo (ms)      =  714.535987542802  +/- 0.000114
# P'_topo (s/s)    =  -0                +/- 6.03e-11
# P''_topo (s/s^2) =  0                 +/- 2.66e-14
# P_bary (ms)      =  N/A
# P'_bary (s/s)    =  N/A
# P''_bary (s/s^2) =  N/A
# P_orb (s)        =  N/A
# asin(i)/c (s)    =  N/A
# eccentricity     =  N/A
# w (rad)          =  N/A
# T_peri           =  N/A
######################################################
   0  292.1973
   1  294.9281
   2  211.0729
   3  317.6483
   4  185.5547
   5  170.4682
   6  163.5705
   7  146.3149
   8  152.9159
   9  183.3961
  10  193.0389
  11  273.1681
  12  299.9221
  13  237.1649
  14  132.9845
  15  254.0155
  16  277.2244
  17  100.8508
  18  146.3016
  19  149.1917
  20  152.306
  21  186.7137
  22  74.74501
  23  188.3331
  24  258.291
  25  66.50832
  26  164.2799
  27  160.6442
  28  104.2719
  29  78.57792
  30  151.5131
  31  216.6946
  32  202.5832
  33  255.1242
  34  279.4658
  35  143.6635
  36  251.2656
  37  234.4918
  38  198.3352
  39  309.2528
  40  366.0779
  41  303.5709
  42  329.0627
  43  247.2886
  44  263.0544
  45  228.455
  46  343.8149
  47  349.2526
  48  233.7201
  49  265.2839
  50  316.3605
  51  238.9374
  52  52.24356
  53  185.5648
  54  205.7003
  55  226.541
  56  199.638
  57  256.9328
  58  279.8497
  59  281.3947
  60  247.0036
  61  69.0598
  62  221.9242
  63  265.6661
  64  332.7211
  65  203.2801
  66  114.1486
  67  344.0279
  68  303.3254
  69  191.5896
  70  185.3243
  71  261.679
  72  327.5981
  73  277.8165
  74  297.2518
  75  260.9464
  76  9.33146
  77  40.61817
  78  128.2439
  79  195.5685
  80  199.0116
  81  213.3212
  82  370.8154
  83  215.5975
  84  28.80854
  85  166.3604
  86  369.9703
  87  225.1257
  88  247.6424
  89  329.6257
  90  215.5778
  91  105.7307
  92  143.6665
  93  170.2964
  94  270.6081
  95  157.265
  96  65.87547
  97  105.9181
  98  264.2288
  99  254.5444
 100  84.21196
 101  207.7538
 102  219.9797
 103  336.7189
 104  316.6037
 105  192.4814
 106  116.016
 107  219.059
 108  315.5059
 109  236.3358
 110  198.5326
 111  329.7893
 112  318.5658
 113  319.2231
 114  271.3528
 115  220.6633
 116  161.9646
 117  123.8272
 118  292.654
 119  264.1808
 120  349.3128
 121  217.0147
 122  19.82362
 123  127.3641
 124  183.0997
 125  162.1158
 126  122.415
 127  178.4776
 128  213.9749
 129  284.4634
 130  235.8317
 131  254.0755
 132  333.5838
 133  314.1359
 134  363.2627
 135  402.7516
 136  317.6575
 137  241.7709
 138  321.5321
 139  240.5143
 140  203.0965
 141  216.3876
 142  280.4266
 143  291.3822
 144  260.4582
 145  181.06
 146  267.9142
 147  305.6901
 148  445.7521
 149  405.0144
 150  137.9992
 151  145.3033
 152  295.4652
 153  161.4373
 154  151.0776
 155  217.3256
 156  272.8235
 157  139.4674
 158  170.6887
 159  283.1994
 160  340.0791
 161  416.4526
 162  399.3725
 163  321.8593
 164  321.2506
 165  369.2734
 166  332.7628
 167  223.8456
 168  363.6793
 169  420.3296
 170  342.5115
 171  199.6221
 172  175.9998
 173  197.8189
 174  354.863
 175  341.3487
 176  220.8799
 177  173.8315
 178  181.1241
 179  228.3484
 180  297.4137
 181  251.0932
 182  230.3027
 183  255.8402
 184  177.7673
 185  161.8719
 186  134.7164
 187  271.7014
 188  215.1426
 189  118.3066
 190  141.3035
 191  178.6714
 192  226.1261
 193  102.2922
 194  155.8438
 195  296.0712
 196  226.7777
 197  157.3781
 198  286.8979
 199  253.4648
 200  207.877
 201  227.9788
 202  170.6135
 203  204.3731
 204  158.2728
 205  95.16975
 206  185.3892
 207  257.9819
 208  199.0407
 209  130.7283
 210  205.8938
 211  162.2283
 212  149.3407
 213  333.7297
 214  282.5028
 215  199.1049
 216  183.482
 217  146.1532
 218  195.1176
 219  98.67493
 220  45.5348
 221  210.0771
 222  256.3166
 223  230.4308
 224  168.0361
 225  145.8348
 226  96.76802
 227  64.72486
 228  87.79857
 229  167.6178
 230  143.4232
 231  34.69193
 232  71.51702
 233  179.1034
 234  160.6201
 235  226.0586
 236  134.3429
 237  21.77739
 238  51.49387
 239  197.9157
 240  265.7452
 241  136.4266
 242  239.1434
 243  314.3983
 244  104.0488
 245  162.2444
 246  157.3697
 247  109.2669
 248  238.4393
 249  217.3231
 250  212.324
 251  163.1253
 252  266.5584
 253  356.6095
 254  254.2041
 255  32.66794
 256  17.36619
 257  180.205
 258  389.9252
 259  225.0379
 260  137.813
 261  143.208
 262  141.056
 263  223.152
 264  186.0219
 265  125.3246
 266  209.3589
 267  290.1432
 268  213.809
 269  169.7855
 270  281.7564
 271  233.7182
 272  255.1497
 273  267.9486
 274  218.3759
 275  261.9432
 276  305.3277
 277  246.4352
 278  117.0946
 279  145.8343
 280  206.907
 281  167.6318
 282  187.976
 283  311.3167
 284  336.5726
 285  332.2101
 286  294.8961
 287  153.3939
 288  250.1307
 289  210.5977
 290  161.5387
 291  152.3043
 292  238.7701
 293  268.0488
 294  242.5376
 295  249.2233
 296  215.6678
 297  216.7206
 298  210.6717
 299  279.0734
 300  216.2591
 301  278.7273
 302  100.8562
 303  136.1639
 304  262.4307
 305  148.3288
 306  144.0594
 307  59.88042
 308  105.8937
 309  134.2714
 310  114.5767
 311  59.64219
 312  44.33678
 313  155.2557
 314  226.3616
 315  261.842
 316  280.2877
 317  223.8483
 318  129.3585
 319  61.33976
 320  156.8447
 321  78.44
 322  124.4302
 323  193.2596
 324  290.0808
 325  194.5223
 326  69.9817
 327  119.615
 328  141.5673
 329  171.1053
 330  141.9392
 331  184.3152
 332  161.2336
 333  97.01662
 334  207.2934
 335  235.2495
 336  249.1769
 337  297.6955
 338  213.0565
 339  239.5542
 340  165.9467
 341  67.6008
 342  114.6431
 343  154.7348
 344  399.3641
 345  281.4908
 346  102.1115
 347  181.4093
 348  210.9591
 349  124.1305
 350  213.7933
 351  279.2979
 352  129.4992
 353  175.2356
 354  291.6473
 355  246.8161
 356  162.1031
 357  221.8153
 358  304.6783
 359  164.1581
 360  144.6178
 361  187.8647
 362  251.9079
 363  236.4806
 364  249.0195
 365  157.3792
 366  163.1264
 367  107.48
 368  113.8806
 369  394.5974
 370  359.8785
 371  257.1255
 372  271.2014
 373  226.2144
 374  268.8312
 375  351.4536
 376  315.0029
 377  225.2423
 378  334.0735
 379  258.6785
 380  285.3645
 381  294.2316
 382  406.6206
 383  367.6372
 384  266.1245
 385  356.7222
 386  256.8847
 387  210.0257
 388  214.262
 389  264.3593
 390  280.3653
 391  196.2457
 392  273.0956
 393  224.005
 394  229.8743
 395  256.4875
 396  269.3199
 397  167.9155
 398  236.2436
 399  295.3187
 400  324.1122
 401  275.8618
 402  245.7747
 403  149.7715
 404  262.1173
 405  97.0489
 406  117.8192
 407  246.4165
 408  210.0084
 409  8.439574
 410  -16.4146
 411  124.33
 412  180.1063
 413  225.6045
 414  198.9509
 415  243.5744
 416  284.907
 417  252.8071
 418  92.55713
 419  317.6446
 420  295.0974
 421  439.2888
 422  237.311
 423  126.937
 424  213.5243
 425  326.5004
 426  241.4223
 427  301.7642
 428  265.2246
 429  180.8997
 430  192.1383
 431  242.9205
 432  192.8572
 433  193.0762
 434  155.0041
 435  256.0326
 436  214.5477
 437  293.4645
 438  369.9629
 439  330.0149
 440  336.6427
 441  394.65
 442  602.3966
 443  705.4789
 444  693.6906
 445  835.3964
 446  818.8224
 447  506.8996
 448  241.8566
 449  157.9943
 450  144.6942
 451  204.9011
 452  192.8358
 453  244.1592
 454  230.5068
 455  230.6758
 456  242.8155
 457  97.58607
 458  110.2271
 459  201.2279
 460  299.8274
 461  374.6841
 462  300.3963
 463  290.2736
 464  171.4924
 465  86.42705
 466  66.01665
 467  235.1003
 468  273.4554
 469  132.8434
 470  191.833
 471  214.113
 472  163.4203
 473  288.3058
 474  218.5148
 475  197.3176
 476  216.3356
 477  329.0614
 478  228.2742
 479  222.9102
 480  231.1739
 481  240.9228
 482  378.2995
 483  383.7119
 484  304.6737
 485  184.2494
 486  288.5067
 487  311.5196
 488  142.7394
 489  135.1927
 490  210.3589
 491  253.1542
 492  260.0822
 493  248.473
 494  197.5555
 495  176.5925
 496  201.0807
 497  196.7356
 498  159.614
 499  154.1538
 500  245.8101
 501  288.4492
 502  294.9239
 503  262.2929
 504  275.7497
 505  341.9783
 506  350.215
 507  136.7267
 508  152.9764
 509  245.9617
 510  289.3114
 511  299.1427
