# Input file       =  1178614237.09254_cleaned.dat
# Candidate        =  PSR_0332+5434
# Telescope        =  AR
# Epoch_topo       =  57885.368704774766
# Epoch_bary       =  N/A
# T_sample         =  0.002
# Data Folded      =  7340032
# Data Avg         =  0.0302489315880465
# Data StdDev      =  1.0000252960562  
# Profile Bins     =  512
# Profile Avg      =  433.495267286362 
# Profile StdDev   =  119.736065150383 
# Reduced chi-sqr  =  1.227
# Prob(Noise)      <  0.000323   (~3.4 sigma)
# P_topo (ms)      =  714.535810366804  +/- 0.000274
# P'_topo (s/s)    =  -0                +/- 1.45e-10
# P''_topo (s/s^2) =  0                 +/- 6.38e-14
# P_bary (ms)      =  N/A
# P'_bary (s/s)    =  N/A
# P''_bary (s/s^2) =  N/A
# P_orb (s)        =  N/A
# asin(i)/c (s)    =  N/A
# eccentricity     =  N/A
# w (rad)          =  N/A
# T_peri           =  N/A
######################################################
   0  1000.541
   1  938.2244
   2  728.0011
   3  571.4188
   4  519.1195
   5  489.6531
   6  507.7653
   7  462.0227
   8  445.076
   9  401.1408
  10  456.3488
  11  457.2883
  12  519.6113
  13  562.2196
  14  632.8663
  15  396.1975
  16  410.9374
  17  471.7899
  18  500.3999
  19  473.8656
  20  446.6245
  21  424.5266
  22  476.8261
  23  485.8214
  24  497.5229
  25  514.5696
  26  473.383
  27  454.802
  28  490.64
  29  539.556
  30  365.5822
  31  343.8982
  32  370.3068
  33  355.6861
  34  270.1017
  35  390.8976
  36  435.0972
  37  478.517
  38  445.9979
  39  468.7664
  40  508.7928
  41  431.6166
  42  538.5658
  43  653.5507
  44  544.9926
  45  515.2124
  46  584.5226
  47  535.7664
  48  528.3201
  49  606.5956
  50  564.0865
  51  508.2381
  52  483.9148
  53  417.808
  54  361.934
  55  492.1522
  56  450.0189
  57  328.6528
  58  268.4546
  59  373.5035
  60  491.5411
  61  692.8047
  62  576.1406
  63  387.8712
  64  377.5619
  65  383.8422
  66  334.002
  67  448.9349
  68  451.5195
  69  369.2286
  70  443.5735
  71  384.7043
  72  300.8129
  73  303.0333
  74  421.2685
  75  414.6192
  76  367.8491
  77  364.2035
  78  273.172
  79  459.7642
  80  367.4814
  81  362.1964
  82  433.7778
  83  430.4294
  84  454.8593
  85  538.872
  86  394.6613
  87  326.1805
  88  462.2757
  89  457.0653
  90  405.5293
  91  354.6014
  92  474.2353
  93  444.8134
  94  461.95
  95  484.3326
  96  459.5146
  97  370.8061
  98  306.0495
  99  346.0209
 100  439.1852
 101  410.9477
 102  410.5561
 103  548.8599
 104  432.3866
 105  465.577
 106  524.2047
 107  426.5758
 108  427.8149
 109  467.7615
 110  506.1649
 111  456.2095
 112  420.593
 113  321.0244
 114  332.0699
 115  435.2325
 116  395.5601
 117  397.0491
 118  412.0726
 119  373.0573
 120  348.7874
 121  401.5551
 122  360.4867
 123  397.5296
 124  317.6079
 125  230.1036
 126  358.433
 127  256.2025
 128  354.0387
 129  439.4835
 130  484.4011
 131  514.9701
 132  391.0762
 133  404.3891
 134  380.2175
 135  418.5016
 136  439.1298
 137  382.6877
 138  342.2143
 139  381.8287
 140  423.2366
 141  358.8338
 142  299.6959
 143  353.5492
 144  446.6313
 145  349.6472
 146  357.3271
 147  490.4721
 148  436.448
 149  324.2263
 150  389.0776
 151  271.1053
 152  356.3036
 153  371.7848
 154  390.791
 155  475.2635
 156  481.2462
 157  305.8883
 158  424.6561
 159  427.1555
 160  347.1794
 161  374.5486
 162  409.1253
 163  395.2594
 164  446.3186
 165  497.371
 166  375.2843
 167  331.2567
 168  410.2654
 169  390.7501
 170  339.2997
 171  442.8047
 172  431.5966
 173  271.9734
 174  271.8987
 175  333.3217
 176  371.5988
 177  428.1772
 178  333.7357
 179  299.4485
 180  362.3375
 181  354.7539
 182  212.9948
 183  296.3052
 184  381.3996
 185  377.7079
 186  446.3195
 187  490.4184
 188  438.4366
 189  406.9133
 190  299.9132
 191  385.4457
 192  449.871
 193  449.1965
 194  421.7172
 195  326.439
 196  311.2304
 197  261.6383
 198  369.9381
 199  385.6125
 200  370.9756
 201  453.6697
 202  367.0688
 203  353.4984
 204  472.8769
 205  406.6345
 206  383.3371
 207  399.9679
 208  462.3315
 209  328.3864
 210  373.8832
 211  463.3705
 212  407.2954
 213  458.135
 214  346.2761
 215  379.455
 216  377.254
 217  348.3998
 218  414.6062
 219  369.1002
 220  344.6698
 221  479.118
 222  509.975
 223  482.1494
 224  457.3847
 225  428.7462
 226  436.9447
 227  478.367
 228  538.5506
 229  564.3459
 230  438.0635
 231  550.4302
 232  506.8669
 233  474.2089
 234  550.4474
 235  502.4763
 236  504.1571
 237  393.0372
 238  316.2383
 239  321.6061
 240  385.6182
 241  477.2119
 242  507.875
 243  563.402
 244  419.9079
 245  347.9204
 246  461.346
 247  504.7743
 248  470.4132
 249  361.9378
 250  353.2024
 251  425.6059
 252  395.1506
 253  325.3456
 254  425.5085
 255  444.3595
 256  437.4484
 257  451.4386
 258  411.6086
 259  296.5459
 260  497.4582
 261  498.7799
 262  474.7304
 263  418.2832
 264  460.9995
 265  525.8349
 266  478.7303
 267  486.1331
 268  531.5944
 269  474.387
 270  510.5488
 271  509.9101
 272  379.239
 273  390.0367
 274  497.5229
 275  516.5512
 276  406.072
 277  378.2238
 278  556.9866
 279  644.8987
 280  604.1567
 281  430.4124
 282  382.8746
 283  502.7123
 284  561.5904
 285  516.9647
 286  457.7909
 287  543.4138
 288  564.2913
 289  446.7546
 290  508.5746
 291  586.8367
 292  583.44
 293  464.1162
 294  385.1084
 295  400.9908
 296  391.3726
 297  455.8845
 298  383.9904
 299  410.6718
 300  429.4687
 301  318.9878
 302  389.8872
 303  534.861
 304  511.9959
 305  456.3789
 306  380.1859
 307  396.7278
 308  348.048
 309  463.3732
 310  438.4341
 311  414.058
 312  406.133
 313  367.2259
 314  321.4368
 315  426.6696
 316  266.8645
 317  260.1632
 318  358.5874
 319  326.5985
 320  348.7057
 321  311.7844
 322  362.0496
 323  407.1778
 324  492.9427
 325  454.2404
 326  309.7641
 327  492.1204
 328  468.418
 329  346.7159
 330  352.849
 331  405.2874
 332  378.0164
 333  371.458
 334  303.6129
 335  288.6117
 336  245.8395
 337  340.8887
 338  388.562
 339  298.9007
 340  349.7339
 341  324.7669
 342  278.1383
 343  431.9541
 344  412.8581
 345  457.3874
 346  343.0028
 347  260.5472
 348  258.2058
 349  366.7427
 350  460.9756
 351  476.1496
 352  324.6747
 353  235.5401
 354  278.5057
 355  435.4138
 356  476.2529
 357  429.7972
 358  441.8961
 359  423.1495
 360  418.669
 361  456.2771
 362  402.8474
 363  409.5235
 364  485.7003
 365  483.732
 366  473.0611
 367  431.8182
 368  287.1571
 369  248.3049
 370  441.5568
 371  497.5081
 372  490.3648
 373  485.1599
 374  416.885
 375  237.5189
 376  326.2788
 377  398.3496
 378  385.2689
 379  347.504
 380  426.6523
 381  369.1508
 382  299.5954
 383  370.6113
 384  478.5132
 385  357.8175
 386  405.0316
 387  534.4306
 388  463.8674
 389  384.9723
 390  394.6163
 391  418.6464
 392  448.6877
 393  466.5158
 394  430.7274
 395  445.8339
 396  423.3138
 397  415.7971
 398  502.5583
 399  546.4807
 400  470.1159
 401  487.1268
 402  504.3958
 403  608.4266
 404  501.1567
 405  420.0184
 406  415.642
 407  442.8481
 408  488.3311
 409  441.8464
 410  378.2018
 411  411.7558
 412  415.886
 413  362.1144
 414  391.3246
 415  517.0161
 416  495.9829
 417  317.4419
 418  274.447
 419  500.967
 420  429.4588
 421  485.4286
 422  447.9268
 423  465.0727
 424  421.8957
 425  365.705
 426  331.3732
 427  361.6307
 428  472.0673
 429  529.6978
 430  422.3646
 431  423.2359
 432  424.2486
 433  350.7425
 434  438.3873
 435  491.3828
 436  499.0575
 437  421.0367
 438  552.2704
 439  557.1724
 440  483.0597
 441  389.5576
 442  455.8259
 443  499.1054
 444  396.3222
 445  390.2921
 446  558.9689
 447  610.6662
 448  533.6313
 449  456.5496
 450  480.0862
 451  374.331
 452  412.6468
 453  531.4785
 454  505.2081
 455  418.623
 456  363.974
 457  533.2365
 458  601.9703
 459  486.8786
 460  479.1378
 461  421.6197
 462  509.2433
 463  389.3659
 464  498.4518
 465  629.3937
 466  699.4572
 467  608.3258
 468  565.6375
 469  438.1924
 470  460.9742
 471  421.7598
 472  406.237
 473  391.8035
 474  353.5574
 475  408.633
 476  452.7466
 477  471.4637
 478  351.4865
 479  449.9451
 480  449.326
 481  476.715
 482  484.4297
 483  384.7921
 484  369.0431
 485  357.0828
 486  381.0313
 487  430.3551
 488  473.9576
 489  400.4416
 490  398.0354
 491  307.1338
 492  502.8047
 493  521.2996
 494  573.2507
 495  566.5466
 496  527.7914
 497  463.7212
 498  356.584
 499  286.2162
 500  381.0214
 501  382.1322
 502  509.4681
 503  537.8197
 504  589.3397
 505  615.8568
 506  526.8582
 507  572.5946
 508  687.191
 509  791.1327
 510  966.0849
 511  975.555
