# Input file       =  1178771242.111134_cleaned.dat
# Candidate        =  PSR_0332+5434
# Telescope        =  AR
# Epoch_topo       =  57887.185892489979
# Epoch_bary       =  N/A
# T_sample         =  0.002
# Data Folded      =  7208960
# Data Avg         =  0.0360820198341839
# Data StdDev      =  1.00005071508699 
# Profile Bins     =  512
# Profile Avg      =  508.046197641123 
# Profile StdDev   =  118.665193603953 
# Reduced chi-sqr  =  1.162
# Prob(Noise)      <  0.00647   (~2.5 sigma)
# P_topo (ms)      =  714.534046278283  +/- 0.000303
# P'_topo (s/s)    =  -0                +/- 1.63e-10
# P''_topo (s/s^2) =  0                 +/- 7.32e-14
# P_bary (ms)      =  N/A
# P'_bary (s/s)    =  N/A
# P''_bary (s/s^2) =  N/A
# P_orb (s)        =  N/A
# asin(i)/c (s)    =  N/A
# eccentricity     =  N/A
# w (rad)          =  N/A
# T_peri           =  N/A
######################################################
   0  391.6368
   1  402.8218
   2  492.9179
   3  614.7703
   4  597.9899
   5  476.2914
   6  490.3086
   7  515.9598
   8  504.5256
   9  481.1384
  10  439.7221
  11  437.4765
  12  518.9656
  13  493.4944
  14  514.7369
  15  445.0224
  16  616.8794
  17  618.4618
  18  617.3512
  19  586.7358
  20  586.3625
  21  499.6472
  22  527.6244
  23  595.5602
  24  562.3006
  25  564.3061
  26  426.7747
  27  472.5286
  28  503.0613
  29  438.1888
  30  440.3997
  31  460.208
  32  444.8751
  33  424.5818
  34  489.9908
  35  447.9731
  36  451.6719
  37  476.0411
  38  545.7296
  39  632.2761
  40  558.9658
  41  538.3245
  42  506.6473
  43  394.7227
  44  413.2517
  45  404.402
  46  470.7368
  47  393.9169
  48  439.6643
  49  532.3036
  50  502.4617
  51  496.6033
  52  516.7295
  53  528.4768
  54  488.5436
  55  496.609
  56  458.6042
  57  470.7572
  58  584.2551
  59  543.5037
  60  480.1823
  61  458.6284
  62  550.6571
  63  533.4169
  64  461.1266
  65  578.018
  66  609.9322
  67  606.0601
  68  545.5949
  69  563.5452
  70  668.203
  71  544.9592
  72  488.9823
  73  456.7628
  74  435.2039
  75  493.995
  76  422.6106
  77  393.7427
  78  425.0861
  79  470.2579
  80  463.8059
  81  477.6582
  82  573.1085
  83  445.3685
  84  413.9444
  85  491.355
  86  595.0291
  87  612.8532
  88  432.9098
  89  331.9027
  90  542.9468
  91  591.4614
  92  480.3369
  93  511.9503
  94  449.5499
  95  598.3598
  96  460.5995
  97  552.0087
  98  598.828
  99  544.777
 100  527.6999
 101  610.0233
 102  460.2807
 103  511.015
 104  463.2239
 105  481.0778
 106  466.2528
 107  505.4801
 108  524.4337
 109  492.9543
 110  508.096
 111  487.7473
 112  554.8085
 113  468.8879
 114  502.7599
 115  517.2483
 116  542.5507
 117  528.8867
 118  526.8176
 119  611.8979
 120  504.9414
 121  374.5869
 122  462.5518
 123  577.0966
 124  553.8809
 125  415.5029
 126  399.4705
 127  489.4989
 128  493.9966
 129  394.0484
 130  396.8918
 131  492.4137
 132  496.9732
 133  532.356
 134  502.9221
 135  534.3655
 136  615.0062
 137  606.6624
 138  553.4637
 139  560.6407
 140  627.1125
 141  561.5416
 142  371.8463
 143  400.8756
 144  431.783
 145  515.7659
 146  530.7291
 147  426.8499
 148  403.8529
 149  454.9261
 150  435.7962
 151  589.1201
 152  642.5925
 153  516.6855
 154  471.3123
 155  422.4511
 156  393.3179
 157  505.5413
 158  573.1492
 159  456.1801
 160  417.2301
 161  536.644
 162  582.1229
 163  476.9763
 164  589.4853
 165  660.2252
 166  594.4358
 167  571.2708
 168  604.4911
 169  584.662
 170  603.2466
 171  533.7803
 172  454.1307
 173  398.554
 174  462.0493
 175  374.9082
 176  386.7133
 177  407.9649
 178  490.7834
 179  545.8705
 180  468.3341
 181  460.8846
 182  461.8438
 183  429.2442
 184  394.3665
 185  492.6404
 186  626.7505
 187  706.8615
 188  528.5377
 189  541.963
 190  497.2619
 191  433.8155
 192  539.4845
 193  510.8591
 194  476.4781
 195  428.675
 196  464.9374
 197  540.5875
 198  461.3589
 199  435.5243
 200  466.3263
 201  508.5414
 202  469.941
 203  554.8152
 204  559.4604
 205  399.6039
 206  472.6858
 207  468.8134
 208  415.5966
 209  442.6097
 210  513.7145
 211  405.996
 212  392.5375
 213  372.823
 214  348.0172
 215  371.0529
 216  524.1501
 217  468.182
 218  482.2051
 219  503.6639
 220  588.1681
 221  515.2795
 222  511.1107
 223  474.7962
 224  428.7816
 225  507.4781
 226  542.3625
 227  506.0281
 228  465.9917
 229  551.0253
 230  507.6558
 231  297.3601
 232  499.2206
 233  562.9109
 234  589.8319
 235  558.6237
 236  553.7233
 237  467.9495
 238  546.6497
 239  603.0204
 240  548.2653
 241  437.1424
 242  379.1308
 243  504.0952
 244  428.0102
 245  462.5364
 246  630.2931
 247  638.2479
 248  683.505
 249  569.8314
 250  572.0168
 251  632.1904
 252  653.878
 253  763.0584
 254  878.6588
 255  1012.458
 256  1079.917
 257  1042.245
 258  892.6841
 259  853.7747
 260  676.9473
 261  473.9511
 262  488.1385
 263  644.6593
 264  650.3839
 265  644.0871
 266  536.7603
 267  598.1991
 268  520.5032
 269  618.3437
 270  599.9639
 271  635.1693
 272  588.9841
 273  517.7983
 274  467.3253
 275  392.7385
 276  352.9955
 277  405.5639
 278  603.4807
 279  617.7793
 280  484.3184
 281  435.4813
 282  385.5092
 283  420.9468
 284  540.0925
 285  518.4985
 286  612.4935
 287  560.3698
 288  554.0275
 289  492.1034
 290  539.9922
 291  560.2477
 292  529.6133
 293  536.4236
 294  553.4691
 295  589.3444
 296  526.6606
 297  573.6448
 298  591.605
 299  525.0491
 300  520.2413
 301  548.1953
 302  566.0705
 303  620.9175
 304  632.5451
 305  666.3536
 306  583.502
 307  536.4824
 308  525.3809
 309  504.0414
 310  614.0963
 311  678.0264
 312  722.6222
 313  538.6016
 314  541.5316
 315  558.6498
 316  508.4793
 317  550.4144
 318  580.2391
 319  623.9333
 320  539.8796
 321  506.2424
 322  553.6624
 323  489.7091
 324  393.0385
 325  513.6528
 326  555.4629
 327  552.6918
 328  509.571
 329  625.7693
 330  498.3022
 331  505.1768
 332  564.3218
 333  591.4607
 334  608.8738
 335  525.1819
 336  512.9858
 337  534.7154
 338  353.8763
 339  410.9349
 340  437.0997
 341  387.4793
 342  486.8637
 343  597.6175
 344  510.2588
 345  596.2599
 346  585.0504
 347  596.477
 348  489.7638
 349  401.5027
 350  529.8345
 351  560.0172
 352  459.8177
 353  528.1348
 354  554.824
 355  462.404
 356  468.8898
 357  454.889
 358  441.7171
 359  516.795
 360  549.9153
 361  652.8001
 362  595.01
 363  503.4196
 364  512.352
 365  565.5391
 366  605.282
 367  579.5626
 368  512.6351
 369  528.9331
 370  421.8813
 371  443.4734
 372  326.1916
 373  454.6797
 374  500.0424
 375  404.8894
 376  583.8156
 377  584.4171
 378  474.3622
 379  384.9781
 380  502.874
 381  535.8394
 382  389.4048
 383  401.179
 384  492.6746
 385  423.1674
 386  317.6803
 387  487.9666
 388  658.8123
 389  518.5525
 390  494.3507
 391  598.2675
 392  570.5331
 393  614.8469
 394  659.371
 395  645.7818
 396  628.7748
 397  663.6539
 398  635.7443
 399  622.8458
 400  578.1356
 401  522.1108
 402  611.3091
 403  547.3624
 404  541.919
 405  528.1593
 406  562.6571
 407  519.5498
 408  367.7687
 409  373.851
 410  353.6476
 411  405.8854
 412  446.9402
 413  491.0385
 414  511.3025
 415  567.0358
 416  551.529
 417  610.056
 418  489.9156
 419  486.0804
 420  419.2599
 421  481.1391
 422  518.6292
 423  338.1733
 424  352.833
 425  542.7601
 426  589.4776
 427  538.4155
 428  525.7568
 429  566.635
 430  432.8731
 431  392.0616
 432  517.5409
 433  603.9069
 434  465.6709
 435  532.6133
 436  529.1611
 437  438.0009
 438  492.9889
 439  537.886
 440  424.246
 441  455.6676
 442  445.814
 443  413.1204
 444  426.9478
 445  393.3137
 446  366.0067
 447  425.2284
 448  444.2942
 449  467.9906
 450  513.1038
 451  453.8475
 452  450.407
 453  415.8988
 454  451.2081
 455  510.3379
 456  427.908
 457  319.1864
 458  373.8546
 459  438.2636
 460  534.2719
 461  574.7781
 462  505.4758
 463  586.5385
 464  509.1454
 465  462.6448
 466  571.7847
 467  524.5898
 468  490.4405
 469  502.9316
 470  456.3196
 471  397.1439
 472  482.9592
 473  415.2601
 474  321.4921
 475  389.0239
 476  522.1563
 477  483.4752
 478  375.3879
 479  459.5849
 480  411.2056
 481  432.834
 482  517.6981
 483  566.8535
 484  385.4397
 485  387.7714
 486  351.9073
 487  379.0505
 488  459.0728
 489  433.33
 490  362.8186
 491  473.2816
 492  495.7931
 493  456.6903
 494  416.9442
 495  448.2887
 496  507.7928
 497  428.372
 498  454.7999
 499  494.0575
 500  491.2474
 501  469.1113
 502  342.0977
 503  428.9568
 504  338.1646
 505  359.83
 506  351.0893
 507  373.385
 508  412.8442
 509  515.0768
 510  461.2487
 511  426.8765
