# Input file       =  1178542452.102663_cleaned.dat
# Candidate        =  PSR_0332+5434
# Telescope        =  AR
# Epoch_topo       =  57884.537859984528
# Epoch_bary       =  N/A
# T_sample         =  0.002
# Data Folded      =  7340032
# Data Avg         =  0.0127871113278271
# Data StdDev      =  1.00005963063571 
# Profile Bins     =  512
# Profile Avg      =  183.273451398703 
# Profile StdDev   =  119.740176133841 
# Reduced chi-sqr  =  1.421
# Prob(Noise)      <  1.08e-09   (~6.0 sigma)
# P_topo (ms)      =  714.53693197428   +/- 0.000138
# P'_topo (s/s)    =  -0                +/- 7.31e-11
# P''_topo (s/s^2) =  0                 +/- 3.23e-14
# P_bary (ms)      =  N/A
# P'_bary (s/s)    =  N/A
# P''_bary (s/s^2) =  N/A
# P_orb (s)        =  N/A
# asin(i)/c (s)    =  N/A
# eccentricity     =  N/A
# w (rad)          =  N/A
# T_peri           =  N/A
######################################################
   0  198.6018
   1  295.0598
   2  351.8723
   3  308.4558
   4  247.062
   5  205.5434
   6  181.8062
   7  185.1775
   8  141.4164
   9  274.595
  10  258.6467
  11  354.2829
  12  291.3817
  13  177.8038
  14  90.27403
  15  81.57396
  16  196.034
  17  326.0992
  18  345.951
  19  301.8326
  20  171.8341
  21  130.79
  22  260.3825
  23  300.3062
  24  208.3006
  25  126.7308
  26  235.384
  27  133.2332
  28  160.1344
  29  233.014
  30  136.1424
  31  161.0949
  32  222.8929
  33  338.769
  34  319.5376
  35  124.8986
  36  195.8552
  37  206.0021
  38  40.67332
  39  228.2304
  40  359.716
  41  67.34019
  42  26.61991
  43  117.4593
  44  134.905
  45  161.7835
  46  246.9153
  47  233.044
  48  173.6753
  49  63.07208
  50  219.757
  51  300.7133
  52  169.968
  53  254.5485
  54  184.7015
  55  187.4358
  56  146.5675
  57  235.9376
  58  204.7463
  59  338.28
  60  269.1483
  61  100.1624
  62  155.2188
  63  182.107
  64  134.2408
  65  51.19757
  66  164.663
  67  133.1507
  68  309.6436
  69  292.034
  70  158.0882
  71  79.27052
  72  224.2338
  73  364.7091
  74  329.8343
  75  181.7486
  76  215.7052
  77  242.0412
  78  118.9789
  79  73.49879
  80  82.98356
  81  130.5316
  82  175.6303
  83  181.6227
  84  132.7415
  85  93.07887
  86  190.3488
  87  190.4705
  88  132.5665
  89  123.3235
  90  149.7163
  91  174.1654
  92  101.0921
  93  151.173
  94  168.1738
  95  146.7805
  96  176.703
  97  167.8791
  98  159.1006
  99  109.2063
 100  98.07893
 101  182.1219
 102  180.3973
 103  220.316
 104  93.17635
 105  99.89044
 106  63.28488
 107  73.72887
 108  98.66985
 109  174.8696
 110  206.0613
 111  103.4895
 112  61.63598
 113  94.71613
 114  42.05819
 115  44.08464
 116  238.6064
 117  104.6849
 118  37.12788
 119  163.5201
 120  168.7283
 121  146.3448
 122  6.665401
 123  136.7054
 124  192.7819
 125  77.28851
 126  2.718263
 127  133.2087
 128  162.7513
 129  249.6942
 130  302.4489
 131  362.354
 132  242.6446
 133  124.8409
 134  139.6034
 135  216.1634
 136  101.3975
 137  36.90182
 138  158.8788
 139  167.8214
 140  206.9914
 141  217.954
 142  187.7228
 143  299.8442
 144  172.2406
 145  119.4414
 146  35.39989
 147  17.55462
 148  118.3509
 149  157.1093
 150  95.93651
 151  144.7968
 152  84.47316
 153  -9.126742
 154  15.4962
 155  104.2103
 156  59.37931
 157  55.67845
 158  144.5049
 159  219.9675
 160  184.6001
 161  90.61952
 162  53.18237
 163  63.29821
 164  148.2472
 165  184.813
 166  91.54249
 167  239.5238
 168  132.1505
 169  91.11109
 170  167.6068
 171  212.0775
 172  186.5119
 173  63.11876
 174  135.6173
 175  193.1007
 176  274.1309
 177  317.8145
 178  336.8952
 179  163.843
 180  16.73223
 181  169.8859
 182  218.2203
 183  280.7312
 184  227.052
 185  204.3714
 186  183.2309
 187  82.55203
 188  120.8584
 189  143.0646
 190  162.1255
 191  174.9468
 192  160.0061
 193  160.1038
 194  268.8361
 195  220.7651
 196  256.1579
 197  221.946
 198  117.9138
 199  37.39198
 200  105.3023
 201  260.2068
 202  191.3226
 203  208.2202
 204  301.9542
 205  310.0424
 206  236.4376
 207  80.30467
 208  150.6524
 209  184.2297
 210  319.5143
 211  82.2215
 212  114.6339
 213  96.109
 214  174.004
 215  188.7431
 216  153.7894
 217  163.7086
 218  156.3915
 219  272.7754
 220  325.0517
 221  109.9799
 222  191.4353
 223  1.097037
 224  103.3414
 225  254.9262
 226  243.7568
 227  238.8114
 228  282.6037
 229  157.4389
 230  113.0576
 231  98.15641
 232  244.277
 233  342.6821
 234  168.4249
 235  317.6737
 236  614.9
 237  656.7333
 238  751.1593
 239  729.738
 240  762.0563
 241  795.966
 242  676.134
 243  359.9345
 244  215.6839
 245  233.3268
 246  270.0678
 247  339.5795
 248  267.5092
 249  161.7155
 250  37.72893
 251  238.6587
 252  272.1952
 253  246.4124
 254  268.0716
 255  262.5547
 256  39.19746
 257  139.7416
 258  238.9662
 259  183.7963
 260  211.2728
 261  271.8715
 262  171.0633
 263  94.92171
 264  86.89929
 265  93.44398
 266  192.9124
 267  142.9779
 268  261.3078
 269  223.11
 270  309.7517
 271  286.1699
 272  263.9697
 273  297.9683
 274  263.0318
 275  273.4626
 276  193.5536
 277  244.7634
 278  176.0707
 279  132.7598
 280  169.1246
 281  285.8081
 282  195.2088
 283  196.1301
 284  277.5126
 285  292.362
 286  17.77829
 287  60.99011
 288  164.5736
 289  221.0744
 290  219.7397
 291  150.0864
 292  77.06527
 293  -83.19056
 294  26.37934
 295  269.1674
 296  282.7332
 297  142.7632
 298  200.6002
 299  221.1517
 300  188.8189
 301  249.9746
 302  163.4776
 303  114.498
 304  274.1577
 305  229.0299
 306  67.02163
 307  74.98133
 308  182.7274
 309  172.2213
 310  169.3853
 311  197.7305
 312  321.0441
 313  304.2405
 314  246.3804
 315  184.193
 316  168.1324
 317  129.0386
 318  201.8032
 319  181.2006
 320  225.7771
 321  123.3659
 322  40.85475
 323  5.028667
 324  123.1343
 325  180.8355
 326  133.3047
 327  174.4614
 328  133.8216
 329  133.7258
 330  128.5884
 331  288.589
 332  251.9903
 333  175.4697
 334  218.6369
 335  235.8182
 336  215.3487
 337  136.8971
 338  -12.12043
 339  94.94718
 340  242.2027
 341  330.8867
 342  224.9344
 343  97.39692
 344  150.1668
 345  213.1561
 346  146.8575
 347  205.0344
 348  284.9079
 349  304.8349
 350  218.8274
 351  203.5151
 352  222.2007
 353  165.252
 354  154.4161
 355  96.51836
 356  87.06474
 357  201.8453
 358  197.5003
 359  229.8498
 360  321.1617
 361  313.6465
 362  77.22495
 363  169.5835
 364  250.3828
 365  228.5642
 366  190.9349
 367  168.4502
 368  84.03128
 369  168.7625
 370  239.391
 371  76.24236
 372  51.96352
 373  108.3218
 374  61.67718
 375  178.7415
 376  169.6798
 377  123.5396
 378  198.5406
 379  202.9011
 380  215.8523
 381  154.6953
 382  211.9451
 383  154.7992
 384  210.1834
 385  269.9494
 386  252.8331
 387  188.2969
 388  180.2769
 389  86.7021
 390  24.81317
 391  109.0324
 392  122.8338
 393  224.2355
 394  167.3438
 395  29.66054
 396  -24.8611
 397  44.62594
 398  99.47631
 399  3.723965
 400  30.6559
 401  104.0171
 402  113.9705
 403  -8.850897
 404  95.57523
 405  217.721
 406  145.0244
 407  193.7655
 408  151.704
 409  15.34471
 410  100.5607
 411  230.8716
 412  238.78
 413  188.1878
 414  205.7887
 415  195.3857
 416  112.6349
 417  146.3032
 418  279.5378
 419  216.0529
 420  60.10448
 421  166.4964
 422  264.58
 423  190.9901
 424  204.2351
 425  168.425
 426  214.5831
 427  181.0287
 428  207.6649
 429  330.9307
 430  360.2423
 431  334.6847
 432  400.783
 433  200.6047
 434  -28.2602
 435  97.47287
 436  197.9792
 437  138.8056
 438  160.7479
 439  197.9673
 440  112.0942
 441  92.23225
 442  116.803
 443  51.32959
 444  109.9823
 445  162.9734
 446  -7.846296
 447  9.863101
 448  141.9989
 449  269.1398
 450  275.0393
 451  170.0544
 452  163.5011
 453  164.0185
 454  103.8324
 455  227.282
 456  269.9819
 457  270.1225
 458  220.6853
 459  182.097
 460  217.768
 461  167.6083
 462  114.774
 463  116.1043
 464  154.8403
 465  232.9358
 466  243.0234
 467  165.728
 468  188.4678
 469  187.2304
 470  66.85206
 471  67.64304
 472  195.4979
 473  237.0561
 474  84.98826
 475  -10.13486
 476  174.7366
 477  67.11696
 478  28.88695
 479  137.324
 480  195.7578
 481  178.0229
 482  199.3103
 483  107.4944
 484  69.18067
 485  156.8672
 486  253.6698
 487  319.4861
 488  272.2395
 489  278.6804
 490  158.7901
 491  264.8003
 492  345.7975
 493  234.8698
 494  220.0948
 495  191.4633
 496  247.2063
 497  286.0586
 498  181.7657
 499  121.145
 500  161.8532
 501  125.9902
 502  251.3025
 503  273.5574
 504  276.1477
 505  197.094
 506  129.9398
 507  241.8034
 508  229.9864
 509  217.1516
 510  156.2037
 511  119.1354
