# Input file       =  1179029680.096024_cleaned.dat
# Candidate        =  PSR_0332+5434
# Telescope        =  AR
# Epoch_topo       =  57890.177072870647
# Epoch_bary       =  N/A
# T_sample         =  0.002
# Data Folded      =  7208960
# Data Avg         =  0.179836779770399
# Data StdDev      =  4.27400365098976 
# Profile Bins     =  512
# Profile Avg      =  2532.30017662595 
# Profile StdDev   =  507.149750564985 
# Reduced chi-sqr  =  0.688
# Prob(Noise)      <  1   (~0.0 sigma)
# P_topo (ms)      =  714.53115341905   +/- 5.39e-05
# P'_topo (s/s)    =  -0                +/- 2.89e-11
# P''_topo (s/s^2) =  0                 +/- 1.3e-14
# P_bary (ms)      =  N/A
# P'_bary (s/s)    =  N/A
# P''_bary (s/s^2) =  N/A
# P_orb (s)        =  N/A
# asin(i)/c (s)    =  N/A
# eccentricity     =  N/A
# w (rad)          =  N/A
# T_peri           =  N/A
######################################################
   0  2194.171
   1  2299.489
   2  2693.691
   3  2968.305
   4  2633.45
   5  2305.458
   6  2429.401
   7  2977.551
   8  2716.157
   9  2217.729
  10  2721.331
  11  2801.984
  12  2730.649
  13  2079.538
  14  2160.635
  15  2770.065
  16  2572.371
  17  2269.69
  18  2020.779
  19  2600.389
  20  2346.856
  21  2070.061
  22  2243.013
  23  2486.585
  24  2554.985
  25  2659.679
  26  2589.428
  27  2719.997
  28  2718.786
  29  2483.792
  30  2333.071
  31  2679.746
  32  2573.083
  33  2561.624
  34  2528.465
  35  2306.837
  36  2727.87
  37  2997.302
  38  2460.247
  39  2562.186
  40  2925.749
  41  2916.411
  42  2623.337
  43  2739.627
  44  3109.475
  45  3006.625
  46  2454.673
  47  2117.692
  48  2143.799
  49  2453.76
  50  2543.786
  51  2589.332
  52  2575.267
  53  2329.012
  54  2115.381
  55  1840.648
  56  2104.148
  57  2695.221
  58  2847.052
  59  3001.987
  60  2535.975
  61  2436.986
  62  1886.864
  63  2073.371
  64  2862.906
  65  2778.589
  66  2887.529
  67  2722.932
  68  2829.54
  69  2599.13
  70  2411.897
  71  2332.037
  72  1968.271
  73  2644.122
  74  2306.204
  75  2614.666
  76  2483.655
  77  2829.726
  78  2533.169
  79  1979.883
  80  1923.511
  81  2218.809
  82  2303.887
  83  2013.366
  84  2415.224
  85  2581.748
  86  2621.923
  87  2553.781
  88  2282.485
  89  2509.295
  90  2296.189
  91  2638.968
  92  2804.214
  93  3030.944
  94  2582.023
  95  2594.11
  96  2562.254
  97  2563.514
  98  2522.395
  99  2313.942
 100  2397.486
 101  2722.175
 102  2858.262
 103  2637.642
 104  2023.087
 105  2234.276
 106  2535.645
 107  2861.608
 108  2700.299
 109  2795.146
 110  3046.918
 111  3022.744
 112  2436.739
 113  2230.425
 114  2133.143
 115  2078.953
 116  2111.373
 117  2308.156
 118  2445.689
 119  2548.564
 120  2653.633
 121  2475.522
 122  2670.936
 123  2601.391
 124  2453.006
 125  2144.332
 126  2521.658
 127  2437.916
 128  2428.892
 129  2544.259
 130  2707.083
 131  2638.047
 132  2428.091
 133  2587.522
 134  2316.41
 135  2492.335
 136  2228.518
 137  2095.664
 138  2492.899
 139  2641.991
 140  3225.118
 141  2956.624
 142  2804.02
 143  2679.673
 144  2566.904
 145  1948.38
 146  1724.99
 147  2548.156
 148  2829.546
 149  2559.12
 150  2125.905
 151  2654.045
 152  2296.034
 153  2188.239
 154  2160.156
 155  2417.046
 156  2717.88
 157  2607.69
 158  2742.511
 159  2931.544
 160  2917.17
 161  2116.419
 162  2013.417
 163  1909.957
 164  1827.714
 165  2656.258
 166  2588.531
 167  2967.015
 168  2663.629
 169  2558.053
 170  2059.384
 171  1977.12
 172  2508.54
 173  2588.014
 174  2950.661
 175  2992.096
 176  3121.547
 177  2759.243
 178  2245.212
 179  2178.739
 180  2178.737
 181  2074.23
 182  2392.247
 183  2774.423
 184  2862.626
 185  3081.076
 186  3085.589
 187  2676.327
 188  2397.694
 189  2705.887
 190  2416.851
 191  2469.932
 192  2587.017
 193  2853.661
 194  2602.536
 195  2195.951
 196  2366.49
 197  2434.151
 198  2388.876
 199  2422.879
 200  2375.666
 201  2380.831
 202  2507.929
 203  2444.395
 204  2712.87
 205  3060.081
 206  2819.01
 207  2494.598
 208  2651.146
 209  2941.884
 210  2688.8
 211  2120.02
 212  2082.851
 213  2517.594
 214  2771.927
 215  2335.861
 216  2312.24
 217  2412.934
 218  2590.278
 219  2618.52
 220  2456.124
 221  2569.494
 222  2557.087
 223  2544.556
 224  2658.442
 225  2896.585
 226  2551.27
 227  2237.971
 228  1964.124
 229  2318.889
 230  2799.831
 231  2554.758
 232  2329.282
 233  2005.433
 234  2321.672
 235  2243.867
 236  2161.368
 237  2613.196
 238  2797.175
 239  2670.688
 240  2545.978
 241  2948.802
 242  2444.565
 243  2451.176
 244  2378.546
 245  1950.855
 246  1900.572
 247  2182.474
 248  2503.26
 249  2436.191
 250  2677.569
 251  2824.524
 252  2356.632
 253  2271.986
 254  2156.148
 255  2722.774
 256  2338.394
 257  2498.629
 258  3047.365
 259  3145.383
 260  2908.393
 261  2082.97
 262  1916.094
 263  1945.06
 264  2194.521
 265  2098.139
 266  2489.646
 267  2941.325
 268  2519.584
 269  2162.236
 270  2302.412
 271  2777.115
 272  2788.304
 273  2683.572
 274  2342.287
 275  2544.454
 276  2849.291
 277  2781.76
 278  2717.559
 279  3238.963
 280  2633.876
 281  2225.596
 282  2433.74
 283  2427.433
 284  2331.123
 285  2474.407
 286  2291.683
 287  2479.329
 288  2912.459
 289  2628.214
 290  2355.666
 291  2381.996
 292  2640.958
 293  2597.303
 294  2154.761
 295  2298.674
 296  2801.017
 297  2601.673
 298  2287.912
 299  2144.993
 300  2372.346
 301  2092.252
 302  2254.286
 303  2375.656
 304  2527.579
 305  2504.468
 306  2513.337
 307  2224.539
 308  2896.258
 309  2723.265
 310  2095.088
 311  2147.061
 312  2505.886
 313  3143.371
 314  2513.148
 315  2554.423
 316  2589.513
 317  2769.179
 318  2790.062
 319  2357.324
 320  2681.251
 321  2467.508
 322  3321.364
 323  3069.391
 324  3288.083
 325  3107.435
 326  3134.116
 327  3239.837
 328  2856.493
 329  3264.57
 330  3205.648
 331  3366.748
 332  3036.579
 333  2987.114
 334  2808.658
 335  2379.857
 336  2413.443
 337  2478.812
 338  2350.323
 339  2364.957
 340  2982.197
 341  2971.941
 342  3034.559
 343  2561.377
 344  2343.488
 345  2301.98
 346  2386.549
 347  2781.768
 348  2385.885
 349  2627.007
 350  2669.513
 351  2557.237
 352  2403.891
 353  2490.782
 354  2849.934
 355  2480.319
 356  2307.907
 357  2502.532
 358  2718.255
 359  2915.17
 360  2796.712
 361  2585.616
 362  2514.276
 363  2210.894
 364  2078.328
 365  2144.114
 366  2792.666
 367  2948.393
 368  2420.844
 369  2873.669
 370  2576.803
 371  2779.128
 372  2860.928
 373  2858.273
 374  2759.194
 375  2582.572
 376  2668.442
 377  2355.356
 378  2376.496
 379  2725.239
 380  3028.519
 381  2871.106
 382  2617.04
 383  2620.742
 384  2433.177
 385  2393.851
 386  2915.893
 387  3499.794
 388  3207.662
 389  2843.644
 390  2466.184
 391  2677.809
 392  2407.282
 393  2286.209
 394  2577.44
 395  2591.666
 396  2965.089
 397  2560.052
 398  2904.594
 399  2934.47
 400  2424.318
 401  1870.892
 402  1819.997
 403  2259.255
 404  2170.537
 405  2518.612
 406  2581.806
 407  3327.434
 408  3051.764
 409  2351.19
 410  1907.956
 411  1881.692
 412  2455.243
 413  2342.243
 414  2318.6
 415  2509.77
 416  2619.527
 417  2488.212
 418  2225.677
 419  2418.557
 420  2670.937
 421  2872.426
 422  2605.174
 423  2655.781
 424  2366.652
 425  2486.063
 426  2546.776
 427  2439.187
 428  2307.636
 429  2237.449
 430  2202.298
 431  2490.893
 432  3065.867
 433  2615.299
 434  2194.432
 435  2082.025
 436  2572.357
 437  2503.422
 438  2571.873
 439  2471.206
 440  2518.705
 441  2368.238
 442  2361.386
 443  2602.98
 444  2447.291
 445  2384.857
 446  2318.075
 447  1973.468
 448  2158.712
 449  2520.33
 450  2631.038
 451  2175.58
 452  2334.81
 453  2784.986
 454  2619.836
 455  2669.843
 456  3009.083
 457  2858.626
 458  2489.74
 459  2494.333
 460  2501.178
 461  2615.78
 462  2801.83
 463  2885.03
 464  2528.548
 465  2569.008
 466  2511.505
 467  2059.093
 468  2151.671
 469  2403.618
 470  3136.876
 471  2728.493
 472  2831.235
 473  3099.833
 474  2546.161
 475  2277.219
 476  2088.479
 477  2424.346
 478  2810.656
 479  2950.019
 480  2891.905
 481  2940.716
 482  2749.658
 483  2471.973
 484  2348.878
 485  2487.23
 486  3028.431
 487  2654.765
 488  2665.899
 489  2661.986
 490  2854.634
 491  2799.344
 492  2459.449
 493  2100.287
 494  2166.153
 495  2627.024
 496  2549.064
 497  2651.256
 498  2258.303
 499  2222.258
 500  2176.233
 501  1956.98
 502  2297.568
 503  2213.358
 504  2729.529
 505  2545.956
 506  2794.322
 507  2390.074
 508  2197.757
 509  2093.115
 510  2113.229
 511  2396.193
