# Input file       =  1179302869.09633_cleaned.dat
# Candidate        =  PSR_0332+5434
# Telescope        =  AR
# Epoch_topo       =  57893.338982596411
# Epoch_bary       =  N/A
# T_sample         =  0.002
# Data Folded      =  7340032
# Data Avg         =  0.0152509983209247
# Data StdDev      =  1.00009383364438 
# Profile Bins     =  512
# Profile Avg      =  218.639050218073 
# Profile StdDev   =  119.744271363922 
# Reduced chi-sqr  =  1.269
# Prob(Noise)      <  3.44e-05   (~4.0 sigma)
# P_topo (ms)      =  714.528075153695  +/- 0.000183
# P'_topo (s/s)    =  -0                +/- 9.66e-11
# P''_topo (s/s^2) =  0                 +/- 4.26e-14
# P_bary (ms)      =  N/A
# P'_bary (s/s)    =  N/A
# P''_bary (s/s^2) =  N/A
# P_orb (s)        =  N/A
# asin(i)/c (s)    =  N/A
# eccentricity     =  N/A
# w (rad)          =  N/A
# T_peri           =  N/A
######################################################
   0  825.7349
   1  722.0161
   2  671.8896
   3  334.9552
   4  231.6821
   5  116.9776
   6  218.672
   7  288.4583
   8  326.6079
   9  254.5681
  10  77.387
  11  159.2722
  12  254.2954
  13  326.8388
  14  273.0207
  15  365.3172
  16  197.4774
  17  93.74926
  18  199.0991
  19  140.933
  20  76.75466
  21  64.68378
  22  146.4988
  23  137.0586
  24  251.7321
  25  165.4185
  26  53.12225
  27  214.3997
  28  292.2874
  29  171.2141
  30  151.6237
  31  178.9365
  32  158.8601
  33  180.163
  34  291.4887
  35  305.1468
  36  314.122
  37  298.8859
  38  274.0866
  39  270.82
  40  225.1641
  41  121.2884
  42  150.0637
  43  177.2004
  44  180.8202
  45  152.6316
  46  163.3583
  47  185.9499
  48  32.81703
  49  51.10338
  50  79.922
  51  147.93
  52  188.7515
  53  309.5548
  54  310.6312
  55  348.0674
  56  240.7325
  57  146.9328
  58  91.66369
  59  65.36926
  60  275.1905
  61  193.3
  62  193.2564
  63  245.6377
  64  296.5226
  65  333.0219
  66  215.0361
  67  162.8087
  68  114.8927
  69  295.3832
  70  190.0603
  71  130.1346
  72  209.4676
  73  246.8487
  74  211.7812
  75  249.1335
  76  381.6974
  77  320.7901
  78  277.8028
  79  124.2445
  80  155.7971
  81  364.5175
  82  404.2114
  83  348.4923
  84  284.1909
  85  378.5087
  86  312.6707
  87  219.4803
  88  301.0485
  89  177.3361
  90  297.7908
  91  277.3297
  92  126.7015
  93  98.50697
  94  119.2606
  95  151.6831
  96  212.2931
  97  192.0445
  98  134.2431
  99  195.6926
 100  187.632
 101  306.168
 102  327.4738
 103  226.6951
 104  251.4475
 105  143.4929
 106  226.7665
 107  165.3921
 108  148.4552
 109  209.8903
 110  213.7916
 111  280.8545
 112  316.0865
 113  231.1855
 114  248.6686
 115  105.1897
 116  165.6172
 117  273.2215
 118  243.2388
 119  171.2101
 120  149.4
 121  104.4609
 122  109.4298
 123  100.415
 124  195.7088
 125  273.3241
 126  408.8629
 127  347.7661
 128  175.2048
 129  112.275
 130  279.95
 131  385.4766
 132  380.5688
 133  317.2436
 134  295.7542
 135  211.2523
 136  174.232
 137  81.48483
 138  124.8216
 139  216.8591
 140  210.7821
 141  344.8878
 142  328.5132
 143  359.382
 144  159.5732
 145  253.1894
 146  316.025
 147  343.8584
 148  193.2329
 149  154.8801
 150  231.4717
 151  291.7007
 152  236.4987
 153  253.3651
 154  123.7831
 155  238.3926
 156  287.6476
 157  196.3869
 158  140.4789
 159  198.756
 160  304.55
 161  299.8239
 162  197.4598
 163  233.5723
 164  251.7833
 165  209.5825
 166  225.1706
 167  219.7954
 168  268.3699
 169  190.481
 170  172.6163
 171  226.7367
 172  213.3788
 173  225.9246
 174  257.5675
 175  267.6193
 176  98.37292
 177  214.4831
 178  169.0249
 179  95.80614
 180  78.97874
 181  175.0364
 182  220.427
 183  224.6404
 184  173.4021
 185  69.88008
 186  116.7136
 187  73.50987
 188  109.7394
 189  150.5881
 190  142.8344
 191  205.2309
 192  212.7664
 193  203.4467
 194  240.2437
 195  103.346
 196  209.9962
 197  243.977
 198  277.3675
 199  266.3957
 200  192.1258
 201  203.4479
 202  203.0367
 203  186.0916
 204  199.6337
 205  298.2032
 206  150.9073
 207  116.8131
 208  121.9373
 209  309.1849
 210  223.6241
 211  187.2245
 212  229.0187
 213  233.4341
 214  189.8756
 215  336.9146
 216  251.2921
 217  282.4403
 218  254.8998
 219  99.77393
 220  18.50206
 221  180.6032
 222  110.7049
 223  111.8263
 224  258.4158
 225  186.256
 226  111.5129
 227  111.3
 228  328.2615
 229  255.7226
 230  274.8454
 231  354.493
 232  309.036
 233  296.9781
 234  144.5284
 235  197.6161
 236  321.7057
 237  275.3366
 238  155.2735
 239  212.2165
 240  312.2966
 241  292.5926
 242  258.8856
 243  65.78378
 244  174.395
 245  176.0901
 246  162.5528
 247  227.6397
 248  266.042
 249  283.0488
 250  175.4957
 251  247.8934
 252  244.2793
 253  193.3056
 254  195.8863
 255  164.6689
 256  104.3424
 257  241.1666
 258  261.079
 259  249.2641
 260  275.0287
 261  272.9633
 262  322.6371
 263  260.0943
 264  280.415
 265  370.7727
 266  295.681
 267  110.2359
 268  136.394
 269  227.453
 270  258.0324
 271  254.6985
 272  202.8657
 273  245.8774
 274  367.5746
 275  216.194
 276  52.79007
 277  134.0713
 278  231.7939
 279  279.7245
 280  168.5272
 281  91.63675
 282  186.0246
 283  40.81012
 284  56.60892
 285  166.2437
 286  124.0257
 287  236.449
 288  317.769
 289  123.892
 290  154.5737
 291  112.4688
 292  88.59815
 293  228.0977
 294  190.9625
 295  147.1467
 296  297.22
 297  265.4937
 298  383.8287
 299  73.64858
 300  164.7459
 301  270.7345
 302  220.2045
 303  150.2887
 304  232.2755
 305  177.9306
 306  248.8931
 307  215.822
 308  214.959
 309  136.8268
 310  218.8003
 311  286.6034
 312  341.6462
 313  272.7301
 314  166.4352
 315  198.2319
 316  242.9236
 317  245.5194
 318  145.829
 319  291.4127
 320  223.049
 321  117.6699
 322  275.1992
 323  302.2465
 324  164.6114
 325  104.5306
 326  14.661
 327  65.86084
 328  163.1137
 329  210.5943
 330  234.5702
 331  218.7736
 332  245.5824
 333  186.613
 334  232.3167
 335  257.5429
 336  118.0041
 337  266.9866
 338  248.3931
 339  210.6599
 340  192.9929
 341  345.8355
 342  256.2712
 343  122.8865
 344  152.9182
 345  217.8331
 346  190.8875
 347  297.0911
 348  394.5215
 349  288.0244
 350  369.6914
 351  421.382
 352  294.0308
 353  107.7148
 354  232.5736
 355  184.3344
 356  153.8005
 357  196.5888
 358  326.2227
 359  212.8102
 360  219.7522
 361  233.2273
 362  87.54049
 363  182.4897
 364  211.2124
 365  277.6134
 366  308.1783
 367  326.7347
 368  233.0435
 369  133.1667
 370  268.602
 371  318.9423
 372  244.3516
 373  214.8462
 374  379.1428
 375  357.461
 376  143.8878
 377  121.2103
 378  220.9522
 379  208.0748
 380  241.6622
 381  308.4446
 382  374.8825
 383  230.2927
 384  196.0573
 385  239.0186
 386  242.6888
 387  270.6979
 388  208.9116
 389  199.8892
 390  146.475
 391  96.31732
 392  100.418
 393  103.6884
 394  173.012
 395  234.5658
 396  109.6592
 397  157.2389
 398  185.8472
 399  297.809
 400  265.2028
 401  228.2026
 402  111.7097
 403  159.026
 404  114.9148
 405  107.5051
 406  286.9539
 407  377.0362
 408  229.2192
 409  201.9147
 410  197.4967
 411  136.0636
 412  235.3995
 413  290.798
 414  219.3078
 415  191.9579
 416  254.5424
 417  195.0213
 418  165.9565
 419  207.4548
 420  254.821
 421  177.3084
 422  262.948
 423  89.91326
 424  86.32601
 425  187.8404
 426  116.1458
 427  60.78708
 428  196.613
 429  124.9561
 430  85.98775
 431  32.36984
 432  144.2053
 433  133.8928
 434  39.70404
 435  101.3723
 436  176.3318
 437  160.7535
 438  176.272
 439  125.5235
 440  142.5157
 441  186.321
 442  220.91
 443  55.57256
 444  156.2102
 445  255.7422
 446  152.102
 447  64.36243
 448  68.85395
 449  151.4597
 450  202.1102
 451  138.5547
 452  59.22807
 453  57.16485
 454  118.7563
 455  202.9149
 456  148.6266
 457  144.8685
 458  202.5929
 459  197.6831
 460  225.0359
 461  282.9062
 462  233.5177
 463  249.0851
 464  283.6779
 465  293.4844
 466  378.0991
 467  298.7908
 468  164.6835
 469  365.6448
 470  294.8429
 471  153.2103
 472  204.4259
 473  268.5212
 474  82.09481
 475  131.129
 476  218.0122
 477  207.6674
 478  251.5651
 479  315.3167
 480  382.2723
 481  260.7773
 482  239.7702
 483  185.4825
 484  177.3906
 485  226.4509
 486  284.2988
 487  250.776
 488  207.4403
 489  97.41059
 490  116.6941
 491  258.5931
 492  165.9854
 493  141.7066
 494  200.8488
 495  256.6654
 496  326.1131
 497  326.3315
 498  343.5682
 499  249.1339
 500  152.3116
 501  312.1335
 502  338.5596
 503  282.2581
 504  393.012
 505  404.4336
 506  297.387
 507  377.1371
 508  482.2366
 509  400.5657
 510  626.2889
 511  884.4625
