# Input file       =  1179835321.101259-PSRB0329-2ms-sampling-dd.dat
# Candidate        =  PSR_0332+5434
# Telescope        =  AR
# Epoch_topo       =  57899.501621542353
# Epoch_bary       =  N/A
# T_sample         =  0.002
# Data Folded      =  7340032
# Data Avg         =  -2.86071603337213e-10
# Data StdDev      =  6.04521011867135 
# Profile Bins     =  512
# Profile Avg      =  0.138013073548956
# Profile StdDev   =  723.811363044071 
# Reduced chi-sqr  =  0.931
# Prob(Noise)      <  0.865   (~0.0 sigma)
# P_topo (ms)      =  714.522343425294  +/- 0.000495
# P'_topo (s/s)    =  -0                +/- 2.61e-10
# P''_topo (s/s^2) =  0                 +/- 1.15e-13
# P_bary (ms)      =  N/A
# P'_bary (s/s)    =  N/A
# P''_bary (s/s^2) =  N/A
# P_orb (s)        =  N/A
# asin(i)/c (s)    =  N/A
# eccentricity     =  N/A
# w (rad)          =  N/A
# T_peri           =  N/A
######################################################
   0  134.9032
   1  -160.2567
   2  162.2874
   3  -279.1831
   4  -69.04635
   5  -12.63812
   6  350.2669
   7  502.0368
   8  79.13223
   9  67.86816
  10  -257.1364
  11  -356.711
  12  -276.3564
  13  -456.4287
  14  -524.2884
  15  -432.1112
  16  -470.3074
  17  -316.7775
  18  759.0399
  19  1565.631
  20  1990.354
  21  1526.021
  22  760.1115
  23  -110.1401
  24  981.5846
  25  1624.276
  26  2391.027
  27  2497.064
  28  1526.701
  29  779.6342
  30  50.53195
  31  196.3183
  32  245.7344
  33  -298.4668
  34  168.1068
  35  38.89848
  36  306.1811
  37  438.126
  38  -19.11815
  39  -26.21356
  40  11.09168
  41  -395.5177
  42  -678.9795
  43  -126.3891
  44  17.81827
  45  -168.5322
  46  -311.6632
  47  -530.519
  48  -352.9413
  49  -171.7642
  50  -284.6474
  51  31.47571
  52  -13.11399
  53  -305.2063
  54  -305.4556
  55  -434.9734
  56  -204.5017
  57  -601.7827
  58  -733.8902
  59  -122.4844
  60  -87.42547
  61  4.029367
  62  -329.8239
  63  -422.8676
  64  -221.9785
  65  -219.7371
  66  -240.1205
  67  -34.06032
  68  73.48008
  69  250.0896
  70  66.58694
  71  -116.6052
  72  -82.38657
  73  310.8921
  74  -152.2122
  75  -328.7528
  76  -378.7451
  77  -222.7344
  78  -171.4625
  79  -636.4291
  80  -358.8338
  81  -102.2274
  82  -783.2369
  83  -825.4861
  84  -743.9994
  85  -233.6313
  86  -310.3271
  87  -243.6922
  88  -540.7527
  89  -881.4794
  90  -761.8484
  91  -986.2337
  92  -718.952
  93  -267.3454
  94  -817.5149
  95  -649.4278
  96  -289.2974
  97  -182.6014
  98  -598.5588
  99  -681.9105
 100  18.51231
 101  59.39243
 102  79.72569
 103  506.7012
 104  526.2568
 105  38.4292
 106  -132.9397
 107  -24.41795
 108  -409.8754
 109  -260.4036
 110  -208.8065
 111  -274.0838
 112  191.7648
 113  -314.2419
 114  -520.051
 115  -941.304
 116  -726.5245
 117  -749.4798
 118  -122.5251
 119  -70.68591
 120  -397.3518
 121  -679.0256
 122  -495.1319
 123  -579.7379
 124  -668.2219
 125  66.4063
 126  180.0994
 127  171.6674
 128  65.64146
 129  -148.1841
 130  -128.4818
 131  -386.1612
 132  -88.64163
 133  -246.1861
 134  89.09016
 135  249.9184
 136  474.3122
 137  393.422
 138  -454.9893
 139  -488.0347
 140  -354.9639
 141  268.5739
 142  343.511
 143  0.613985
 144  -94.92346
 145  286.3054
 146  400.8441
 147  334.2244
 148  599.2698
 149  568.2917
 150  284.067
 151  415.24
 152  424.9891
 153  573.8092
 154  592.7822
 155  550.4324
 156  700.2219
 157  -163.9003
 158  -161.2389
 159  199.8364
 160  306.6673
 161  293.5783
 162  314.7543
 163  49.64306
 164  -667.8173
 165  -515.4892
 166  -570.1861
 167  -386.7503
 168  -498.834
 169  277.601
 170  224.931
 171  -44.914
 172  -48.25677
 173  -316.427
 174  -64.00688
 175  -217.0415
 176  68.93691
 177  224.5126
 178  -314.0934
 179  -570.4741
 180  -279.2107
 181  39.34618
 182  -309.2785
 183  -263.9682
 184  -661.5331
 185  -182.6789
 186  -64.55081
 187  86.83597
 188  308.7916
 189  153.3382
 190  66.03284
 191  -140.2437
 192  492.2597
 193  207.0449
 194  -98.21501
 195  -581.7272
 196  -146.1095
 197  -89.3812
 198  267.2996
 199  360.9653
 200  303.4048
 201  388.9211
 202  192.9944
 203  438.3191
 204  -4.595208
 205  9.135694
 206  736.6249
 207  561.0994
 208  1037.474
 209  1119.581
 210  563.3102
 211  324.0156
 212  274.2951
 213  -5.604698
 214  -150.6669
 215  476.8693
 216  741.3759
 217  703.8813
 218  587.2442
 219  -151.704
 220  -389.0851
 221  -628.2572
 222  3.409034
 223  217.6911
 224  305.8592
 225  302.9344
 226  -568.7822
 227  -272.7073
 228  -261.5299
 229  58.44169
 230  315.4277
 231  244.8389
 232  346.8638
 233  295.8604
 234  168.8142
 235  300.7667
 236  626.9144
 237  446.7271
 238  530.4829
 239  624.2886
 240  715.5057
 241  679.2514
 242  1162.114
 243  1470.87
 244  853.7598
 245  1353.34
 246  1092.051
 247  762.5222
 248  475.2318
 249  857.5849
 250  1033.406
 251  971.7238
 252  954.0336
 253  285.7203
 254  359.6951
 255  -90.14227
 256  -461.6437
 257  234.9718
 258  69.46371
 259  136.3443
 260  138.6473
 261  60.52511
 262  -223.0986
 263  -119.7688
 264  -231.933
 265  -188.7913
 266  301.4534
 267  138.5393
 268  78.75066
 269  -279.8244
 270  -487.5131
 271  -468.7822
 272  -422.3775
 273  28.66166
 274  138.1787
 275  381.6715
 276  270.5441
 277  486.4639
 278  244.9249
 279  89.98033
 280  -80.41531
 281  1.206094
 282  284.4346
 283  98.63509
 284  444.4007
 285  377.2243
 286  41.63458
 287  135.8094
 288  -610.902
 289  -591.2075
 290  -150.915
 291  -4.4729
 292  -164.7866
 293  -105.3826
 294  -353.0231
 295  -1031.838
 296  -1153.756
 297  -324.1453
 298  -73.1039
 299  188.0052
 300  38.83165
 301  -402.9228
 302  -843.7101
 303  -675.6611
 304  -238.0649
 305  -149.0554
 306  -274.5045
 307  -229.7016
 308  -379.1763
 309  -338.2285
 310  -322.1527
 311  -382.335
 312  -244.1124
 313  -266.378
 314  81.58849
 315  -315.645
 316  -592.4319
 317  -563.9466
 318  -825.1598
 319  -494.0552
 320  -135.4044
 321  -16.67903
 322  -308.8607
 323  -282.0344
 324  -332.7537
 325  -472.1542
 326  2.126316
 327  -360.9847
 328  -659.6742
 329  -503.2511
 330  -531.3152
 331  -446.07
 332  -407.3255
 333  -290.961
 334  -397.1394
 335  -141.3389
 336  -239.0773
 337  -344.347
 338  -379.2217
 339  -285.8802
 340  -248.0949
 341  -143.9118
 342  58.64882
 343  -250.6582
 344  -617.2967
 345  -409.6913
 346  -221.7786
 347  31.90514
 348  -325.5095
 349  -318.1916
 350  -497.3295
 351  -717.7791
 352  -614.9865
 353  -53.41843
 354  -388.6562
 355  -29.42004
 356  -342.1577
 357  -411.9111
 358  -235.3315
 359  -382.7586
 360  -221.481
 361  -10.38252
 362  245.5437
 363  -126.4368
 364  -218.4631
 365  -184.6806
 366  -275.9716
 367  -372.2965
 368  -325.9046
 369  -130.1659
 370  247.5749
 371  124.1541
 372  -240.5618
 373  -367.269
 374  -345.6878
 375  -14.43167
 376  35.39278
 377  211.2561
 378  359.4589
 379  -110.0046
 380  59.45428
 381  -105.8344
 382  -144.1397
 383  81.37301
 384  38.46021
 385  100.164
 386  -49.34217
 387  133.5129
 388  -230.1691
 389  -392.9578
 390  -102.1841
 391  -201.7992
 392  259.196
 393  731.7552
 394  649.223
 395  1109.356
 396  989.4801
 397  961.8574
 398  953.799
 399  845.8439
 400  1405.713
 401  1770.37
 402  2457.173
 403  1959.341
 404  1394.652
 405  1181.427
 406  921.5356
 407  465.1264
 408  159.2948
 409  258.6002
 410  -43.0815
 411  -260.7089
 412  -305.7411
 413  -366.1859
 414  -109.0441
 415  85.396
 416  -41.49396
 417  -42.21203
 418  -48.33944
 419  -181.7798
 420  60.23792
 421  14.03569
 422  225.7007
 423  -9.02946
 424  -225.2622
 425  -482.4633
 426  -895.7069
 427  -1015.649
 428  -594.7894
 429  -283.2812
 430  -467.1105
 431  -924.2701
 432  -483.5278
 433  -587.4003
 434  -91.65531
 435  -101.9565
 436  -22.92616
 437  -132.8731
 438  247.6892
 439  -31.96123
 440  -524.903
 441  -583.8674
 442  -439.713
 443  357.8851
 444  624.9388
 445  424.5885
 446  -340.1447
 447  -205.0668
 448  307.7206
 449  131.9978
 450  353.8336
 451  635.348
 452  1068.598
 453  673.7114
 454  313.8559
 455  152.956
 456  220.1107
 457  341.7111
 458  354.2596
 459  441.9575
 460  337.0453
 461  262.6587
 462  -95.41283
 463  -169.6932
 464  249.1568
 465  90.58305
 466  -352.1271
 467  -165.8048
 468  -390.3393
 469  -463.7419
 470  -212.3705
 471  -369.7578
 472  -383.3404
 473  -417.0099
 474  -49.55271
 475  -201.0633
 476  -337.2546
 477  255.2214
 478  466.0754
 479  494.0141
 480  11.25052
 481  -85.98677
 482  -258.6036
 483  -318.0353
 484  -80.45991
 485  60.4072
 486  446.5373
 487  203.1666
 488  -60.67968
 489  109.3451
 490  -241.1658
 491  -271.1643
 492  -119.7383
 493  -349.0022
 494  114.0373
 495  99.8894
 496  -240.4581
 497  -151.1761
 498  -296.2215
 499  -428.8443
 500  -347.8748
 501  -342.6303
 502  98.56815
 503  -2.145251
 504  -8.093451
 505  -1.654106
 506  -307.4673
 507  -178.6947
 508  -241.8333
 509  -463.6837
 510  2.834818
 511  -40.50636
