# Input file       =  1179460511.106845-PSRB0329-2ms-sampling-dd.dat
# Candidate        =  PSR_0332+5434
# Telescope        =  AR
# Epoch_topo       =  57895.163542903298
# Epoch_bary       =  N/A
# T_sample         =  0.002
# Data Folded      =  7208960
# Data Avg         =  1.73943752700254e-09
# Data StdDev      =  39.2622644078386 
# Profile Bins     =  512
# Profile Avg      =  -0.0180362020237993
# Profile StdDev   =  4658.8279344218  
# Reduced chi-sqr  =  1.028
# Prob(Noise)      <  0.32   (~0.5 sigma)
# P_topo (ms)      =  714.52627116554   +/- 0.0177
# P'_topo (s/s)    =  -0                +/- 1.92e-08
# P''_topo (s/s^2) =  0                 +/- 8.55e-12
# P_bary (ms)      =  N/A
# P'_bary (s/s)    =  N/A
# P''_bary (s/s^2) =  N/A
# P_orb (s)        =  N/A
# asin(i)/c (s)    =  N/A
# eccentricity     =  N/A
# w (rad)          =  N/A
# T_peri           =  N/A
######################################################
   0  -312.8032
   1  -584.165
   2  -500.1576
   3  87.69717
   4  -734.4774
   5  -846.5468
   6  -774.5672
   7  -1031.427
   8  -433.7581
   9  -446.3335
  10  -1261.094
  11  212.4781
  12  -432.5183
  13  -1630.154
  14  724.486
  15  -526.2526
  16  -900.9927
  17  1336.356
  18  -1142.626
  19  -646.4869
  20  2753.015
  21  -2491.023
  22  893.4522
  23  7191.354
  24  -1154.196
  25  2749.914
  26  3004.426
  27  -10834.32
  28  19158.71
  29  39491.06
  30  60901.25
  31  765.4966
  32  -4042.202
  33  5949.812
  34  -4683.089
  35  -740.7079
  36  2611.234
  37  -3455.067
  38  43.18331
  39  365.8842
  40  -2829.719
  41  -206.8578
  42  -561.9726
  43  -1422.188
  44  752.802
  45  496.0768
  46  -1097.399
  47  41.7859
  48  -723.0603
  49  -1052.224
  50  -114.088
  51  -478.6465
  52  -68.68084
  53  502.7563
  54  -562.4526
  55  -733.0679
  56  -801.3953
  57  -651.2951
  58  -545.5604
  59  -618.509
  60  -237.7456
  61  -257.603
  62  -507.1089
  63  -885.5447
  64  -879.3881
  65  136.8534
  66  -69.69589
  67  -360.1744
  68  92.70004
  69  338.7215
  70  150.1347
  71  -267.2882
  72  -216.049
  73  -6.774503
  74  -150.423
  75  324.3604
  76  316.5381
  77  332.2901
  78  206.8518
  79  -355.6011
  80  -200.2855
  81  397.6702
  82  613.8651
  83  196.4312
  84  35.87864
  85  698.383
  86  119.3019
  87  96.17682
  88  -248.4305
  89  -120.9741
  90  438.9287
  91  324.9861
  92  147.8477
  93  -38.47867
  94  103.0446
  95  -117.3436
  96  -411.9133
  97  -6.952884
  98  -136.4611
  99  170.373
 100  -361.1751
 101  -137.05
 102  -55.68081
 103  -294.3404
 104  -288.9404
 105  -185.2874
 106  -206.4875
 107  27.76346
 108  -124.0185
 109  66.6071
 110  324.2777
 111  93.10377
 112  -18.94425
 113  -5.818537
 114  299.4397
 115  150.6611
 116  163.1234
 117  897.175
 118  619.9875
 119  762.1273
 120  233.5486
 121  -55.48586
 122  -147.3899
 123  -329.189
 124  107.7514
 125  348.9251
 126  363.671
 127  576.6539
 128  2.854366
 129  -403.7966
 130  -354.0935
 131  -24.80888
 132  -152.6997
 133  25.46966
 134  26.26065
 135  51.59241
 136  -557.8123
 137  -686.4634
 138  -550.9179
 139  45.82
 140  257.3146
 141  -133.3523
 142  -255.0722
 143  -252.9721
 144  68.98991
 145  -28.41454
 146  292.4872
 147  891.3075
 148  478.4545
 149  -64.68549
 150  -498.955
 151  77.11501
 152  708.2502
 153  671.0553
 154  640.2468
 155  313.827
 156  232.8126
 157  -285.214
 158  -735.3082
 159  -262.7549
 160  -31.89753
 161  -72.9353
 162  -422.1533
 163  -527.3099
 164  99.25038
 165  -336.4693
 166  -156.4094
 167  -348.1892
 168  -120.565
 169  -159.994
 170  -494.536
 171  -215.1512
 172  -267.378
 173  -300.1935
 174  -249.564
 175  176.0473
 176  432.9059
 177  11.73921
 178  -577.8397
 179  -570.718
 180  -63.3545
 181  114.9803
 182  44.67793
 183  284.9649
 184  545.8554
 185  34.22641
 186  96.46544
 187  -415.4061
 188  -146.0025
 189  -98.44758
 190  -139.7552
 191  -333.291
 192  -466.5519
 193  0.8414522
 194  -250.635
 195  -695.3582
 196  -696.5187
 197  -664.0403
 198  -467.7858
 199  -864.671
 200  -242.8766
 201  80.9151
 202  39.93919
 203  -346.3578
 204  -428.7574
 205  -224.0099
 206  -304.7411
 207  -594.4785
 208  -343.5453
 209  -61.32183
 210  -514.6927
 211  -775.4038
 212  -569.442
 213  -80.14164
 214  50.65539
 215  54.26685
 216  310.842
 217  -196.7477
 218  -151.6311
 219  -319.428
 220  -20.19366
 221  491.5443
 222  273.1911
 223  -45.16713
 224  -578.7177
 225  -83.40528
 226  162.0432
 227  -326.6781
 228  -518.2012
 229  -360.9018
 230  -9.922396
 231  -324.3302
 232  -670.238
 233  -527.2646
 234  -290.5638
 235  -334.0543
 236  -576.7047
 237  -296.9089
 238  -14.36686
 239  88.62326
 240  437.7878
 241  764.1218
 242  1244.801
 243  1390.127
 244  725.8865
 245  613.1049
 246  609.6511
 247  715.537
 248  182.527
 249  68.44029
 250  261.1465
 251  -440.1526
 252  -612.6682
 253  -454.7551
 254  -719.3778
 255  -216.9863
 256  -98.22245
 257  -407.8445
 258  -396.3473
 259  -305.9292
 260  -495.7099
 261  -415.9241
 262  -410.7009
 263  -243.5697
 264  -79.26099
 265  -456.5163
 266  -359.2693
 267  9.609674
 268  -368.1224
 269  -625.4266
 270  -454.8499
 271  -403.1788
 272  -246.6571
 273  -610.7762
 274  -135.2779
 275  280.4269
 276  -226.9313
 277  -808.6215
 278  -696.112
 279  -174.7194
 280  -29.56211
 281  358.4167
 282  229.7501
 283  373.0062
 284  201.4808
 285  -235.0647
 286  -731.7493
 287  -451.4442
 288  -191.1606
 289  -325.1289
 290  -70.61055
 291  -103.3521
 292  -6.70422
 293  -137.3997
 294  -270.4105
 295  -304.7318
 296  -172.7463
 297  -658.5936
 298  -992.589
 299  -438.0995
 300  -273.5738
 301  -130.7786
 302  80.76865
 303  10.56434
 304  -161.4957
 305  -763.5879
 306  -853.784
 307  -489.9172
 308  316.766
 309  973.9542
 310  157.8308
 311  -185.6899
 312  -237.6204
 313  182.2972
 314  -111.8173
 315  141.0209
 316  400.04
 317  125.1476
 318  -234.1535
 319  -555.1877
 320  -605.5523
 321  -104.859
 322  62.26984
 323  -49.39358
 324  11.83347
 325  -128.0578
 326  -476.3122
 327  -524.2039
 328  -644.3857
 329  -495.6119
 330  -47.293
 331  -520.4443
 332  -125.7067
 333  -6.934183
 334  -55.44274
 335  -472.1247
 336  -399.2493
 337  -168.4882
 338  -226.6918
 339  -203.9975
 340  -460.4072
 341  299.3982
 342  128.6491
 343  -400.188
 344  -380.1069
 345  -432.852
 346  -150.4337
 347  -437.2801
 348  143.6101
 349  596.5516
 350  248.6856
 351  -16.26919
 352  -671.1218
 353  -839.1638
 354  -451.8062
 355  -116.7245
 356  -427.5459
 357  -1.665916
 358  60.62409
 359  -499.0114
 360  -1042.091
 361  -940.7043
 362  -535.8287
 363  -298.5367
 364  148.8895
 365  64.25822
 366  92.1176
 367  -126.3231
 368  -728.5045
 369  -333.8575
 370  -311.2143
 371  -256.1059
 372  -738.7183
 373  -441.175
 374  318.214
 375  13.75362
 376  -177.064
 377  -575.6525
 378  -166.752
 379  -430.7931
 380  -829.6276
 381  -401.0052
 382  -211.3251
 383  282.3396
 384  -117.8247
 385  -305.1316
 386  -279.9284
 387  -480.4754
 388  -721.4659
 389  -569.7185
 390  -62.57294
 391  178.1482
 392  -127.7747
 393  -553.9654
 394  -533.47
 395  28.03274
 396  -12.21723
 397  -160.2545
 398  -276.9052
 399  -227.3916
 400  -530.1849
 401  -572.1439
 402  -612.4379
 403  -617.2037
 404  144.5831
 405  -369.1388
 406  -177.3825
 407  70.90347
 408  -46.48142
 409  -622.1042
 410  -1127.818
 411  -470.6786
 412  -593.352
 413  -395.0722
 414  -229.0809
 415  317.8481
 416  482.6601
 417  -134.4499
 418  -624.2608
 419  -855.2313
 420  -592.5876
 421  -356.6802
 422  -487.2265
 423  -371.6431
 424  -424.1487
 425  -345.9784
 426  -1033.213
 427  -1021.031
 428  -621.7828
 429  -227.4206
 430  -104.645
 431  -151.4734
 432  269.9323
 433  -629.5106
 434  -882.4217
 435  -916.066
 436  -826.1378
 437  -1005.924
 438  -689.3463
 439  -654.4978
 440  -110.0896
 441  -190.5314
 442  -658.0207
 443  -588.4508
 444  -610.48
 445  -399.2338
 446  -445.3355
 447  -29.81903
 448  72.80987
 449  154.9284
 450  -97.67817
 451  -593.0976
 452  -410.5271
 453  -777.8901
 454  -937.822
 455  -736.3074
 456  -674.3948
 457  8.800956
 458  -408.1704
 459  -373.1713
 460  -475.48
 461  -517.6439
 462  -626.2117
 463  -306.3705
 464  -77.52713
 465  -128.5146
 466  -252.0638
 467  -245.711
 468  -625.3983
 469  -967.4945
 470  -718.2678
 471  -902.809
 472  -646.8942
 473  -190.8885
 474  -27.94328
 475  -615.1674
 476  -912.3549
 477  -688.9737
 478  -281.8451
 479  -599.2272
 480  -517.6137
 481  -264.5411
 482  -98.20092
 483  -510.619
 484  -851.8848
 485  -898.5068
 486  -618.0886
 487  -626.149
 488  -958.9308
 489  -521.2615
 490  -233.3204
 491  -278.95
 492  -404.9443
 493  -670.3173
 494  -150.7844
 495  -260.1192
 496  -324.7346
 497  -463.7986
 498  -223.726
 499  -20.57019
 500  -554.074
 501  -523.967
 502  -661.3337
 503  -602.8693
 504  -523.8247
 505  -945.9077
 506  -606.6984
 507  -544.5487
 508  -685.644
 509  -1306.639
 510  -967.571
 511  -781.4755
