# Input file       =  1179202078.094115-PSRB0329-2ms-sampling-dd.dat
# Candidate        =  PSR_0332+5434
# Telescope        =  AR
# Epoch_topo       =  57892.172420070776
# Epoch_bary       =  N/A
# T_sample         =  0.002
# Data Folded      =  7208960
# Data Avg         =  -1.29044801712234e-11
# Data StdDev      =  6.19239086856879 
# Profile Bins     =  512
# Profile Avg      =  -0.0979039362614656
# Profile StdDev   =  734.783996655758 
# Reduced chi-sqr  =  0.739
# Prob(Noise)      <  1   (~0.0 sigma)
# P_topo (ms)      =  714.529206921462  +/- 4.43e-05
# P'_topo (s/s)    =  -0                +/- 2.38e-11
# P''_topo (s/s^2) =  0                 +/- 1.07e-14
# P_bary (ms)      =  N/A
# P'_bary (s/s)    =  N/A
# P''_bary (s/s^2) =  N/A
# P_orb (s)        =  N/A
# asin(i)/c (s)    =  N/A
# eccentricity     =  N/A
# w (rad)          =  N/A
# T_peri           =  N/A
######################################################
   0  -246.1309
   1  -200.0004
   2  -352.2661
   3  -667.8868
   4  -622.5894
   5  -668.4056
   6  -312.3629
   7  -668.6061
   8  -259.9977
   9  -146.1897
  10  -513.7898
  11  -567.4182
  12  -401.2458
  13  -257.4369
  14  -133.3002
  15  153.1571
  16  47.29672
  17  -207.8609
  18  -423.1956
  19  -70.67405
  20  -576.5206
  21  -243.93
  22  330.7266
  23  24.44663
  24  -289.679
  25  -483.6877
  26  -366.4689
  27  -299.5909
  28  -670.0701
  29  -762.9849
  30  -209.7707
  31  499.2168
  32  327.4
  33  -140.8472
  34  -217.3616
  35  -842.4904
  36  -1199.371
  37  -1034.513
  38  -761.0296
  39  -345.1718
  40  -71.51869
  41  -83.8116
  42  -624.0051
  43  -914.2466
  44  -886.2177
  45  -718.1902
  46  -412.5102
  47  -99.27512
  48  361.0075
  49  3.415857
  50  145.1222
  51  95.55939
  52  222.0955
  53  -209.9486
  54  -271.9596
  55  251.7684
  56  460.8945
  57  80.94556
  58  -348.6272
  59  -188.4841
  60  -309.9699
  61  -498.0408
  62  -349.0599
  63  60.89895
  64  392.7107
  65  388.8969
  66  379.3168
  67  -122.0259
  68  -363.2839
  69  -197.8843
  70  -265.6776
  71  -546.5569
  72  -257.98
  73  -7.940264
  74  -381.2055
  75  -214.2043
  76  -248.8581
  77  -734.0043
  78  -470.5594
  79  -325.3366
  80  136.0364
  81  395.926
  82  286.274
  83  280.0421
  84  -67.8779
  85  -157.7636
  86  -223.641
  87  -217.2672
  88  -277.4131
  89  -18.77767
  90  162.467
  91  108.4979
  92  -263.1026
  93  -479.6216
  94  -314.0195
  95  -462.3919
  96  -184.0341
  97  457.577
  98  443.1018
  99  284.5105
 100  -139.684
 101  -443.5311
 102  -510.2376
 103  -499.7608
 104  -575.0786
 105  -191.1652
 106  110.0622
 107  -332.0811
 108  -274.7142
 109  -629.9335
 110  -1057.404
 111  -1109.825
 112  -444.1259
 113  -115.0411
 114  452.8695
 115  216.2616
 116  66.37923
 117  -457.2322
 118  -912.2828
 119  -455.6342
 120  -48.77222
 121  460.9417
 122  195.035
 123  -56.5948
 124  -152.2291
 125  -535.3242
 126  -377.9479
 127  -398.8597
 128  -398.7605
 129  -277.8254
 130  331.8494
 131  548.784
 132  6.329431
 133  -44.51334
 134  -442.84
 135  -267.63
 136  -128.4242
 137  -30.38342
 138  65.82771
 139  42.23877
 140  -313.3548
 141  74.66932
 142  -270.1061
 143  -285.7917
 144  -659.2485
 145  -109.4396
 146  135.0696
 147  373.785
 148  834.7524
 149  454.2654
 150  116.7875
 151  104.0572
 152  -222.5029
 153  -460.6989
 154  116.9682
 155  424.7561
 156  311.6252
 157  -159.8811
 158  -202.898
 159  -263.3483
 160  -631.7174
 161  -703.032
 162  -121.6168
 163  721.1444
 164  827.319
 165  807.4156
 166  451.3806
 167  -39.45434
 168  -308.8757
 169  -500.4841
 170  -144.2878
 171  314.2348
 172  293.8781
 173  50.08069
 174  -205.2461
 175  92.59495
 176  -276.898
 177  -608.2314
 178  -519.8553
 179  409.5395
 180  596.1487
 181  605.1341
 182  284.3737
 183  384.906
 184  152.5922
 185  -365.7574
 186  -438.2309
 187  -381.098
 188  363.6589
 189  338.2856
 190  258.5879
 191  -114.6499
 192  -320.002
 193  -825.6921
 194  -789.3185
 195  47.8825
 196  531.1452
 197  739.5991
 198  625.398
 199  -38.57133
 200  -409.8854
 201  -350.8184
 202  -223.4703
 203  -551.5919
 204  945.9935
 205  1779.03
 206  1846.129
 207  2111.11
 208  341.8981
 209  -104.5709
 210  -154.9151
 211  1716.121
 212  2208.789
 213  2120.501
 214  1449.676
 215  881.6167
 216  449.2432
 217  345.6394
 218  314.9809
 219  -52.95562
 220  130.1167
 221  34.48272
 222  152.8429
 223  210.229
 224  264.9346
 225  -245.5889
 226  -63.7156
 227  -331.7009
 228  -134.0456
 229  182.995
 230  575.6464
 231  348.5046
 232  409.3324
 233  185.1147
 234  174.7797
 235  61.56661
 236  -131.3235
 237  153.1714
 238  -102.4345
 239  -97.9807
 240  -174.7236
 241  -194.8198
 242  -298.3526
 243  -406.1899
 244  -29.41115
 245  397.4407
 246  394.4257
 247  76.76675
 248  -54.34577
 249  52.84221
 250  -78.58644
 251  -167.4767
 252  -355.1103
 253  -151.4586
 254  184.2989
 255  -87.73014
 256  -231.5254
 257  -319.0829
 258  -156.9031
 259  -309.8594
 260  -35.39358
 261  -83.55593
 262  165.9978
 263  355.0005
 264  581.1381
 265  331.7291
 266  -348.032
 267  -452.9463
 268  -380.0943
 269  -361.007
 270  -474.4485
 271  70.88605
 272  87.69203
 273  -386.0017
 274  -422.4973
 275  -235.8806
 276  -265.7552
 277  -300.0798
 278  183.6535
 279  1024.355
 280  809.6355
 281  440.8947
 282  102.618
 283  -34.99815
 284  -160.8506
 285  -588.191
 286  -99.18575
 287  183.1854
 288  429.6745
 289  281.2386
 290  28.73321
 291  -98.62923
 292  -146.6629
 293  -361.8625
 294  -487.5842
 295  106.2742
 296  88.46588
 297  49.26717
 298  245.2536
 299  150.5967
 300  -168.4089
 301  -287.4191
 302  -179.5535
 303  -245.2176
 304  119.6682
 305  96.81614
 306  293.8815
 307  -72.09577
 308  -276.0729
 309  309.5945
 310  143.3358
 311  371.7214
 312  673.4027
 313  489.0788
 314  342.423
 315  304.2584
 316  272.2767
 317  -98.7158
 318  -25.63827
 319  -352.4259
 320  -125.361
 321  -157.9716
 322  -159.7288
 323  -102.1584
 324  -327.1539
 325  -200.1689
 326  -358.938
 327  65.35075
 328  508.9836
 329  529.8034
 330  468.724
 331  340.3543
 332  89.37107
 333  -168.6575
 334  -201.6385
 335  -355.8358
 336  -73.52016
 337  126.9996
 338  -23.97539
 339  -170.0772
 340  -270.9232
 341  -447.72
 342  -367.7045
 343  -26.73728
 344  181.0779
 345  724.7036
 346  728.2534
 347  165.4526
 348  -113.3371
 349  45.9134
 350  -386.5615
 351  -326.4908
 352  171.8266
 353  386.4491
 354  60.37903
 355  -2.435117
 356  77.83089
 357  -350.62
 358  -50.29382
 359  175.0569
 360  32.26581
 361  206.9347
 362  831.401
 363  587.4879
 364  223.3652
 365  306.6156
 366  229.9674
 367  -209.5278
 368  -257.9972
 369  197.271
 370  214.0601
 371  371.9179
 372  278.3579
 373  16.91449
 374  31.00307
 375  -91.24957
 376  -105.6563
 377  -151.4767
 378  197.9214
 379  652.6617
 380  722.0334
 381  746.8922
 382  163.1293
 383  -308.0539
 384  -372.3759
 385  -440.9041
 386  137.655
 387  330.8048
 388  282.0134
 389  126.2408
 390  -208.5952
 391  -383.7032
 392  -539.0601
 393  -314.8676
 394  -32.59301
 395  487.4954
 396  525.886
 397  237.0255
 398  -17.25932
 399  -219.8874
 400  -194.9896
 401  -55.26367
 402  32.18864
 403  5.609006
 404  -107.9524
 405  -248.0196
 406  -382.7894
 407  -696.8038
 408  -153.0998
 409  -68.1588
 410  362.7342
 411  567.9543
 412  289.929
 413  24.69207
 414  -326.7993
 415  -504.1832
 416  -480.9713
 417  -315.9323
 418  198.3609
 419  236.296
 420  -120.7092
 421  -271.8511
 422  -279.1083
 423  -507.0914
 424  -400.8024
 425  -190.5243
 426  203.4487
 427  558.5455
 428  573.5223
 429  432.1066
 430  344.5861
 431  118.211
 432  -46.64944
 433  245.8146
 434  330.9662
 435  205.226
 436  -39.72454
 437  229.909
 438  241.3225
 439  -21.6763
 440  -112.541
 441  -59.51068
 442  112.2912
 443  245.3592
 444  682.7535
 445  746.1145
 446  515.3246
 447  151.9761
 448  8.402235
 449  -165.2973
 450  -1.548083
 451  298.4972
 452  451.8795
 453  413.5306
 454  524.372
 455  463.8238
 456  75.30917
 457  115.4347
 458  -42.40755
 459  269.7694
 460  1116.93
 461  1049.919
 462  925.2426
 463  699.3116
 464  261.304
 465  -159.8734
 466  -34.30256
 467  -105.2878
 468  228.0146
 469  208.8761
 470  198.3391
 471  -17.08564
 472  -195.2907
 473  -605.5909
 474  -882.0422
 475  -762.5635
 476  -294.3713
 477  64.69091
 478  216.1056
 479  79.14185
 480  -230.3672
 481  -347.2111
 482  -730.3353
 483  -765.7259
 484  -640.5332
 485  -251.0155
 486  -320.8981
 487  -585.4406
 488  -1067.221
 489  -747.5374
 490  -681.0322
 491  -185.3136
 492  50.09484
 493  369.7114
 494  277.4891
 495  157.082
 496  296.5271
 497  295.6163
 498  322.514
 499  -88.04416
 500  634.377
 501  1359.335
 502  1660.764
 503  1206.472
 504  1021.979
 505  490.9425
 506  22.74677
 507  -493.3279
 508  -335.851
 509  248.5631
 510  -14.80925
 511  171.5148
