# Input file       =  1179632897.101483_cleaned.dat
# Candidate        =  PSR_0332+5434
# Telescope        =  AR
# Epoch_topo       =  57897.158751174575
# Epoch_bary       =  N/A
# T_sample         =  0.002
# Data Folded      =  7208960
# Data Avg         =  0.180922722267199
# Data StdDev      =  4.19578736629965 
# Profile Bins     =  256
# Profile Avg      =  5094.83846475731 
# Profile StdDev   =  704.092626370497 
# Reduced chi-sqr  =  0.794
# Prob(Noise)      <  0.993   (~0.0 sigma)
# P_topo (ms)      =  714.524301014128  +/- 0.000185
# P'_topo (s/s)    =  -0                +/- 9.95e-11
# P''_topo (s/s^2) =  0                 +/- 4.47e-14
# P_bary (ms)      =  N/A
# P'_bary (s/s)    =  N/A
# P''_bary (s/s^2) =  N/A
# P_orb (s)        =  N/A
# asin(i)/c (s)    =  N/A
# eccentricity     =  N/A
# w (rad)          =  N/A
# T_peri           =  N/A
######################################################
   0  5351.171
   1  4968.228
   2  4825.125
   3  4755.802
   4  4342.483
   5  4667.612
   6  4693.676
   7  4850.874
   8  4751.771
   9  4851.873
  10  4667.123
  11  4761.235
  12  5300.177
  13  4957.71
  14  5318.2
  15  5034.133
  16  5560.031
  17  5875.438
  18  5908.628
  19  4962.542
  20  5012.996
  21  4912.529
  22  6557.759
  23  6003.751
  24  5359.452
  25  5878.88
  26  5930.646
  27  5665.298
  28  5091.032
  29  4844.518
  30  5132.981
  31  5175.387
  32  5046.069
  33  5907.486
  34  5568.706
  35  5161.423
  36  5347.495
  37  5202.791
  38  5517.761
  39  5342.2
  40  4606.858
  41  5194.253
  42  5931.62
  43  5525.329
  44  5223.667
  45  5186.45
  46  5752.347
  47  5201.041
  48  5353.74
  49  4916.875
  50  5144.385
  51  5202.426
  52  4655.114
  53  4526.893
  54  5205.359
  55  4981.002
  56  5657.264
  57  4751.305
  58  5288.859
  59  5139.406
  60  4478.407
  61  4500.344
  62  4471.405
  63  3707.795
  64  4209.101
  65  4372.53
  66  4880.307
  67  4460.013
  68  4403.76
  69  4154.84
  70  4935.997
  71  5005.626
  72  4377.392
  73  4223.312
  74  4666.546
  75  5145.844
  76  4641.757
  77  5318.928
  78  4932.429
  79  4924.474
  80  4684.353
  81  5603.381
  82  5421.483
  83  5241.366
  84  4979.706
  85  4986.049
  86  5237.663
  87  6187.098
  88  5153.067
  89  5289.725
  90  5594.021
  91  6619.055
  92  5105.35
  93  4961.845
  94  4593.908
  95  4702.278
  96  4416.224
  97  5021.208
  98  4880.563
  99  4634.241
 100  5489.147
 101  4433.116
 102  4965.281
 103  5171.797
 104  4327.491
 105  4646.037
 106  4634.071
 107  5263.351
 108  5224.045
 109  4509.626
 110  4027.159
 111  4726.593
 112  6474.563
 113  5349.245
 114  4991.011
 115  5231.069
 116  5541.083
 117  4733.296
 118  4990.157
 119  5082.235
 120  4985.102
 121  4662.273
 122  4403.303
 123  5172.507
 124  5862.984
 125  4895.928
 126  4586.892
 127  4515.932
 128  5239.088
 129  5033.617
 130  4371.93
 131  5075.21
 132  5141.76
 133  5612.646
 134  5082.984
 135  4725.718
 136  5041.668
 137  5635.031
 138  5829.155
 139  5912.982
 140  5867.396
 141  4938.168
 142  4942.246
 143  4940.943
 144  5058.502
 145  4756.029
 146  4826.153
 147  5394.14
 148  5495.314
 149  6016.719
 150  5984.743
 151  5914.684
 152  5075.159
 153  4834.956
 154  4588.426
 155  4755.604
 156  4242.663
 157  5207.689
 158  4776.342
 159  4526.245
 160  4854.018
 161  6333.973
 162  6047.867
 163  6299.46
 164  7276.305
 165  7725.563
 166  6046.235
 167  5203.083
 168  5121.911
 169  5333.74
 170  6552.245
 171  5581.222
 172  5835.321
 173  5919.024
 174  5269.334
 175  5580.013
 176  4794.56
 177  5241.126
 178  5374.369
 179  5286.062
 180  4884.279
 181  5132.336
 182  5833.77
 183  5584.821
 184  5086.541
 185  4626.76
 186  4195.363
 187  4366.975
 188  5354.042
 189  4552.539
 190  4691.784
 191  4578.757
 192  5275.146
 193  5820.915
 194  4812.912
 195  5080.562
 196  4687.648
 197  4751.542
 198  5388.996
 199  5101.932
 200  4699.191
 201  4361.536
 202  4727.398
 203  5556.432
 204  4886.316
 205  4971.384
 206  5179.541
 207  5527.056
 208  4741.908
 209  4414.492
 210  4797.358
 211  5305.459
 212  4534.766
 213  4710.877
 214  4738.181
 215  4904.933
 216  5437.067
 217  5198.422
 218  4853.441
 219  5271.071
 220  4972.928
 221  4881.453
 222  5043.417
 223  5488.153
 224  5328.993
 225  4668.36
 226  4862.384
 227  4808.868
 228  5090.686
 229  5664.82
 230  5436.104
 231  4986.069
 232  4772.753
 233  5044.757
 234  4437.719
 235  4387.731
 236  4823.018
 237  4720.678
 238  4088.723
 239  4225.827
 240  4807.933
 241  4679.375
 242  4837.97
 243  5352.411
 244  4880.669
 245  4575.848
 246  4692.758
 247  6031.182
 248  5700.2
 249  4498.419
 250  4761.835
 251  5229.213
 252  5870.816
 253  5064.826
 254  4893.336
 255  4998.76
