# Input file       =  1179130528.109754_cleaned.dat
# Candidate        =  PSR_0332+5434
# Telescope        =  AR
# Epoch_topo       =  57891.344295251780
# Epoch_bary       =  N/A
# T_sample         =  0.002
# Data Folded      =  7340032
# Data Avg         =  0.0250653309423408
# Data StdDev      =  1.00004614012718 
# Profile Bins     =  512
# Profile Avg      =  359.350527731758 
# Profile StdDev   =  119.738560874293 
# Reduced chi-sqr  =  1.165
# Prob(Noise)      <  0.00573   (~2.5 sigma)
# P_topo (ms)      =  714.530026410958  +/- 0.000438
# P'_topo (s/s)    =  -0                +/- 2.31e-10
# P''_topo (s/s^2) =  0                 +/- 1.02e-13
# P_bary (ms)      =  N/A
# P'_bary (s/s)    =  N/A
# P''_bary (s/s^2) =  N/A
# P_orb (s)        =  N/A
# asin(i)/c (s)    =  N/A
# eccentricity     =  N/A
# w (rad)          =  N/A
# T_peri           =  N/A
######################################################
   0  937.2831
   1  788.0973
   2  612.4391
   3  496.07
   4  487.3358
   5  381.0115
   6  315.7631
   7  398.5136
   8  244.4378
   9  378.7752
  10  437.8395
  11  365.2585
  12  378.8059
  13  395.5177
  14  385.0702
  15  471.5506
  16  444.2044
  17  242.6823
  18  286.0976
  19  229.3091
  20  334.1435
  21  313.4131
  22  284.7994
  23  273.029
  24  344.8325
  25  200.3642
  26  264.8314
  27  328.0054
  28  320.01
  29  269.2805
  30  437.0712
  31  434.4092
  32  387.3505
  33  345.9724
  34  453.5989
  35  460.704
  36  486.3124
  37  421.8831
  38  259.4759
  39  311.8697
  40  332.0676
  41  421.6624
  42  352.6896
  43  365.5271
  44  509.9843
  45  350.1967
  46  371.4644
  47  458.8203
  48  435.2823
  49  432.3516
  50  317.8304
  51  417.7616
  52  366.8172
  53  405.9569
  54  396.6701
  55  302.2987
  56  363.367
  57  414.7331
  58  386.4862
  59  479.227
  60  414.9325
  61  348.0179
  62  335.1688
  63  389.8136
  64  404.4922
  65  458.26
  66  415.1332
  67  431.7651
  68  421.2323
  69  329.9789
  70  536.1689
  71  601.0358
  72  502.475
  73  442.2042
  74  368.9137
  75  486.8592
  76  403.5413
  77  325.7458
  78  392.6962
  79  423.2161
  80  438.8486
  81  354.3122
  82  345.9027
  83  381.2229
  84  516.3008
  85  490.0979
  86  430.3679
  87  512.3723
  88  505.7975
  89  442.6782
  90  462.928
  91  428.2084
  92  405.4543
  93  443.2901
  94  519.0983
  95  426.2978
  96  414.8813
  97  477.8431
  98  366.0918
  99  347.1355
 100  417.175
 101  459.9373
 102  250.8427
 103  306.7191
 104  370.8867
 105  402.4512
 106  384.537
 107  420.4153
 108  360.6763
 109  370.55
 110  261.0564
 111  258.1398
 112  291.8481
 113  162.9292
 114  230.9079
 115  357.2989
 116  402.07
 117  271.2175
 118  421.752
 119  425.8445
 120  389.9765
 121  317.6303
 122  336.6349
 123  296.3727
 124  195.0108
 125  344.0245
 126  312.4922
 127  183.6462
 128  298.6499
 129  340.5635
 130  393.8347
 131  361.1721
 132  404.1304
 133  368.4182
 134  260.3372
 135  275.4377
 136  274.4209
 137  276.0189
 138  276.4398
 139  371.3291
 140  408.0308
 141  411.0001
 142  326.7693
 143  306.3674
 144  317.1956
 145  388.2457
 146  328.1784
 147  266.8745
 148  232.8618
 149  283.1017
 150  364.272
 151  422.7987
 152  301.8317
 153  328.1522
 154  322.5537
 155  353.7802
 156  337.4047
 157  237.9536
 158  240.6534
 159  319.3628
 160  388.2707
 161  422.7948
 162  256.5885
 163  270.1759
 164  352.4188
 165  431.3577
 166  410.0594
 167  298.5963
 168  330.6343
 169  437.4014
 170  392.6773
 171  433.0114
 172  376.5356
 173  360.8738
 174  413.3222
 175  436.9679
 176  455.0573
 177  339.6052
 178  451.5918
 179  438.5169
 180  411.8559
 181  215.8941
 182  231.937
 183  379.6719
 184  339.116
 185  377.2045
 186  383.7743
 187  379.5355
 188  434.1382
 189  403.3093
 190  382.1055
 191  449.8027
 192  414.8474
 193  366.9127
 194  196.2554
 195  313.5868
 196  328.7118
 197  304.8672
 198  302.5731
 199  342.6938
 200  225.2299
 201  193.5735
 202  228.8699
 203  413.6057
 204  219.3389
 205  64.73618
 206  199.8421
 207  411.8381
 208  355.7461
 209  347.2916
 210  321.4854
 211  272.8527
 212  301.4988
 213  331.8049
 214  275.2631
 215  316.6562
 216  370.7506
 217  348.2474
 218  225.7812
 219  292.2039
 220  338.584
 221  306.4537
 222  222.5871
 223  315.3239
 224  378.9767
 225  323.1699
 226  339.503
 227  303.1672
 228  177.7455
 229  306.3108
 230  388.6479
 231  393.3474
 232  291.8721
 233  360.5562
 234  333.8398
 235  322.7987
 236  295.6429
 237  352.5623
 238  381.8679
 239  380.5395
 240  313.15
 241  367.6395
 242  507.0391
 243  414.4232
 244  459.4256
 245  449.1659
 246  302.6355
 247  347.7983
 248  414.3137
 249  387.6949
 250  271.4977
 251  350.2348
 252  320.8866
 253  254.522
 254  291.2095
 255  259.3706
 256  285.3668
 257  255.4157
 258  297.8127
 259  274.1216
 260  189.7105
 261  136.1305
 262  317.1742
 263  380.6144
 264  276.9434
 265  368.7287
 266  378.5587
 267  266.7679
 268  402.8419
 269  344.0875
 270  310.4531
 271  324.5804
 272  357.0726
 273  356.9581
 274  346.4346
 275  308.4426
 276  315.6593
 277  294.5649
 278  202.1703
 279  205.6667
 280  280.1156
 281  255.8316
 282  303.0695
 283  403.246
 284  317.4895
 285  412.0215
 286  281.6073
 287  321.8777
 288  267.7326
 289  260.6329
 290  345.7989
 291  241.922
 292  248.5824
 293  222.122
 294  238.1689
 295  321.5113
 296  373.4512
 297  371.0202
 298  384.6398
 299  391.7375
 300  323.4003
 301  335.4038
 302  395.4804
 303  427.9709
 304  374.3875
 305  361.8543
 306  371.7034
 307  405.4268
 308  524.3493
 309  452.8846
 310  387.6068
 311  395.662
 312  344.9823
 313  394.0431
 314  382.0829
 315  351.9753
 316  423.7242
 317  362.6797
 318  430.9818
 319  351.1072
 320  379.981
 321  533.1264
 322  542.3057
 323  415.5007
 324  391.213
 325  369.0897
 326  398.3217
 327  530.5251
 328  457.3322
 329  441.8903
 330  431.3734
 331  423.7603
 332  432.2458
 333  359.6919
 334  384.3155
 335  298.1292
 336  454.9107
 337  455.2223
 338  436.2425
 339  385.1886
 340  410.016
 341  321.6001
 342  305.4895
 343  371.4145
 344  278.1345
 345  318.8343
 346  306.6468
 347  192.1099
 348  250.7281
 349  340.7778
 350  253.9818
 351  286.3858
 352  496.3774
 353  490.8379
 354  454.6255
 355  352.5044
 356  300.2186
 357  363.3428
 358  445.8817
 359  404.2896
 360  449.4045
 361  522.4217
 362  400.5982
 363  312.5779
 364  258.3164
 365  352.6605
 366  405.404
 367  350.3341
 368  273.3225
 369  272.3916
 370  402.3362
 371  398.2389
 372  351.7998
 373  405.2869
 374  344.9042
 375  371.003
 376  375.7002
 377  368.8354
 378  419.8743
 379  443.8755
 380  499.9202
 381  414.4413
 382  324.6329
 383  326.9242
 384  412.159
 385  451.5797
 386  194.2932
 387  270.5901
 388  317.2629
 389  435.0415
 390  440.7094
 391  264.6366
 392  374.4788
 393  413.1105
 394  337.102
 395  288.6124
 396  309.1505
 397  471.8004
 398  372.6344
 399  352.4885
 400  381.3213
 401  372.0957
 402  387.9428
 403  474.9423
 404  384.0768
 405  366.1472
 406  418.809
 407  489.9419
 408  525.8485
 409  417.057
 410  274.4754
 411  270.2321
 412  490.1793
 413  541.4342
 414  337.2512
 415  244.3443
 416  406.2477
 417  450.7739
 418  438.5659
 419  306.3355
 420  310.9917
 421  396.5674
 422  370.9248
 423  347.1505
 424  331.3402
 425  364.8065
 426  284.1906
 427  292.33
 428  210.0615
 429  213.6565
 430  286.1778
 431  395.0104
 432  337.0061
 433  318.9557
 434  372.6132
 435  460.2507
 436  395.6803
 437  219.1953
 438  290.6245
 439  376.5492
 440  268.2448
 441  248.9036
 442  369.8076
 443  289.7948
 444  339.8267
 445  391.6011
 446  426.806
 447  332.955
 448  350.3044
 449  245.4234
 450  318.5374
 451  396.8307
 452  369.6665
 453  395.9354
 454  325.2483
 455  270.6558
 456  204.5973
 457  188.4993
 458  262.682
 459  162.6708
 460  240.5603
 461  292.7481
 462  207.7881
 463  330.8526
 464  380.5874
 465  178.2383
 466  276.085
 467  355.2043
 468  327.4426
 469  345.1962
 470  228.6348
 471  209.5102
 472  158.4208
 473  176.7808
 474  290.5305
 475  386.8312
 476  266.9371
 477  388.3443
 478  316.8811
 479  265.8358
 480  323.1964
 481  317.9095
 482  322.4458
 483  259.7488
 484  351.3489
 485  368.0015
 486  393.9031
 487  314.8019
 488  333.7101
 489  406.7793
 490  323.0066
 491  337.2922
 492  379.8393
 493  605.4913
 494  494.2516
 495  424.3675
 496  241.8896
 497  304.1982
 498  227.109
 499  370.668
 500  403.2478
 501  429.2457
 502  383.2328
 503  351.8683
 504  465.6648
 505  395.2358
 506  358.0142
 507  543.1549
 508  570.6248
 509  620.2858
 510  796.8767
 511  956.6292
