# Input file       =  1179546704.108974_cleaned.dat
# Candidate        =  PSR_0332+5434
# Telescope        =  AR
# Epoch_topo       =  57896.161147094608
# Epoch_bary       =  N/A
# T_sample         =  0.002
# Data Folded      =  7208960
# Data Avg         =  0.283444274229591
# Data StdDev      =  6.99698342335579 
# Profile Bins     =  512
# Profile Avg      =  3991.10308805175 
# Profile StdDev   =  830.256286056395 
# Reduced chi-sqr  =  0.868
# Prob(Noise)      <  0.986   (~0.0 sigma)
# P_topo (ms)      =  714.525287059587  +/- 3.78e-05
# P'_topo (s/s)    =  -0                +/- 2.03e-11
# P''_topo (s/s^2) =  0                 +/- 9.12e-15
# P_bary (ms)      =  N/A
# P'_bary (s/s)    =  N/A
# P''_bary (s/s^2) =  N/A
# P_orb (s)        =  N/A
# asin(i)/c (s)    =  N/A
# eccentricity     =  N/A
# w (rad)          =  N/A
# T_peri           =  N/A
######################################################
   0  4090.796
   1  5201.975
   2  4462.959
   3  3907.731
   4  3513.636
   5  3226.216
   6  3661.14
   7  3480.283
   8  3374.71
   9  3920.653
  10  4336.313
  11  3938.919
  12  3262.359
  13  3460.502
  14  3788.006
  15  3961.481
  16  3892.824
  17  4536.541
  18  4911.133
  19  4395.356
  20  3534.301
  21  3109.983
  22  3532.697
  23  3739.921
  24  3158.858
  25  3392.35
  26  4424.641
  27  4088.622
  28  3230.528
  29  2791.196
  30  3827.13
  31  4051.426
  32  3917.977
  33  4391.961
  34  5032.608
  35  4579.322
  36  3690.217
  37  3322.781
  38  3713.353
  39  3551.75
  40  3403.913
  41  3095.708
  42  3211.925
  43  3801.27
  44  3252.137
  45  3591.486
  46  3896.386
  47  4055.756
  48  3552.84
  49  3781.384
  50  4235.486
  51  4050.015
  52  3987.045
  53  3220.941
  54  3230.049
  55  3950.61
  56  3749.833
  57  3944.876
  58  3894.573
  59  4200.793
  60  3645.49
  61  3228.328
  62  3708.375
  63  4284.356
  64  4472.116
  65  4342.296
  66  4612.494
  67  4565.474
  68  3956.044
  69  3427.255
  70  3361.321
  71  3355.363
  72  3570.375
  73  3852.6
  74  4096.93
  75  4355.82
  76  4114.418
  77  3701.158
  78  3083.475
  79  3185.843
  80  3944.301
  81  4200.655
  82  4696.771
  83  4487.979
  84  4835.741
  85  4076.26
  86  2966.076
  87  2687.128
  88  3114.699
  89  3458.739
  90  3591.963
  91  3987.681
  92  4377.087
  93  4234.855
  94  3230.888
  95  3017.104
  96  3400.686
  97  3406.712
  98  3900.446
  99  4282.688
 100  5093.046
 101  5026.169
 102  4505.019
 103  3548.4
 104  3294.412
 105  3562.325
 106  3676
 107  3291.353
 108  3931.738
 109  4225.398
 110  3949.326
 111  3404.276
 112  3587.247
 113  3996.44
 114  3717.523
 115  3563.257
 116  4350.942
 117  5225.85
 118  4275.795
 119  3458.603
 120  3268.234
 121  3845.616
 122  4069.584
 123  3379.915
 124  3822.088
 125  4138.074
 126  4133.9
 127  3233.902
 128  3164.661
 129  4131.424
 130  4300.62
 131  4256.897
 132  4248.527
 133  5012.668
 134  4599.417
 135  4065.619
 136  3564.034
 137  3249.292
 138  3947.745
 139  3925.143
 140  3833.363
 141  3489.561
 142  4040.894
 143  3674.979
 144  3541.269
 145  3691.008
 146  4217.869
 147  4517.967
 148  4299.175
 149  4993.078
 150  4596.331
 151  3991.616
 152  3329.418
 153  3459.088
 154  3985.427
 155  4018.432
 156  4025.44
 157  3891.055
 158  4573.82
 159  3693.967
 160  3175.205
 161  2898.402
 162  3357.235
 163  3921.587
 164  3931.584
 165  4849.457
 166  5399.745
 167  5435.412
 168  3900.002
 169  2950.373
 170  3061.755
 171  3108.986
 172  3141.047
 173  3757.086
 174  4491.907
 175  4840.862
 176  4159.843
 177  3379.489
 178  3923.194
 179  3775.45
 180  3867.795
 181  4542.141
 182  4895.459
 183  5158.864
 184  5071.227
 185  3960.289
 186  3498.438
 187  3794.613
 188  4094.322
 189  3120.891
 190  3767.47
 191  4325.902
 192  3915.196
 193  3665.067
 194  3581.224
 195  4293.328
 196  4227.574
 197  4011.222
 198  4443.697
 199  5052.45
 200  5221.686
 201  4358.239
 202  3673.681
 203  3360.735
 204  3507.976
 205  3745.516
 206  3554.341
 207  4001.488
 208  4058.435
 209  3458.149
 210  3046.833
 211  3737.126
 212  4270.08
 213  3886.676
 214  4279.236
 215  4381.16
 216  4517.082
 217  4494.266
 218  3741.22
 219  3179.727
 220  3648.405
 221  3743.205
 222  3354.014
 223  3689.36
 224  4024.575
 225  4024.085
 226  3144.704
 227  3379.609
 228  3655.23
 229  4071.463
 230  4057.952
 231  4108.522
 232  5248.323
 233  4932.632
 234  4072.095
 235  3568.614
 236  3292.881
 237  3944.885
 238  3832.528
 239  4227.697
 240  4666.152
 241  4442.452
 242  3466.64
 243  3333.475
 244  3170.81
 245  3625.289
 246  3991.812
 247  4381.79
 248  5081.993
 249  5328.098
 250  4824.606
 251  4049.395
 252  3156.152
 253  3662.417
 254  3795.54
 255  3261.599
 256  3168.617
 257  4009.159
 258  4259.291
 259  3791.817
 260  3257.133
 261  3635.54
 262  4261.527
 263  3624.871
 264  4503.721
 265  5175.077
 266  5369.199
 267  4507.95
 268  3827.677
 269  3798.788
 270  3855.409
 271  3820.305
 272  3636.977
 273  4039.645
 274  4482.592
 275  3997.644
 276  3844.741
 277  4331.324
 278  4451.535
 279  4292.328
 280  4043.62
 281  4585.819
 282  5082.887
 283  4945.895
 284  4345.408
 285  3883.264
 286  3992.517
 287  3718.611
 288  3510.334
 289  3385.889
 290  3854.014
 291  4295.097
 292  3915.776
 293  3655.32
 294  4080.156
 295  4155.582
 296  4129.591
 297  4133.542
 298  4466.326
 299  4882.348
 300  3980.941
 301  3512.319
 302  3290.527
 303  3774.957
 304  3926.218
 305  3661.862
 306  4441.296
 307  4295.759
 308  4353.673
 309  3528.28
 310  3561.526
 311  4415.424
 312  4672.094
 313  4975.972
 314  4850.541
 315  5362.921
 316  4470.657
 317  3866.962
 318  3547.241
 319  3682.467
 320  3783.592
 321  3669.876
 322  3991.576
 323  4426.944
 324  4637.539
 325  3590.247
 326  3117.121
 327  3685.792
 328  4420.371
 329  4172.148
 330  4259.75
 331  5051.712
 332  4631.506
 333  3814.57
 334  2981.17
 335  3208.045
 336  3986.898
 337  3514.29
 338  4207.661
 339  4241.413
 340  4459.016
 341  3946.123
 342  3656.348
 343  3581.35
 344  3707.004
 345  4229.458
 346  4400.305
 347  4923.346
 348  5400.118
 349  4997.255
 350  4361.268
 351  3447.779
 352  3879.165
 353  4405.414
 354  3986.532
 355  4241.253
 356  4601.759
 357  4821.13
 358  4388.857
 359  4105.317
 360  4503.917
 361  4321.331
 362  4086.38
 363  4537.946
 364  4842
 365  4789.885
 366  4503.524
 367  4022.471
 368  4477.924
 369  4294.254
 370  4131.274
 371  3441.826
 372  3819.792
 373  4496.859
 374  3980.054
 375  4085.457
 376  3860.576
 377  4132.975
 378  4231.707
 379  3958.32
 380  4366.342
 381  4418.922
 382  4990.77
 383  3581.609
 384  3346.206
 385  3512.838
 386  3643.461
 387  4333.665
 388  3508.636
 389  4334.201
 390  4280.979
 391  3853.33
 392  3694.042
 393  4136.16
 394  4649.878
 395  4493.291
 396  4324.503
 397  4865.978
 398  5503.164
 399  4204.502
 400  3459.012
 401  3615.555
 402  4547.634
 403  4393.342
 404  3521.08
 405  4276.975
 406  4481.035
 407  3950.941
 408  3665.12
 409  3918.412
 410  4392.148
 411  4461.062
 412  5070.958
 413  4888.328
 414  5587.695
 415  4652.561
 416  3815.174
 417  3321.332
 418  2869.906
 419  3915.608
 420  4087.092
 421  3869.653
 422  4463.662
 423  4194.147
 424  3639.575
 425  3318.745
 426  2998.683
 427  3817.359
 428  4149.387
 429  4493.534
 430  4849.505
 431  5204.161
 432  4559.466
 433  3887.649
 434  3819.095
 435  3749.434
 436  3538.348
 437  3093.669
 438  3734.747
 439  5176.403
 440  4540.598
 441  4068.155
 442  4182.047
 443  5284.166
 444  5541.755
 445  5006.247
 446  5601.075
 447  5583.404
 448  4523.464
 449  4024.729
 450  3425.408
 451  3775.778
 452  4049.554
 453  4038.552
 454  3910.241
 455  3923.348
 456  3918.801
 457  3590.752
 458  3213.108
 459  4126.895
 460  4351.361
 461  4253.897
 462  3954.238
 463  4192.18
 464  4800.672
 465  4166.21
 466  3661.991
 467  3323.64
 468  3612.255
 469  3494.666
 470  3195.486
 471  3692.94
 472  3968.803
 473  3850.258
 474  3483.945
 475  3113.527
 476  4134.13
 477  3850.707
 478  4037.512
 479  4359.315
 480  4329.672
 481  4332.539
 482  3453.362
 483  3149.418
 484  3433.315
 485  3445.929
 486  3472.965
 487  3335.361
 488  3440.38
 489  3403.762
 490  3202.612
 491  3211.42
 492  3661.928
 493  3859.83
 494  4110.293
 495  4458.227
 496  4243.178
 497  4846.994
 498  4086.81
 499  3650.069
 500  3596.621
 501  3616.833
 502  3567.572
 503  3725.312
 504  3801.784
 505  4462.977
 506  4151.824
 507  2737.731
 508  3122.076
 509  3555.127
 510  3364.311
 511  3959.231
