# Input file       =  1179389028.098606-PSRB0329-2ms-sampling-dd.dat
# Candidate        =  PSR_0332+5434
# Telescope        =  AR
# Epoch_topo       =  57894.336193270901
# Epoch_bary       =  N/A
# T_sample         =  0.002
# Data Folded      =  7340032
# Data Avg         =  1.25851325003127e-10
# Data StdDev      =  3.908441038768   
# Profile Bins     =  512
# Profile Avg      =  0.291068263348869
# Profile StdDev   =  467.969513071254 
# Reduced chi-sqr  =  0.716
# Prob(Noise)      <  1   (~0.0 sigma)
# P_topo (ms)      =  714.527096223414  +/- 0.000951
# P'_topo (s/s)    =  -0                +/- 5.02e-10
# P''_topo (s/s^2) =  0                 +/- 2.22e-13
# P_bary (ms)      =  N/A
# P'_bary (s/s)    =  N/A
# P''_bary (s/s^2) =  N/A
# P_orb (s)        =  N/A
# asin(i)/c (s)    =  N/A
# eccentricity     =  N/A
# w (rad)          =  N/A
# T_peri           =  N/A
######################################################
   0  10.46642
   1  272.3554
   2  -179.7373
   3  -556.5466
   4  -528.8026
   5  -282.5923
   6  -235.4856
   7  20.97714
   8  -0.6239504
   9  -130.0435
  10  -95.16002
  11  -377.2511
  12  -182.919
  13  -145.717
  14  -555.1268
  15  -624.1613
  16  -367.7836
  17  4.817604
  18  -345.5077
  19  -426.9807
  20  -723.3097
  21  -551.193
  22  -227.0601
  23  -282.8304
  24  -333.0789
  25  -281.0378
  26  -59.13894
  27  -60.04525
  28  -292.5895
  29  -324.3366
  30  -447.3167
  31  -435.1035
  32  -459.6875
  33  -287.0103
  34  -297.2029
  35  -173.7487
  36  -33.25965
  37  46.0185
  38  -96.11839
  39  -235.2729
  40  207.3438
  41  28.55216
  42  -79.01772
  43  -66.70909
  44  -258.7387
  45  -214.136
  46  -228.5236
  47  -212.7037
  48  -175.4348
  49  -160.1228
  50  -351.8879
  51  -210.009
  52  -297.7147
  53  -355.1186
  54  31.35764
  55  0.6280493
  56  -406.6057
  57  -323.3238
  58  -144.2578
  59  -290.3848
  60  -155.3527
  61  -361.7738
  62  -363.81
  63  -281.4232
  64  59.27146
  65  -14.02499
  66  -353.4872
  67  -466.7097
  68  -290.8026
  69  -54.30125
  70  340.3789
  71  266.1232
  72  227.0773
  73  93.96809
  74  -238.4387
  75  62.77985
  76  21.19487
  77  165.5001
  78  251.1239
  79  283.6752
  80  217.125
  81  -92.21236
  82  -109.5699
  83  169.4552
  84  206.7264
  85  364.576
  86  291.4857
  87  -0.7536757
  88  58.78695
  89  -356.9964
  90  -507.8099
  91  -375.3691
  92  -26.0273
  93  59.71291
  94  221.3986
  95  511.7073
  96  156.4445
  97  69.76501
  98  -230.5254
  99  -195.6057
 100  -53.73243
 101  224.6064
 102  -178.3215
 103  -164.446
 104  -163.6756
 105  -296.5407
 106  233.5219
 107  507.8659
 108  589.508
 109  435.6173
 110  488.7914
 111  436.7388
 112  221.1082
 113  145.9762
 114  335.4752
 115  86.1737
 116  -215.7639
 117  -136.6864
 118  -10.03294
 119  207.9571
 120  496.2215
 121  176.5515
 122  109.6242
 123  64.04061
 124  110.1904
 125  16.64585
 126  167.1869
 127  337.1865
 128  573.223
 129  -76.68946
 130  -112.8605
 131  256.1251
 132  347.3676
 133  265.622
 134  107.7232
 135  172.6908
 136  176.6172
 137  85.67643
 138  286.3207
 139  83.39628
 140  172.3041
 141  186.4519
 142  126.3707
 143  159.8005
 144  -11.72723
 145  -49.77811
 146  74.58541
 147  182.456
 148  -37.49685
 149  71.76872
 150  335.8405
 151  -56.13297
 152  90.47722
 153  271.3282
 154  500.9673
 155  162.1548
 156  -68.55629
 157  -198.9491
 158  429.8684
 159  279.7591
 160  212.4277
 161  242.5668
 162  414.2747
 163  234.3153
 164  21.93171
 165  87.75588
 166  359.1131
 167  166.5624
 168  286.6261
 169  299.0735
 170  344.9251
 171  26.10907
 172  3.267617
 173  327.6622
 174  -75.76221
 175  -287.663
 176  12.25163
 177  51.3435
 178  -243.8326
 179  -279.3184
 180  244.0328
 181  -58.87112
 182  -240.7831
 183  -124.3159
 184  -401.5841
 185  -74.90103
 186  -15.2543
 187  -102.4381
 188  -295.9597
 189  -48.79409
 190  -22.27338
 191  -192.9789
 192  -284.8027
 193  -65.76156
 194  -108.9312
 195  114.3198
 196  -6.4595
 197  -161.3324
 198  -385.0386
 199  -203.6262
 200  -122.155
 201  -365.9731
 202  -500.7428
 203  -669.5065
 204  -327.6134
 205  -384.5284
 206  272.0959
 207  56.56111
 208  -244.6029
 209  -403.5776
 210  -231.8915
 211  -304.7106
 212  305.126
 213  172.0457
 214  81.89016
 215  -16.64616
 216  -322.0876
 217  -233.7965
 218  -95.37611
 219  64.66356
 220  -74.35249
 221  -71.81478
 222  104.0604
 223  -68.42403
 224  -180.0099
 225  -385.1297
 226  -446.2409
 227  -154.319
 228  -49.25441
 229  -226.0861
 230  -216.4931
 231  -0.6705606
 232  124.4659
 233  173.2896
 234  -180.499
 235  -303.1705
 236  -201.4914
 237  -417.9503
 238  -80.22186
 239  -1.531847
 240  -365.0792
 241  -501.3867
 242  -230.7077
 243  -113.6733
 244  37.69065
 245  -103.5204
 246  -97.22488
 247  -12.59688
 248  -256.7293
 249  -88.37904
 250  -320.5623
 251  -41.66783
 252  -256.3854
 253  -2.427147
 254  179.3345
 255  73.12438
 256  -128.7023
 257  -130.6608
 258  -122.3477
 259  -128.9499
 260  -272.4492
 261  25.95442
 262  20.32948
 263  -77.18303
 264  -362.0911
 265  -270.8007
 266  -127.2962
 267  -121.614
 268  -163.9
 269  45.10563
 270  169.0151
 271  -0.231516
 272  35.71615
 273  96.336
 274  -25.31985
 275  -93.11719
 276  -25.84176
 277  194.374
 278  241.6711
 279  167.7093
 280  52.22817
 281  -133.6414
 282  -130.6181
 283  -400.0367
 284  -69.4037
 285  196.1305
 286  81.13212
 287  497.858
 288  234.5915
 289  3.176544
 290  -323.6395
 291  -109.3238
 292  -294.4271
 293  -94.00038
 294  359.299
 295  224.9388
 296  138.4704
 297  -88.97324
 298  -253.9396
 299  -172.141
 300  -247.2429
 301  12.87488
 302  -4.496536
 303  -7.103077
 304  90.56558
 305  162.907
 306  104.3509
 307  66.10815
 308  -117.4019
 309  -337.7921
 310  -360.809
 311  -435.4183
 312  -285.7682
 313  18.61817
 314  261.1123
 315  89.70641
 316  -254.6983
 317  -174.653
 318  -187.2731
 319  212.0289
 320  -30.13218
 321  -66.56427
 322  127.1321
 323  538.553
 324  -205.4862
 325  -347.7213
 326  77.19075
 327  213.3327
 328  81.94022
 329  -40.64083
 330  -54.72018
 331  -53.02478
 332  146.5383
 333  264.872
 334  395.9788
 335  71.85763
 336  -58.57468
 337  304.4176
 338  149.5584
 339  268.7537
 340  273.153
 341  581.7972
 342  472.0988
 343  207.0125
 344  465.9752
 345  238.5041
 346  514.1157
 347  359.6382
 348  349.2544
 349  369.8007
 350  535.6465
 351  224.9235
 352  246.8771
 353  210.5092
 354  349.4054
 355  152.285
 356  353.535
 357  96.19008
 358  70.08871
 359  57.08239
 360  250.2972
 361  717.9985
 362  563.6841
 363  207.5802
 364  -27.88855
 365  79.78429
 366  -112.4734
 367  -292.6287
 368  -111.6455
 369  -226.9797
 370  -111.1891
 371  -186.6779
 372  22.91425
 373  -6.841117
 374  210.4802
 375  120.6624
 376  60.2575
 377  -113.3169
 378  61.4405
 379  163.0751
 380  477.4452
 381  315.3315
 382  229.6897
 383  167.1989
 384  96.7924
 385  -27.72334
 386  415.8468
 387  501.4738
 388  332.8735
 389  166.0239
 390  -145.2403
 391  2.402852
 392  -319.9389
 393  207.5154
 394  317.6627
 395  169.2791
 396  244.9041
 397  460.6985
 398  -37.3976
 399  -275.1625
 400  -316.4789
 401  -105.745
 402  159.7452
 403  60.63852
 404  41.57933
 405  -255.9371
 406  -346.9969
 407  85.64783
 408  110.1901
 409  -47.69872
 410  -250.4695
 411  -164.4625
 412  1.912544
 413  -231.4278
 414  -577.4081
 415  -224.5249
 416  62.07444
 417  -62.76484
 418  221.9421
 419  241.256
 420  27.23835
 421  348.5475
 422  304.5615
 423  554.8196
 424  507.2586
 425  309.7819
 426  -241.9772
 427  -281.7042
 428  10.74196
 429  401.9603
 430  77.5998
 431  -62.16754
 432  80.7635
 433  44.51715
 434  121.3822
 435  -97.30539
 436  140.379
 437  -134.9102
 438  -330.1352
 439  -222.3737
 440  -269.3318
 441  -208.9748
 442  104.8284
 443  235.8223
 444  5.222754
 445  -92.92185
 446  -63.04893
 447  445.6598
 448  733.2692
 449  655.8544
 450  1106.613
 451  1384.744
 452  1322.208
 453  1183.071
 454  1207.218
 455  1135.622
 456  636.0896
 457  -28.43314
 458  42.28848
 459  13.72666
 460  -23.67756
 461  -296.3005
 462  95.74512
 463  440.5779
 464  279.7594
 465  73.93804
 466  -94.96259
 467  79.86731
 468  5.116632
 469  301.468
 470  244.2487
 471  2.698623
 472  144.3221
 473  112.3269
 474  -66.35786
 475  -409.4703
 476  -105.5922
 477  -154.4956
 478  -184.3578
 479  -389.9449
 480  -279.1386
 481  -334.9477
 482  -218.157
 483  -299.8183
 484  -309.0775
 485  -168.9863
 486  -263.469
 487  -382.8267
 488  113.3277
 489  230.8411
 490  115.0819
 491  -112.5963
 492  -97.48615
 493  -145.0627
 494  -459.4465
 495  -8.500866
 496  -229.8331
 497  -229.9451
 498  -443.7151
 499  -515.1573
 500  -431.5529
 501  -372.2676
 502  -186.3464
 503  110.5791
 504  -23.6337
 505  -104.8359
 506  50.20503
 507  -19.85098
 508  -257.3566
 509  -266.5629
 510  -210.493
 511  50.36596
