# Input file       =  1179891925.097309_cleaned.dat
# Candidate        =  PSR_0332+5434
# Telescope        =  AR
# Epoch_topo       =  57900.156760385522
# Epoch_bary       =  N/A
# T_sample         =  0.002
# Data Folded      =  7208960
# Data Avg         =  0.17302980770103 
# Data StdDev      =  6.10978983392513 
# Profile Bins     =  512
# Profile Avg      =  2435.67401176427 
# Profile StdDev   =  724.982625965248 
# Reduced chi-sqr  =  0.468
# Prob(Noise)      <  1   (~0.0 sigma)
# P_topo (ms)      =  714.521329234712  +/- 0.000125
# P'_topo (s/s)    =  -0                +/- 6.73e-11
# P''_topo (s/s^2) =  0                 +/- 3.02e-14
# P_bary (ms)      =  N/A
# P'_bary (s/s)    =  N/A
# P''_bary (s/s^2) =  N/A
# P_orb (s)        =  N/A
# asin(i)/c (s)    =  N/A
# eccentricity     =  N/A
# w (rad)          =  N/A
# T_peri           =  N/A
######################################################
   0  2244.848
   1  2447.667
   2  2213.925
   3  2620.884
   4  2534.851
   5  2746.867
   6  2537.808
   7  2345.761
   8  2084.578
   9  2215.083
  10  2027.219
  11  1754.235
  12  1594.495
  13  1710.245
  14  2473.755
  15  2832.712
  16  2632.581
  17  2682.11
  18  2516.287
  19  2587.988
  20  2440.409
  21  2197.604
  22  2158.674
  23  2635.311
  24  2516.812
  25  2390.395
  26  2379.132
  27  2708.844
  28  2236.97
  29  2020.926
  30  2460.057
  31  3095.09
  32  3072.611
  33  2609.668
  34  2574.393
  35  2653.909
  36  2673.596
  37  2312.731
  38  2303.869
  39  2593.955
  40  2571.534
  41  2675.661
  42  2714.82
  43  2556.734
  44  2467.652
  45  2470.628
  46  2626.231
  47  2407.183
  48  2469.611
  49  2458.375
  50  2483.444
  51  2256.82
  52  2337.119
  53  2577.968
  54  2378.2
  55  2654.449
  56  2810.203
  57  2540.504
  58  2272.737
  59  2431.314
  60  2744.146
  61  2826.02
  62  2425.375
  63  2888.2
  64  2906.644
  65  2653.945
  66  2955.781
  67  2624.886
  68  2089.69
  69  1931.808
  70  2271.574
  71  2427.393
  72  2227.209
  73  2663.08
  74  3133.724
  75  2748.542
  76  2232.306
  77  2422.177
  78  2545.011
  79  2393.365
  80  2796.434
  81  3142.591
  82  2513.946
  83  2390.382
  84  2354.523
  85  2040.339
  86  2014.411
  87  2553.188
  88  2787.661
  89  2849.577
  90  2565.145
  91  1930.996
  92  1976.45
  93  2274.463
  94  2029.842
  95  2688.9
  96  3434.147
  97  2889.525
  98  2264.5
  99  2609.049
 100  1928.851
 101  2064.742
 102  2451.343
 103  3035.378
 104  2928.607
 105  2591.826
 106  2853.689
 107  2809.05
 108  2252.066
 109  2534.344
 110  2779.525
 111  2724.732
 112  3160.026
 113  3222.753
 114  3234.003
 115  2798.056
 116  2530.872
 117  2652.938
 118  2676.047
 119  2668.558
 120  3022.793
 121  3064.21
 122  3095.183
 123  2789.687
 124  2688.366
 125  2805.972
 126  2530.309
 127  2524.986
 128  2692.805
 129  2546.028
 130  2487.921
 131  2835.915
 132  2519.027
 133  2132.664
 134  2054.695
 135  2033.712
 136  2197.41
 137  2594.881
 138  2401.972
 139  2112.226
 140  2077.169
 141  1580.086
 142  1798.395
 143  1863.893
 144  2210.543
 145  2457.983
 146  2286.989
 147  2506.787
 148  2929.09
 149  2965.651
 150  2747.874
 151  2722.499
 152  2781.486
 153  2728.897
 154  2599.552
 155  2747.866
 156  2700.185
 157  2385.52
 158  2651.332
 159  2503.569
 160  3000.759
 161  2916.143
 162  2774.479
 163  3227.27
 164  3180.515
 165  2643.557
 166  2136.509
 167  2371.731
 168  1838.608
 169  2071.714
 170  2550.807
 171  3011.723
 172  2688.139
 173  2232.175
 174  2056.654
 175  2096.648
 176  2214.481
 177  2278.546
 178  2702.5
 179  3077.718
 180  2726.976
 181  2572.694
 182  2635.058
 183  1924.91
 184  2380.317
 185  2867.656
 186  2942.861
 187  2657.158
 188  2754.782
 189  2589.755
 190  2124.044
 191  1855.64
 192  2498.172
 193  2306.768
 194  2473.777
 195  2700.456
 196  2583.434
 197  2258.833
 198  2685.367
 199  2741.435
 200  2677.305
 201  2522.682
 202  2546.529
 203  2877.955
 204  2732.62
 205  2813.549
 206  3003.076
 207  3344.7
 208  3416.975
 209  3043.661
 210  3376.519
 211  3522.728
 212  3490.61
 213  3444.271
 214  3127.6
 215  2735.598
 216  2504.413
 217  2705.822
 218  2232.393
 219  2208.866
 220  2194.894
 221  2342.62
 222  2247.812
 223  2193.034
 224  2357.624
 225  2658.96
 226  2242.354
 227  2565.614
 228  2547.223
 229  2702.897
 230  2798.819
 231  2561.256
 232  2484.128
 233  2548.121
 234  2517.167
 235  3118.104
 236  3247.56
 237  2767.763
 238  2164.15
 239  2298.204
 240  2203.729
 241  2460.422
 242  2490.169
 243  2622.872
 244  2337.942
 245  2865.609
 246  3094.708
 247  2926.263
 248  2577.01
 249  2265.356
 250  2370.322
 251  1944.266
 252  1888.363
 253  2576.958
 254  2408.407
 255  2394.847
 256  1900.224
 257  2101.706
 258  1878.317
 259  2016.726
 260  1867.977
 261  2011.986
 262  2396.654
 263  2647.206
 264  2516.989
 265  2580.744
 266  2534.069
 267  1877.473
 268  2521.012
 269  2373.006
 270  2010.341
 271  2037.912
 272  2428.604
 273  2538.285
 274  2123.376
 275  2086.637
 276  1977.773
 277  2262.638
 278  2836.685
 279  2628.99
 280  2513.293
 281  2318.962
 282  2457.825
 283  2427.019
 284  2793.125
 285  2574.125
 286  2648.792
 287  2529.022
 288  2564.708
 289  2230.29
 290  2486.433
 291  2517.793
 292  2228.021
 293  2176.865
 294  2268.546
 295  2276.433
 296  2709.669
 297  2096.318
 298  2246.807
 299  2623.656
 300  3073.439
 301  2968.607
 302  3024.122
 303  2612.698
 304  2396.304
 305  2270.211
 306  2416.132
 307  2504.167
 308  2426.918
 309  2624.745
 310  2753.814
 311  2428.598
 312  2640.204
 313  2333.682
 314  2799.568
 315  2292.663
 316  2160.037
 317  2399.722
 318  2782.873
 319  2735.311
 320  2719.184
 321  3104.399
 322  2207.833
 323  1941.259
 324  2209.284
 325  2648.516
 326  2589.93
 327  2452.193
 328  2148.263
 329  2099.989
 330  2155.822
 331  2475.294
 332  2640.79
 333  2367.956
 334  2027.971
 335  1826.724
 336  2270.67
 337  2496.342
 338  1940.455
 339  2388.342
 340  2496.627
 341  2061.093
 342  2106.828
 343  2296.41
 344  2517.605
 345  2844.881
 346  2829.381
 347  2355.428
 348  2256.536
 349  1785.939
 350  1816.168
 351  1749.301
 352  1877.602
 353  2457.147
 354  2363.637
 355  1691.519
 356  1420.929
 357  1940.785
 358  1965.379
 359  1695.922
 360  2343.66
 361  2948.54
 362  2844.031
 363  2636.047
 364  2617.264
 365  2365.689
 366  2487.393
 367  2480.771
 368  2460.306
 369  2317.906
 370  2984.868
 371  3052.025
 372  2964.237
 373  2340.79
 374  2470.123
 375  2776.607
 376  2561.988
 377  2451.855
 378  2859.377
 379  2980.674
 380  2536.425
 381  2155.073
 382  2479.196
 383  2371.249
 384  2452.053
 385  2166.7
 386  2658.237
 387  3017.505
 388  2786.841
 389  2483.672
 390  2848.722
 391  2699.98
 392  2348.782
 393  2020.697
 394  2008.515
 395  2307.598
 396  2576.734
 397  2562.709
 398  1954.938
 399  1918.918
 400  1996.871
 401  2008.537
 402  2307.958
 403  2116.878
 404  2256.386
 405  2253.372
 406  1916.028
 407  2607.552
 408  2625.164
 409  2599.085
 410  2289.419
 411  2433.167
 412  2263.268
 413  2147.15
 414  2008.385
 415  2119.991
 416  1829.905
 417  1435.215
 418  2143.722
 419  1952.164
 420  1847.256
 421  1981.326
 422  2023.479
 423  1970.854
 424  1553.931
 425  1880.984
 426  1994.902
 427  2161.164
 428  2258.18
 429  2023.41
 430  1728.35
 431  2060.339
 432  2537.929
 433  2274.28
 434  1720.635
 435  2331.819
 436  2281.823
 437  2129.066
 438  1577.911
 439  2035.656
 440  2094.029
 441  1717.689
 442  1860.82
 443  2350.114
 444  2577.079
 445  2136.123
 446  2462.629
 447  2483.21
 448  2024.862
 449  2071.433
 450  2267.186
 451  2149.629
 452  2563.034
 453  2796.377
 454  2608.505
 455  2015.401
 456  2146.871
 457  2016.388
 458  2305.213
 459  2379.655
 460  2680.328
 461  3005.814
 462  2272.273
 463  1895.655
 464  2092.724
 465  2530.504
 466  2438.902
 467  1988.165
 468  2462.186
 469  2050.424
 470  1984.013
 471  2078.71
 472  2578.971
 473  2338.204
 474  1913.557
 475  1888.245
 476  2249.363
 477  2050.558
 478  2543.796
 479  2798.217
 480  2873.102
 481  2394.081
 482  2442.679
 483  2243.484
 484  2133.7
 485  1910.518
 486  2113.241
 487  1842.736
 488  2163.344
 489  2376.111
 490  2691.764
 491  2229.908
 492  1877.59
 493  2336.864
 494  2558.044
 495  2590.039
 496  2518.367
 497  2321.811
 498  2026.24
 499  2169.206
 500  2626.797
 501  2574.01
 502  2398.781
 503  2383.289
 504  2284.995
 505  2084.956
 506  2018.829
 507  2404.83
 508  2762.661
 509  2782.028
 510  2479.46
 511  2720.688
