# Input file       =  1179216699.106159-PSRB0329-2ms-sampling-dd.dat
# Candidate        =  PSR_0332+5434
# Telescope        =  AR
# Epoch_topo       =  57892.341644747212
# Epoch_bary       =  N/A
# T_sample         =  0.002
# Data Folded      =  7340032
# Data Avg         =  -9.15091747432927e-10
# Data StdDev      =  21.393657226401  
# Profile Bins     =  512
# Profile Avg      =  0.0169702941509352
# Profile StdDev   =  2561.52753892074 
# Reduced chi-sqr  =  1.420
# Prob(Noise)      <  1.21e-09   (~6.0 sigma)
# P_topo (ms)      =  714.529052719579  +/- 0.000252
# P'_topo (s/s)    =  -0                +/- 1.33e-10
# P''_topo (s/s^2) =  0                 +/- 5.87e-14
# P_bary (ms)      =  N/A
# P'_bary (s/s)    =  N/A
# P''_bary (s/s^2) =  N/A
# P_orb (s)        =  N/A
# asin(i)/c (s)    =  N/A
# eccentricity     =  N/A
# w (rad)          =  N/A
# T_peri           =  N/A
######################################################
   0  5267.272
   1  3654.46
   2  2155.285
   3  1665.696
   4  -241.3938
   5  -170.2275
   6  -210.8223
   7  -295.482
   8  -1407.864
   9  -1325.924
  10  -1144.803
  11  167.7704
  12  -204.1802
  13  -400.334
  14  -140.4163
  15  -1192.394
  16  -1736.008
  17  -1369.307
  18  -1359.408
  19  -1428.667
  20  -1218.112
  21  -1084.552
  22  -1324.194
  23  -1636.229
  24  -1393.836
  25  -1556.15
  26  -1658.108
  27  -1528.935
  28  -1493.7
  29  -1539.95
  30  -1443.576
  31  -1190.879
  32  -1214.368
  33  -1309.52
  34  -1784.024
  35  -1879.154
  36  -1628.126
  37  -1677.142
  38  -1584.626
  39  -1518.167
  40  -1273.413
  41  -1153.536
  42  -1139.243
  43  -1276.56
  44  -1645.93
  45  -1685.51
  46  -1401.314
  47  -1490.984
  48  -1374.107
  49  -1416.399
  50  -1281.364
  51  -1084.189
  52  -1282.195
  53  -1211.42
  54  -996.942
  55  -1123.061
  56  -328.4016
  57  -1121.715
  58  -1557.135
  59  509.0143
  60  1649.775
  61  2381.818
  62  2790.039
  63  1850.855
  64  970.4093
  65  -1738.59
  66  408.4628
  67  1310.125
  68  2006.507
  69  2184.646
  70  1042.971
  71  -377.0276
  72  -1193.865
  73  -1435.408
  74  -1337.289
  75  -1192.918
  76  -892.2329
  77  -992.1174
  78  -898.2726
  79  -481.9426
  80  -1150.097
  81  -1432.754
  82  -1179.049
  83  -840.9446
  84  -846.4047
  85  -766.7029
  86  -868.7388
  87  -1113.073
  88  -1059.245
  89  -974.5599
  90  -1310.712
  91  -1271.609
  92  -1233.817
  93  -1026.945
  94  -899.519
  95  -943.5724
  96  -868.6323
  97  -1017.019
  98  -1049.905
  99  -1286.34
 100  -1173.729
 101  -1059.939
 102  -900.272
 103  -776.4234
 104  -1103.132
 105  -1063.629
 106  -982.753
 107  -1117.543
 108  -1033.901
 109  -1041.255
 110  -967.3231
 111  -1066.754
 112  -961.2465
 113  -989.8847
 114  -1084.076
 115  -1363.161
 116  -1224.451
 117  -1342.62
 118  -1309.534
 119  -1141.697
 120  -945.0532
 121  -1122.701
 122  -1417.828
 123  -1397.638
 124  -1323.547
 125  -1102.283
 126  -1089.645
 127  -1246.71
 128  -1032.87
 129  -1103.475
 130  -1268.739
 131  -1501.344
 132  -1251.174
 133  -678.8033
 134  -680.8171
 135  -733.755
 136  -960.087
 137  -1136.221
 138  -1209.635
 139  -1045.364
 140  -941.2792
 141  -819.4152
 142  -735.2864
 143  -892.6728
 144  -1068.408
 145  -1391.248
 146  -927.1841
 147  -919.6011
 148  -1263.065
 149  -1487.127
 150  -1459.073
 151  -1285.633
 152  -1535.009
 153  -1430.681
 154  -1288.898
 155  -1122.708
 156  -1257.002
 157  -1528.128
 158  -1162.345
 159  -1064.651
 160  -1244.135
 161  -1045.194
 162  -699.4099
 163  -777.7867
 164  -882.4021
 165  -954.1182
 166  -1117.651
 167  -1291.361
 168  -1407.466
 169  -1163.789
 170  -858.7529
 171  -957.8802
 172  -831.6031
 173  352.311
 174  412.5121
 175  698.6189
 176  1186.922
 177  -160.0384
 178  -819.8081
 179  -67.42571
 180  558.6904
 181  690.584
 182  142.4503
 183  -447.5613
 184  -858.9576
 185  -1033.304
 186  -1088.598
 187  -1150.818
 188  -933.3373
 189  -1110.192
 190  -232.2185
 191  125.5141
 192  625.3776
 193  233.225
 194  -348.7657
 195  -420.0542
 196  -482.208
 197  -354.4894
 198  731.509
 199  1350.404
 200  1783.845
 201  1556.967
 202  1952.393
 203  1906.576
 204  -1372.432
 205  -407.091
 206  346.9685
 207  1670.855
 208  708.4904
 209  297.9813
 210  51.89934
 211  -1369.855
 212  -1201.867
 213  -1463.699
 214  -1141.729
 215  -1045.493
 216  -1122.365
 217  -957.0226
 218  -545.3212
 219  -924.1574
 220  -1257.861
 221  -978.077
 222  -472.6658
 223  -136.6772
 224  -60.28757
 225  -110.6444
 226  -527.4887
 227  -1463.268
 228  -432.5408
 229  390.1327
 230  1139.837
 231  819.3364
 232  59.79425
 233  -248.238
 234  -659.382
 235  -860.1974
 236  -951.2123
 237  -799.9655
 238  -875.4243
 239  -944.6251
 240  -917.2598
 241  -1722.256
 242  250.8248
 243  3437.433
 244  7005.289
 245  8690.666
 246  8620.036
 247  9758.482
 248  3330.936
 249  5601.49
 250  7289.619
 251  7620.485
 252  3666.904
 253  7259.551
 254  9563.814
 255  10948.1
 256  12353.64
 257  10862.19
 258  8936.626
 259  -2957.352
 260  4357.574
 261  9368.697
 262  11138.47
 263  8378.876
 264  5197.737
 265  557.0406
 266  -920.7674
 267  -913.7206
 268  -498.4805
 269  -795.5903
 270  -790.4834
 271  -416.5751
 272  -90.46762
 273  246.2376
 274  -78.16007
 275  177.8855
 276  638.8845
 277  128.0304
 278  -708.3079
 279  -1194.983
 280  -1020.463
 281  -693.2697
 282  -828.2712
 283  -672.4537
 284  -930.2504
 285  -788.6787
 286  -1083.342
 287  -1418.299
 288  -1124.728
 289  -870.3078
 290  -710.374
 291  -978.135
 292  -986.6297
 293  -1051.967
 294  -1101.007
 295  -1210.489
 296  -1014.768
 297  -1272.199
 298  -1188.319
 299  -1041.695
 300  -1282.683
 301  -1405.292
 302  -1150.963
 303  -1236.023
 304  -1287.817
 305  -1195.563
 306  -1659.657
 307  -1383.864
 308  -1360.764
 309  -1476.222
 310  669.4887
 311  1677.16
 312  2064.845
 313  3536
 314  1643.803
 315  -732.0421
 316  -173.1265
 317  2215.109
 318  3595.075
 319  3745.407
 320  3713.937
 321  2367.104
 322  -710.6097
 323  -775.6588
 324  -831.3641
 325  -789.7011
 326  -381.9465
 327  -275.1527
 328  -99.03283
 329  730.7565
 330  427.452
 331  508.9887
 332  240.4754
 333  -636.1121
 334  -373.8068
 335  951.7599
 336  693.6513
 337  667.773
 338  712.1791
 339  -301.037
 340  -697.9215
 341  -457.4396
 342  81.19367
 343  887.8217
 344  639.8549
 345  797.722
 346  206.0528
 347  -1834.928
 348  -281.6432
 349  570.1578
 350  1367.215
 351  984.4972
 352  506.8389
 353  -179.8549
 354  -1194.357
 355  -1244.499
 356  -958.9306
 357  -890.6387
 358  -1012.385
 359  -810.166
 360  -594.1862
 361  -192.1204
 362  63.78001
 363  295.5362
 364  -128
 365  -544.4171
 366  -548.2891
 367  378.5307
 368  188.2471
 369  188.8843
 370  78.66969
 371  -364.2812
 372  -776.5789
 373  -661.5269
 374  -955.0929
 375  -840.0693
 376  -936.476
 377  -711.7057
 378  -625.319
 379  -889.8005
 380  -1030.938
 381  -791.9151
 382  -609.7615
 383  -827.298
 384  -1057.495
 385  -1154.101
 386  -1190.266
 387  -1027.678
 388  -1089.687
 389  -1013.162
 390  -884.4388
 391  -611.0483
 392  2495.359
 393  3564.352
 394  6922.388
 395  5455.392
 396  3345.693
 397  3120.954
 398  -38.2591
 399  2375.642
 400  4480.797
 401  7699.184
 402  6243.893
 403  3230.308
 404  1308.256
 405  -849.7913
 406  -1528.401
 407  -594.7622
 408  -361.9054
 409  -257.154
 410  -54.59961
 411  204.4825
 412  -52.03236
 413  240.3948
 414  799.8974
 415  445.5279
 416  -114.877
 417  -447.6039
 418  638.2518
 419  77.18497
 420  -84.48558
 421  389.7987
 422  -312.4216
 423  -924.6703
 424  -1249.522
 425  -1030.87
 426  -753.0052
 427  -915.3713
 428  -915.9175
 429  -957.4117
 430  -679.9484
 431  -561.9124
 432  -824.8944
 433  -754.1874
 434  -667.3068
 435  -441.8133
 436  -633.5316
 437  -598.2077
 438  -432.4414
 439  -657.1723
 440  -902.3045
 441  -885.078
 442  -1039.296
 443  -759.5781
 444  -989.6052
 445  -1263.151
 446  -1447.34
 447  -1194.15
 448  -1167.279
 449  -1023.425
 450  -868.5963
 451  -1084.566
 452  -901.5255
 453  -1052.24
 454  -1364.611
 455  -1386.637
 456  -771.6988
 457  -496.9902
 458  112.3566
 459  -154.8758
 460  -45.58459
 461  -769.4913
 462  -1129.923
 463  -1060.958
 464  -322.6194
 465  380.197
 466  2267.692
 467  2716.128
 468  2563.279
 469  2566.022
 470  99.7559
 471  -1162.401
 472  500.9328
 473  2037.939
 474  2611.115
 475  2712.803
 476  1589.482
 477  87.28719
 478  -1526.699
 479  -1099.583
 480  -1392.625
 481  -1096.618
 482  -1397.029
 483  -1542.586
 484  -1479.027
 485  -1397.367
 486  -1270.517
 487  -1322.557
 488  -644.9331
 489  -880.7607
 490  -954.0657
 491  -1171.802
 492  -1282.44
 493  -1109.15
 494  -1204.984
 495  -1417.187
 496  -1365.885
 497  -1219.499
 498  -1183.771
 499  -1363.115
 500  -1684.069
 501  -1525.739
 502  -104.159
 503  1213.268
 504  4259.112
 505  7438.469
 506  7730.969
 507  5079.92
 508  3780.467
 509  801.1961
 510  3257.548
 511  3689.324
