# Input file       =  1179302869.09633_cleaned.dat
# Candidate        =  PSR_0332+5434
# Telescope        =  AR
# Epoch_topo       =  57893.338982596411
# Epoch_bary       =  N/A
# T_sample         =  0.002
# Data Folded      =  7340032
# Data Avg         =  0.0152509983209247
# Data StdDev      =  1.00009383364438 
# Profile Bins     =  512
# Profile Avg      =  218.639064822247 
# Profile StdDev   =  119.744271363922 
# Reduced chi-sqr  =  1.278
# Prob(Noise)      <  2.04e-05   (~4.1 sigma)
# P_topo (ms)      =  714.528075719742  +/- 0.000186
# P'_topo (s/s)    =  -0                +/- 9.82e-11
# P''_topo (s/s^2) =  0                 +/- 4.34e-14
# P_bary (ms)      =  N/A
# P'_bary (s/s)    =  N/A
# P''_bary (s/s^2) =  N/A
# P_orb (s)        =  N/A
# asin(i)/c (s)    =  N/A
# eccentricity     =  N/A
# w (rad)          =  N/A
# T_peri           =  N/A
######################################################
   0  213.0132
   1  161.5263
   2  263.2382
   3  252.9064
   4  113.7673
   5  99.63683
   6  189.9991
   7  324.4248
   8  177.7348
   9  208.657
  10  251.1642
  11  196.9662
  12  252.4928
  13  310.2476
  14  240.5987
  15  296.7273
  16  202.5005
  17  20.56806
  18  95.63601
  19  172.1146
  20  94.64867
  21  163.8853
  22  256.3217
  23  147.4263
  24  87.70976
  25  202.114
  26  335.6307
  27  224.0396
  28  341.4229
  29  331.0711
  30  301.0293
  31  256.2499
  32  110.2213
  33  275.0493
  34  321.3015
  35  214.1176
  36  155.2766
  37  259.3915
  38  320.2232
  39  289.8889
  40  184.1885
  41  71.86237
  42  211.2829
  43  147.3374
  44  196.9168
  45  227.2125
  46  316.0732
  47  206.3054
  48  219.007
  49  237.4021
  50  238.0448
  51  171.583
  52  202.3473
  53  114.0797
  54  159.2809
  55  254.6903
  56  259.5916
  57  262.1068
  58  269.6844
  59  310.2827
  60  301.4288
  61  239.9374
  62  334.8704
  63  355.0768
  64  211.2935
  65  101.3591
  66  170.9582
  67  259.7336
  68  255.5841
  69  240.3631
  70  201.5263
  71  291.7797
  72  356.2126
  73  104.191
  74  69.86411
  75  193.5066
  76  256.5349
  77  269.1233
  78  83.61742
  79  145.5064
  80  148.0243
  81  2.983947
  82  132.5649
  83  147.866
  84  145.5103
  85  318.1952
  86  228.8439
  87  116.7666
  88  147.8964
  89  72.15314
  90  149.7921
  91  247.9902
  92  142.9683
  93  228.3121
  94  263.9871
  95  348.7048
  96  250.2321
  97  70.39059
  98  222.6103
  99  275.079
 100  165.429
 101  204.6163
 102  193.3674
 103  221.4688
 104  230.3096
 105  229.673
 106  156.1028
 107  162.5724
 108  253.5798
 109  325.9045
 110  333.3303
 111  213.736
 112  155.085
 113  223.9067
 114  244.5158
 115  202.6142
 116  183.9817
 117  325.6141
 118  120.2079
 119  204.0969
 120  296.6698
 121  275.6111
 122  107.1777
 123  70.93469
 124  20.07405
 125  118.121
 126  183.4489
 127  211.4963
 128  246.1857
 129  207.342
 130  256.1584
 131  156.692
 132  293.2813
 133  161.1358
 134  190.1958
 135  254.1552
 136  248.2554
 137  180.9268
 138  266.2559
 139  345.185
 140  175.6366
 141  104.2311
 142  209.9547
 143  203.995
 144  220.1552
 145  371.9981
 146  336.1288
 147  297.0676
 148  414.3701
 149  394.5473
 150  190.2023
 151  143.3807
 152  233.512
 153  161.4467
 154  164.4114
 155  258.0836
 156  308.8069
 157  161.1701
 158  282.0038
 159  154.6008
 160  107.8974
 161  201.4896
 162  229.1216
 163  312.1636
 164  306.0401
 165  298.7862
 166  160.3589
 167  183.8143
 168  327.6694
 169  290.4604
 170  207.5433
 171  271.5732
 172  422.8464
 173  257.3059
 174  102.4851
 175  159.9669
 176  221.0612
 177  224.1915
 178  246.8667
 179  388.0124
 180  306.0021
 181  218.1332
 182  186.0759
 183  259.4819
 184  237.4674
 185  254.4081
 186  195.5439
 187  170.3371
 188  148.466
 189  65.66159
 190  135.9603
 191  91.7875
 192  255.7767
 193  151.8209
 194  132.5142
 195  141.7731
 196  252.2804
 197  282.1473
 198  264.8206
 199  175.7798
 200  123.1528
 201  161.2546
 202  97.29562
 203  162.214
 204  362.5585
 205  317.8155
 206  190.629
 207  219.2883
 208  146.8461
 209  169.1217
 210  267.6933
 211  287.3014
 212  201.5337
 213  212.1407
 214  248.4176
 215  145.2659
 216  199.6202
 217  224.0937
 218  224.2239
 219  212.3187
 220  222.4351
 221  47.0187
 222  128.0443
 223  195.4466
 224  40.1207
 225  148.367
 226  184.2926
 227  102.6098
 228  56.27325
 229  55.55009
 230  173.815
 231  80.34469
 232  54.99892
 233  150.051
 234  161.3184
 235  159.2083
 236  172.6186
 237  106.4567
 238  184.5581
 239  184.4996
 240  183.3363
 241  40.03535
 242  242.1544
 243  221.9889
 244  103.841
 245  63.85039
 246  87.00144
 247  195.607
 248  166.7821
 249  109.5592
 250  29.06113
 251  98.23466
 252  144.4929
 253  213.3223
 254  108.9458
 255  201.7569
 256  173.0256
 257  221.6096
 258  247.7833
 259  276.2047
 260  209.8686
 261  285.3167
 262  286.4406
 263  324.8862
 264  383.998
 265  208.8418
 266  237.2233
 267  393.7493
 268  183.9833
 269  167.3829
 270  245.0295
 271  211.3311
 272  63.60718
 273  170.5195
 274  215.3148
 275  224.1243
 276  284.4656
 277  370.5749
 278  321.0302
 279  241.9942
 280  230.0025
 281  152.7933
 282  211.082
 283  236.2911
 284  294.0788
 285  220.385
 286  179.6293
 287  64.72102
 288  205.8506
 289  237.5451
 290  141.3011
 291  150.7085
 292  226.2498
 293  297.7121
 294  319.1729
 295  348.002
 296  304.1388
 297  208.8527
 298  179.1695
 299  365.1189
 300  293.0213
 301  313.8829
 302  426.099
 303  366.7135
 304  293.7304
 305  462.7745
 306  442.6815
 307  449.3756
 308  766.2953
 309  886.8624
 310  753.6111
 311  745.0249
 312  513.6748
 313  288.8109
 314  155.481
 315  148.4471
 316  264.0476
 317  306.5919
 318  324.8818
 319  167.7677
 320  74.77897
 321  219.3113
 322  291.1692
 323  301.8453
 324  297.8858
 325  342.6848
 326  89.65865
 327  162.2688
 328  182.6596
 329  112.0525
 330  65.353
 331  80.63361
 332  156.7192
 333  174.5512
 334  266.406
 335  89.79161
 336  84.30686
 337  290.4276
 338  241.0505
 339  165.5133
 340  167.9497
 341  161.0806
 342  145.9857
 343  218.5967
 344  325.3621
 345  302.761
 346  324.1336
 347  264.8748
 348  287.0612
 349  254.1645
 350  189.152
 351  103.0048
 352  183.6761
 353  162.0566
 354  184.7055
 355  146.9804
 356  198.313
 357  119.453
 358  13.0207
 359  57.99179
 360  118.1473
 361  138.3589
 362  270.6811
 363  294.8335
 364  345.4814
 365  321.774
 366  173.8663
 367  148.5784
 368  31.33
 369  180.2926
 370  247.314
 371  180.2872
 372  218.6601
 373  248.1897
 374  356.6249
 375  269.3492
 376  218.602
 377  99.95186
 378  194.3628
 379  291.8703
 380  120.5655
 381  165.1545
 382  222.4162
 383  243.4816
 384  202.75
 385  331.2257
 386  363.4685
 387  317.1266
 388  198.2975
 389  94.68761
 390  247.7703
 391  414.4205
 392  391.1079
 393  300.7544
 394  332.3605
 395  374.9979
 396  253.1893
 397  243.9086
 398  266.3825
 399  189.4482
 400  337.0733
 401  205.1641
 402  97.64848
 403  113.4074
 404  125.2711
 405  168.8213
 406  223.339
 407  154.6431
 408  160.4381
 409  194.7338
 410  218.3044
 411  358.3424
 412  264.6821
 413  261.5392
 414  179.4142
 415  197.0885
 416  183.9238
 417  152.1268
 418  158.2673
 419  233.3263
 420  221.5988
 421  328.4872
 422  269.7375
 423  237.9867
 424  199.8966
 425  91.30981
 426  239.5426
 427  273.4078
 428  226.4923
 429  129.9936
 430  149.2246
 431  78.50376
 432  118.7095
 433  127.4648
 434  233.0071
 435  334.503
 436  402.8548
 437  271.5768
 438  115.4224
 439  173.2385
 440  346.1201
 441  390.5404
 442  356.7856
 443  303.5069
 444  273.0559
 445  204.3684
 446  126.0795
 447  69.3411
 448  177.8239
 449  206.0509
 450  285.3758
 451  330.0142
 452  365.5239
 453  262.8224
 454  168.3135
 455  306.8024
 456  346.5124
 457  292.5701
 458  146.604
 459  175.2987
 460  273.5351
 461  265.6152
 462  250.4506
 463  201.3772
 464  135.0309
 465  283.9645
 466  267.5515
 467  162.3754
 468  155.1201
 469  244.1484
 470  322.8131
 471  241.0909
 472  214.2877
 473  239.4628
 474  238.2821
 475  206.1886
 476  207.4346
 477  262.9062
 478  225.7937
 479  182.1711
 480  200.0805
 481  220.5258
 482  224.693
 483  225.6473
 484  297.2931
 485  181.5255
 486  118.154
 487  221.2025
 488  144.7757
 489  67.10336
 490  123.3529
 491  182.2314
 492  227.6066
 493  215.0865
 494  129.0197
 495  79.39945
 496  121.8962
 497  68.25082
 498  141.0645
 499  133.5916
 500  164.9963
 501  224.8625
 502  201.3028
 503  232.5335
 504  184.0948
 505  107.8272
 506  258.1108
 507  236.7855
 508  309.9384
 509  206.5954
 510  207.3306
 511  195.004
