# Input file       =  1179231636.095346_cleaned.dat
# Candidate        =  PSR_0332+5434
# Telescope        =  AR
# Epoch_topo       =  57892.514526566505
# Epoch_bary       =  N/A
# T_sample         =  0.002
# Data Folded      =  7340032
# Data Avg         =  0.0191140253537897
# Data StdDev      =  1.00012064697345 
# Profile Bins     =  512
# Profile Avg      =  274.024509065354 
# Profile StdDev   =  119.747481805227 
# Reduced chi-sqr  =  1.255
# Prob(Noise)      <  7.33e-05   (~3.8 sigma)
# P_topo (ms)      =  714.529217829996  +/- 0.000315
# P'_topo (s/s)    =  -0                +/- 1.66e-10
# P''_topo (s/s^2) =  0                 +/- 7.33e-14
# P_bary (ms)      =  N/A
# P'_bary (s/s)    =  N/A
# P''_bary (s/s^2) =  N/A
# P_orb (s)        =  N/A
# asin(i)/c (s)    =  N/A
# eccentricity     =  N/A
# w (rad)          =  N/A
# T_peri           =  N/A
######################################################
   0  279.9068
   1  347.5428
   2  292.9951
   3  230.1072
   4  229.8448
   5  205.3966
   6  144.1795
   7  137.4542
   8  142.5176
   9  215.2558
  10  372.037
  11  265.34
  12  179.6511
  13  199.6008
  14  224.5228
  15  221.1789
  16  177.661
  17  109.4519
  18  139.1866
  19  162.3275
  20  228.8278
  21  266.1611
  22  386.9373
  23  264.2171
  24  155.1023
  25  170.8639
  26  180.6982
  27  230.3448
  28  227.4731
  29  242.7699
  30  223.8893
  31  197.0047
  32  288.7881
  33  402.9286
  34  417.4986
  35  393.7527
  36  372.5575
  37  211.378
  38  146.4369
  39  213.111
  40  316.4078
  41  370.9661
  42  314.2336
  43  161.3316
  44  226.2795
  45  263.3859
  46  356.8232
  47  290.2327
  48  293.3768
  49  412.2509
  50  268.5031
  51  144.0401
  52  237.4093
  53  257.7767
  54  322.2264
  55  365.857
  56  225.1873
  57  192.2944
  58  248.6862
  59  235.2666
  60  253.0969
  61  249.2599
  62  323.036
  63  267.4404
  64  261.9691
  65  330.9377
  66  267.685
  67  146.4892
  68  311.6524
  69  261.3779
  70  189.9532
  71  253.3139
  72  188.0799
  73  304.7798
  74  357.7473
  75  233.7897
  76  370.2842
  77  344.1209
  78  250.4857
  79  247.4375
  80  321.7796
  81  338.9666
  82  314.5756
  83  271.8457
  84  126.3466
  85  241.9462
  86  308.9416
  87  335.2815
  88  348.3094
  89  311.6505
  90  230.8584
  91  266.8093
  92  362.3373
  93  338.6644
  94  364.9694
  95  341.6026
  96  220.5091
  97  230.9346
  98  317.3562
  99  332.8387
 100  307.815
 101  416.0603
 102  339.3728
 103  238.0289
 104  249.3292
 105  269.4225
 106  398.6425
 107  243.4436
 108  267.1717
 109  282.7874
 110  266.5878
 111  324.3542
 112  180.3577
 113  234.35
 114  237.4257
 115  338.2831
 116  339.2223
 117  305.699
 118  287.9576
 119  290.0971
 120  324.8766
 121  402.5479
 122  350.1073
 123  267.4362
 124  300.0101
 125  442.3259
 126  543.2759
 127  455.8496
 128  229.3855
 129  272.6295
 130  271.7461
 131  284.7443
 132  269.5611
 133  239.9044
 134  201.8983
 135  299.7492
 136  291.1565
 137  246.1003
 138  291.2283
 139  247.22
 140  326.1892
 141  217.7098
 142  325.2209
 143  288.3465
 144  259.5937
 145  269.6193
 146  358.4759
 147  310.9169
 148  235.1456
 149  238.1231
 150  209.4161
 151  265.9345
 152  240.672
 153  204.3498
 154  204.7744
 155  277.345
 156  293.1921
 157  210.4273
 158  158.144
 159  129.849
 160  222.0474
 161  279.5587
 162  330.9951
 163  316.8699
 164  187.7451
 165  218.7926
 166  263.1365
 167  287.3661
 168  400.5786
 169  188.9165
 170  182.4972
 171  244.1989
 172  264.5746
 173  327.0767
 174  251.7246
 175  340.4297
 176  335.0317
 177  362.3511
 178  297.4981
 179  368.8339
 180  393.5414
 181  337.9246
 182  303.8701
 183  334.3246
 184  282.244
 185  334.0208
 186  405.7881
 187  363.7086
 188  268.7986
 189  190.3775
 190  212.3081
 191  230.0979
 192  201.1497
 193  173.6237
 194  262.9547
 195  283.9468
 196  295.7905
 197  329.1793
 198  277.1312
 199  243.1469
 200  204.3449
 201  269.4536
 202  389.2947
 203  289.0246
 204  324.3296
 205  393.0015
 206  366.3233
 207  489.494
 208  400.7018
 209  264.8338
 210  139.4621
 211  164.924
 212  311.6064
 213  237.4247
 214  317.3239
 215  315.3964
 216  290.8064
 217  244.5261
 218  222.2851
 219  207.8804
 220  167.8431
 221  201.6759
 222  165.4293
 223  135.8523
 224  250.6435
 225  226.2151
 226  246.1414
 227  148.6032
 228  170.5697
 229  170.1025
 230  164.8335
 231  169.6531
 232  220.0243
 233  261.5804
 234  347.5609
 235  280.1886
 236  311.0711
 237  181.6097
 238  57.44668
 239  219.9077
 240  301.2987
 241  353.195
 242  234.3254
 243  271.4343
 244  299.6087
 245  188.1313
 246  122.6073
 247  225.4777
 248  120.9526
 249  230.0912
 250  214.3933
 251  265.8049
 252  324.2724
 253  366.7225
 254  345.6474
 255  357.1996
 256  337.0283
 257  250.6347
 258  240.6094
 259  264.6286
 260  192.2354
 261  304.918
 262  423.4757
 263  247.4179
 264  297.7881
 265  401.8169
 266  382.7436
 267  322.7323
 268  282.9291
 269  298.6623
 270  311.2606
 271  291.0802
 272  138.2613
 273  206.3868
 274  235.3426
 275  191.3451
 276  130.6362
 277  149.4432
 278  174.2256
 279  221.193
 280  273.0816
 281  352.1396
 282  282.9591
 283  100.4305
 284  244.8244
 285  457.3886
 286  414.1138
 287  304.5571
 288  327.1653
 289  278.7896
 290  249.7069
 291  292.5779
 292  282.8303
 293  247.4006
 294  198.5636
 295  125.3345
 296  166.8478
 297  194.6011
 298  284.8763
 299  205.3906
 300  231.2647
 301  237.3407
 302  222.4262
 303  295.3561
 304  367.6772
 305  645.2072
 306  411.1498
 307  262.8922
 308  156.7616
 309  363.753
 310  318.5623
 311  285.8689
 312  288.8815
 313  183.5737
 314  87.13899
 315  70.98885
 316  237.5858
 317  192.4021
 318  247.1877
 319  268.4194
 320  307.7826
 321  176.4307
 322  231.3895
 323  258.5956
 324  198.4836
 325  140.6199
 326  245.8547
 327  196.3488
 328  64.72894
 329  98.57188
 330  149.2342
 331  250.5748
 332  174.796
 333  221.4035
 334  266.768
 335  232.6397
 336  211.089
 337  194.1692
 338  281.9341
 339  250.854
 340  243.3667
 341  197.173
 342  237.1972
 343  169.0054
 344  198.4256
 345  250.106
 346  192.5024
 347  319.1031
 348  429.496
 349  313.6146
 350  124.5763
 351  147.1522
 352  233.3525
 353  229.6964
 354  213.4668
 355  114.682
 356  255.2559
 357  219.4819
 358  264.9962
 359  226.1016
 360  212.8692
 361  281.3776
 362  301.7912
 363  314.8826
 364  212.6941
 365  309.6201
 366  461.4861
 367  275.5365
 368  297.0575
 369  286.1644
 370  326.0876
 371  262.1474
 372  237.2731
 373  335.6169
 374  383.9082
 375  450.1969
 376  319.4434
 377  244.5589
 378  246.0335
 379  219.9141
 380  253.0555
 381  356.7533
 382  365.7754
 383  399.2374
 384  186.5182
 385  244.14
 386  198.6968
 387  216.1024
 388  431.9737
 389  321.4982
 390  323.6695
 391  392.1581
 392  393.2378
 393  326.2109
 394  318.5493
 395  384.8501
 396  336.3264
 397  308.4695
 398  261.8383
 399  298.4678
 400  254.8984
 401  339.4664
 402  328.5447
 403  316.5934
 404  211.9473
 405  284.1559
 406  291.96
 407  158.5696
 408  83.59052
 409  70.90576
 410  161.7295
 411  213.6144
 412  77.46069
 413  113.775
 414  129.6137
 415  230.1847
 416  297.9249
 417  296.2631
 418  248.3133
 419  174.7166
 420  142.6735
 421  218.8992
 422  236.4542
 423  275.4053
 424  229.6256
 425  173.5164
 426  286.7688
 427  267.8248
 428  356.3062
 429  397.1088
 430  350.112
 431  377.4548
 432  299.6737
 433  174.9678
 434  328.0283
 435  269.884
 436  210.4537
 437  175.1413
 438  319.5788
 439  356.074
 440  345.229
 441  441.5308
 442  287.1911
 443  268.3731
 444  433.8093
 445  562.3583
 446  693.2004
 447  866.4144
 448  965.0311
 449  825.8953
 450  758.9003
 451  535.2142
 452  390.6769
 453  324.1541
 454  342.5826
 455  310.3879
 456  239.9971
 457  290.6639
 458  324.8593
 459  251.9299
 460  357.3399
 461  334.5926
 462  300.2043
 463  286.2397
 464  287.5933
 465  224.1962
 466  273.9924
 467  281.4817
 468  287.7096
 469  199.9229
 470  282.5539
 471  362.6547
 472  283.7606
 473  214.8551
 474  290.2858
 475  234.657
 476  265.4192
 477  234.6993
 478  244.4211
 479  357.1209
 480  155.9116
 481  268.7133
 482  282.1057
 483  354.3703
 484  297.0076
 485  236.7846
 486  221.6965
 487  230.1327
 488  273.0818
 489  352.0617
 490  246.2206
 491  257.1914
 492  200.7202
 493  180.1017
 494  292.5247
 495  329.6207
 496  445.7652
 497  364.2813
 498  311.2204
 499  241.99
 500  274.2549
 501  322.4851
 502  381.7114
 503  241.5911
 504  230.9797
 505  321.0296
 506  332.9624
 507  156.5406
 508  172.2112
 509  217.53
 510  217.947
 511  150.3025
