# Input file       =  1179662434.104653_cleaned.dat
# Candidate        =  PSR_0332+5434
# Telescope        =  AR
# Epoch_topo       =  57897.500614637189
# Epoch_bary       =  N/A
# T_sample         =  0.002
# Data Folded      =  7340032
# Data Avg         =  0.0254642708357275
# Data StdDev      =  1.00008350258893 
# Profile Bins     =  512
# Profile Avg      =  365.032852781008 
# Profile StdDev   =  119.743034395284 
# Reduced chi-sqr  =  1.133
# Prob(Noise)      <  0.0194   (~2.1 sigma)
# P_topo (ms)      =  714.524308119201  +/- 0.000194
# P'_topo (s/s)    =  -0                +/- 1.02e-10
# P''_topo (s/s^2) =  0                 +/- 4.52e-14
# P_bary (ms)      =  N/A
# P'_bary (s/s)    =  N/A
# P''_bary (s/s^2) =  N/A
# P_orb (s)        =  N/A
# asin(i)/c (s)    =  N/A
# eccentricity     =  N/A
# w (rad)          =  N/A
# T_peri           =  N/A
######################################################
   0  326.11
   1  286.2371
   2  176.9955
   3  307.3539
   4  292.2339
   5  321.3419
   6  292.7277
   7  317.3001
   8  321.5109
   9  406.4065
  10  366.056
  11  319.3372
  12  238.733
  13  242.8791
  14  322.2826
  15  366.5362
  16  354.9421
  17  358.4478
  18  155.1612
  19  60.96442
  20  263.1609
  21  269.1046
  22  273.7789
  23  294.0158
  24  345.0882
  25  231.7097
  26  217.7874
  27  332.2946
  28  189.2999
  29  203.9731
  30  257.826
  31  262.6747
  32  356.9952
  33  501.2492
  34  515.3706
  35  406.4322
  36  284.3961
  37  273.9695
  38  283.9543
  39  335.7043
  40  428.0616
  41  439.7305
  42  328.1869
  43  346.4807
  44  422.0228
  45  381.8598
  46  393.7513
  47  508.8327
  48  446.2196
  49  480.5226
  50  439.1957
  51  491.2212
  52  567.3959
  53  765.3734
  54  940.7076
  55  821.6489
  56  621.6302
  57  512.8598
  58  417.4538
  59  464.0435
  60  498.4051
  61  423.4421
  62  280.142
  63  396.1247
  64  445.6488
  65  544.3605
  66  508.4691
  67  441.3794
  68  504.9324
  69  370.115
  70  379.0907
  71  386.6341
  72  478.515
  73  464.5681
  74  341.2819
  75  395.5309
  76  428.562
  77  380.2455
  78  245.3908
  79  251.5285
  80  370.1042
  81  486.9351
  82  387.8934
  83  348.5622
  84  377.2115
  85  261.0081
  86  190.1375
  87  149.9247
  88  217.9981
  89  350.9914
  90  342.1465
  91  360.292
  92  481.7134
  93  519.4166
  94  442.8625
  95  293.1614
  96  307.1986
  97  256.0658
  98  388.9584
  99  348.4792
 100  398.1646
 101  273.8946
 102  256.2068
 103  371.1958
 104  230.5822
 105  171.5345
 106  346.3098
 107  465.5656
 108  393.8109
 109  435.2535
 110  423.3892
 111  394.0604
 112  245.9872
 113  119.9024
 114  307.2689
 115  327.7432
 116  274.0886
 117  290.5345
 118  299.4915
 119  375.4304
 120  282.1139
 121  275.5981
 122  339.0477
 123  293.937
 124  237.8912
 125  337.7831
 126  350.3675
 127  415.9816
 128  454.3541
 129  466.7841
 130  349.6431
 131  314.2837
 132  332.1489
 133  390.8243
 134  418.7489
 135  492.4453
 136  500.6521
 137  404.6228
 138  434.4444
 139  437.2794
 140  438.7402
 141  335.8802
 142  282.1485
 143  261.0961
 144  195.9991
 145  273.0273
 146  386.9163
 147  470.7371
 148  377.1098
 149  464.1457
 150  404.5464
 151  446.0402
 152  451.2276
 153  393.4844
 154  381.6683
 155  455.4453
 156  456.2724
 157  411.5688
 158  263.0755
 159  297.2933
 160  270.7446
 161  314.1727
 162  380.351
 163  325.318
 164  307.9108
 165  327.1313
 166  384.9975
 167  515.1111
 168  487.3226
 169  347.1103
 170  341.8455
 171  267.4834
 172  356.4682
 173  362.2309
 174  374.0562
 175  345.0324
 176  254.5852
 177  247.4633
 178  270.6737
 179  299.5311
 180  288.7007
 181  342.8657
 182  447.8475
 183  393.9394
 184  251.7748
 185  362.5923
 186  222.176
 187  336.9475
 188  432.6198
 189  378.2639
 190  337.7761
 191  510.4773
 192  562.2922
 193  424.8592
 194  369.07
 195  391.6852
 196  366.837
 197  280.7717
 198  427.4579
 199  511.5974
 200  429.6098
 201  363.9302
 202  459.9751
 203  360.9797
 204  395.7845
 205  485.0733
 206  343.6694
 207  304.5043
 208  546.0798
 209  503.4002
 210  361.0359
 211  344.6585
 212  491.3986
 213  523.9211
 214  462.0736
 215  411.1576
 216  281.2415
 217  305.6978
 218  426.905
 219  399.376
 220  362.652
 221  374.7619
 222  344.9124
 223  390.604
 224  369.6541
 225  416.795
 226  418.4696
 227  352.6554
 228  394.1344
 229  304.5385
 230  318.6667
 231  449.653
 232  431.8574
 233  421.4949
 234  564.1063
 235  437.3737
 236  352.2961
 237  449.6949
 238  388.8522
 239  386.1654
 240  412.5366
 241  403.9413
 242  376.2587
 243  479.3757
 244  524.2563
 245  495.6778
 246  339.9146
 247  365.3803
 248  467.4428
 249  511.5929
 250  388.4823
 251  400.7325
 252  330.9277
 253  367.6284
 254  463.0186
 255  386.1179
 256  302.1582
 257  385.2191
 258  459.9746
 259  400.0485
 260  364.2925
 261  358.5451
 262  365.6732
 263  383.6751
 264  506.8373
 265  408.2578
 266  352.3376
 267  405.4233
 268  366.5488
 269  262.3024
 270  482.351
 271  421.7618
 272  367.2518
 273  464.5051
 274  372.5774
 275  360.966
 276  474.7865
 277  213.062
 278  148.9764
 279  246.5432
 280  386.7939
 281  344.7428
 282  267.9563
 283  330.2783
 284  384.3746
 285  342.6935
 286  416.5171
 287  445.4211
 288  359.6456
 289  387.4166
 290  348.4331
 291  337.1761
 292  411.9365
 293  358.8504
 294  321.825
 295  358.4185
 296  482.2997
 297  611.7104
 298  447.7482
 299  336.3782
 300  322.7648
 301  397.0178
 302  405.3296
 303  422.3645
 304  432.3199
 305  388.7563
 306  387.4495
 307  433.726
 308  451.5562
 309  466.2287
 310  343.5291
 311  371.648
 312  352.1153
 313  444.4825
 314  452.3832
 315  426.5493
 316  441.9887
 317  466.9482
 318  362.3852
 319  292.2999
 320  349.0327
 321  367.8293
 322  285.3652
 323  242.9966
 324  357.4446
 325  489.1808
 326  370.8706
 327  339.6096
 328  466.3295
 329  262.8215
 330  199.8611
 331  312.3572
 332  439.3727
 333  386.3791
 334  352.5658
 335  334.4645
 336  408.0901
 337  367.6441
 338  393.6559
 339  405.1618
 340  246.5049
 341  256.593
 342  341.9404
 343  379.4402
 344  420.6673
 345  402.9652
 346  479.1407
 347  457.4269
 348  400.7004
 349  417.2166
 350  533.0782
 351  367.9448
 352  337.389
 353  208.3442
 354  318.6128
 355  440.8739
 356  389.8743
 357  306.7778
 358  272.8658
 359  282.5238
 360  327.9104
 361  325.1696
 362  287.9801
 363  436.8323
 364  529.267
 365  325.8167
 366  226.0675
 367  173.8582
 368  337.8935
 369  475.99
 370  388.4942
 371  283.3132
 372  248.5449
 373  338.0547
 374  314.5543
 375  370.909
 376  407.1821
 377  342.0767
 378  415.8958
 379  397.5509
 380  298.433
 381  331.9223
 382  358.7686
 383  359.3214
 384  313.8688
 385  272.2301
 386  334.8063
 387  286.9775
 388  329.8389
 389  338.2206
 390  465.9253
 391  442.8817
 392  415.764
 393  325.8264
 394  448.1725
 395  325.4443
 396  257.9911
 397  222.2081
 398  226.7125
 399  212.8262
 400  256.3642
 401  301.8433
 402  366.1931
 403  232.0545
 404  294.9256
 405  399.4228
 406  405.0123
 407  387.0053
 408  383.2863
 409  442.541
 410  308.0363
 411  344.0353
 412  368.5854
 413  233.1822
 414  337.1202
 415  329.7902
 416  254.6822
 417  221.5232
 418  356.7137
 419  437.1454
 420  428.7523
 421  319.0817
 422  222.8033
 423  306.5197
 424  422.3435
 425  544.1387
 426  435.2909
 427  332.1842
 428  340.6481
 429  275.18
 430  195.4299
 431  274.2674
 432  370.36
 433  416.4746
 434  349.7345
 435  236.2359
 436  177.6861
 437  165.9597
 438  469.4455
 439  426.3569
 440  265.097
 441  381.0458
 442  416.0186
 443  350.7841
 444  331.4327
 445  280.6542
 446  181.042
 447  261.5822
 448  337.1696
 449  450.6078
 450  387.2551
 451  379.644
 452  315.4392
 453  322.3456
 454  269.4092
 455  443.0771
 456  503.4711
 457  395.7508
 458  286.2181
 459  252.1257
 460  299.6155
 461  290.4511
 462  441.5391
 463  376.934
 464  269.4322
 465  261.087
 466  233.5165
 467  371.3876
 468  378.7234
 469  296.3962
 470  304.3567
 471  295.8048
 472  203.5635
 473  256.4964
 474  385.6899
 475  456.4824
 476  329.4807
 477  279.2386
 478  310.3734
 479  352.2097
 480  495.794
 481  514.434
 482  475.9975
 483  347.5403
 484  361.961
 485  443.8697
 486  387.641
 487  424.2936
 488  360.4299
 489  420.513
 490  379.6828
 491  330.3891
 492  316.6777
 493  296.1129
 494  264.085
 495  361.0038
 496  420.8152
 497  411.9924
 498  490.1053
 499  532.835
 500  410.2801
 501  290.706
 502  377.0474
 503  370.1613
 504  295.105
 505  246.6816
 506  282.341
 507  317.2189
 508  271.9265
 509  329.9796
 510  338.1599
 511  395.848
