# Input file       =  1179044386.113434_cleaned.dat
# Candidate        =  PSR_0332+5434
# Telescope        =  AR
# Epoch_topo       =  57890.347281405484
# Epoch_bary       =  N/A
# T_sample         =  0.002
# Data Folded      =  7340032
# Data Avg         =  0.0285954620451805
# Data StdDev      =  1.00003949988733 
# Profile Bins     =  512
# Profile Avg      =  409.940119169102 
# Profile StdDev   =  119.737765818213 
# Reduced chi-sqr  =  1.065
# Prob(Noise)      <  0.15   (~1.0 sigma)
# P_topo (ms)      =  714.530998006816  +/- 0.000187
# P'_topo (s/s)    =  -0                +/- 9.87e-11
# P''_topo (s/s^2) =  0                 +/- 4.36e-14
# P_bary (ms)      =  N/A
# P'_bary (s/s)    =  N/A
# P''_bary (s/s^2) =  N/A
# P_orb (s)        =  N/A
# asin(i)/c (s)    =  N/A
# eccentricity     =  N/A
# w (rad)          =  N/A
# T_peri           =  N/A
######################################################
   0  913.8707
   1  820.7581
   2  749.9091
   3  725.9942
   4  575.6844
   5  420.2958
   6  374.7292
   7  390.3189
   8  467.0687
   9  410.5638
  10  387.4165
  11  443.5112
  12  537.3043
  13  537.4722
  14  478.4707
  15  457.0396
  16  643.3571
  17  647.039
  18  465.6075
  19  420.6082
  20  336.1189
  21  415.6637
  22  370.4042
  23  476.0365
  24  596.28
  25  452.5758
  26  382.339
  27  308.2365
  28  352.5665
  29  472.9827
  30  354.9994
  31  376.4571
  32  264.7392
  33  278.4528
  34  435.067
  35  263.1004
  36  268.73
  37  368.4835
  38  262.6072
  39  325.4297
  40  391.837
  41  386.3165
  42  354.1426
  43  393.3093
  44  466.4424
  45  476.2382
  46  377.6284
  47  479.2606
  48  408.4113
  49  365.5657
  50  440.4523
  51  505.166
  52  586.688
  53  460.3372
  54  338.6839
  55  423.4466
  56  411.1282
  57  402.0394
  58  432.5977
  59  451.7032
  60  500.5967
  61  396.7455
  62  401.8479
  63  500.2052
  64  432.858
  65  344.0461
  66  428.0999
  67  458.807
  68  319.1424
  69  316.901
  70  315.5974
  71  294.8627
  72  261.4777
  73  447.3272
  74  426.0723
  75  436.6209
  76  483.6671
  77  387.2919
  78  362.838
  79  270.1957
  80  241.8006
  81  374.1237
  82  392.4457
  83  355.8798
  84  389.7103
  85  361.1891
  86  440.1783
  87  392.0298
  88  350.0895
  89  368.253
  90  355.6913
  91  466.7413
  92  452.5568
  93  413.0313
  94  423.8318
  95  372.1014
  96  378.0272
  97  339.9503
  98  338.0333
  99  376.2456
 100  405.2553
 101  369.6144
 102  342.6648
 103  487.9233
 104  542.875
 105  305.1997
 106  400.9093
 107  484.0149
 108  430.6871
 109  484.7301
 110  398.5029
 111  363.8338
 112  314.3075
 113  292.9835
 114  319.4312
 115  261.9067
 116  385.2809
 117  479.6347
 118  428.3272
 119  422.1225
 120  428.2348
 121  319.3945
 122  373.6833
 123  386.9951
 124  468.0154
 125  366.5868
 126  288.2021
 127  278.4926
 128  444.1754
 129  475.5244
 130  433.6208
 131  436.6161
 132  425.6347
 133  348.9622
 134  385.7913
 135  489.5477
 136  444.2457
 137  454.9818
 138  376.4141
 139  422.1054
 140  494.8203
 141  417.9149
 142  340.4128
 143  286.8236
 144  392.9421
 145  435.6892
 146  343.9865
 147  366.451
 148  428.2307
 149  393.1864
 150  411.794
 151  422.6131
 152  377.2947
 153  381.898
 154  405.2224
 155  308.2763
 156  310.8149
 157  443.1649
 158  531.7288
 159  380.3897
 160  336.2149
 161  373.8176
 162  373.5068
 163  372.4996
 164  292.47
 165  376.6902
 166  392.0178
 167  432.5218
 168  364.1121
 169  344.1258
 170  342.3379
 171  332.7513
 172  339.9719
 173  429.1974
 174  438.8507
 175  311.7693
 176  341.9554
 177  400.5473
 178  445.5566
 179  386.9216
 180  402.5715
 181  265.9595
 182  339.8239
 183  328.1536
 184  357.2435
 185  451.8746
 186  420.4831
 187  392.4272
 188  296.7696
 189  300.434
 190  394.3509
 191  508.4962
 192  290.709
 193  370.6523
 194  423.2378
 195  487.0712
 196  480.4792
 197  417.0247
 198  470.1233
 199  393.0055
 200  321.6118
 201  285.1134
 202  271.8216
 203  295.1772
 204  335.253
 205  504.6793
 206  511.0995
 207  470.6417
 208  404.5777
 209  380.6949
 210  430.9534
 211  355.1154
 212  373.3264
 213  390.4577
 214  526.3066
 215  539.0475
 216  394.8486
 217  359.0892
 218  431.7028
 219  466.9176
 220  447.8872
 221  391.0237
 222  354.1036
 223  328.3526
 224  424.244
 225  489.0462
 226  405.9215
 227  435.5027
 228  470.3723
 229  451.997
 230  459.6331
 231  452.4553
 232  437.0784
 233  376.2342
 234  345.2172
 235  291.9787
 236  258.8438
 237  333.4479
 238  285.2239
 239  332.1505
 240  320.2423
 241  203.0573
 242  320.2448
 243  297.3797
 244  344.7288
 245  275.4811
 246  205.9761
 247  224.1016
 248  360.2014
 249  486.0525
 250  499.6961
 251  378.9561
 252  333.9796
 253  343.4547
 254  365.1975
 255  459.7896
 256  461.9601
 257  423.445
 258  346.0225
 259  457.2098
 260  420.0689
 261  291.9018
 262  398.3873
 263  348.7334
 264  426.9263
 265  363.4654
 266  316.1571
 267  246.0609
 268  338.7446
 269  449.2322
 270  460.7993
 271  391.9402
 272  389.7466
 273  420.4724
 274  424.0283
 275  420.8588
 276  410.3166
 277  467.4115
 278  459.2468
 279  371.7846
 280  297.2112
 281  377.2586
 282  495.5669
 283  577.1046
 284  438.2036
 285  446.7622
 286  449.5886
 287  400.6906
 288  302.4714
 289  288.2061
 290  260.8024
 291  318.2333
 292  317.8269
 293  292.1389
 294  438.711
 295  450.119
 296  476.9311
 297  528.92
 298  489.5269
 299  338.9355
 300  286.7887
 301  424.964
 302  449.2148
 303  332.6324
 304  380.9298
 305  402.7679
 306  360.5774
 307  354.7394
 308  277.6238
 309  436.6713
 310  410.1184
 311  275.7606
 312  307.756
 313  380.8529
 314  284.8784
 315  291.8337
 316  364.9783
 317  378.423
 318  366.8237
 319  339.4017
 320  291.3597
 321  429.2492
 322  372.3336
 323  420.2367
 324  483.4843
 325  464.6587
 326  561.0798
 327  335.5365
 328  394.7445
 329  463.7344
 330  468.2306
 331  497.3058
 332  486.5487
 333  397.3802
 334  302.7953
 335  261.4092
 336  455.4608
 337  470.9316
 338  459.2877
 339  347.9773
 340  287.3568
 341  374.4438
 342  468.7732
 343  483.5226
 344  426.8165
 345  580.7575
 346  580.2315
 347  479.2856
 348  501.8694
 349  446.5623
 350  435.5763
 351  437.1526
 352  459.4716
 353  526.5511
 354  509.7131
 355  519.4484
 356  526.1192
 357  474.959
 358  376.0118
 359  457.9608
 360  514.9984
 361  691.3066
 362  559.2348
 363  477.6784
 364  375.7936
 365  370.4669
 366  453.4428
 367  444.28
 368  474.186
 369  384.5087
 370  404.7177
 371  427.5493
 372  399.2663
 373  403.3802
 374  384.508
 375  330.0236
 376  343.9703
 377  436.3439
 378  343.1568
 379  341.6086
 380  317.5197
 381  460.8386
 382  458.4782
 383  381.4844
 384  487.5152
 385  461.5779
 386  560.6683
 387  537.8084
 388  382.9283
 389  345.015
 390  351.0141
 391  459.6032
 392  424.1183
 393  402.4871
 394  446.4611
 395  511.726
 396  524.3887
 397  550.0316
 398  576.4735
 399  365.218
 400  408.9881
 401  410.9047
 402  550.0934
 403  434.4697
 404  356.9948
 405  454.3485
 406  402.077
 407  289.6581
 408  282.7296
 409  303.1037
 410  259.261
 411  396.9834
 412  553.4178
 413  541.1375
 414  443.4248
 415  381.4557
 416  456.8039
 417  443.2941
 418  396.3962
 419  479.8393
 420  470.1618
 421  507.2528
 422  450.8951
 423  336.827
 424  198.7031
 425  274.2574
 426  395.0265
 427  373.9748
 428  436.0501
 429  428.196
 430  385.5151
 431  314.7818
 432  391.2727
 433  426.81
 434  322.5907
 435  442.1983
 436  338.2634
 437  295.5665
 438  317.2018
 439  331.5908
 440  291.283
 441  378.9586
 442  477.7834
 443  531.9158
 444  535.102
 445  548.7814
 446  540.949
 447  425.2119
 448  401.6752
 449  461.7414
 450  541.8004
 451  397.5413
 452  460.6787
 453  564.2883
 454  552.5609
 455  492.131
 456  459.0088
 457  483.602
 458  429.2423
 459  400.4092
 460  507.9715
 461  563.7557
 462  529.667
 463  420.9255
 464  446.1312
 465  401.8573
 466  352.5066
 467  342.0018
 468  328.8374
 469  464.5818
 470  368.4019
 471  419.3507
 472  339.604
 473  301.4734
 474  349.5483
 475  309.7865
 476  274.5179
 477  318.0045
 478  366.2846
 479  359.8027
 480  326.0896
 481  446.414
 482  539.6368
 483  439.2367
 484  436.0807
 485  460.4662
 486  448.518
 487  435.1958
 488  458.6902
 489  365.0081
 490  344.7434
 491  373.6552
 492  434.9532
 493  545.1912
 494  643.9061
 495  474.5462
 496  398.6452
 497  232.5272
 498  338.9422
 499  393.1604
 500  493.4378
 501  548.1593
 502  482.6947
 503  454.3928
 504  499.7814
 505  357.7861
 506  386.8787
 507  387.5586
 508  421.8807
 509  615.1698
 510  744.4176
 511  815.1238
