# Input file       =  1179145456.098846_cleaned.dat
# Candidate        =  PSR_0332+5434
# Telescope        =  AR
# Epoch_topo       =  57891.517072903313
# Epoch_bary       =  N/A
# T_sample         =  0.002
# Data Folded      =  7340032
# Data Avg         =  0.0788188908887344
# Data StdDev      =  2.96304563623486 
# Profile Bins     =  1024
# Profile Avg      =  564.998791691701 
# Profile StdDev   =  250.863420058003 
# Reduced chi-sqr  =  1.069
# Prob(Noise)      <  0.0612   (~1.5 sigma)
# P_topo (ms)      =  714.530192660753  +/- 0.000126
# P'_topo (s/s)    =  -0                +/- 6.65e-11
# P''_topo (s/s^2) =  0                 +/- 2.94e-14
# P_bary (ms)      =  N/A
# P'_bary (s/s)    =  N/A
# P''_bary (s/s^2) =  N/A
# P_orb (s)        =  N/A
# asin(i)/c (s)    =  N/A
# eccentricity     =  N/A
# w (rad)          =  N/A
# T_peri           =  N/A
######################################################
   0  409.6904
   1  442.7095
   2  414.5163
   3  495.7471
   4  420.8665
   5  395.6523
   6  385.053
   7  469.8155
   8  516.0363
   9  551.427
  10  611.372
  11  687.2059
  12  770.2803
  13  817.3436
  14  741.9574
  15  680.9491
  16  601.0118
  17  585.0345
  18  593.272
  19  543.9962
  20  577.0963
  21  608.1044
  22  727.3963
  23  690.7875
  24  612.6627
  25  512.6818
  26  504.2391
  27  601.3332
  28  665.3758
  29  668.0669
  30  646.5544
  31  711.0055
  32  730.6496
  33  789.1616
  34  692.9022
  35  611.0384
  36  468.267
  37  385.0843
  38  330.6985
  39  339.3691
  40  454.9302
  41  496.667
  42  504.9173
  43  526.5753
  44  579.6251
  45  581.4938
  46  591.4377
  47  565.6909
  48  478.8866
  49  403.4272
  50  396.5243
  51  460.812
  52  511.9844
  53  433.5254
  54  369.7244
  55  292.9816
  56  373.8028
  57  399.8946
  58  395.8436
  59  451.6261
  60  508.5881
  61  572.7837
  62  513.6218
  63  491.5121
  64  466.9406
  65  484.7436
  66  524.2934
  67  409.2641
  68  390.7555
  69  406.5016
  70  521.7686
  71  623.7359
  72  667.5795
  73  596.1494
  74  580.9324
  75  621.505
  76  707.8751
  77  685.4117
  78  577.8136
  79  502.8691
  80  431.4204
  81  425.8924
  82  345.8145
  83  292.1096
  84  367.0922
  85  519.7209
  86  628.8829
  87  564.2881
  88  467.8028
  89  419.2288
  90  416.773
  91  486.0334
  92  582.2446
  93  451.2006
  94  349.7648
  95  398.9604
  96  634.3108
  97  629.3283
  98  514.4895
  99  543.3665
 100  560.9166
 101  600.1119
 102  585.66
 103  706.4279
 104  651.7758
 105  572.5531
 106  369.9405
 107  288.1802
 108  279.5184
 109  200.5273
 110  234.9989
 111  310.4768
 112  585.3029
 113  578.4443
 114  445.1801
 115  234.0928
 116  263.5994
 117  357.3659
 118  392.417
 119  364.4487
 120  426.1313
 121  405.9564
 122  469.2097
 123  463.8961
 124  512.117
 125  406.7804
 126  360.2889
 127  345.3106
 128  335.8802
 129  225.863
 130  200.9149
 131  137.6283
 132  313.9374
 133  389.1856
 134  513.8987
 135  455.0754
 136  515.6087
 137  495.3533
 138  489.646
 139  387.621
 140  379.1311
 141  315.4396
 142  458.5036
 143  494.333
 144  600.4794
 145  525.1794
 146  470.8542
 147  421.6217
 148  451.4923
 149  399.7589
 150  326.4503
 151  291.8671
 152  375.7423
 153  413.3089
 154  423.8888
 155  457.9394
 156  330.7239
 157  296.0447
 158  257.0918
 159  354.8545
 160  377.4886
 161  398.091
 162  330.2975
 163  331.3853
 164  371.0613
 165  473.217
 166  482.2025
 167  420.1109
 168  386.4883
 169  361.1081
 170  430.0421
 171  494.5363
 172  520.9921
 173  479.4522
 174  474.3954
 175  500.2635
 176  538.8121
 177  594.6698
 178  526.0004
 179  544.2364
 180  583.5156
 181  619.8062
 182  606.8761
 183  616.1718
 184  604.6208
 185  587.3175
 186  553.1319
 187  489.0324
 188  522.5272
 189  655.5656
 190  787.8579
 191  744.3964
 192  594.0053
 193  488.5072
 194  558.6057
 195  621.78
 196  647.9648
 197  590.1403
 198  563.8189
 199  491.571
 200  547.971
 201  626.2261
 202  680.59
 203  671.1906
 204  530.3246
 205  407.8311
 206  360.1458
 207  400.7258
 208  456.7177
 209  354.5244
 210  371.6693
 211  337.8891
 212  407.8173
 213  382.7193
 214  370.73
 215  308.8277
 216  389.5072
 217  453.1622
 218  478.8905
 219  478.6534
 220  534.6553
 221  462.6169
 222  414.9321
 223  421.2943
 224  309.2561
 225  274.2509
 226  304.1758
 227  540.438
 228  443.601
 229  324.9695
 230  432.126
 231  529.7423
 232  609.265
 233  495.1095
 234  543.4858
 235  510.5023
 236  531.6082
 237  546.1638
 238  600.7455
 239  674.5548
 240  570.1883
 241  509.6642
 242  449.5618
 243  546.2459
 244  620.6004
 245  615.9518
 246  534.829
 247  377.2866
 248  329.1201
 249  335.7445
 250  464.6284
 251  566.1667
 252  653.3158
 253  633.3913
 254  582.178
 255  459.0298
 256  300.9872
 257  396.1775
 258  581.777
 259  850.4927
 260  861.4091
 261  752.5115
 262  558.8173
 263  477.8777
 264  600.907
 265  661.6521
 266  582.8221
 267  409.5206
 268  353.1706
 269  392.258
 270  381.6705
 271  382.4976
 272  373.4021
 273  368.2482
 274  552.3264
 275  538.5786
 276  573.5103
 277  435.1512
 278  445.8448
 279  420.475
 280  488.8621
 281  561.9836
 282  654.3249
 283  735.5316
 284  724.0161
 285  726.3684
 286  685.2204
 287  701.265
 288  653.1831
 289  661.6307
 290  749.662
 291  791.7202
 292  685.9744
 293  589.8922
 294  570.9512
 295  587.9321
 296  488.187
 297  402.2795
 298  378.3492
 299  488.3901
 300  519.9697
 301  578.4909
 302  564.8532
 303  496.7758
 304  454.891
 305  448.4643
 306  584.5449
 307  688.6266
 308  738.733
 309  651.6023
 310  704.4731
 311  623.7417
 312  511.3212
 313  405.9067
 314  461.304
 315  549.77
 316  560.4659
 317  663.9542
 318  705.8278
 319  701.939
 320  542.1616
 321  489.1241
 322  505.065
 323  551.1006
 324  541.2319
 325  547.082
 326  509.7814
 327  531.6996
 328  506.1714
 329  554.7792
 330  506.3891
 331  561.5266
 332  575.0992
 333  573.218
 334  513.5184
 335  487.7582
 336  435.3291
 337  531.3469
 338  604.7372
 339  627.8814
 340  480.9806
 341  457.3376
 342  592.4711
 343  714.2609
 344  707.0798
 345  707.426
 346  640.8832
 347  614.3899
 348  485.1867
 349  506.3522
 350  511.6867
 351  584.3713
 352  637.2844
 353  685.8148
 354  648.9832
 355  620.1404
 356  560.7214
 357  359.8659
 358  451.9923
 359  525.8364
 360  652.0721
 361  672.7158
 362  635.2885
 363  571.4718
 364  464.9115
 365  581.7344
 366  682.9117
 367  662.581
 368  574.0759
 369  657.6962
 370  710.4017
 371  702.8109
 372  672.3453
 373  714.7359
 374  660.2872
 375  617.7847
 376  505.1546
 377  590.2346
 378  565.2195
 379  616.7888
 380  474.6262
 381  442.9712
 382  582.1361
 383  666.9069
 384  665.5625
 385  640.7862
 386  628.6983
 387  626.6935
 388  557.6807
 389  390.3932
 390  270.3506
 391  324.7182
 392  514.1968
 393  670.684
 394  654.9459
 395  584.4211
 396  426.5032
 397  363.8123
 398  486.0555
 399  597.2507
 400  675.3453
 401  592.7352
 402  585.5818
 403  543.033
 404  461.5942
 405  400.1758
 406  462.4842
 407  509.9254
 408  551.0481
 409  510.6899
 410  523.5087
 411  571.8585
 412  668.6125
 413  640.8034
 414  598.2493
 415  565.8145
 416  676.1572
 417  696.1308
 418  620.9478
 419  430.6866
 420  379.4809
 421  431.8907
 422  604.5168
 423  658.2015
 424  688.3157
 425  607.3446
 426  532.997
 427  397.3311
 428  397.4437
 429  463.2756
 430  588.8228
 431  649.8369
 432  648.644
 433  610.7687
 434  666.4845
 435  644.44
 436  713.9636
 437  581.096
 438  591.8112
 439  569.7927
 440  585.9788
 441  661.3982
 442  751.0988
 443  730.4935
 444  713.4966
 445  648.0049
 446  692.6763
 447  656.7741
 448  666.9077
 449  694.3306
 450  702.1034
 451  574.6129
 452  446.8215
 453  398.4622
 454  463.2564
 455  504.4237
 456  418.4378
 457  380.9091
 458  376.2249
 459  371.6418
 460  355.3645
 461  382.4834
 462  450.4803
 463  515.6817
 464  519.0338
 465  543.6942
 466  613.3602
 467  630.5755
 468  662.302
 469  625.3861
 470  669.4865
 471  776.4648
 472  664.3162
 473  605.8065
 474  458.1295
 475  349.9826
 476  311.1453
 477  436.5456
 478  565.1334
 479  574.7007
 480  479.9444
 481  558.8693
 482  561.322
 483  607.4654
 484  598.1785
 485  733.8102
 486  771.8623
 487  709.782
 488  583.765
 489  494.9336
 490  518.7085
 491  545.6141
 492  679.2979
 493  700.6827
 494  661.7339
 495  473.9235
 496  404.6866
 497  467.2761
 498  670.6619
 499  723.2239
 500  771.8651
 501  637.1754
 502  500.4992
 503  436.2994
 504  466.8342
 505  510.2378
 506  475.7359
 507  437.4872
 508  426.0349
 509  384.4109
 510  411.3623
 511  405.6176
 512  423.2151
 513  557.9696
 514  630.2224
 515  631.0787
 516  647.0309
 517  723.72
 518  759.9756
 519  662.2642
 520  599.8293
 521  636.3959
 522  595.2829
 523  534.5482
 524  437.4038
 525  450.7066
 526  556.2873
 527  609.9798
 528  600.3129
 529  560.5165
 530  621.0752
 531  663.2126
 532  702.3112
 533  738.0162
 534  702.6097
 535  573.612
 536  477.1153
 537  462.8518
 538  605.4445
 539  721.4999
 540  781.5843
 541  718.087
 542  775.6495
 543  652.1641
 544  606.8008
 545  452.9233
 546  513.7886
 547  627.8751
 548  680.2794
 549  572.1966
 550  546.1782
 551  455.2993
 552  487.3524
 553  446.0681
 554  556.8157
 555  624.226
 556  608.8076
 557  544.0454
 558  591.7843
 559  574.6368
 560  652.9345
 561  622.8055
 562  641.371
 563  708.6855
 564  735.6653
 565  809.8141
 566  830.7101
 567  865.6682
 568  724.334
 569  662.6471
 570  572.3994
 571  581.3309
 572  448.0699
 573  468.6484
 574  551.7962
 575  675.5381
 576  792.1709
 577  838.6955
 578  839.8696
 579  822.899
 580  811.6839
 581  748.382
 582  663.5627
 583  574.7696
 584  561.4507
 585  625.0522
 586  571.0673
 587  608.3438
 588  518.8599
 589  561.5972
 590  632.7253
 591  780.0713
 592  872.0892
 593  792.6142
 594  655.1233
 595  562.759
 596  489.4298
 597  553.3527
 598  612.5052
 599  645.4681
 600  588.3019
 601  558.0219
 602  509.7116
 603  466.8512
 604  439.7502
 605  412.524
 606  476.0568
 607  466.2395
 608  434.0604
 609  343.6405
 610  192.4502
 611  232.7912
 612  344.9243
 613  495.5288
 614  404.9993
 615  303.2766
 616  411.2083
 617  591.235
 618  640.5658
 619  616.9811
 620  743.9591
 621  936.5218
 622  1017.814
 623  1008.905
 624  962.7137
 625  902.9209
 626  725.7499
 627  655.6436
 628  760.9795
 629  888.1796
 630  884.5234
 631  838.983
 632  854.8401
 633  866.0651
 634  857.6846
 635  755.917
 636  785.6302
 637  812.0714
 638  768.5515
 639  687.8132
 640  612.2038
 641  616.6387
 642  666.4699
 643  727.5129
 644  791.4927
 645  718.3675
 646  681.5019
 647  533.3243
 648  524.5134
 649  608.3124
 650  682.8193
 651  732.9234
 652  529.951
 653  530.188
 654  517.4633
 655  681.0088
 656  709.0604
 657  662.3322
 658  635.6861
 659  623.0952
 660  616.8586
 661  670.4341
 662  754.9404
 663  857.397
 664  844.0105
 665  746.7764
 666  719.9916
 667  630.3938
 668  581.9597
 669  426.7999
 670  490.343
 671  470.5155
 672  471.5555
 673  469.8292
 674  490.5638
 675  540.2544
 676  596.392
 677  579.557
 678  621.7823
 679  617.0197
 680  766.5726
 681  779.2927
 682  767.5748
 683  663.9084
 684  678.5333
 685  577.5696
 686  602.1672
 687  571.6698
 688  650.4634
 689  576.0859
 690  529.6561
 691  529.2645
 692  595.9487
 693  686.6683
 694  745.0075
 695  832.491
 696  786.2562
 697  684.0235
 698  677.8683
 699  742.9492
 700  705.0336
 701  643.2778
 702  665.1215
 703  747.4562
 704  779.1536
 705  661.4944
 706  681.2014
 707  779.1677
 708  848.9335
 709  795.1308
 710  589.3206
 711  524.3038
 712  541.8645
 713  560.609
 714  540.713
 715  518.1812
 716  446.5774
 717  464.4635
 718  520.8059
 719  629.4697
 720  672.757
 721  680.9639
 722  716.0764
 723  733.8673
 724  634.3441
 725  498.7079
 726  360.8896
 727  390.76
 728  490.2181
 729  654.1754
 730  683.0197
 731  577.5812
 732  506.3888
 733  516.799
 734  473.0467
 735  515.3632
 736  551.9151
 737  595.5363
 738  483.4066
 739  530.0511
 740  573.564
 741  693.2812
 742  649.6054
 743  665.2192
 744  576.9443
 745  659.6469
 746  747.0895
 747  875.2166
 748  868.3604
 749  898.0054
 750  806.1852
 751  862.0411
 752  875.7612
 753  1024.516
 754  1083.092
 755  1183.795
 756  1143.913
 757  1193.248
 758  1151.773
 759  1204.618
 760  1141.204
 761  1071.433
 762  954.1444
 763  871.5197
 764  816.4367
 765  702.0734
 766  512.2502
 767  352.4515
 768  443.8754
 769  595.4392
 770  686.8704
 771  672.687
 772  634.7529
 773  637.9291
 774  628.5287
 775  616.3309
 776  569.2697
 777  585.5591
 778  594.2947
 779  555.0984
 780  505.273
 781  470.8987
 782  500.0633
 783  523.3551
 784  529.614
 785  574.7715
 786  653.3397
 787  612.3027
 788  577.0917
 789  606.0627
 790  648.9113
 791  568.4399
 792  602.3053
 793  699.4263
 794  756.364
 795  824.4881
 796  825.6221
 797  877.0413
 798  776.8427
 799  726.0136
 800  566.3887
 801  432.9484
 802  401.5428
 803  463.9643
 804  511.818
 805  627.0071
 806  637.9749
 807  664.2377
 808  633.4016
 809  615.8553
 810  655.4597
 811  594.3341
 812  511.4305
 813  504.9192
 814  599.1658
 815  763.2351
 816  728.2265
 817  666.5886
 818  555.9078
 819  481.5819
 820  442.045
 821  468.0128
 822  585.2246
 823  505.9155
 824  483.9226
 825  465.1502
 826  548.223
 827  431.4891
 828  381.1118
 829  439.9117
 830  543.2031
 831  554.3803
 832  595.9622
 833  683.3917
 834  687.4921
 835  588.8077
 836  530.3802
 837  510.6003
 838  536.398
 839  473.7654
 840  518.8937
 841  537.7905
 842  586.1891
 843  526.0425
 844  605.6188
 845  652.0501
 846  701.1639
 847  572.4406
 848  567.3174
 849  551.2416
 850  639.1288
 851  524.7286
 852  520.5428
 853  579.5314
 854  725.1044
 855  690.0856
 856  627.4836
 857  595.5646
 858  641.7347
 859  642.5595
 860  587.9235
 861  545.142
 862  521.5236
 863  674.9094
 864  789.62
 865  812.6777
 866  686.1412
 867  574.621
 868  412.8953
 869  356.8574
 870  384.8748
 871  365.6022
 872  350.5939
 873  421.1294
 874  565.86
 875  555.2035
 876  511.0931
 877  506.6188
 878  569.7303
 879  591.0624
 880  567.6782
 881  544.8187
 882  569.7454
 883  602.8357
 884  641.4446
 885  667.3707
 886  705.6486
 887  658.2381
 888  600.2381
 889  500.7564
 890  477.7223
 891  446.9612
 892  354.6783
 893  366.5255
 894  402.4721
 895  509.0831
 896  631.2866
 897  630.3866
 898  558.1346
 899  425.011
 900  473.6344
 901  477.2049
 902  525.6542
 903  499.2094
 904  524.3146
 905  533.3563
 906  535.8541
 907  673.9395
 908  651.1157
 909  719.3261
 910  560.4767
 911  544.2754
 912  494.6949
 913  642.8109
 914  649.3508
 915  516.2186
 916  421.3291
 917  514.3248
 918  590.6329
 919  593.4772
 920  693.4485
 921  859.8392
 922  828.7411
 923  659.4191
 924  440.7377
 925  276.4787
 926  329.86
 927  352.6252
 928  658.2365
 929  730.8854
 930  787.1747
 931  622.166
 932  613.5225
 933  688.8241
 934  713.2496
 935  631.4117
 936  523.5543
 937  588.0101
 938  669.4351
 939  698.2025
 940  518.9902
 941  359.9
 942  299.2388
 943  462.3434
 944  573.7872
 945  530.6151
 946  477.9618
 947  426.3561
 948  534.1312
 949  593.1624
 950  630.9318
 951  468.2905
 952  458.0604
 953  498.588
 954  621.6125
 955  616.647
 956  646.0164
 957  531.0023
 958  469.8383
 959  406.6548
 960  456.3737
 961  522.4438
 962  633.6666
 963  697.8353
 964  769.4318
 965  656.3682
 966  573.6079
 967  558.6615
 968  645.3734
 969  628.2319
 970  514.6473
 971  453.5724
 972  450.5824
 973  504.9377
 974  513.619
 975  529.4321
 976  548.1929
 977  561.9296
 978  562.0925
 979  567.9886
 980  488.486
 981  421.2227
 982  434.3547
 983  452.333
 984  387.2717
 985  440.6477
 986  457.2491
 987  528.9467
 988  588.8632
 989  586.6935
 990  589.57
 991  462.6921
 992  603.0834
 993  609.8919
 994  625.6991
 995  611.0474
 996  653.9592
 997  721.4735
 998  642.8514
 999  522.9167
1000  463.3496
1001  529.1195
1002  550.8124
1003  490.1955
1004  348.3965
1005  297.4747
1006  331.6449
1007  319.2016
1008  191.8327
1009  113.8524
1010  297.4322
1011  454.3522
1012  556.7087
1013  551.2789
1014  572.1083
1015  576.5012
1016  590.9459
1017  599.2287
1018  506.7334
1019  412.5406
1020  387.3133
1021  388.1298
1022  458.5594
1023  498.6691
