# Input file       =  1179805725.112519_cleaned.dat
# Candidate        =  PSR_0332+5434
# Telescope        =  AR
# Epoch_topo       =  57899.159075376381
# Epoch_bary       =  N/A
# T_sample         =  0.002
# Data Folded      =  7208960
# Data Avg         =  0.155323091183196
# Data StdDev      =  5.26769953769225 
# Profile Bins     =  256
# Profile Avg      =  4374.65123143623 
# Profile StdDev   =  883.969581541351 
# Reduced chi-sqr  =  0.528
# Prob(Noise)      <  1   (~0.0 sigma)
# P_topo (ms)      =  714.522316441661  +/- 0.000102
# P'_topo (s/s)    =  -0                +/- 5.46e-11
# P''_topo (s/s^2) =  0                 +/- 2.45e-14
# P_bary (ms)      =  N/A
# P'_bary (s/s)    =  N/A
# P''_bary (s/s^2) =  N/A
# P_orb (s)        =  N/A
# asin(i)/c (s)    =  N/A
# eccentricity     =  N/A
# w (rad)          =  N/A
# T_peri           =  N/A
######################################################
   0  4227.958
   1  4873.595
   2  3707.24
   3  3134.14
   4  4959.734
   5  5086.047
   6  3903.559
   7  3423.464
   8  4587.258
   9  3522.797
  10  3953.047
  11  3834.837
  12  5005.565
  13  4808.287
  14  4334.909
  15  4698.409
  16  4145.038
  17  4765.385
  18  4504.012
  19  3978.94
  20  3658.796
  21  4480.904
  22  4790.106
  23  4850.601
  24  4268.158
  25  5158.115
  26  5792.796
  27  5015.119
  28  4029.808
  29  5407.456
  30  4960.711
  31  3890.241
  32  3932.396
  33  4199.06
  34  4078.677
  35  3344.05
  36  2722.545
  37  3452.095
  38  4883.422
  39  5070.161
  40  4066.122
  41  4527.581
  42  5065.583
  43  4232.429
  44  4470.118
  45  4299.059
  46  5985.38
  47  5015.852
  48  4516.767
  49  4598.643
  50  4336.575
  51  4336.542
  52  4768.694
  53  4496.637
  54  4636.844
  55  4669.592
  56  4419.303
  57  3863.872
  58  3310.163
  59  3812.118
  60  4587.377
  61  4691.873
  62  3841.943
  63  4546.948
  64  4456.406
  65  4304.573
  66  4219.178
  67  5313.294
  68  5900.651
  69  5237.204
  70  5509.928
  71  5977.699
  72  4151.121
  73  4387.971
  74  4655.021
  75  4366.217
  76  4627.295
  77  4484.932
  78  3774.502
  79  3914.993
  80  3795.261
  81  3493.383
  82  4119.666
  83  3559.082
  84  3588.021
  85  4152.542
  86  4097.991
  87  4536.04
  88  4089.735
  89  4750.592
  90  3756.989
  91  4375.839
  92  4747.549
  93  4533.386
  94  4100.481
  95  4985.782
  96  5420.744
  97  5677.748
  98  4082.156
  99  4072.858
 100  4741.671
 101  4876.107
 102  3905.448
 103  4352.818
 104  5425.913
 105  4785.156
 106  4543.033
 107  5211.264
 108  4503.435
 109  4925.207
 110  4510.596
 111  4433.193
 112  4262.788
 113  4423.749
 114  4267.899
 115  3902.292
 116  4910.175
 117  4072.78
 118  4544.718
 119  4278.602
 120  4272.717
 121  4519.267
 122  4062.3
 123  4028.431
 124  4388.93
 125  4929.691
 126  4617.394
 127  3811.08
 128  3439.055
 129  4432.33
 130  5227.88
 131  3644.185
 132  3514.737
 133  3490.334
 134  4548.049
 135  4012.049
 136  3812.026
 137  4050.532
 138  4269.07
 139  3875.885
 140  4105.182
 141  4133.979
 142  4258.718
 143  3857.92
 144  3706.695
 145  4680.468
 146  4578.45
 147  4114.225
 148  3926.154
 149  4128.985
 150  4343.584
 151  4715.176
 152  4871.305
 153  4622.184
 154  4973.2
 155  4337.35
 156  4474.526
 157  3965.134
 158  4291.116
 159  4357.667
 160  4304.587
 161  5425.5
 162  5056.028
 163  4846.429
 164  5944.278
 165  5110.108
 166  4242.757
 167  4151.07
 168  4021.81
 169  4491.673
 170  4737.698
 171  4764.03
 172  3459.311
 173  4298.327
 174  4293.153
 175  4137.425
 176  4298.321
 177  4085.238
 178  4330.646
 179  4617.078
 180  4661.719
 181  3899.239
 182  4517.167
 183  4115.701
 184  4116.298
 185  3320.352
 186  3557.982
 187  3978.6
 188  3938.557
 189  3648.235
 190  3973.029
 191  4586.571
 192  5335.181
 193  4355.403
 194  4264.205
 195  4665.916
 196  4659.833
 197  4198.918
 198  4448.438
 199  4459.563
 200  4701.349
 201  4690.645
 202  4455.582
 203  4682.591
 204  4548.777
 205  3860.087
 206  3755.433
 207  4082.117
 208  4083.731
 209  4456.644
 210  4095.163
 211  4484.519
 212  4814.381
 213  4130.823
 214  4021.714
 215  3759.578
 216  4631.294
 217  4348.847
 218  4190.324
 219  5132.201
 220  5410.373
 221  4516.478
 222  3648.29
 223  5024.506
 224  5300.666
 225  4098.392
 226  4766.789
 227  5698.721
 228  4628.147
 229  4252.875
 230  4388.161
 231  3438.722
 232  3492.786
 233  4044.093
 234  4352.306
 235  3742.99
 236  5378.906
 237  5394.409
 238  4685.218
 239  4852.78
 240  4900.351
 241  4294.005
 242  3333.764
 243  3889.634
 244  4219.184
 245  4674.165
 246  4148.132
 247  3773.141
 248  3796.555
 249  3616.689
 250  4030.971
 251  3694.742
 252  4489.276
 253  4312.183
 254  4276.335
 255  3086.719
