# Input file       =  1179921519.105297_cleaned.dat
# Candidate        =  PSR_0332+5434
# Telescope        =  AR
# Epoch_topo       =  57900.499283626123
# Epoch_bary       =  N/A
# T_sample         =  0.002
# Data Folded      =  7340032
# Data Avg         =  0.030448996399907
# Data StdDev      =  1.00008637176746 
# Profile Bins     =  512
# Profile Avg      =  436.602461782346 
# Profile StdDev   =  119.743377930741 
# Reduced chi-sqr  =  1.024
# Prob(Noise)      <  0.344   (~0.4 sigma)
# P_topo (ms)      =  714.521357919358  +/- 0.000184
# P'_topo (s/s)    =  -0                +/- 9.7e-11
# P''_topo (s/s^2) =  0                 +/- 4.28e-14
# P_bary (ms)      =  N/A
# P'_bary (s/s)    =  N/A
# P''_bary (s/s^2) =  N/A
# P_orb (s)        =  N/A
# asin(i)/c (s)    =  N/A
# eccentricity     =  N/A
# w (rad)          =  N/A
# T_peri           =  N/A
######################################################
   0  306.1456
   1  395.256
   2  447.0869
   3  502.9362
   4  548.5896
   5  437.2151
   6  474.3055
   7  461.4517
   8  321.2885
   9  365.1396
  10  400.0497
  11  376.8831
  12  275.7884
  13  306.5336
  14  329.1617
  15  379.7651
  16  337.3978
  17  309.678
  18  251.1621
  19  262.3986
  20  313.2222
  21  258.3098
  22  347.0863
  23  388.4113
  24  287.1103
  25  340.1914
  26  343.036
  27  459.3288
  28  438.207
  29  512.5814
  30  472.4346
  31  355.631
  32  386.4881
  33  475.7535
  34  564.8601
  35  438.9654
  36  474.6688
  37  437.9234
  38  473.49
  39  522.202
  40  451.3663
  41  499.3235
  42  603.4308
  43  469.5139
  44  503.8519
  45  443.3301
  46  423.5274
  47  456.1081
  48  435.4071
  49  345.526
  50  313.6432
  51  394.4149
  52  413.6607
  53  328.8701
  54  463.4331
  55  429.8336
  56  327.2017
  57  308.3222
  58  263.3089
  59  383.679
  60  322.1315
  61  398.8413
  62  322.799
  63  264.461
  64  440.1278
  65  408.1139
  66  335.5539
  67  352.5968
  68  404.2135
  69  494.1288
  70  410.9319
  71  385.6982
  72  461.1937
  73  423.9892
  74  455.106
  75  459.5967
  76  387.6262
  77  279.9685
  78  333.8397
  79  551.6159
  80  573.8315
  81  529.1909
  82  427.5775
  83  568.8619
  84  485.655
  85  420.0154
  86  522.7716
  87  464.2601
  88  562.0948
  89  569.8426
  90  499.2131
  91  453.1319
  92  380.687
  93  376.613
  94  343.7651
  95  369.7808
  96  491.7457
  97  479.8242
  98  392.8625
  99  357.4406
 100  408.9127
 101  388.1786
 102  437.1317
 103  419.1712
 104  412.3517
 105  440.667
 106  319.0304
 107  386.8839
 108  403.9485
 109  379.661
 110  282.7168
 111  307.3024
 112  384.9845
 113  494.1887
 114  452.1892
 115  464.2087
 116  439.2929
 117  499.0877
 118  467.125
 119  471.8824
 120  383.1627
 121  411.3545
 122  481.0714
 123  529.1133
 124  594.3188
 125  611.104
 126  467.1753
 127  322.5994
 128  475.1698
 129  478.0556
 130  562.8057
 131  559.8303
 132  553.4838
 133  436.8109
 134  433.7631
 135  526.2392
 136  475.4597
 137  549.395
 138  427.5263
 139  331.9771
 140  485.7982
 141  500.0642
 142  475.0219
 143  454.003
 144  547.2825
 145  463.3017
 146  437.3366
 147  403.5963
 148  446.3949
 149  506.0003
 150  326.173
 151  418.8174
 152  368.8888
 153  379.2938
 154  377.7372
 155  458.8778
 156  436.1148
 157  327.2865
 158  326.2304
 159  462.5189
 160  491.5237
 161  454.1671
 162  440.9354
 163  375.3131
 164  337.0077
 165  338.2435
 166  496.0916
 167  545.4329
 168  509.7591
 169  506.8865
 170  382.1466
 171  441.7482
 172  593.8106
 173  678.7518
 174  634.0828
 175  587.4741
 176  497.8799
 177  452.9567
 178  499.8924
 179  517.9689
 180  496.4676
 181  486.4528
 182  485.0955
 183  488.997
 184  531.8597
 185  583.4682
 186  522.2807
 187  564.7751
 188  517.9504
 189  473.4154
 190  583.2531
 191  491.6332
 192  467.8699
 193  498.6892
 194  535.6703
 195  556.9747
 196  437.6221
 197  384.0905
 198  387.2044
 199  407.4717
 200  447.9614
 201  428.7211
 202  319.9165
 203  397.0972
 204  396.6956
 205  457.4487
 206  468.3733
 207  376.6715
 208  411.472
 209  334.2981
 210  448.1731
 211  474.291
 212  403.1708
 213  457.7165
 214  448.8711
 215  421.2692
 216  510.4456
 217  511.8887
 218  528.2569
 219  467.2955
 220  483.5378
 221  469.2162
 222  339.7355
 223  343.4614
 224  354.6085
 225  407.4046
 226  365.8449
 227  390.1916
 228  417.8005
 229  462.6779
 230  573.6486
 231  623.901
 232  723.4861
 233  899.4811
 234  771.7839
 235  696.2586
 236  559.8097
 237  587.3672
 238  498.742
 239  439.2595
 240  439.6274
 241  363.2222
 242  336.8975
 243  464.7563
 244  543.689
 245  528.5984
 246  521.2163
 247  481.619
 248  375.1466
 249  477.396
 250  593.2488
 251  578.7861
 252  624.5908
 253  564.5008
 254  456.2624
 255  500.7975
 256  466.5117
 257  416.6542
 258  480.2523
 259  527.5711
 260  462.0895
 261  389.06
 262  630.056
 263  524.9048
 264  588.1082
 265  483.0325
 266  412.0447
 267  369.7848
 268  356.427
 269  474.9034
 270  483.5615
 271  470.7165
 272  310.2785
 273  450.9559
 274  512.0401
 275  430.0958
 276  366.1552
 277  386.0939
 278  389.7101
 279  484.7455
 280  487.6751
 281  511.0297
 282  603.1329
 283  599.4312
 284  546.7326
 285  422.8309
 286  560.7142
 287  574.2151
 288  377.0043
 289  349.1919
 290  484.1592
 291  499.2464
 292  501.5334
 293  486.4926
 294  431.2706
 295  411.7334
 296  366.1587
 297  474.4733
 298  385.2328
 299  438.4844
 300  421.7726
 301  509.87
 302  476.059
 303  495.6657
 304  510.8265
 305  461.0633
 306  436.5246
 307  326.3285
 308  338.9633
 309  437.8506
 310  454.8373
 311  467.5474
 312  373.0996
 313  366.9491
 314  279.3561
 315  271.8719
 316  337.7599
 317  308.9609
 318  387.4738
 319  375.775
 320  385.9472
 321  258.1232
 322  265.7959
 323  331.2748
 324  438.2441
 325  400.2486
 326  273.7957
 327  254.7736
 328  320.6567
 329  271.8033
 330  330.3933
 331  353.7843
 332  285.1917
 333  310.8546
 334  369.9257
 335  343.1889
 336  315.6905
 337  388.613
 338  327.1447
 339  418.1564
 340  470.7124
 341  479.5463
 342  417.9255
 343  453.3778
 344  545.2341
 345  439.1408
 346  564.9537
 347  571.6602
 348  548.9186
 349  455.1064
 350  356.8665
 351  445.9343
 352  397.0616
 353  501.47
 354  383.2477
 355  342.9003
 356  430.6524
 357  415.4376
 358  384.4824
 359  461.192
 360  436.4056
 361  402.1555
 362  401.1046
 363  269.8676
 364  315.6031
 365  314.5988
 366  411.2276
 367  376.4845
 368  355.9191
 369  491.9197
 370  489.9254
 371  341.6612
 372  282.6795
 373  449.2745
 374  424.9616
 375  496.9805
 376  604.0462
 377  462.3984
 378  463.2212
 379  381.4053
 380  427.126
 381  547.7375
 382  413.1025
 383  486.8912
 384  470.156
 385  336.0551
 386  398.9192
 387  412.9669
 388  434.2063
 389  547.6484
 390  520.065
 391  577.8033
 392  462.2416
 393  431.8252
 394  365.9846
 395  385.7935
 396  592.9286
 397  482.6638
 398  377.3282
 399  406.5961
 400  452.9271
 401  465.9248
 402  470.3721
 403  456.2285
 404  361.6992
 405  350.9248
 406  531.8246
 407  557.5555
 408  471.9757
 409  499.0235
 410  518.528
 411  512.3138
 412  422.1313
 413  532.5022
 414  545.6345
 415  434.625
 416  482.5946
 417  492.4678
 418  434.4023
 419  477.7167
 420  459.565
 421  506.5413
 422  542.3375
 423  632.0715
 424  591.913
 425  518.9933
 426  429.1319
 427  477.6057
 428  535.0095
 429  536.9526
 430  584.0635
 431  555.0179
 432  511.5892
 433  488.687
 434  427.6087
 435  339.8917
 436  440.6513
 437  406.5837
 438  355.7374
 439  308.6375
 440  307.9702
 441  398.6894
 442  459.4261
 443  467.3946
 444  471.9497
 445  407.1373
 446  275.993
 447  240.9529
 448  330.4322
 449  467.8019
 450  383.906
 451  335.6936
 452  398.23
 453  362.3104
 454  405.155
 455  369.5638
 456  438.1454
 457  475.5475
 458  391.6368
 459  370.7658
 460  366.2652
 461  430.3368
 462  424.2018
 463  394.9156
 464  421.5289
 465  485.4667
 466  425.3129
 467  346.8231
 468  428.799
 469  499.3369
 470  478.7709
 471  475.4111
 472  321.1169
 473  304.3353
 474  351.9795
 475  304.5242
 476  362.1349
 477  483.1389
 478  473.0355
 479  480.9821
 480  551.8396
 481  570.7242
 482  532.3619
 483  452.5023
 484  370.2181
 485  382.993
 486  401.8791
 487  308.9724
 488  309.2896
 489  335.7282
 490  385.5692
 491  504.1482
 492  466.99
 493  413.6535
 494  499.1422
 495  422.1682
 496  397.1192
 497  364.0814
 498  416.5831
 499  456.9966
 500  397.4791
 501  385.9176
 502  285.6844
 503  297.0478
 504  313.7917
 505  357.3022
 506  336.7238
 507  313.4308
 508  348.4915
 509  405.4205
 510  370.1136
 511  355.0879
