# Input file       =  1179632897.101483-PSRB0329-2ms-sampling-dd.dat
# Candidate        =  PSR_0332+5434
# Telescope        =  AR
# Epoch_topo       =  57897.158751174575
# Epoch_bary       =  N/A
# T_sample         =  0.002
# Data Folded      =  7208960
# Data Avg         =  3.34094637560304e-10
# Data StdDev      =  5.59964908624314 
# Profile Bins     =  512
# Profile Avg      =  0.438101766015252
# Profile StdDev   =  664.449745306608 
# Reduced chi-sqr  =  0.429
# Prob(Noise)      <  1   (~0.0 sigma)
# P_topo (ms)      =  714.524301053137  +/- 0.000116
# P'_topo (s/s)    =  -0                +/- 6.22e-11
# P''_topo (s/s^2) =  0                 +/- 2.8e-14
# P_bary (ms)      =  N/A
# P'_bary (s/s)    =  N/A
# P''_bary (s/s^2) =  N/A
# P_orb (s)        =  N/A
# asin(i)/c (s)    =  N/A
# eccentricity     =  N/A
# w (rad)          =  N/A
# T_peri           =  N/A
######################################################
   0  401.8797
   1  611.7206
   2  450.9536
   3  382.0287
   4  290.9272
   5  367.0864
   6  -47.26984
   7  470.1439
   8  291.1584
   9  -214.1498
  10  -152.1304
  11  -180.1289
  12  -289.7287
  13  -383.2097
  14  -225.3334
  15  -65.62207
  16  -21.37608
  17  -195.1637
  18  -130.1075
  19  -191.3823
  20  -11.07226
  21  256.2751
  22  27.02306
  23  273.8998
  24  504.7168
  25  548.0947
  26  462.3857
  27  369.595
  28  487.6053
  29  482.6652
  30  -114.075
  31  -130.7377
  32  -37.24392
  33  -95.65475
  34  -86.09011
  35  -276.7736
  36  -52.20935
  37  -342.6038
  38  -490.2944
  39  -566.1418
  40  -385.3649
  41  274.0663
  42  -122.1441
  43  -87.42348
  44  -500.6232
  45  -645.1284
  46  -517.8902
  47  -355.1509
  48  186.1542
  49  655.5496
  50  653.773
  51  104.2998
  52  137.9064
  53  359.5701
  54  456.3783
  55  1023.326
  56  1248.287
  57  1267.715
  58  1012.347
  59  259.6984
  60  -68.63242
  61  197.6032
  62  124.8631
  63  175.8571
  64  366.1888
  65  272.3645
  66  637.0926
  67  733.8724
  68  347.7612
  69  80.57743
  70  161.7873
  71  404.3091
  72  574.3755
  73  493.82
  74  183.4986
  75  -322.027
  76  166.5143
  77  364.8341
  78  125.0563
  79  80.90882
  80  97.11112
  81  245.0155
  82  294.4537
  83  366.8603
  84  150.2633
  85  142.3477
  86  -187.6569
  87  -207.3066
  88  113.0552
  89  -37.46227
  90  467.424
  91  484.3248
  92  343.2907
  93  260.344
  94  286.757
  95  138.6855
  96  -187.2108
  97  29.41327
  98  -137.0229
  99  -399.6776
 100  -413.5254
 101  -311.5869
 102  132.4819
 103  297.037
 104  -70.2868
 105  -250.1184
 106  -346.7469
 107  -348.5719
 108  -215.1952
 109  -489.6537
 110  -82.48555
 111  -44.3152
 112  570.2204
 113  318.149
 114  -118.9527
 115  -194.0431
 116  -87.96004
 117  76.27261
 118  -41.82254
 119  -360.3427
 120  -414.1077
 121  -259.4994
 122  48.95479
 123  307.8941
 124  509.954
 125  224.7905
 126  -79.34708
 127  129.1488
 128  -138.8989
 129  -150.3666
 130  140.7657
 131  125.3031
 132  435.9594
 133  549.6683
 134  227.2352
 135  45.23611
 136  63.65553
 137  183.2984
 138  291.6341
 139  225.905
 140  155.9162
 141  87.72897
 142  -7.307785
 143  -320.0998
 144  -165.3602
 145  -281.6283
 146  -343.2696
 147  48.46792
 148  386.6426
 149  14.40616
 150  -201.532
 151  -285.9716
 152  -198.4016
 153  -126.3381
 154  -47.51906
 155  261.1116
 156  -46.28158
 157  184.6847
 158  204.1319
 159  396.8835
 160  261.7448
 161  95.03784
 162  -20.45166
 163  -129.0395
 164  -5.871975
 165  24.35373
 166  238.031
 167  58.17716
 168  156.9553
 169  -25.40604
 170  151.0397
 171  224.7475
 172  165.6207
 173  392.8258
 174  352.0045
 175  202.7477
 176  -24.9838
 177  -249.2712
 178  -248.8219
 179  -27.19926
 180  -15.49539
 181  -192.2601
 182  14.22361
 183  -44.31342
 184  365.6878
 185  177.5235
 186  384.2446
 187  219.939
 188  163.6891
 189  58.09465
 190  -138.9548
 191  170.4123
 192  33.86404
 193  228.9689
 194  18.9869
 195  -404.9682
 196  -369.7482
 197  -402.535
 198  -145.5969
 199  -4.708439
 200  -36.02129
 201  19.63057
 202  -701.0414
 203  -356.403
 204  -418.2089
 205  -326.8865
 206  12.76906
 207  -200.6275
 208  -390.2237
 209  -231.9696
 210  -88.84164
 211  -168.4037
 212  -89.27151
 213  300.7137
 214  302.4223
 215  -264.0155
 216  -299.3308
 217  -240.0095
 218  -431.9298
 219  -81.42693
 220  200.3085
 221  663.3906
 222  547.3393
 223  139.222
 224  -250.3091
 225  -455.0984
 226  -225.2269
 227  72.91696
 228  -74.99688
 229  -44.44464
 230  413.9427
 231  339.5247
 232  -6.867657
 233  -206.8094
 234  -165.3997
 235  -205.8195
 236  -236.4852
 237  88.15781
 238  29.07042
 239  102.3885
 240  -110.3478
 241  -463.0923
 242  -292.9872
 243  -171.6796
 244  -175.7623
 245  -370.4312
 246  -626.1741
 247  -532.9367
 248  -384.2561
 249  -158.4519
 250  -197.1138
 251  -44.44412
 252  94.37905
 253  -204.6136
 254  -18.15595
 255  -245.2318
 256  -177.5765
 257  -171.9778
 258  42.49302
 259  -185.4861
 260  -118.9437
 261  91.03316
 262  -299.8366
 263  79.92262
 264  8.266211
 265  -320.3645
 266  -152.9872
 267  141.5601
 268  203.1079
 269  -56.82301
 270  310.2017
 271  -6.356961
 272  164.4018
 273  253.8409
 274  497.0614
 275  396.4147
 276  -28.61898
 277  49.86962
 278  -364.0714
 279  -60.34172
 280  -379.8623
 281  -144.5526
 282  535.5229
 283  899.0624
 284  903.5718
 285  369.5135
 286  -7.130104
 287  -139.6647
 288  203.263
 289  180.0132
 290  218.246
 291  537.9419
 292  404.8157
 293  597.8986
 294  311.2375
 295  107.393
 296  -267.4737
 297  -114.1992
 298  -46.21883
 299  -141.0237
 300  31.78798
 301  -115.2308
 302  -134.5189
 303  -1.953905
 304  396.9772
 305  444.4785
 306  41.09945
 307  263.6741
 308  20.17908
 309  -125.3071
 310  190.14
 311  88.51886
 312  -106.0617
 313  -189.284
 314  33.55922
 315  -137.7172
 316  -192.7146
 317  -37.0916
 318  -365.8305
 319  -301.6638
 320  -191.2339
 321  156.909
 322  279.7676
 323  463.3839
 324  211.4204
 325  86.78288
 326  242.0767
 327  -31.18881
 328  -231.8769
 329  18.62657
 330  389.8541
 331  36.8969
 332  -118.3208
 333  -137.4212
 334  42.96985
 335  474.4363
 336  -51.29504
 337  -188.5984
 338  -321.9384
 339  -307.8309
 340  -499.8679
 341  -44.4566
 342  207.259
 343  -531.9117
 344  -552.136
 345  -631.0259
 346  -272.456
 347  -221.5485
 348  -230.7207
 349  -160.626
 350  391.1755
 351  439.4517
 352  -312.0316
 353  -157.1702
 354  -215.2951
 355  -153.9145
 356  -219.5118
 357  -75.5203
 358  -308.5446
 359  -268.8429
 360  -297.2924
 361  -310.5096
 362  -523.8671
 363  -411.0745
 364  -281.1772
 365  -876.8574
 366  -637.7848
 367  -224.2309
 368  -362.0443
 369  -422.6306
 370  -502.3875
 371  103.0016
 372  -161.1119
 373  -407.648
 374  -471.1728
 375  -332.7955
 376  -295.6195
 377  -341.994
 378  136.0317
 379  -11.24098
 380  172.4147
 381  -70.1821
 382  -514.4117
 383  -320.8158
 384  -210.2159
 385  -210.3294
 386  -257.4206
 387  49.41218
 388  274.1023
 389  281.5772
 390  -188.5205
 391  -249.2052
 392  112.8878
 393  206.8589
 394  -133.0432
 395  -334.4395
 396  -152.5692
 397  -150.9344
 398  -507.575
 399  -562.6642
 400  -179.2593
 401  28.64332
 402  -105.3246
 403  -20.33279
 404  301.787
 405  -278.3113
 406  -388.2052
 407  -363.8657
 408  -466.0773
 409  -403.3087
 410  -206.0521
 411  -4.865943
 412  38.59422
 413  185.0692
 414  71.04827
 415  -651.3742
 416  -291.0071
 417  -5.032685
 418  395.0609
 419  177.0979
 420  531.4329
 421  539.4814
 422  0.9180797
 423  -398.5019
 424  -82.21497
 425  -3.651414
 426  -92.98021
 427  -339.9947
 428  -401.719
 429  -394.7907
 430  -476.3788
 431  -356.8
 432  -134.887
 433  212.2026
 434  402.8872
 435  -176.8938
 436  -580.4419
 437  -200.8561
 438  346.2981
 439  169.5675
 440  -285.0951
 441  -325.9753
 442  -146.1043
 443  -85.97635
 444  -28.36295
 445  430.1231
 446  111.2483
 447  -106.457
 448  -89.01794
 449  -24.91553
 450  -136.8836
 451  -184.2274
 452  148.1733
 453  412.9854
 454  165.4948
 455  390.2925
 456  288.4984
 457  -74.35722
 458  -438.834
 459  -269.2192
 460  -49.26288
 461  -64.84888
 462  671.3321
 463  913.3969
 464  471.9598
 465  219.1721
 466  334.3133
 467  56.26083
 468  -4.684625
 469  273.674
 470  424.0047
 471  381.0984
 472  108.4538
 473  -97.46121
 474  145.2093
 475  -57.24553
 476  29.37034
 477  -20.21972
 478  -11.15523
 479  229.9265
 480  251.8593
 481  -292.7326
 482  -769.8704
 483  -521.4424
 484  -178.735
 485  145.1679
 486  513.1529
 487  562.7433
 488  -52.47552
 489  -133.013
 490  -337.5941
 491  -154.6593
 492  -169.9132
 493  -203.5514
 494  -18.67823
 495  165.0031
 496  -127.2678
 497  -453.7675
 498  -682.327
 499  -678.9863
 500  -97.92191
 501  148.3645
 502  -163.9221
 503  149.6339
 504  344.9358
 505  148.3251
 506  -140.7869
 507  378.3267
 508  250.628
 509  103.5133
 510  271.6698
 511  318.1902
