# Input file       =  1179977562.10106_cleaned.dat
# Candidate        =  PSR_0332+5434
# Telescope        =  AR
# Epoch_topo       =  57901.147929410414
# Epoch_bary       =  N/A
# T_sample         =  0.002
# Data Folded      =  7208960
# Data Avg         =  0.178607160168361
# Data StdDev      =  5.1003091560419  
# Profile Bins     =  512
# Profile Avg      =  2514.68072909424 
# Profile StdDev   =  605.198480748129 
# Reduced chi-sqr  =  1.111
# Prob(Noise)      <  0.0409   (~1.7 sigma)
# P_topo (ms)      =  714.520356716191  +/- 2.82e-05
# P'_topo (s/s)    =  -0                +/- 1.52e-11
# P''_topo (s/s^2) =  0                 +/- 6.82e-15
# P_bary (ms)      =  N/A
# P'_bary (s/s)    =  N/A
# P''_bary (s/s^2) =  N/A
# P_orb (s)        =  N/A
# asin(i)/c (s)    =  N/A
# eccentricity     =  N/A
# w (rad)          =  N/A
# T_peri           =  N/A
######################################################
   0  2255.936
   1  2096.77
   2  1751.191
   3  2052.896
   4  2464.061
   5  3077.082
   6  2834.405
   7  2315.881
   8  2416.894
   9  2307.589
  10  2588.451
  11  2990.156
  12  3060.293
  13  3061.471
  14  3083.924
  15  2440.26
  16  2401.386
  17  2396.876
  18  2283.833
  19  2287.738
  20  2723.95
  21  2852.76
  22  2875.569
  23  2921.482
  24  2510.381
  25  2628.376
  26  2325.928
  27  2798.559
  28  2841.503
  29  2876.837
  30  3081.525
  31  2684.642
  32  2397.843
  33  2490.817
  34  2411.674
  35  2635.454
  36  2586.219
  37  2768.077
  38  2840.925
  39  3161.607
  40  2714.045
  41  2281.78
  42  2560.816
  43  3057.333
  44  3282.939
  45  3601.825
  46  3667.827
  47  3048.975
  48  2466.261
  49  2322.328
  50  2309.463
  51  2546.459
  52  2522.214
  53  2927.621
  54  3122.612
  55  2806.931
  56  2529.083
  57  2731.618
  58  2796.745
  59  2643.706
  60  2856.359
  61  3147.354
  62  3288.784
  63  3175.289
  64  2749.569
  65  2452.903
  66  1916.792
  67  2097.797
  68  2060.573
  69  2095.896
  70  2854.459
  71  2869.192
  72  2988.04
  73  2390.981
  74  2155.215
  75  2281.138
  76  2029.941
  77  2310.687
  78  2850.781
  79  3138.913
  80  2702.387
  81  2390.373
  82  2343.145
  83  2444.749
  84  2046.471
  85  1456.293
  86  2531.465
  87  3270.908
  88  2971.629
  89  2661.902
  90  2259.364
  91  2297.125
  92  2565.428
  93  2777.137
  94  3169.392
  95  3431.982
  96  3314.865
  97  3272.454
  98  2477.725
  99  2062.199
 100  2439.087
 101  2397.994
 102  2382.618
 103  2922.386
 104  3129.555
 105  2805.668
 106  2608.625
 107  2411.122
 108  2277.752
 109  2535.165
 110  2780.442
 111  3243.517
 112  2787.183
 113  2546.221
 114  2582.685
 115  2206.537
 116  2157.566
 117  2302.761
 118  2227.329
 119  2799.756
 120  2690.29
 121  2555.645
 122  2271.573
 123  2095.192
 124  1839.933
 125  2489.056
 126  2848.004
 127  2841.418
 128  2788.303
 129  2887.059
 130  2361.283
 131  2023.816
 132  2124.881
 133  2264.929
 134  2194.418
 135  2484.756
 136  2958.244
 137  2973.731
 138  2896.599
 139  2752.646
 140  2224.711
 141  2142.623
 142  2380.114
 143  2789.638
 144  2827.436
 145  2984.961
 146  3153.413
 147  2487.95
 148  2161.444
 149  2004.431
 150  1511.415
 151  1647.169
 152  1985.777
 153  3021.361
 154  3196.005
 155  2673.061
 156  2630.123
 157  2152.477
 158  2496.549
 159  2634.658
 160  2454.267
 161  3090.172
 162  3249.011
 163  2905.184
 164  2266.426
 165  2290.49
 166  2319.163
 167  2362.902
 168  2408.946
 169  2433.503
 170  2997.875
 171  2905.302
 172  2737.723
 173  2358.321
 174  2513.896
 175  2828.896
 176  2658.933
 177  2944.89
 178  3213.251
 179  2912.02
 180  2763.287
 181  2536.864
 182  2597.702
 183  2250.581
 184  2053.307
 185  2501.459
 186  3075.518
 187  2573.252
 188  2218.669
 189  2109.568
 190  2501.597
 191  2466.848
 192  2566.372
 193  3087.965
 194  3056.564
 195  2662.083
 196  2306.975
 197  2264.11
 198  1712.452
 199  1701.806
 200  1951.239
 201  2474.182
 202  2630.174
 203  2608.13
 204  2524.192
 205  1988.86
 206  1440.209
 207  2031.32
 208  2389.858
 209  2650.984
 210  2953.033
 211  3082.768
 212  2894.851
 213  2458.28
 214  2130.03
 215  2106.545
 216  1653.037
 217  2034.792
 218  3078.41
 219  3412.988
 220  2904.919
 221  2559.578
 222  2415.476
 223  2269.639
 224  1871.692
 225  2380.505
 226  2667.577
 227  2718.013
 228  2972.685
 229  2931.185
 230  2852.822
 231  2565.415
 232  2226.978
 233  1832.072
 234  2318.203
 235  2761.981
 236  2690.428
 237  2792.698
 238  2176.697
 239  1988.201
 240  1959.564
 241  2088.812
 242  2301.717
 243  2834.195
 244  3219.483
 245  2717.788
 246  2508.234
 247  2321.035
 248  1827.871
 249  1947.729
 250  2136.957
 251  2282.279
 252  2822.616
 253  2705.075
 254  2175.141
 255  1888.715
 256  1842.278
 257  1908.797
 258  2355.72
 259  2463.031
 260  3422.11
 261  3324.607
 262  2547.874
 263  2419.814
 264  2690.587
 265  2576.263
 266  2375.719
 267  1946.778
 268  2611.006
 269  2925.781
 270  2384.887
 271  1941.748
 272  2070.234
 273  2166.883
 274  2318.209
 275  2531.027
 276  3110.045
 277  2930.477
 278  2391.131
 279  2077.48
 280  1506.205
 281  1950.732
 282  2198.808
 283  2238.978
 284  2283.602
 285  2630.195
 286  2555.033
 287  2368.979
 288  2063.721
 289  1992.942
 290  2342.533
 291  2508.111
 292  2526.623
 293  3245.746
 294  3193.537
 295  2437.785
 296  1855.373
 297  1686.505
 298  1673.492
 299  2113.708
 300  2389.552
 301  2868.393
 302  2659.14
 303  2620.358
 304  2178.091
 305  2250.232
 306  2109.536
 307  2140.006
 308  2583.407
 309  2710.753
 310  2966.656
 311  2925.511
 312  2593.487
 313  1776.587
 314  1824.903
 315  2189.469
 316  2241.543
 317  2298.122
 318  2567.018
 319  2674.328
 320  2374.734
 321  2004.098
 322  1993.251
 323  2226.484
 324  2341.247
 325  3155.592
 326  4021.53
 327  3992.076
 328  4238.674
 329  3971.079
 330  3817.408
 331  3009.79
 332  2478.432
 333  2597.531
 334  2939.117
 335  2976.623
 336  2999.944
 337  2540.117
 338  2124.802
 339  2450.992
 340  2968.033
 341  2453.447
 342  2762.312
 343  3652.142
 344  3484.858
 345  2755.709
 346  2306.136
 347  2360.487
 348  2194.942
 349  1908.349
 350  2422.343
 351  3032.079
 352  3067.725
 353  2721.5
 354  2433.471
 355  2278.451
 356  2072.62
 357  2461.095
 358  2881.97
 359  3098.033
 360  3005.757
 361  2784.216
 362  2464.501
 363  1919.821
 364  1933.396
 365  1703.411
 366  1938.695
 367  2145.733
 368  2899.597
 369  2539.851
 370  1853.92
 371  1472.494
 372  1825.559
 373  2394.927
 374  2410.207
 375  2640.503
 376  2617.189
 377  2648.26
 378  1736.964
 379  1610.464
 380  1591.162
 381  1334.99
 382  1936.151
 383  2545.413
 384  2745.653
 385  2498.43
 386  2287.06
 387  1816.559
 388  1570.941
 389  2000.044
 390  2678.993
 391  3051.043
 392  2776.614
 393  2841.082
 394  2655.013
 395  2215.581
 396  1579.426
 397  1825.149
 398  2013.781
 399  2030.734
 400  2588.771
 401  2821.341
 402  2660.63
 403  2371.179
 404  2222.427
 405  2183.797
 406  2038.982
 407  2642.515
 408  2755.16
 409  2850.511
 410  2735.007
 411  2570.375
 412  1972.268
 413  1618.514
 414  1985.205
 415  2469.499
 416  3221.09
 417  3566.759
 418  3337.314
 419  2614.103
 420  2000.529
 421  1541.322
 422  2319.911
 423  3013.907
 424  3323.749
 425  3472.849
 426  3267.677
 427  2475.986
 428  2200.135
 429  2483.786
 430  2341.786
 431  2283.029
 432  2392.979
 433  3092.373
 434  3352.178
 435  2609.369
 436  2164.039
 437  2036.159
 438  2103.663
 439  2585.21
 440  2832.678
 441  2712.464
 442  2885.475
 443  2974.658
 444  2879.728
 445  2255.847
 446  2067.872
 447  1850.632
 448  1499.147
 449  1808.042
 450  2588.131
 451  2632.619
 452  2125.333
 453  1728.713
 454  1896.383
 455  1931.773
 456  2070.518
 457  2322.419
 458  2873.924
 459  2902.421
 460  1995.825
 461  1848.626
 462  1937.139
 463  2114.328
 464  2346.282
 465  2610.361
 466  2375.619
 467  2566.207
 468  2315.538
 469  2224.381
 470  2147.952
 471  2131.366
 472  2628.273
 473  2852.561
 474  2739.516
 475  3080.516
 476  3253.735
 477  2441.626
 478  1774.03
 479  1676.009
 480  1962.874
 481  2413.785
 482  2470.37
 483  3235.531
 484  3037.087
 485  2605.261
 486  2248.085
 487  2029.084
 488  2019.538
 489  2527.773
 490  3111.407
 491  3360.072
 492  3200.047
 493  3012.155
 494  2295.627
 495  1878.662
 496  1892.91
 497  2160.225
 498  2862.71
 499  2652.578
 500  2657.821
 501  2966.914
 502  2717.087
 503  1999.657
 504  2166.746
 505  2560.676
 506  2857.295
 507  3162.269
 508  3381.976
 509  2884.994
 510  2647.882
 511  2315.458
