# Input file       =  1179891925.097309_cleaned.dat
# Candidate        =  PSR_0332+5434
# Telescope        =  AR
# Epoch_topo       =  57900.156760385522
# Epoch_bary       =  N/A
# T_sample         =  0.002
# Data Folded      =  7208960
# Data Avg         =  0.0300507529057617
# Data StdDev      =  1.00007058878771 
# Profile Bins     =  512
# Profile Avg      =  422.858460871462 
# Profile StdDev   =  118.667551800901 
# Reduced chi-sqr  =  1.098
# Prob(Noise)      <  0.0613   (~1.5 sigma)
# P_topo (ms)      =  714.521328617072  +/- 0.00036
# P'_topo (s/s)    =  -0                +/- 1.93e-10
# P''_topo (s/s^2) =  0                 +/- 8.69e-14
# P_bary (ms)      =  N/A
# P'_bary (s/s)    =  N/A
# P''_bary (s/s^2) =  N/A
# P_orb (s)        =  N/A
# asin(i)/c (s)    =  N/A
# eccentricity     =  N/A
# w (rad)          =  N/A
# T_peri           =  N/A
######################################################
   0  882.0912
   1  778.3364
   2  699.4073
   3  566.8719
   4  486.8951
   5  412.6411
   6  389.5508
   7  401.0647
   8  382.0269
   9  410.9058
  10  289.6248
  11  309.3359
  12  361.632
  13  300.4768
  14  373.3705
  15  411.2345
  16  395.0308
  17  341.364
  18  360.3635
  19  418.8344
  20  412.9319
  21  355.8088
  22  354.8449
  23  442.542
  24  430.5658
  25  536.4386
  26  558.1122
  27  461.5511
  28  361.6394
  29  350.6024
  30  409.8822
  31  451.7878
  32  524.9692
  33  532.8002
  34  494.9717
  35  512.0933
  36  465.9262
  37  512.8454
  38  468.9748
  39  357.5215
  40  381.6822
  41  342.0491
  42  323.0403
  43  387.7398
  44  335.0367
  45  364.265
  46  248.1728
  47  303.448
  48  365.6422
  49  342.5353
  50  273.3084
  51  322.8681
  52  454.334
  53  522.3835
  54  502.0231
  55  476.2911
  56  375.5367
  57  295.7848
  58  461.0234
  59  406.3721
  60  298.6036
  61  332.9873
  62  456.7392
  63  386.0415
  64  300.114
  65  300.1433
  66  254.1448
  67  407.6827
  68  411.2617
  69  375.5267
  70  351.6088
  71  290.756
  72  394.7279
  73  430.266
  74  420.1509
  75  414.9958
  76  432.4399
  77  437.0709
  78  414.8194
  79  328.3119
  80  499.3054
  81  457.3673
  82  412.2596
  83  472.1745
  84  479.7396
  85  491.2375
  86  422.668
  87  333.1149
  88  360.0331
  89  432.8385
  90  596.139
  91  587.1154
  92  509.5186
  93  442.6313
  94  442.3201
  95  439.9221
  96  487.0479
  97  510.9253
  98  466.3563
  99  504.623
 100  467.1165
 101  461.899
 102  498.146
 103  369.6741
 104  460.6824
 105  477.8419
 106  440.7409
 107  469.314
 108  472.4864
 109  503.2883
 110  559.6157
 111  470.8498
 112  371.5708
 113  345.9503
 114  468.125
 115  517.9379
 116  608.8937
 117  478.9609
 118  380.4766
 119  419.2989
 120  511.3807
 121  534.8755
 122  497.8184
 123  461.3126
 124  404.8297
 125  353.1136
 126  464.4043
 127  426.7065
 128  445.5608
 129  458.62
 130  447.8242
 131  398.1215
 132  388.2385
 133  372.5106
 134  455.534
 135  515.3217
 136  481.3004
 137  439.4312
 138  401.6273
 139  396.5556
 140  439.2476
 141  471.9577
 142  426.914
 143  419.6738
 144  369.4979
 145  265.2415
 146  301.4228
 147  400.3768
 148  395.5957
 149  338.125
 150  420.621
 151  497.1305
 152  515.1039
 153  424.7773
 154  355.4632
 155  375.7896
 156  529.1018
 157  512.299
 158  459.6955
 159  523.9706
 160  534.9468
 161  501.8714
 162  448.4469
 163  441.8368
 164  490.4236
 165  468.4892
 166  535.6016
 167  432.0613
 168  442.0504
 169  464.257
 170  462.949
 171  331.2333
 172  385.6646
 173  455.2987
 174  429.9675
 175  295.765
 176  454.0913
 177  443.057
 178  419.9929
 179  420.6279
 180  459.7366
 181  394.3736
 182  351.2495
 183  293.9652
 184  339.7784
 185  409.598
 186  517.989
 187  434.2207
 188  348.5663
 189  291.4036
 190  390.9328
 191  381.3168
 192  452.3111
 193  321.8342
 194  316.6544
 195  383.6178
 196  392.5274
 197  465.2145
 198  494.1741
 199  477.205
 200  405.4533
 201  416.9009
 202  424.6079
 203  355.3224
 204  317.5481
 205  305.4683
 206  259.8438
 207  143.5555
 208  290.2653
 209  213.8999
 210  271.6725
 211  291.3724
 212  342.327
 213  341.6583
 214  245.4286
 215  249.6422
 216  267.5072
 217  373.3703
 218  367.8653
 219  243.5544
 220  285.3155
 221  359.9343
 222  439.1747
 223  293.7405
 224  290.3995
 225  396.6234
 226  341.8712
 227  268.2225
 228  225.9156
 229  334.806
 230  360.8244
 231  295.696
 232  200.4506
 233  324.0672
 234  410.0759
 235  326.7861
 236  353.9077
 237  316.6796
 238  269.016
 239  321.7713
 240  357.9365
 241  429.5025
 242  417.4702
 243  424.649
 244  373.6997
 245  464.5512
 246  443.4232
 247  365.3476
 248  354.5816
 249  361.5928
 250  487.2394
 251  505.7
 252  394.5479
 253  333.967
 254  247.0023
 255  392.367
 256  397.2926
 257  372.0241
 258  427.6722
 259  394.6609
 260  361.7661
 261  402.6032
 262  487.759
 263  479.7175
 264  393.4817
 265  312.7129
 266  371.0409
 267  364.0867
 268  436.5815
 269  456.7618
 270  454.8403
 271  368.9841
 272  378.4992
 273  351.7372
 274  299.8048
 275  197.2093
 276  238.0006
 277  221.5605
 278  341.9506
 279  317.2862
 280  396.181
 281  377.4513
 282  302.3815
 283  340.9865
 284  445.1229
 285  421.7553
 286  428.6691
 287  364.9451
 288  327.3654
 289  311.6957
 290  375.4162
 291  378.183
 292  389.2691
 293  316.6281
 294  288.9785
 295  373.1338
 296  320.7295
 297  355.7668
 298  451.4941
 299  404.893
 300  380.8812
 301  493.0989
 302  415.1695
 303  458.6086
 304  438.6493
 305  514.9471
 306  536.5167
 307  567.3991
 308  525.5253
 309  420.103
 310  348.4716
 311  455.3357
 312  373.2347
 313  276.5077
 314  275.5226
 315  355.5779
 316  464.4768
 317  399.4533
 318  392.0034
 319  416.2834
 320  468.058
 321  475.9455
 322  378.333
 323  316.2823
 324  370.2613
 325  450.7017
 326  355.4034
 327  370.6871
 328  400.3499
 329  420.41
 330  356.7379
 331  453.1474
 332  454.3526
 333  535.9109
 334  507.7561
 335  469.9086
 336  403.2403
 337  439.0717
 338  498.9471
 339  394.7136
 340  405.5058
 341  387.4608
 342  444.9681
 343  483.6214
 344  504.8831
 345  556.4551
 346  509.8886
 347  424.6971
 348  423.275
 349  359.4728
 350  434.8524
 351  425.959
 352  430.2765
 353  414.5038
 354  393.8943
 355  409.2376
 356  375.4779
 357  438.7468
 358  451.776
 359  446.3014
 360  393.0088
 361  362.7092
 362  433.3794
 363  447.3544
 364  367.2892
 365  474.7598
 366  488.2124
 367  525.4668
 368  525.3617
 369  383.5876
 370  325.485
 371  279.3973
 372  332.4358
 373  264.9397
 374  329.893
 375  412.0563
 376  425.94
 377  366.4783
 378  374.1898
 379  307.4088
 380  337.6978
 381  421.5345
 382  487.6156
 383  447.6502
 384  440.4171
 385  445.8255
 386  351.9647
 387  264.6292
 388  385.89
 389  446.9405
 390  459.9509
 391  482.9565
 392  452.974
 393  371.0591
 394  361.026
 395  439.2403
 396  432.3691
 397  572.8616
 398  562.5175
 399  454.5811
 400  424.964
 401  497.3101
 402  473.8102
 403  482.6203
 404  505.1669
 405  571.7094
 406  559.9475
 407  486.8745
 408  547.115
 409  566.9034
 410  488.6279
 411  594.7145
 412  498.8439
 413  554.9282
 414  624.0449
 415  621.3016
 416  583.4205
 417  554.2204
 418  456.9543
 419  458.3986
 420  536.8571
 421  597.8443
 422  584.2943
 423  546.0755
 424  555.6377
 425  462.9613
 426  510.7602
 427  568.3933
 428  466.8134
 429  513.1987
 430  523.3987
 431  462.9874
 432  442.4755
 433  513.7263
 434  377.7803
 435  348.8758
 436  329.977
 437  343.7176
 438  462.7939
 439  509.1378
 440  385.2396
 441  327.5196
 442  322.3661
 443  252.783
 444  327.6293
 445  344.9348
 446  390.9757
 447  342.9935
 448  298.5486
 449  446.3157
 450  524.055
 451  517.9803
 452  493.8273
 453  530.2014
 454  463.5518
 455  429.4037
 456  455.3503
 457  496.9768
 458  479.815
 459  416.6899
 460  520.7651
 461  393.36
 462  526.9061
 463  490.0159
 464  512.7386
 465  500.1753
 466  466.1344
 467  449.4915
 468  457.397
 469  480.5773
 470  342.1851
 471  498.4805
 472  578.3765
 473  579.8773
 474  489.3031
 475  361.6028
 476  341.7515
 477  420.7315
 478  500.3736
 479  407.2939
 480  479.5594
 481  513.9571
 482  424.1191
 483  473.5564
 484  469.571
 485  378.1429
 486  452.506
 487  552.857
 488  580.679
 489  494.8162
 490  500.3526
 491  419.7682
 492  341.5904
 493  372.1179
 494  458.5276
 495  429.8304
 496  522.3376
 497  505.9211
 498  326.9643
 499  426.3316
 500  409.3157
 501  513.1764
 502  560.1559
 503  572.8552
 504  442.9161
 505  486.8813
 506  504.3772
 507  501.4589
 508  534.3136
 509  650.5635
 510  764.37
 511  829.4777
