# Input file       =  1179748560.125391_cleaned.dat
# Candidate        =  PSR_0332+5434
# Telescope        =  AR
# Epoch_topo       =  57898.497443580913
# Epoch_bary       =  N/A
# T_sample         =  0.002
# Data Folded      =  7340032
# Data Avg         =  0.0220840927390212
# Data StdDev      =  1.00011963955771 
# Profile Bins     =  512
# Profile Avg      =  316.543774686495 
# Profile StdDev   =  119.747361184281 
# Reduced chi-sqr  =  0.903
# Prob(Noise)      <  0.943   (~0.0 sigma)
# P_topo (ms)      =  714.523321148641  +/- 0.000327
# P'_topo (s/s)    =  -0                +/- 1.72e-10
# P''_topo (s/s^2) =  0                 +/- 7.61e-14
# P_bary (ms)      =  N/A
# P'_bary (s/s)    =  N/A
# P''_bary (s/s^2) =  N/A
# P_orb (s)        =  N/A
# asin(i)/c (s)    =  N/A
# eccentricity     =  N/A
# w (rad)          =  N/A
# T_peri           =  N/A
######################################################
   0  214.9616
   1  311.5457
   2  288.6604
   3  261.7971
   4  247.8326
   5  240.6245
   6  198.1225
   7  198.2607
   8  158.0824
   9  339.8073
  10  338.0993
  11  328.01
  12  372.3924
  13  370.1163
  14  332.3523
  15  362.9843
  16  392.0527
  17  371.2119
  18  357.9675
  19  488.886
  20  454.481
  21  460.8954
  22  313.5437
  23  334.7751
  24  416.2613
  25  334.7336
  26  411.0615
  27  337.6442
  28  338.3246
  29  391.2741
  30  354.4688
  31  367.8476
  32  382.3326
  33  277.1643
  34  458.5705
  35  419.6975
  36  355.8857
  37  343.9561
  38  273.3741
  39  301.8242
  40  322.9345
  41  357.713
  42  193.715
  43  401.3269
  44  426.7327
  45  385.4438
  46  317.1283
  47  314.598
  48  363.9529
  49  359.6052
  50  407.9193
  51  284.5495
  52  285.5629
  53  323.4303
  54  381.4651
  55  416.1413
  56  363.9114
  57  345.3979
  58  183.7034
  59  233.1587
  60  333.9531
  61  363.7744
  62  477.0019
  63  455.5288
  64  411.4124
  65  347.9565
  66  268.2071
  67  358.8952
  68  392.191
  69  244.9715
  70  238.8056
  71  358.7249
  72  336.0539
  73  298.3754
  74  375.0602
  75  369.2873
  76  308.5082
  77  216.9511
  78  278.786
  79  284.8025
  80  264.14
  81  299.0102
  82  362.5412
  83  304.3419
  84  343.3857
  85  460.379
  86  378.2714
  87  268.639
  88  340.5567
  89  359.5134
  90  430.9702
  91  538.0079
  92  377.7106
  93  231.4412
  94  328.4791
  95  402.153
  96  425.6078
  97  326.2781
  98  233.2778
  99  395.4056
 100  474.6852
 101  359.5942
 102  364.4968
 103  476.2821
 104  415.1388
 105  265.814
 106  305.4263
 107  401.7992
 108  399.0534
 109  214.7886
 110  302.7791
 111  334.3977
 112  311.2503
 113  363.8538
 114  264.2768
 115  142.7529
 116  239.2205
 117  321.5954
 118  375.9886
 119  296.8373
 120  248.785
 121  178.7344
 122  315.8491
 123  211.0157
 124  267.871
 125  261.2508
 126  217.308
 127  277.6233
 128  277.1921
 129  246.6598
 130  420.0407
 131  421.0388
 132  395.2138
 133  448.4135
 134  419.4048
 135  403.9457
 136  243.9755
 137  254.8213
 138  364.2405
 139  394.7978
 140  321.2766
 141  152.7629
 142  132.0028
 143  259.6593
 144  404.4555
 145  379.3479
 146  306.5999
 147  260.2355
 148  245.2164
 149  306.6632
 150  309.2589
 151  250.552
 152  229.1528
 153  249.9062
 154  321.1928
 155  417.6879
 156  338.2195
 157  332.6135
 158  360.8503
 159  292.8639
 160  362.6428
 161  390.3228
 162  324.3218
 163  287.3871
 164  387.5314
 165  451.4131
 166  375.0853
 167  406.0687
 168  458.6854
 169  373.6815
 170  354.8586
 171  438.0024
 172  313.008
 173  353.4694
 174  295.8595
 175  296.96
 176  350.2148
 177  501.5704
 178  396.8597
 179  319.6995
 180  421.1064
 181  413.3537
 182  420.0012
 183  295.0386
 184  233.9325
 185  257.8713
 186  299.7754
 187  289.8387
 188  279.7099
 189  340.7345
 190  361.963
 191  319.6365
 192  237.3233
 193  264.8705
 194  271.2415
 195  240.8945
 196  276.9956
 197  322.475
 198  480.7399
 199  398.1566
 200  363.7547
 201  376.988
 202  372.5025
 203  359.5329
 204  369.6517
 205  376.5214
 206  257.2436
 207  305.7632
 208  296.3429
 209  391.6359
 210  309.8443
 211  329.9574
 212  381.7179
 213  391.5822
 214  291.2381
 215  282.5571
 216  255.0571
 217  264.8955
 218  382.4402
 219  371.9232
 220  295.4244
 221  296.4803
 222  300.504
 223  215.8834
 224  300.8356
 225  259.7956
 226  227.3891
 227  273.0412
 228  229.9862
 229  236.5462
 230  305.5288
 231  375.0774
 232  249.1678
 233  191.6453
 234  263.7708
 235  365.9688
 236  294.0689
 237  169.5614
 238  226.9731
 239  317.6175
 240  289.2267
 241  193.794
 242  243.1974
 243  244.5669
 244  196.8603
 245  352.1548
 246  318.1708
 247  210.6409
 248  303.769
 249  365.5933
 250  334.1189
 251  224.7863
 252  296.6548
 253  236.9355
 254  195.0672
 255  389.1684
 256  359.1908
 257  565.7999
 258  388.5198
 259  271.8096
 260  344.3024
 261  318.8416
 262  256.4686
 263  299.9928
 264  330.1934
 265  347.7463
 266  425.2909
 267  475.4647
 268  412.9931
 269  401.7904
 270  466.3017
 271  318.9469
 272  212.5346
 273  196.3074
 274  210.4277
 275  257.5124
 276  241.3497
 277  191.595
 278  249.3509
 279  215.6211
 280  237.8432
 281  300.1518
 282  358.0521
 283  177.8451
 284  333.1168
 285  301.5625
 286  152.116
 287  173.1003
 288  147.8864
 289  400.8819
 290  260.6059
 291  252.5331
 292  296.1078
 293  429.253
 294  449.4225
 295  342.8024
 296  204.2482
 297  206.5567
 298  286.0883
 299  319.6547
 300  415.9004
 301  433.2937
 302  225.3929
 303  255.2672
 304  320.946
 305  359.1429
 306  434.6712
 307  373.9325
 308  342.7954
 309  317.3542
 310  135.7553
 311  358.9947
 312  328.6223
 313  340.5174
 314  346.774
 315  368.8453
 316  352.4225
 317  254.8256
 318  288.6774
 319  332.7614
 320  294.0513
 321  312.5146
 322  327.1586
 323  283.3748
 324  412.5764
 325  354.2255
 326  348.5262
 327  239.1351
 328  258.3027
 329  237.0399
 330  117.6974
 331  168.7355
 332  352.8824
 333  360.8727
 334  303.0929
 335  252.5783
 336  360.7568
 337  405.6205
 338  355.3471
 339  336.2324
 340  280.553
 341  359.4696
 342  434.6099
 343  257.1041
 344  230.8521
 345  222.7392
 346  109.5034
 347  202.1871
 348  259.8452
 349  357.5122
 350  303.1891
 351  273.5511
 352  288.7652
 353  300.972
 354  278.2177
 355  248.7483
 356  257.4237
 357  299.1928
 358  331.0565
 359  348.299
 360  305.2144
 361  238.9708
 362  286.8724
 363  362.1245
 364  321.7002
 365  284.0227
 366  362.0804
 367  249.6409
 368  333.1946
 369  264.1458
 370  228.633
 371  198.672
 372  421.2802
 373  442.9455
 374  357.9337
 375  306.9722
 376  412.498
 377  244.3223
 378  224.048
 379  393.1913
 380  389.5107
 381  322.76
 382  379.9121
 383  406.3492
 384  429.4271
 385  310.2395
 386  312.3047
 387  300.3988
 388  345.2006
 389  265.3924
 390  320.4506
 391  274.7097
 392  347.2644
 393  319.0399
 394  430.5754
 395  421.2207
 396  329.2785
 397  367.5191
 398  301.2437
 399  364.8203
 400  282.2329
 401  296.8101
 402  401.1326
 403  230.8776
 404  148.2189
 405  181.3524
 406  170.551
 407  306.9685
 408  212.3965
 409  87.62243
 410  88.32858
 411  156.1045
 412  190.6198
 413  235.18
 414  288.0917
 415  327.0607
 416  302.9195
 417  361.9553
 418  298.3245
 419  256.144
 420  465.1434
 421  342.8087
 422  269.9811
 423  312.1802
 424  426.438
 425  370.8091
 426  345.1589
 427  300.7732
 428  322.9941
 429  393.7885
 430  307.3647
 431  368.3942
 432  295.5761
 433  483.2858
 434  599.744
 435  691.1147
 436  624.7604
 437  569.4846
 438  444.3962
 439  482.2025
 440  401.3323
 441  343.1349
 442  277.8301
 443  335.9268
 444  273.2545
 445  397.4073
 446  345.1572
 447  191.905
 448  203.9166
 449  298.8085
 450  335.983
 451  286.3574
 452  171.9263
 453  221.3965
 454  222.6688
 455  279.7497
 456  275.7745
 457  225.496
 458  280.0413
 459  237.5878
 460  168.5179
 461  308.5305
 462  327.5895
 463  282.6327
 464  215.0925
 465  158.8284
 466  236.2002
 467  228.9242
 468  281.3445
 469  334.0526
 470  182.9255
 471  89.01672
 472  289.876
 473  351.8612
 474  348.9064
 475  358.9847
 476  400.9658
 477  280.3502
 478  231.162
 479  393.4199
 480  366.5786
 481  327.8195
 482  366.4358
 483  317.3964
 484  285.9252
 485  390.3275
 486  409.6725
 487  393.6308
 488  322.8427
 489  195.0218
 490  207.1301
 491  189.1832
 492  250.1708
 493  214.1089
 494  179.0411
 495  306.415
 496  385.5365
 497  345.0531
 498  238.7106
 499  261.9191
 500  396.9939
 501  418.396
 502  371.2875
 503  270.3169
 504  305.3098
 505  288.9444
 506  319.9655
 507  269.4939
 508  226.6322
 509  331.3971
 510  353.6106
 511  262.5724
