# Input file       =  1179044386.113434_cleaned.dat
# Candidate        =  PSR_0332+5434
# Telescope        =  AR
# Epoch_topo       =  57890.347281405484
# Epoch_bary       =  N/A
# T_sample         =  0.002
# Data Folded      =  7340032
# Data Avg         =  0.0285954620451805
# Data StdDev      =  1.00003949988733 
# Profile Bins     =  512
# Profile Avg      =  409.940101749953 
# Profile StdDev   =  119.737765818213 
# Reduced chi-sqr  =  1.063
# Prob(Noise)      <  0.156   (~1.0 sigma)
# P_topo (ms)      =  714.530998467425  +/- 0.000185
# P'_topo (s/s)    =  -0                +/- 9.77e-11
# P''_topo (s/s^2) =  0                 +/- 4.31e-14
# P_bary (ms)      =  N/A
# P'_bary (s/s)    =  N/A
# P''_bary (s/s^2) =  N/A
# P_orb (s)        =  N/A
# asin(i)/c (s)    =  N/A
# eccentricity     =  N/A
# w (rad)          =  N/A
# T_peri           =  N/A
######################################################
   0  293.6574
   1  372.147
   2  471.8487
   3  529.1732
   4  535.5281
   5  548.8727
   6  546.6276
   7  429.4563
   8  401.1636
   9  454.1588
  10  541.8911
  11  403.0898
  12  451.1364
  13  561.0121
  14  557.8463
  15  499.7373
  16  459.7458
  17  479.2953
  18  435.467
  19  397.468
  20  501.7997
  21  564.605
  22  532.6299
  23  425.32
  24  443.2647
  25  407.6433
  26  351.3504
  27  344.6043
  28  326.258
  29  462.1789
  30  374.6356
  31  413.8624
  32  348.2962
  33  295.9389
  34  352.5282
  35  309.673
  36  273.8812
  37  318.1446
  38  360.8349
  39  363.1425
  40  323.8397
  41  435.0161
  42  543.1843
  43  444.5842
  44  437.27
  45  457.0431
  46  450.3617
  47  432.9862
  48  458.4908
  49  371.4627
  50  343.0446
  51  371.1376
  52  429.6226
  53  541.1063
  54  645.1136
  55  482.0049
  56  406.2278
  57  236.9434
  58  331.2152
  59  392.1429
  60  484.3354
  61  548.5741
  62  487.5305
  63  452.5397
  64  504.5791
  65  359.9085
  66  385.7043
  67  387.3199
  68  416.8968
  69  603.2262
  70  740.8419
  71  807.0339
  72  914.4711
  73  829.573
  74  749.5296
  75  728.8077
  76  583.962
  77  428.7485
  78  378.9017
  79  381.8791
  80  466.5554
  81  416.3661
  82  384.0694
  83  440.971
  84  529.2456
  85  544.2648
  86  480.9283
  87  452.5701
  88  632.2978
  89  657.8279
  90  468.7622
  91  425.618
  92  333.7043
  93  417.7899
  94  371.0483
  95  465.2635
  96  596.9479
  97  463.8844
  98  383.2743
  99  314.3508
 100  341.737
 101  473.4792
 102  358.6035
 103  375.7559
 104  274.2317
 105  266.9471
 106  437.734
 107  272.515
 108  259.2163
 109  370.1075
 110  265.1966
 111  317.6295
 112  391.4036
 113  386.1888
 114  360.2247
 115  387.0287
 116  464.2171
 117  479.8886
 118  379.0612
 119  474.8613
 120  412.811
 121  363.6234
 122  437.7297
 123  498.6834
 124  585.105
 125  474.3319
 126  340.3773
 127  416.4811
 128  413.9796
 129  399.9924
 130  433.1245
 131  447.3536
 132  502.5125
 133  402.8347
 134  392.569
 135  504.4882
 136  435.088
 137  347.589
 138  419.6308
 139  466.3311
 140  326.1751
 141  313.2986
 142  316.1349
 143  297.7653
 144  255.536
 145  439.598
 146  428.709
 147  433.3785
 148  485.762
 149  391.747
 150  366.0505
 151  275.1744
 152  240.6888
 153  367.3303
 154  393.5247
 155  357.1338
 156  389.5324
 157  358.5869
 158  440.5042
 159  391.4876
 160  350.2713
 161  370.7303
 162  354.61
 163  456.7798
 164  459.2899
 165  414.1565
 166  420.7411
 167  379.5124
 168  372.7381
 169  347.0952
 170  333.634
 171  375.7381
 172  402.5854
 173  376.6297
 174  336.8632
 175  478.5566
 176  548.8099
 177  316.3704
 178  386.2584
 179  490.5076
 180  426.6996
 181  484.7933
 182  406.0075
 183  363.9574
 184  319.7138
 185  288.7765
 186  321.8149
 187  261.276
 188  373.6184
 189  485.5772
 190  427.183
 191  421.8466
 192  431.1055
 193  322.0726
 194  370.5704
 195  383.5191
 196  466.2458
 197  370.8011
 198  297.2463
 199  269.3541
 200  441.505
 201  474.2012
 202  439.0872
 203  431.7778
 204  428.7524
 205  352.502
 206  375.0213
 207  492.5829
 208  444.102
 209  460.0575
 210  377.0173
 211  417.9077
 212  490.4953
 213  428.166
 214  341.5659
 215  290.1459
 216  381.4052
 217  442.127
 218  343.8084
 219  363.4944
 220  429.3991
 221  394.0454
 222  412.428
 223  420.7767
 224  379.7261
 225  377.7086
 226  411.1156
 227  310.0453
 228  309.4418
 229  430.4765
 230  535.8786
 231  390.0547
 232  334.5992
 233  369.6467
 234  374.4868
 235  373.1461
 236  296.2069
 237  369.2957
 238  393.3235
 239  432.1629
 240  369.3585
 241  343.626
 242  343.6168
 243  329.6499
 244  342.3163
 245  419.7194
 246  445.3268
 247  318.2403
 248  334.8959
 249  399.535
 250  443.1645
 251  390.7895
 252  402.7128
 253  275.1664
 254  330.5172
 255  331.683
 256  351.7199
 257  450.4787
 258  421.6414
 259  396.3709
 260  301.7021
 261  301.09
 262  379.5837
 263  512.7997
 264  299.2769
 265  363.8912
 266  422.7098
 267  481.5181
 268  484.7667
 269  416.0335
 270  471.9185
 271  398.2405
 272  325.1399
 273  284.1791
 274  272.4645
 275  295.7445
 276  328.5378
 277  496.7858
 278  511.1013
 279  477.4355
 280  403.1764
 281  386.1908
 282  427.6448
 283  356.3004
 284  371.0997
 285  385.3091
 286  522.7407
 287  545.1777
 288  402.043
 289  355.1992
 290  427.3186
 291  467.6215
 292  446.0011
 293  399.6845
 294  351.3185
 295  332.0105
 296  414.3121
 297  492.9272
 298  407.5919
 299  433.0644
 300  468.0004
 301  453.894
 302  460.0472
 303  452.0506
 304  440.6632
 305  376.0988
 306  348.3328
 307  296.9872
 308  256.4626
 309  334.1618
 310  288.1043
 311  326.8636
 312  323.9462
 313  204.4329
 314  312.6488
 315  302.6057
 316  340.5096
 317  281.4642
 318  210.0817
 319  217.3745
 320  354.7419
 321  475.8277
 322  507.4609
 323  383.8931
 324  335.122
 325  342.4135
 326  359.8449
 327  457.4706
 328  461.2042
 329  430.0781
 330  344.9351
 331  449.3552
 332  431.0614
 333  293.4247
 334  392.5946
 335  351.4359
 336  425.3564
 337  367.3904
 338  320.4194
 339  245.4041
 340  331.8307
 341  442.625
 342  463.7332
 343  396.0126
 344  389.2889
 345  419.9879
 346  423.2314
 347  421.8824
 348  406.9876
 349  466.704
 350  461.7548
 351  378.3177
 352  297.7171
 353  370.5025
 354  488.7219
 355  577.2529
 356  446.1611
 357  443.6083
 358  450.5102
 359  403.774
 360  307.7207
 361  285.8765
 362  263.8268
 363  312.3479
 364  323.0514
 365  287.4459
 366  430.297
 367  454.1481
 368  473.1341
 369  525.6355
 370  496.7219
 371  349.4382
 372  283.5422
 373  416.8383
 374  451.7157
 375  340.0194
 376  371.637
 377  407.762
 378  358.6598
 379  360.3596
 380  272.4887
 381  426.818
 382  418.6656
 383  283.9482
 384  300.1311
 385  383.9608
 386  287.2352
 387  289.808
 388  360.9993
 389  380.5051
 390  366.2755
 391  345.5601
 392  285.2993
 393  424.5931
 394  378.5923
 395  410.954
 396  488.0108
 397  456.1683
 398  567.7083
 399  343.5151
 400  388.7921
 401  462.6451
 402  467.6917
 403  495.6116
 404  491.2347
 405  400.1309
 406  310.1386
 407  254.1779
 408  444.541
 409  477.5229
 410  459.7082
 411  357.604
 412  284.5209
 413  366.559
 414  465.6919
 415  483.9286
 416  427.6386
 417  570.2008
 418  590.5958
 419  479.7119
 420  500.2098
 421  448.8043
 422  435.2122
 423  436.5946
 424  459.8914
 425  524.7829
 426  509.7483
 427  516.2932
 428  529.0465
 429  479.7677
 430  379.212
 431  449.2019
 432  509.4915
 433  686.5804
 434  569.6897
 435  484.0702
 436  378.7797
 437  366.4175
 438  452.8697
 439  443.6777
 440  476.2692
 441  386.1778
 442  404.8654
 443  425.2115
 444  402.445
 445  398.7304
 446  389.5602
 447  332.6589
 448  339.6862
 449  435.8812
 450  345.2114
 451  346.3622
 452  313.5929
 453  452.6169
 454  463.088
 455  380.8711
 456  482.0686
 457  463.5546
 458  553.129
 459  546.5162
 460  390.7639
 461  341.9295
 462  352.828
 463  452.3439
 464  426.87
 465  401.2335
 466  443.0426
 467  508.7048
 468  526.5178
 469  543.7524
 470  585.0093
 471  371.8515
 472  403.2051
 473  409.223
 474  547.0134
 475  443.6861
 476  358.3914
 477  448.6452
 478  414.6502
 479  288.5891
 480  282.1412
 481  302.2656
 482  257.0177
 483  389.7994
 484  547.2135
 485  543.2848
 486  451.1885
 487  381.174
 488  449.7979
 489  451.4907
 490  392.8377
 491  474.7486
 492  471.1375
 493  505.3745
 494  459.0052
 495  344.8707
 496  203.0569
 497  262.2874
 498  393.871
 499  374.7672
 500  432.5337
 501  430.3531
 502  389.5371
 503  316.7527
 504  381.6906
 505  433.6341
 506  321.9078
 507  438.8
 508  346.6611
 509  293.5912
 510  314.4471
 511  332.6561
