# Input file       =  1179647529.112151_cleaned.dat
# Candidate        =  PSR_0332+5434
# Telescope        =  AR
# Epoch_topo       =  57897.328103149892
# Epoch_bary       =  N/A
# T_sample         =  0.002
# Data Folded      =  7340032
# Data Avg         =  0.0653244042550796
# Data StdDev      =  2.68492417385352 
# Profile Bins     =  1024
# Profile Avg      =  468.246560292464 
# Profile StdDev   =  227.316532898623 
# Reduced chi-sqr  =  0.913
# Prob(Noise)      <  0.978   (~0.0 sigma)
# P_topo (ms)      =  714.52414505351   +/- 0.000225
# P'_topo (s/s)    =  -0                +/- 1.19e-10
# P''_topo (s/s^2) =  0                 +/- 5.25e-14
# P_bary (ms)      =  N/A
# P'_bary (s/s)    =  N/A
# P''_bary (s/s^2) =  N/A
# P_orb (s)        =  N/A
# asin(i)/c (s)    =  N/A
# eccentricity     =  N/A
# w (rad)          =  N/A
# T_peri           =  N/A
######################################################
   0  391.9
   1  391.2688
   2  410.5424
   3  469.5506
   4  494.6234
   5  533.2437
   6  541.1816
   7  511.4932
   8  501.4754
   9  474.0194
  10  505.2125
  11  559.3389
  12  596.8117
  13  596.0787
  14  567.0596
  15  542.9335
  16  483.006
  17  434.0445
  18  397.9723
  19  455.9911
  20  489.9263
  21  533.1116
  22  531.4227
  23  633.1337
  24  566.8735
  25  523.875
  26  506.657
  27  614.0178
  28  618.1752
  29  621.0181
  30  657.0048
  31  633.1255
  32  461.1156
  33  350.2394
  34  438.1935
  35  535.683
  36  589.5433
  37  593.6819
  38  603.3671
  39  499.6788
  40  374.92
  41  309.2517
  42  487.8137
  43  547.1926
  44  615.0922
  45  548.9313
  46  443.8852
  47  423.9955
  48  416.9863
  49  545.8805
  50  552.5959
  51  535.9026
  52  396.64
  53  300.012
  54  161.2731
  55  256.1494
  56  241.9356
  57  325.7377
  58  433.1275
  59  588.4174
  60  588.7154
  61  456.7433
  62  338.821
  63  276.3977
  64  237.232
  65  196.4116
  66  312.5807
  67  287.1827
  68  368.6237
  69  295.8558
  70  462.5281
  71  536.0288
  72  500.2226
  73  470.5374
  74  469.607
  75  532.3129
  76  623.1937
  77  636.4634
  78  634.3566
  79  452.8171
  80  381.0837
  81  304.5427
  82  307.9583
  83  391.762
  84  514.9581
  85  608.8053
  86  578.4321
  87  402.6537
  88  260.8946
  89  254.577
  90  303.8651
  91  326.5111
  92  325.9877
  93  416.3861
  94  506.6964
  95  495.0768
  96  462.0539
  97  419.1651
  98  392.5818
  99  329.2769
 100  261.9228
 101  252.8335
 102  321.5436
 103  330.8633
 104  408.5892
 105  420.5215
 106  444.0008
 107  370.2896
 108  376.8391
 109  423.1445
 110  549.2517
 111  490.556
 112  402.9783
 113  319.3753
 114  309.1855
 115  363.1638
 116  469.1096
 117  517.6797
 118  486.7979
 119  442.5794
 120  426.8633
 121  463.1064
 122  431.2253
 123  488.2901
 124  529.3206
 125  446.8137
 126  367.7303
 127  396.4821
 128  481.6712
 129  412.4388
 130  295.2346
 131  304.1339
 132  399.5718
 133  332.2893
 134  325.9174
 135  385.5456
 136  575.4608
 137  657.6712
 138  697.6218
 139  592.8391
 140  406.1702
 141  294.3806
 142  333.3763
 143  408.3799
 144  408.4805
 145  339.5139
 146  511.1576
 147  514.5869
 148  500.5605
 149  417.4391
 150  290.2621
 151  328.5424
 152  325.372
 153  362.3103
 154  319.0906
 155  375.2522
 156  388.8749
 157  421.8998
 158  381.4132
 159  406.5278
 160  375.4298
 161  307.1974
 162  373.0874
 163  405.7662
 164  441.2925
 165  452.1474
 166  413.1393
 167  378.4841
 168  366.588
 169  413.1849
 170  512.481
 171  552.6951
 172  563.3737
 173  530.9208
 174  539.895
 175  582.5189
 176  689.5745
 177  640.3361
 178  535.0967
 179  354.3731
 180  325.8556
 181  319.0049
 182  393.2171
 183  355.0089
 184  336.0616
 185  388.8404
 186  485.3157
 187  438.6359
 188  475.2401
 189  543.3705
 190  563.7129
 191  420.4665
 192  371.2432
 193  333.3115
 194  300.8321
 195  326.194
 196  447.6211
 197  443.3961
 198  409.7219
 199  333.3268
 200  350.0197
 201  401.2664
 202  520.8513
 203  481.4173
 204  417.7709
 205  406.709
 206  424.3531
 207  415.4075
 208  387.3365
 209  434.9017
 210  465.5983
 211  510.5569
 212  471.2599
 213  469.2153
 214  493.8037
 215  555.4546
 216  705.5909
 217  644.0745
 218  557.1486
 219  453.7801
 220  613.3802
 221  643.4935
 222  693.4204
 223  564.2209
 224  556.679
 225  564.7201
 226  548.3293
 227  495.818
 228  468.7785
 229  625.9603
 230  732.736
 231  797.1829
 232  656.0865
 233  557.6856
 234  437.8956
 235  453.9826
 236  556.0354
 237  551.0088
 238  609.9607
 239  545.3675
 240  621.7648
 241  613.3442
 242  497.2628
 243  301.5245
 244  328.698
 245  424.2463
 246  468.7939
 247  412.9095
 248  472.6629
 249  496.197
 250  471.1515
 251  503.4809
 252  590.4402
 253  679.2838
 254  701.9965
 255  678.0768
 256  531.3559
 257  405.1876
 258  413.4923
 259  442.9477
 260  464.0705
 261  344.6513
 262  314.8884
 263  363.9097
 264  445.503
 265  511.7311
 266  546.2104
 267  565.6012
 268  599.1401
 269  652.3194
 270  660.4501
 271  690.9721
 272  616.634
 273  530.0449
 274  408.1407
 275  384.7896
 276  399.2384
 277  350.6232
 278  310.6442
 279  353.619
 280  408.9314
 281  444.3199
 282  451.4548
 283  468.1718
 284  472.6236
 285  438.6326
 286  304.4185
 287  307.0527
 288  298.8344
 289  471.1253
 290  538.723
 291  582.1509
 292  417.5201
 293  255.1178
 294  264.4406
 295  327.309
 296  376.7504
 297  409.1387
 298  461.007
 299  483.2837
 300  441.8022
 301  423.8593
 302  411.8576
 303  505.2882
 304  516.8546
 305  541.5496
 306  557.6047
 307  589.3474
 308  577.7354
 309  503.9943
 310  441.2752
 311  336.2367
 312  457.6736
 313  483.1821
 314  509.1656
 315  459.0996
 316  512.2401
 317  444.3143
 318  376.0761
 319  453.8606
 320  533.3047
 321  516.0017
 322  463.1428
 323  540.8504
 324  522.225
 325  480.2848
 326  487.8252
 327  568.6124
 328  565.4987
 329  508.3159
 330  384.1529
 331  391.3692
 332  304.7015
 333  434.1986
 334  453.8679
 335  411.5005
 336  298.164
 337  339.9172
 338  421.0638
 339  371.9015
 340  420.482
 341  421.4695
 342  421.1061
 343  379.6655
 344  424.1614
 345  437.5073
 346  431.9489
 347  428.4879
 348  507.4497
 349  573.724
 350  584.2087
 351  599.1012
 352  595.0808
 353  497.7536
 354  376.2856
 355  417.82
 356  543.6639
 357  557.0456
 358  502.8832
 359  474.1688
 360  473.0018
 361  363.5792
 362  283.3545
 363  326.1427
 364  455.8261
 365  561.6064
 366  620.4478
 367  567.4694
 368  487.4973
 369  399.4123
 370  447.9978
 371  501.8679
 372  494.8787
 373  413.4898
 374  359.0596
 375  290.3244
 376  306.4121
 377  447.715
 378  675.2083
 379  704.4274
 380  749.7092
 381  629.1747
 382  655.1062
 383  493.7523
 384  496.024
 385  392.1244
 386  352.7243
 387  325.9506
 388  356.6179
 389  248.0934
 390  190.2449
 391  211.6977
 392  402.9327
 393  515.4981
 394  580.1274
 395  503.2782
 396  430.9721
 397  403.2369
 398  543.8129
 399  560.8578
 400  537.3474
 401  493.8895
 402  528.4024
 403  502.8196
 404  454.4883
 405  398.7512
 406  430.3371
 407  463.6891
 408  415.9059
 409  412.0791
 410  439.312
 411  371.2632
 412  435.1506
 413  475.3539
 414  654.7156
 415  573.0295
 416  413.8824
 417  369.5659
 418  406.7529
 419  501.262
 420  445.9503
 421  428.4821
 422  515.6406
 423  571.5403
 424  550.5101
 425  527.7467
 426  587.9431
 427  637.6174
 428  679.5335
 429  580.819
 430  545.5269
 431  508.4065
 432  484.0838
 433  459.6916
 434  539.4733
 435  556.5736
 436  537.1255
 437  554.5031
 438  500.017
 439  467.6667
 440  376.0282
 441  526.2554
 442  599.5027
 443  551.674
 444  537.2267
 445  545.2996
 446  603.9951
 447  527.5718
 448  495.3214
 449  411.535
 450  380.4389
 451  485.2809
 452  496.7733
 453  551.5427
 454  495.1623
 455  555.1458
 456  523.3044
 457  575.543
 458  539.8398
 459  496.0527
 460  481.6707
 461  515.3174
 462  509.3957
 463  507.0904
 464  474.7406
 465  424.7752
 466  460.9303
 467  482.5644
 468  486.3467
 469  443.1949
 470  567.7746
 471  613.9596
 472  665.7346
 473  539.351
 474  514.9214
 475  418.5224
 476  394.4837
 477  519.7449
 478  577.0918
 479  558.5641
 480  478.8561
 481  525.2878
 482  536.0443
 483  513.5357
 484  461.9214
 485  371.5928
 486  397.0342
 487  478.1806
 488  532.3716
 489  471.2732
 490  431.6083
 491  444.7992
 492  445.3354
 493  415.642
 494  414.8356
 495  496.2187
 496  475.3282
 497  363.2167
 498  268.8849
 499  206.3269
 500  261.0664
 501  213.4154
 502  246.1301
 503  217.2251
 504  265.3437
 505  271.8658
 506  330.0363
 507  432.5082
 508  498.2007
 509  453.7985
 510  398.7513
 511  407.1942
 512  462.1064
 513  534.4485
 514  558.8705
 515  530.7174
 516  536.5453
 517  443.1103
 518  439.5672
 519  340.6465
 520  309.0682
 521  372.4418
 522  453.1854
 523  469.8654
 524  329.4615
 525  303.7406
 526  409.1152
 527  457.0531
 528  551.8274
 529  569.9662
 530  711.0005
 531  666.0067
 532  553.4684
 533  419.2938
 534  374.6156
 535  312.425
 536  323.6298
 537  286.9888
 538  341.2217
 539  474.394
 540  547.6143
 541  518.2593
 542  442.6183
 543  398.1016
 544  377.333
 545  378.2043
 546  353.6352
 547  413.2214
 548  374.7865
 549  396.8073
 550  351.3194
 551  393.1999
 552  482.4392
 553  511.5098
 554  529.1674
 555  532.9075
 556  571.191
 557  589.9406
 558  493.7564
 559  362.5877
 560  334.0662
 561  436.736
 562  502.5837
 563  463.9478
 564  391.6061
 565  443.075
 566  353.0248
 567  328.1713
 568  212.8887
 569  263.152
 570  292.2374
 571  375.7431
 572  410.6122
 573  444.8065
 574  453.8434
 575  457.3739
 576  460.7146
 577  463.3115
 578  386.2079
 579  403.2574
 580  360.7259
 581  294.0459
 582  242.4821
 583  322.9266
 584  491.5537
 585  469.9974
 586  440.2815
 587  367.8079
 588  397.0088
 589  370.2351
 590  467.7729
 591  447.4685
 592  479.5917
 593  395.2416
 594  418.2378
 595  379.3873
 596  376.0984
 597  302.0498
 598  222.9085
 599  252.9163
 600  289.5385
 601  432.7871
 602  489.3976
 603  460.9644
 604  417.7881
 605  389.248
 606  498.7493
 607  587.3696
 608  638.445
 609  635.2761
 610  498.6291
 611  475.9935
 612  408.1715
 613  406.6917
 614  329.701
 615  341.811
 616  341.9614
 617  406.5393
 618  351.7452
 619  364.1534
 620  340.3958
 621  315.9742
 622  370.661
 623  444.854
 624  485.9207
 625  452.7682
 626  487.0852
 627  562.6699
 628  574.3952
 629  442.0743
 630  308.5933
 631  347.6826
 632  328.0842
 633  314.734
 634  223.7624
 635  204.0978
 636  289.8796
 637  326.772
 638  412.7792
 639  275.2198
 640  237.5084
 641  243.0145
 642  380.5323
 643  389.2445
 644  406.4039
 645  322.4133
 646  319.4335
 647  290.7356
 648  287.0984
 649  366.6389
 650  477.0836
 651  556.267
 652  609.6169
 653  621.593
 654  602.1846
 655  500.3573
 656  430.5399
 657  297.7426
 658  154.712
 659  185.6075
 660  384.4914
 661  552.7933
 662  599.804
 663  536.7101
 664  527.5452
 665  373.8526
 666  320.5677
 667  348.8458
 668  404.6571
 669  482.8977
 670  560.9987
 671  684.5502
 672  642.5474
 673  496.5904
 674  413.833
 675  415.5742
 676  452.4052
 677  441.3641
 678  451.1745
 679  373.76
 680  421.2422
 681  461.6083
 682  515.1854
 683  482.8765
 684  411.1103
 685  397.5357
 686  345.9577
 687  300.0702
 688  372.3419
 689  434.6824
 690  491.9022
 691  381.3262
 692  387.963
 693  472.1502
 694  547.2563
 695  533.5872
 696  510.8954
 697  565.9902
 698  487.3482
 699  439.1356
 700  405.8895
 701  439.0661
 702  385.4379
 703  378.1166
 704  464.9798
 705  433.0854
 706  360.5063
 707  220.7678
 708  214.6147
 709  193.1534
 710  268.4236
 711  307.4691
 712  448.5609
 713  390.5208
 714  404.4631
 715  335.3556
 716  386.2794
 717  446.0762
 718  518.0399
 719  555.9413
 720  499.3155
 721  436.0063
 722  335.3318
 723  284.1966
 724  271.5522
 725  311.6411
 726  325.4331
 727  356.5511
 728  497.031
 729  541.0571
 730  611.1763
 731  499.99
 732  445.3232
 733  398.4661
 734  401.8901
 735  455.5562
 736  398.4508
 737  380.485
 738  410.717
 739  443.1982
 740  477.0002
 741  376.6851
 742  435.2151
 743  462.2861
 744  487.7005
 745  460.3049
 746  567.8126
 747  608.0685
 748  657.9744
 749  593.2117
 750  723.3801
 751  770.8698
 752  885.7776
 753  957.7842
 754  979.296
 755  894.6574
 756  939.1287
 757  1011.354
 758  1000.56
 759  952.0178
 760  961.3313
 761  978.9724
 762  853.1893
 763  695.7281
 764  577.9849
 765  577.4199
 766  598.5266
 767  558.9644
 768  538.9532
 769  597.5524
 770  599.2107
 771  489.5106
 772  390.0644
 773  468.4008
 774  698.0225
 775  694.7812
 776  758.1829
 777  719.4657
 778  809.728
 779  657.7209
 780  635.4553
 781  566.9689
 782  664.714
 783  714.1754
 784  679.4161
 785  589.7537
 786  411.2875
 787  420.2555
 788  472.9556
 789  527.2896
 790  475.7483
 791  403.7709
 792  488.5366
 793  545.9481
 794  654.212
 795  652.2805
 796  695.0339
 797  651.2918
 798  640.2992
 799  650.4592
 800  612.2855
 801  545.263
 802  412.0979
 803  373.5478
 804  364.6732
 805  436.9663
 806  507.995
 807  526.1306
 808  616.9166
 809  651.1559
 810  607.657
 811  460.7666
 812  508.3108
 813  527.4141
 814  512.5535
 815  371.791
 816  354.7593
 817  296.6922
 818  336.562
 819  299.1112
 820  356.1373
 821  406.5377
 822  432.3406
 823  550.5377
 824  584.8621
 825  580.3377
 826  489.8463
 827  389.3846
 828  395.6956
 829  396.8003
 830  446.1173
 831  432.5501
 832  457.9732
 833  565.7563
 834  549.6585
 835  496.7
 836  419.7412
 837  475.0636
 838  501.2092
 839  531.756
 840  591.1675
 841  678.6934
 842  745.3397
 843  645.2706
 844  540.1605
 845  398.5711
 846  409.2347
 847  438.4778
 848  549.9383
 849  632.0196
 850  622.3165
 851  488.7586
 852  405.8187
 853  400.0196
 854  464.6358
 855  583.5822
 856  638.7193
 857  662.9155
 858  538.283
 859  524.5966
 860  542.7319
 861  576.0771
 862  577.2736
 863  484.0867
 864  478.5029
 865  460.3899
 866  576.1508
 867  485.9108
 868  403.5817
 869  333.3954
 870  413.5685
 871  499.7953
 872  505.5716
 873  571.1182
 874  444.2657
 875  308.5801
 876  174.5113
 877  264.4434
 878  369.3796
 879  559.4255
 880  574.9694
 881  600.9149
 882  519.8291
 883  521.0638
 884  488.7826
 885  486.7676
 886  445.1912
 887  415.7601
 888  375.3199
 889  419.8521
 890  400.3433
 891  415.5819
 892  412.015
 893  365.5659
 894  425.4038
 895  413.4442
 896  425.6583
 897  374.9506
 898  483.7135
 899  494.9873
 900  403.1976
 901  342.3682
 902  380.2885
 903  594.0326
 904  698.9929
 905  785.1181
 906  667.1535
 907  698.2116
 908  662.7196
 909  657.923
 910  525.1949
 911  509.7733
 912  496.5549
 913  476.4867
 914  471.5597
 915  488.531
 916  584.0563
 917  575.6682
 918  511.4758
 919  488.9603
 920  477.3774
 921  486.5162
 922  427.5759
 923  480.9302
 924  472.3955
 925  561.6465
 926  654.2491
 927  626.1514
 928  590.4551
 929  567.3879
 930  617.7617
 931  669.317
 932  598.5012
 933  592.4784
 934  518.2092
 935  526.7203
 936  492.3038
 937  486.1638
 938  482.9176
 939  456.7553
 940  403.1034
 941  358.0957
 942  314.9364
 943  463.9548
 944  515.5144
 945  620.6178
 946  629.8282
 947  588.5095
 948  553.5931
 949  521.4546
 950  589.3834
 951  550.5994
 952  523.408
 953  485.27
 954  459.3118
 955  382.491
 956  414.9962
 957  387.4099
 958  412.3162
 959  441.6374
 960  460.8599
 961  445.6845
 962  551.2478
 963  627.7446
 964  617.5035
 965  490.1668
 966  447.365
 967  539.9188
 968  519.14
 969  525.3574
 970  467.2726
 971  534.6778
 972  530.8704
 973  514.0616
 974  442.8277
 975  549.9352
 976  559.036
 977  636.8624
 978  565.2087
 979  553.757
 980  574.4616
 981  570.9481
 982  631.6415
 983  616.7139
 984  590.3138
 985  519.0193
 986  503.9674
 987  458.5282
 988  432.8417
 989  461.0777
 990  495.401
 991  509.2382
 992  505.9333
 993  403.3647
 994  331.9505
 995  323.8143
 996  450.9937
 997  416.1422
 998  388.5273
 999  296.0601
1000  373.5843
1001  417.8359
1002  423.4124
1003  271.2395
1004  228.7479
1005  284.9189
1006  380.1665
1007  401.2993
1008  485.5019
1009  463.8058
1010  464.6562
1011  407.4542
1012  305.7267
1013  319.9338
1014  256.9892
1015  381.1317
1016  340.1705
1017  398.66
1018  464.8302
1019  514.0254
1020  598.7953
1021  447.1704
1022  398.9409
1023  353.5981
