# Input file       =  1179906622.097327_cleaned.dat
# Candidate        =  PSR_0332+5434
# Telescope        =  AR
# Epoch_topo       =  57900.326864552393
# Epoch_bary       =  N/A
# T_sample         =  0.002
# Data Folded      =  7340032
# Data Avg         =  0.0268687722907125
# Data StdDev      =  1.00003547060729 
# Profile Bins     =  512
# Profile Avg      =  385.216744944612 
# Profile StdDev   =  119.737283380279 
# Reduced chi-sqr  =  1.170
# Prob(Noise)      <  0.00473   (~2.6 sigma)
# P_topo (ms)      =  714.521187141894  +/- 0.00036
# P'_topo (s/s)    =  -0                +/- 1.9e-10
# P''_topo (s/s^2) =  0                 +/- 8.38e-14
# P_bary (ms)      =  N/A
# P'_bary (s/s)    =  N/A
# P''_bary (s/s^2) =  N/A
# P_orb (s)        =  N/A
# asin(i)/c (s)    =  N/A
# eccentricity     =  N/A
# w (rad)          =  N/A
# T_peri           =  N/A
######################################################
   0  876.8716
   1  724.1205
   2  771.1392
   3  652.4987
   4  458.4245
   5  368.3355
   6  257.064
   7  313.6634
   8  301.2068
   9  365.5168
  10  288.2316
  11  321.5795
  12  324.4062
  13  369.0804
  14  396.6788
  15  409.8451
  16  476.2458
  17  356.4586
  18  275.972
  19  312.8806
  20  400.8852
  21  449.262
  22  290.8918
  23  281.5808
  24  407.6093
  25  376.5428
  26  350.8536
  27  365.2119
  28  397.0946
  29  418.1848
  30  404.5423
  31  382.9304
  32  386.2738
  33  354.2298
  34  367.6213
  35  526.1533
  36  485.7172
  37  344.4691
  38  415.9882
  39  413.4257
  40  407.4506
  41  468.7874
  42  388.4802
  43  340.396
  44  278.0757
  45  377.5425
  46  425.1073
  47  463.2743
  48  447.1161
  49  389.0643
  50  316.0292
  51  288.6709
  52  306.289
  53  394.1425
  54  353.4982
  55  311.2704
  56  196.5568
  57  193.2599
  58  290.9969
  59  359.125
  60  376.9332
  61  327.9988
  62  264.3702
  63  341.2073
  64  284.6973
  65  270.9658
  66  426.1713
  67  378.0731
  68  290.8785
  69  325.9557
  70  333.6171
  71  342.9895
  72  282.6518
  73  291.7079
  74  427.3534
  75  396.5784
  76  352.9921
  77  341.5172
  78  309.3841
  79  301.1577
  80  330.7007
  81  334.4002
  82  386.8834
  83  430.7282
  84  359.0561
  85  323.8598
  86  318.3346
  87  477.7952
  88  418.3989
  89  386.0384
  90  436.7357
  91  403.7133
  92  275.3506
  93  318.2159
  94  399.25
  95  418.3864
  96  411.6526
  97  389.3144
  98  462.8329
  99  336.0026
 100  236.0432
 101  347.6132
 102  305.6567
 103  352.922
 104  424.8538
 105  418.957
 106  332.773
 107  348.1419
 108  335.0338
 109  353.652
 110  367.0412
 111  370.7477
 112  407.0804
 113  379.3229
 114  375.4713
 115  296.5655
 116  385.5128
 117  343.3772
 118  389.72
 119  414.4727
 120  392.9273
 121  338.4311
 122  347.1155
 123  462.5608
 124  356.8903
 125  327.9068
 126  189.1044
 127  272.3343
 128  284.0205
 129  294.7546
 130  312.9493
 131  282.4679
 132  361.0731
 133  352.7548
 134  318.8932
 135  313.5283
 136  296.6298
 137  462.9782
 138  385.5544
 139  305.2745
 140  391.1674
 141  360.6809
 142  353.6854
 143  411.7164
 144  333.9337
 145  256.3682
 146  328.908
 147  247.2384
 148  273.3355
 149  361.8021
 150  356.6787
 151  367.5705
 152  301.8632
 153  314.4443
 154  380.8149
 155  410.0372
 156  302.6306
 157  317.5577
 158  409.6375
 159  350.8357
 160  377.2708
 161  282.5492
 162  335.408
 163  374.4826
 164  366.181
 165  332.3695
 166  329.9794
 167  335.3065
 168  285.2474
 169  321.0477
 170  284.2677
 171  190.1587
 172  192.7036
 173  164.4747
 174  232.7703
 175  316.5168
 176  264.2468
 177  265.795
 178  302.9917
 179  396.7685
 180  437.5046
 181  417.9252
 182  509.7173
 183  458.3626
 184  384.5302
 185  377.0248
 186  404.0186
 187  488.6446
 188  435.1602
 189  306.5825
 190  306.4144
 191  406.161
 192  425.8693
 193  383.4444
 194  401.6475
 195  332.8341
 196  285.7275
 197  402.3475
 198  419.7082
 199  406.1527
 200  419.8792
 201  392.9242
 202  349.3712
 203  380.3941
 204  469.0546
 205  369.7953
 206  331.5361
 207  483.1358
 208  405.1276
 209  398.3719
 210  520.5667
 211  516.2593
 212  435.2528
 213  362.049
 214  445.7527
 215  342.3785
 216  417.59
 217  431.0209
 218  330.4821
 219  213.6492
 220  195.9503
 221  243.7411
 222  259.4871
 223  333.0557
 224  411.1205
 225  347.7422
 226  335.188
 227  339.8741
 228  411.91
 229  340.3994
 230  318.5251
 231  369.0744
 232  398.2093
 233  280.0448
 234  277.0895
 235  307.7796
 236  360.641
 237  387.9537
 238  354.0611
 239  402.7902
 240  373.9296
 241  352.9339
 242  359.7964
 243  411.2032
 244  403.1559
 245  469.8711
 246  397.2587
 247  367.8088
 248  380.859
 249  393.2619
 250  389.938
 251  256.5463
 252  200.0249
 253  299.2935
 254  347.135
 255  398.9641
 256  407.5125
 257  258.4882
 258  337.6966
 259  278.6568
 260  325.3936
 261  302.1146
 262  348.6991
 263  272.3145
 264  279.5055
 265  358.5587
 266  309.2766
 267  263.1737
 268  234.3257
 269  215.7086
 270  317.4452
 271  296.06
 272  324.7775
 273  330.902
 274  330.4747
 275  461.7964
 276  340.4496
 277  244.3019
 278  433.8447
 279  535.4296
 280  485.4097
 281  467.0074
 282  556.4621
 283  522.9001
 284  417.0398
 285  479.9378
 286  551.2964
 287  517.3156
 288  555.6611
 289  609.0615
 290  509.2169
 291  434.0195
 292  463.3247
 293  539.4863
 294  523.0625
 295  398.4445
 296  366.0634
 297  525.5704
 298  418.9465
 299  416.4138
 300  504.3281
 301  485.6926
 302  454.4529
 303  359.0137
 304  355.6716
 305  457.5695
 306  367.641
 307  358.6317
 308  381.6053
 309  392.3969
 310  389.9411
 311  216.3569
 312  503.882
 313  525.4872
 314  378.0577
 315  321.8799
 316  329.4321
 317  343.9417
 318  440.3609
 319  468.4444
 320  309.1926
 321  385.0488
 322  405.5551
 323  359.7829
 324  352.944
 325  472.7203
 326  527.605
 327  523.3089
 328  388.6646
 329  299.6197
 330  365.2979
 331  446.9178
 332  494.3479
 333  528.9125
 334  490.8185
 335  594.231
 336  514.7314
 337  432.3381
 338  546.9376
 339  496.3588
 340  473.6601
 341  434.3434
 342  395.7001
 343  400.9986
 344  421.7273
 345  449.4107
 346  356.4898
 347  321.9188
 348  351.1978
 349  241.6197
 350  265.9633
 351  347.8069
 352  329.1651
 353  353.1384
 354  373.9071
 355  445.6397
 356  457.9546
 357  309.0284
 358  389.002
 359  325.8781
 360  371.4385
 361  464.9514
 362  478.1791
 363  487.4183
 364  385.1282
 365  372.5164
 366  405.3424
 367  495.6447
 368  418.7794
 369  480.707
 370  558.5412
 371  515.0439
 372  433.356
 373  519.2982
 374  485.9044
 375  444.4582
 376  426.6195
 377  375.3297
 378  315.9283
 379  416.3281
 380  432.09
 381  386.0735
 382  383.5302
 383  463.8115
 384  329.5033
 385  345.3214
 386  424.7295
 387  326.0074
 388  237.4684
 389  320.6154
 390  375.6086
 391  397.8156
 392  343.4988
 393  423.2699
 394  355.3593
 395  471.3477
 396  423.4247
 397  382.9409
 398  347.9503
 399  393.6037
 400  414.2496
 401  510.5005
 402  444.747
 403  526.0508
 404  435.0955
 405  548.8661
 406  600.3716
 407  524.8102
 408  522.7285
 409  513.7057
 410  473.6646
 411  362.9062
 412  506.3782
 413  615.6126
 414  474.6635
 415  331.2672
 416  342.7482
 417  426.2332
 418  493.6085
 419  576.1891
 420  508.7474
 421  352.6117
 422  493.1941
 423  551.0287
 424  535.5471
 425  439.0215
 426  487.9209
 427  453.5624
 428  397.9954
 429  483.2553
 430  541.155
 431  458.5256
 432  359.1656
 433  465.7614
 434  493.245
 435  452.8176
 436  451.5029
 437  333.4431
 438  316.4966
 439  307.1573
 440  261.5838
 441  372.343
 442  379.0856
 443  295.3179
 444  297.5629
 445  293.7209
 446  314.0405
 447  482.644
 448  458.7939
 449  386.2018
 450  368.7021
 451  431.7764
 452  448.5611
 453  358.9549
 454  356.6191
 455  312.0459
 456  290.842
 457  313.8161
 458  358.5018
 459  373.8577
 460  336.1261
 461  265.2893
 462  386.2808
 463  448.4427
 464  433.4539
 465  502.7971
 466  553.3933
 467  446.9534
 468  401.269
 469  255.3459
 470  281.6778
 471  355.74
 472  377.372
 473  302.9919
 474  252.9131
 475  426.3481
 476  407.389
 477  305.3377
 478  254.3776
 479  252.3969
 480  357.9223
 481  379.4692
 482  215.7718
 483  236.1768
 484  375.0764
 485  471.1039
 486  305.4157
 487  296.9694
 488  372.0158
 489  358.5589
 490  276.1341
 491  276.4231
 492  324.0857
 493  384.9202
 494  340.7216
 495  345.0249
 496  392.7714
 497  307.6812
 498  282.6971
 499  479.2994
 500  426.812
 501  401.0551
 502  398.8594
 503  349.3008
 504  590.7139
 505  345.2481
 506  299.086
 507  469.2251
 508  565.4912
 509  701.54
 510  800.8239
 511  958.8533
