# Input file       =  1179288241.096729_cleaned.dat
# Candidate        =  PSR_0332+5434
# Telescope        =  AR
# Epoch_topo       =  57893.169677045473
# Epoch_bary       =  N/A
# T_sample         =  0.002
# Data Folded      =  7208960
# Data Avg         =  0.292589468097272
# Data StdDev      =  6.49964980382684 
# Profile Bins     =  512
# Profile Avg      =  4119.70379583538 
# Profile StdDev   =  771.243088668676 
# Reduced chi-sqr  =  1.403
# Prob(Noise)      <  4.35e-09   (~5.8 sigma)
# P_topo (ms)      =  714.528230583423  +/- 3.07e-05
# P'_topo (s/s)    =  -0                +/- 1.65e-11
# P''_topo (s/s^2) =  0                 +/- 7.41e-15
# P_bary (ms)      =  N/A
# P'_bary (s/s)    =  N/A
# P''_bary (s/s^2) =  N/A
# P_orb (s)        =  N/A
# asin(i)/c (s)    =  N/A
# eccentricity     =  N/A
# w (rad)          =  N/A
# T_peri           =  N/A
######################################################
   0  4218.839
   1  4398.058
   2  5064.601
   3  5371.951
   4  5467.628
   5  4661.815
   6  4112.35
   7  3881.117
   8  3835.02
   9  3345.581
  10  3828.593
  11  4176.307
  12  4434.177
  13  4360.436
  14  3817.068
  15  3565.641
  16  3623.895
  17  3698.895
  18  4316.049
  19  4930.652
  20  5621.301
  21  5307.884
  22  4544.37
  23  3819.285
  24  3707.67
  25  3458.99
  26  3383.058
  27  3192.127
  28  3672.532
  29  4450.672
  30  3989.129
  31  3335.088
  32  3554.362
  33  3425.982
  34  3407.313
  35  3979.666
  36  4604.369
  37  4743.086
  38  4649.924
  39  4314.453
  40  3945.437
  41  3335.3
  42  3251.021
  43  3515.935
  44  3808.851
  45  4165.42
  46  4013.139
  47  3695.726
  48  3833.5
  49  3781.292
  50  3958.543
  51  4613.479
  52  4904.443
  53  4848.231
  54  4886.938
  55  4236.806
  56  3298.378
  57  3771.423
  58  3801.657
  59  3692.122
  60  3217.289
  61  3945.718
  62  4021.412
  63  3220.02
  64  2618.184
  65  3301.042
  66  4082.315
  67  4173.371
  68  4464.737
  69  4853.08
  70  5012.24
  71  4686.452
  72  4287.018
  73  3909.776
  74  3693.63
  75  4083.022
  76  4209.479
  77  4756.864
  78  4917.958
  79  4417.281
  80  4055.277
  81  3965.59
  82  4032.457
  83  3857.025
  84  4660.971
  85  5351.487
  86  5195.384
  87  5167.686
  88  4523.796
  89  3562.987
  90  3683.22
  91  3921.482
  92  3226.125
  93  3681.888
  94  4804.386
  95  4682.465
  96  4121.319
  97  3346.514
  98  3299.979
  99  3724.858
 100  3668.747
 101  4575.639
 102  5509.153
 103  5657.364
 104  4847.686
 105  4529.431
 106  3777.317
 107  3547
 108  3732.823
 109  4154.755
 110  4384.605
 111  4802.533
 112  4497.619
 113  3809.499
 114  3976.95
 115  3839.701
 116  3554.433
 117  3929.197
 118  4834.218
 119  5157.669
 120  4808.563
 121  4384.975
 122  3730.573
 123  3844.013
 124  4151.634
 125  4274.018
 126  4184.123
 127  4187.481
 128  4122.533
 129  3821.544
 130  3900.755
 131  3709.679
 132  4094.306
 133  4380.9
 134  4728.011
 135  5490.067
 136  5343.077
 137  4951.516
 138  3969.569
 139  4030.65
 140  3842.915
 141  3757.354
 142  3993.707
 143  3967.93
 144  4337.552
 145  4183.036
 146  3827.439
 147  3654.687
 148  4189.789
 149  4415.219
 150  4390.486
 151  5348.365
 152  5576.118
 153  5054.358
 154  4330.596
 155  3564.082
 156  3743.584
 157  4055.998
 158  4308.933
 159  4331.346
 160  5403.761
 161  5410.403
 162  3943.414
 163  3373.49
 164  3647.352
 165  4051.242
 166  4622.993
 167  5121.836
 168  5917.448
 169  5625.118
 170  4750.352
 171  4219.411
 172  4163.572
 173  4193.079
 174  3806.274
 175  3711.443
 176  3944.403
 177  3775.456
 178  3622.884
 179  3131.539
 180  3451.666
 181  3395.136
 182  4009.385
 183  4134.869
 184  4757.825
 185  5139.589
 186  5220.67
 187  4366.731
 188  4094.582
 189  3533.038
 190  3765.052
 191  3936.176
 192  4110.019
 193  4606.794
 194  4964.542
 195  4024.174
 196  3010.304
 197  2895.166
 198  3324.371
 199  3253.578
 200  3831.108
 201  4878.725
 202  5186.082
 203  4059.427
 204  3609.172
 205  3349.29
 206  3397.122
 207  3335.309
 208  3960.776
 209  3970.515
 210  3825.426
 211  4033.259
 212  3463.977
 213  3376.023
 214  3807.497
 215  4035.715
 216  4039.809
 217  4374.309
 218  4791.663
 219  4905.115
 220  4670.727
 221  3945.496
 222  3778.062
 223  3626.845
 224  3946.332
 225  4120.632
 226  4169.622
 227  4063.619
 228  3981.427
 229  2982.187
 230  3001.581
 231  3703.557
 232  4607.025
 233  5132.418
 234  5686.239
 235  5301.752
 236  4350.488
 237  3864.332
 238  3412.357
 239  3576.863
 240  3690.515
 241  3778.108
 242  4134.506
 243  4263.56
 244  3572.941
 245  2996.75
 246  3181.435
 247  3744.296
 248  3808.506
 249  4257.22
 250  4885.213
 251  5107.692
 252  4886.051
 253  4517.674
 254  3883.926
 255  3890.803
 256  4060.74
 257  3902.038
 258  4111.589
 259  4324.982
 260  4019.425
 261  3706.909
 262  3228.948
 263  3105.166
 264  3469.951
 265  3853.837
 266  4540.114
 267  5529.852
 268  5452.711
 269  4662.407
 270  4151.867
 271  3512.685
 272  3098.261
 273  3281.743
 274  3380.949
 275  4027.843
 276  4797.13
 277  4832.657
 278  3890.95
 279  3405.083
 280  3681.482
 281  3569.155
 282  3811.883
 283  4824.891
 284  5518.33
 285  5048.905
 286  3965.595
 287  3707.174
 288  3392.391
 289  3515.23
 290  3971.35
 291  4200.231
 292  4090.747
 293  3824.006
 294  3575.061
 295  3471.968
 296  3748.446
 297  4317.266
 298  4090.076
 299  4479.421
 300  4699.683
 301  4508.359
 302  4678.292
 303  4309.332
 304  4427.586
 305  4545.912
 306  4163.146
 307  3869.553
 308  4179.921
 309  5007.481
 310  4331.921
 311  3343.413
 312  3145.905
 313  3839.728
 314  3625.071
 315  4175.997
 316  4762.451
 317  5220.48
 318  4981.1
 319  4426.709
 320  3468.357
 321  3416.805
 322  3828.636
 323  4099.404
 324  4128.35
 325  4082.615
 326  3919.257
 327  3116.205
 328  2963.123
 329  2937.812
 330  3865.755
 331  4089.927
 332  3953.995
 333  4842.13
 334  4929.755
 335  4456.935
 336  3471.109
 337  3048.702
 338  3724.448
 339  3575.494
 340  3786.278
 341  4279.873
 342  4657.851
 343  4077.48
 344  3735.537
 345  3226.514
 346  3001.372
 347  3529.233
 348  4472.078
 349  5439.262
 350  5888.06
 351  5801.42
 352  4916.904
 353  4277.461
 354  3566.623
 355  3621.469
 356  4040.825
 357  3535.161
 358  4480.324
 359  4582.296
 360  3842.051
 361  3204.189
 362  3120.261
 363  3256.621
 364  3337.232
 365  3909.244
 366  4497.092
 367  4879.535
 368  4684.535
 369  3756.979
 370  3347.802
 371  2954.989
 372  3348.538
 373  3211.842
 374  3135.287
 375  3627.143
 376  3330.037
 377  3013.45
 378  3250.388
 379  3720.245
 380  3777.164
 381  3652.058
 382  4127.404
 383  4649.664
 384  4664.982
 385  4786.125
 386  4016.633
 387  3390.687
 388  3515.291
 389  3730.174
 390  3662.918
 391  3795.136
 392  3727.715
 393  3922.107
 394  3849.173
 395  3852.4
 396  3858.067
 397  4050.274
 398  4076.609
 399  4619.337
 400  4990.894
 401  4718.497
 402  4640.5
 403  3574.427
 404  3853.916
 405  3908.476
 406  4098.936
 407  4662.717
 408  4984.691
 409  4273.356
 410  3138.93
 411  3068.453
 412  4167.546
 413  4766.259
 414  4861.597
 415  5427.942
 416  6002.035
 417  5610.625
 418  4969.385
 419  4180.516
 420  3772.809
 421  4125.061
 422  3545.346
 423  3968.844
 424  4621.981
 425  4900.393
 426  4659.194
 427  4154.19
 428  3800.38
 429  3658.801
 430  4100.646
 431  4447
 432  5379.962
 433  6101.125
 434  6460.99
 435  5439.289
 436  5412.286
 437  6044.144
 438  5819.311
 439  5819
 440  5504.768
 441  5363.735
 442  4480.979
 443  3676.252
 444  3451.754
 445  3350.946
 446  3750.867
 447  4173.247
 448  4722.921
 449  4993.732
 450  4984.606
 451  4472.944
 452  3965.353
 453  3652.972
 454  3298.273
 455  3309.938
 456  3330.349
 457  4020.561
 458  3905.606
 459  3842.556
 460  4116.601
 461  4136.838
 462  3862.393
 463  3311.909
 464  3490.244
 465  4457.624
 466  5125.616
 467  5101.317
 468  4208.682
 469  3505.667
 470  3587.529
 471  3655.504
 472  3516.808
 473  3479.899
 474  4008.137
 475  4176.657
 476  3673.772
 477  3201.97
 478  3705.923
 479  3906.287
 480  3905.08
 481  4152.587
 482  4462.686
 483  4663.294
 484  4395.439
 485  3719.27
 486  3592.575
 487  3602.462
 488  3497.666
 489  3593.602
 490  4175.949
 491  4384.071
 492  3885.716
 493  3358.6
 494  3000.289
 495  3170.746
 496  3437.823
 497  4165.001
 498  5069.095
 499  5135.67
 500  4828.213
 501  4290.938
 502  3351.552
 503  3320.932
 504  3789.513
 505  3572.295
 506  4092.118
 507  4159.854
 508  4188.147
 509  3635.213
 510  3395.734
 511  3992.935
