# Input file       =  1179647529.112151-PSRB0329-2ms-sampling-dd.dat
# Candidate        =  PSR_0332+5434
# Telescope        =  AR
# Epoch_topo       =  57897.328103149892
# Epoch_bary       =  N/A
# T_sample         =  0.002
# Data Folded      =  7340032
# Data Avg         =  3.51425328847796e-10
# Data StdDev      =  3.36776031870136 
# Profile Bins     =  512
# Profile Avg      =  0.0793168463768017
# Profile StdDev   =  403.232168747299 
# Reduced chi-sqr  =  0.816
# Prob(Noise)      <  0.999   (~0.0 sigma)
# P_topo (ms)      =  714.52414504021   +/- 0.00113
# P'_topo (s/s)    =  -0                +/- 5.94e-10
# P''_topo (s/s^2) =  0                 +/- 2.62e-13
# P_bary (ms)      =  N/A
# P'_bary (s/s)    =  N/A
# P''_bary (s/s^2) =  N/A
# P_orb (s)        =  N/A
# asin(i)/c (s)    =  N/A
# eccentricity     =  N/A
# w (rad)          =  N/A
# T_peri           =  N/A
######################################################
   0  -177.5244
   1  -138.0986
   2  -141.7
   3  -498.7901
   4  -520.1126
   5  -724.7477
   6  -613.2637
   7  -537.8116
   8  -785.3459
   9  -520.0349
  10  -530.7351
  11  -589.6721
  12  -564.1666
  13  -231.6225
  14  16.081
  15  -88.09952
  16  -415.4634
  17  -880.5032
  18  -408.7359
  19  -42.82297
  20  -116.7921
  21  -478.7495
  22  -274.0531
  23  23.63632
  24  8.668509
  25  -308.0052
  26  -285.3487
  27  -258.4463
  28  -301.0844
  29  -163.8188
  30  -412.0622
  31  -558.8463
  32  -484.3362
  33  -348.9408
  34  -441.7161
  35  -172.3488
  36  -107.9036
  37  -225.6023
  38  -358.7897
  39  -399.5667
  40  -155.6993
  41  -478.4487
  42  -779.7147
  43  -605.0654
  44  -241.0379
  45  -313.6924
  46  -238.2922
  47  183.0444
  48  151.2049
  49  -217.7939
  50  -432.7514
  51  -362.4771
  52  -37.69315
  53  157.6846
  54  -36.06778
  55  -60.83789
  56  -110.5101
  57  -121.2948
  58  -172.0126
  59  -182.1552
  60  -118.5233
  61  88.52995
  62  243.9469
  63  470.7007
  64  798.6631
  65  863.0875
  66  907.9797
  67  910.8033
  68  870.1355
  69  660.4333
  70  139.1955
  71  90.6032
  72  35.83456
  73  139.4566
  74  -230.722
  75  245.6293
  76  394.0392
  77  496.1873
  78  219.6409
  79  360.4574
  80  328.5575
  81  -45.65831
  82  127.7832
  83  26.16919
  84  119.0544
  85  351.6823
  86  474.4678
  87  475.4938
  88  346.9706
  89  -20.54711
  90  -129.9298
  91  101.8006
  92  278.5154
  93  170.1212
  94  153.996
  95  63.35539
  96  -186.8278
  97  -224.32
  98  -51.03534
  99  122.5216
 100  248.5446
 101  -1.799772
 102  -191.4017
 103  18.88299
 104  -0.1697572
 105  83.3242
 106  -70.19839
 107  83.55432
 108  284.823
 109  334.9707
 110  54.2105
 111  -68.82207
 112  140.8696
 113  214.1417
 114  -45.10831
 115  42.69148
 116  226.29
 117  103.9319
 118  116.4518
 119  208.5119
 120  42.81458
 121  177.3419
 122  -177.5521
 123  -75.21999
 124  88.52023
 125  -108.1022
 126  -461.3502
 127  -38.53037
 128  361.2643
 129  245.5506
 130  117.7333
 131  -41.14828
 132  -173.3752
 133  -185.1705
 134  -204.2012
 135  -38.51353
 136  36.23031
 137  207.6081
 138  60.7815
 139  74.05806
 140  560.2909
 141  465.8331
 142  427.7361
 143  162.6166
 144  98.69955
 145  60.41557
 146  231.0848
 147  188.7066
 148  14.42267
 149  -26.13432
 150  9.425292
 151  219.7583
 152  197.949
 153  284.004
 154  172.5207
 155  -2.858129
 156  -32.02298
 157  -64.86898
 158  -168.6628
 159  -167.5168
 160  126.9672
 161  353.4577
 162  191.8048
 163  238.2004
 164  194.0879
 165  -2.716483
 166  -93.41216
 167  -23.50278
 168  15.5867
 169  180.12
 170  295.5312
 171  83.14349
 172  107.4401
 173  100.948
 174  116.1738
 175  51.74847
 176  308.6587
 177  367.4438
 178  313.8709
 179  398.7818
 180  372.6277
 181  203.6559
 182  119.7326
 183  161.3448
 184  151.5931
 185  -162.5279
 186  34.28184
 187  -130.5107
 188  -87.41529
 189  -91.03751
 190  -364.1827
 191  -66.2681
 192  71.4447
 193  -32.75967
 194  -250.8558
 195  -308.1057
 196  -240.6557
 197  -11.08105
 198  170.0266
 199  -218.2834
 200  -167.5197
 201  -171.1945
 202  88.73185
 203  204.5306
 204  80.42418
 205  222.1237
 206  222.6659
 207  164.5675
 208  -23.53442
 209  -139.8544
 210  53.56348
 211  277.9998
 212  347.7603
 213  158.9303
 214  372.5798
 215  423.647
 216  -23.29001
 217  50.51292
 218  280.5773
 219  285.8302
 220  -192.7758
 221  67.68077
 222  329.1616
 223  17.11267
 224  -11.45366
 225  232.3287
 226  -106.6111
 227  -445.8564
 228  -311.3003
 229  -2.989877
 230  216.0734
 231  -219.5681
 232  -330.3741
 233  -166.2647
 234  -117.3108
 235  184.4457
 236  196.4728
 237  191.8454
 238  468.9382
 239  419.8645
 240  -37.88428
 241  -115.1488
 242  357.7155
 243  261.0041
 244  -273.5254
 245  -211.4617
 246  -60.52296
 247  254.9934
 248  63.78316
 249  86.41046
 250  -253.4445
 251  -197.3504
 252  -15.85774
 253  25.43415
 254  75.54195
 255  241.7785
 256  1.693036
 257  -66.9078
 258  184.6922
 259  254.2824
 260  200.4249
 261  229.3595
 262  180.1025
 263  -82.56647
 264  113.5033
 265  -270.8587
 266  -184.2454
 267  -219.4762
 268  318.5433
 269  484.4648
 270  -66.48381
 271  -115.9621
 272  -26.05855
 273  121.8594
 274  111.0404
 275  -206.3011
 276  -253.3236
 277  -300.3919
 278  -52.42474
 279  -45.76622
 280  -228.9862
 281  -188.5549
 282  -121.7609
 283  -198.4241
 284  -251.8461
 285  63.02234
 286  152.4364
 287  129.3192
 288  377.1281
 289  -85.92699
 290  -399.5651
 291  -324.3316
 292  -338.0186
 293  2.731464
 294  114.8223
 295  134.809
 296  -194.9883
 297  -269.3679
 298  58.52984
 299  -99.35619
 300  -25.44006
 301  317.2119
 302  171.0477
 303  141.5912
 304  -12.01817
 305  54.61509
 306  -9.451756
 307  48.02404
 308  417.3154
 309  192.9264
 310  229.3892
 311  199.7532
 312  30.53355
 313  61.76713
 314  3.21014
 315  452.3676
 316  188.9846
 317  -148.7108
 318  71.10127
 319  174.7082
 320  339.7033
 321  -79.02831
 322  -238.8989
 323  -75.50129
 324  -131.2057
 325  -76.95134
 326  208.5386
 327  401.5442
 328  56.94028
 329  -106.5297
 330  -103.1352
 331  -412.1169
 332  -119.0034
 333  217.7171
 334  356.638
 335  451.2234
 336  353.6003
 337  -186.2795
 338  -325.1954
 339  -295.5176
 340  -96.32559
 341  37.7931
 342  129.9352
 343  -303.2212
 344  -342.0113
 345  23.14365
 346  -249.1835
 347  -476.9308
 348  -312.3637
 349  -96.05798
 350  -96.68623
 351  -181.8096
 352  28.0111
 353  54.44461
 354  90.16813
 355  -68.7277
 356  -0.7578396
 357  -46.79128
 358  -54.22002
 359  -194.3485
 360  100.0448
 361  31.37458
 362  80.53875
 363  66.76295
 364  173.4857
 365  -112.5168
 366  -161.8482
 367  52.55521
 368  -250.8079
 369  -66.79096
 370  -44.72814
 371  -82.51044
 372  -138.0456
 373  -30.93375
 374  183.1639
 375  351.8177
 376  384.9378
 377  -71.67891
 378  128.2712
 379  85.9431
 380  -110.9843
 381  -334.5741
 382  136.0643
 383  350.8344
 384  201.3665
 385  41.06435
 386  -5.802921
 387  -229.0685
 388  -200.1386
 389  365.8532
 390  484.3265
 391  315.6519
 392  44.02089
 393  -240.0571
 394  -277.1263
 395  -571.7605
 396  -56.70811
 397  218.7383
 398  -6.300182
 399  238.9488
 400  200.6076
 401  182.2741
 402  2.55214
 403  50.87968
 404  45.07475
 405  -5.760753
 406  76.45123
 407  352.7188
 408  -0.8841542
 409  110.6953
 410  73.88007
 411  268.0392
 412  362.4656
 413  383.9078
 414  379.1747
 415  315.7452
 416  202.367
 417  443.403
 418  505.6193
 419  385.1459
 420  133.0354
 421  309.4567
 422  354.722
 423  426.6391
 424  231.8283
 425  2.235141
 426  85.35052
 427  59.39973
 428  111.8579
 429  134.8393
 430  102.2067
 431  123.257
 432  -1.50874
 433  14.2224
 434  119.6002
 435  293.0349
 436  490.7834
 437  214.5779
 438  63.07307
 439  254.9566
 440  75.0475
 441  153.1217
 442  -41.40508
 443  -41.34175
 444  32.51662
 445  -132.9527
 446  -39.97672
 447  -113.8609
 448  -110.1458
 449  -461.6984
 450  -454.2329
 451  -492.7179
 452  -456.4863
 453  -283.8725
 454  -108.6012
 455  -264.1866
 456  -11.03723
 457  149.775
 458  23.01514
 459  -205.4728
 460  -396.7993
 461  -111.9262
 462  -346.22
 463  -187.4608
 464  108.8161
 465  479.4363
 466  139.9084
 467  -188.8253
 468  -315.6378
 469  -199.4547
 470  115.2302
 471  -69.66568
 472  -118.206
 473  -51.14833
 474  84.24112
 475  -14.1433
 476  139.4056
 477  277.2435
 478  419.0479
 479  10.55342
 480  -238.0305
 481  111.9013
 482  0.7829276
 483  -124.4953
 484  -369.7381
 485  -337.4718
 486  -212.0216
 487  -143.7713
 488  -193.2888
 489  -259.8694
 490  -272.1929
 491  -468.0492
 492  -65.42666
 493  -175.7651
 494  -247.4531
 495  -243.0238
 496  -240.9152
 497  -268.4617
 498  -332.9161
 499  -527.6848
 500  -373.3221
 501  -100.654
 502  -190.4517
 503  29.37261
 504  140.5366
 505  -98.62534
 506  -208.2272
 507  -454.9994
 508  -423.0766
 509  -417.6808
 510  -454.537
 511  -227.9163
