# Input file       =  1179906622.097327-PSRB0329-2ms-sampling-dd.dat
# Candidate        =  PSR_0332+5434
# Telescope        =  AR
# Epoch_topo       =  57900.326864552393
# Epoch_bary       =  N/A
# T_sample         =  0.002
# Data Folded      =  7340032
# Data Avg         =  4.07562241626689e-10
# Data StdDev      =  3.49288310391256 
# Profile Bins     =  512
# Profile Avg      =  0.0500012987903268
# Profile StdDev   =  418.213499740554 
# Reduced chi-sqr  =  0.745
# Prob(Noise)      <  1   (~0.0 sigma)
# P_topo (ms)      =  714.52118777238   +/- 0.000549
# P'_topo (s/s)    =  -0                +/- 2.9e-10
# P''_topo (s/s^2) =  0                 +/- 1.28e-13
# P_bary (ms)      =  N/A
# P'_bary (s/s)    =  N/A
# P''_bary (s/s^2) =  N/A
# P_orb (s)        =  N/A
# asin(i)/c (s)    =  N/A
# eccentricity     =  N/A
# w (rad)          =  N/A
# T_peri           =  N/A
######################################################
   0  -372.1667
   1  414.9868
   2  310.1527
   3  -44.47257
   4  -178.0355
   5  -77.67608
   6  -172.0561
   7  38.47151
   8  116.6445
   9  -292.3207
  10  -166.1837
  11  -124.6562
  12  -120.6846
  13  -137.586
  14  59.96511
  15  259.3103
  16  217.4038
  17  -190.077
  18  -285.6314
  19  -167.7438
  20  54.39074
  21  184.481
  22  301.2757
  23  201.955
  24  276.0049
  25  122.4246
  26  -149.5431
  27  100.9008
  28  19.04591
  29  -25.26945
  30  -62.37468
  31  -172.6607
  32  -220.0543
  33  -210.5182
  34  -186.6383
  35  -365.0098
  36  -287.9409
  37  -338.7513
  38  -546.8312
  39  -492.4752
  40  -282.4091
  41  -192.8032
  42  -145.9541
  43  -51.42992
  44  260.4585
  45  335.3774
  46  -147.3999
  47  59.40316
  48  44.00963
  49  206.9576
  50  415.5328
  51  513.1069
  52  521.3368
  53  226.0086
  54  170.8349
  55  172.6567
  56  364.7655
  57  255.0503
  58  298.8055
  59  465.521
  60  240.2209
  61  12.41675
  62  359.6181
  63  318.7223
  64  25.00884
  65  -51.26375
  66  -135.5752
  67  -290.7987
  68  -52.9216
  69  26.14691
  70  137.825
  71  -2.088218
  72  146.0325
  73  -107.4337
  74  -8.466821
  75  235.551
  76  -185.8193
  77  -359.7276
  78  -230.256
  79  -141.4603
  80  -110.66
  81  -249.648
  82  128.7424
  83  38.70767
  84  255.2928
  85  179.6197
  86  119.6887
  87  -114.2061
  88  -45.34523
  89  174.5515
  90  348.8248
  91  249.3216
  92  485.6948
  93  212.0186
  94  445.9441
  95  517.8365
  96  298.6712
  97  256.2538
  98  194.9556
  99  161.856
 100  -139.7904
 101  196.3309
 102  462.1536
 103  134.0766
 104  -136.3713
 105  -95.51687
 106  -3.675463
 107  322.652
 108  539.6791
 109  238.2617
 110  -76.37176
 111  298.2677
 112  431.1506
 113  313.6409
 114  239.9103
 115  347.2318
 116  385.4106
 117  198.2491
 118  305.6511
 119  482.4109
 120  263.2322
 121  -22.19423
 122  192.5075
 123  289.6799
 124  217.6759
 125  284.0299
 126  95.49789
 127  31.22088
 128  -87.54029
 129  -222.137
 130  -11.2985
 131  135.4249
 132  -37.49274
 133  -85.00303
 134  -31.61879
 135  -87.8997
 136  197.9868
 137  138.3956
 138  -90.17258
 139  -14.35247
 140  234.7375
 141  243.9649
 142  -76.60741
 143  -170.9076
 144  -216.4124
 145  -285.7183
 146  -257.4112
 147  -168.7087
 148  -103.6447
 149  -33.98355
 150  -215.705
 151  -38.93309
 152  174.0482
 153  108.8804
 154  191.5565
 155  297.011
 156  107.6993
 157  -19.21135
 158  -245.6745
 159  -154.6691
 160  115.1636
 161  107.609
 162  -136.5926
 163  -380.9626
 164  64.17384
 165  -9.421057
 166  -148.3277
 167  -229.0185
 168  -227.9914
 169  -9.644222
 170  50.56803
 171  -434.7217
 172  -408.3194
 173  26.9468
 174  351.0545
 175  -192.4322
 176  -297.8139
 177  -44.24911
 178  -58.32352
 179  -185.4786
 180  -256.2835
 181  -124.2839
 182  19.67718
 183  3.347976
 184  -74.10573
 185  30.59856
 186  -310.7926
 187  -338.4673
 188  267.1163
 189  137.4112
 190  96.20338
 191  136.1083
 192  -102.1536
 193  569.8575
 194  -79.38316
 195  -215.6816
 196  197.6713
 197  475.1321
 198  884.516
 199  1164.572
 200  1508.698
 201  1261.437
 202  910.2972
 203  1011.943
 204  714.9771
 205  316.1201
 206  201.0325
 207  2.403571
 208  101.2223
 209  -55.39194
 210  1.185965
 211  -106.9459
 212  -32.63712
 213  39.51706
 214  249.6569
 215  281.7878
 216  280.5855
 217  366.2016
 218  21.98895
 219  -183.1483
 220  -37.2226
 221  72.63864
 222  345.4925
 223  30.42386
 224  17.34478
 225  197.6549
 226  33.06538
 227  -8.413863
 228  78.41754
 229  173.1132
 230  174.9495
 231  66.02776
 232  92.42034
 233  129.1897
 234  26.29138
 235  68.27558
 236  487.5517
 237  435.5434
 238  -37.62864
 239  101.9436
 240  208.7822
 241  195.0113
 242  372.789
 243  109.4653
 244  65.21265
 245  -178.0209
 246  34.1423
 247  52.72618
 248  186.7702
 249  266.037
 250  190.628
 251  29.8653
 252  -169.9491
 253  -234.8927
 254  -70.50259
 255  -33.92247
 256  -158.9963
 257  -393.7126
 258  -448.6963
 259  -255.7404
 260  -5.846961
 261  129.8679
 262  24.96222
 263  -215.1413
 264  -78.01465
 265  -250.0161
 266  -276.1173
 267  55.89044
 268  -34.47889
 269  -134.8837
 270  -117.116
 271  -100.5771
 272  -38.26334
 273  -8.807577
 274  -85.9106
 275  40.92113
 276  -127.5749
 277  -122.3899
 278  -22.42959
 279  -142.3863
 280  -63.13007
 281  32.63416
 282  -75.01083
 283  -36.87442
 284  27.5062
 285  -189.3318
 286  -375.255
 287  -388.8361
 288  172.6625
 289  149.8155
 290  150.5844
 291  263.0497
 292  104.4635
 293  -279.5258
 294  -57.97628
 295  169.8511
 296  329.9223
 297  310.5304
 298  134.775
 299  217.413
 300  -186.2989
 301  -332.063
 302  -20.25456
 303  -158.7072
 304  -1.185652
 305  121.4828
 306  142.685
 307  -78.48199
 308  -60.49878
 309  -37.39884
 310  40.78185
 311  8.470244
 312  42.33054
 313  -14.74533
 314  -0.3920054
 315  -159.4662
 316  -424.2643
 317  -45.53288
 318  -43.06601
 319  -1.457252
 320  66.79227
 321  -12.96541
 322  -174.3818
 323  -243.8684
 324  75.97824
 325  -40.47424
 326  -115.8218
 327  -482.7604
 328  -325.695
 329  -290.3316
 330  -236.7451
 331  -163.9898
 332  -97.04156
 333  43.94795
 334  -70.92943
 335  -126.9955
 336  -27.63632
 337  3.959357
 338  323.5475
 339  54.99965
 340  -157.6166
 341  -135.7622
 342  -133.9485
 343  32.7161
 344  127.1727
 345  -121.9257
 346  -411.255
 347  -152.6405
 348  -434.5854
 349  -379.5772
 350  -173.2667
 351  -118.9538
 352  -175.7053
 353  -360.984
 354  -219.4917
 355  -72.10938
 356  -117.8749
 357  -399.3116
 358  -475.9809
 359  -99.46284
 360  -337.854
 361  -302.0686
 362  -433.6642
 363  -317.6314
 364  -157.7859
 365  -255.6078
 366  -317.5428
 367  -313.2526
 368  -264.2163
 369  -377.7713
 370  -254.9121
 371  -188.1621
 372  -335.6
 373  -482.0086
 374  -656.5811
 375  -547.1279
 376  -330.5858
 377  -377.3252
 378  -136.091
 379  -29.84946
 380  110.3929
 381  169.5727
 382  -31.42969
 383  240.8338
 384  287.0077
 385  132.5598
 386  84.69172
 387  114.4339
 388  270.2007
 389  161.7115
 390  -152.554
 391  -273.1605
 392  -11.21224
 393  79.61814
 394  -130.669
 395  -58.45516
 396  -282.5823
 397  -456.4301
 398  -189.7559
 399  -20.75076
 400  -86.313
 401  8.457969
 402  -77.2326
 403  -326.4025
 404  -322.3753
 405  18.04692
 406  -109.9592
 407  -261.8721
 408  149.28
 409  -9.045189
 410  -156.1089
 411  205.4615
 412  267.7681
 413  33.61318
 414  -168.3014
 415  74.06184
 416  -155.9423
 417  -56.20938
 418  115.2393
 419  2.260814
 420  -258.4667
 421  -423.4227
 422  -316.1891
 423  -364.0352
 424  -231.0806
 425  15.92579
 426  35.45413
 427  15.63394
 428  22.42524
 429  36.7044
 430  -163.9722
 431  -189.5489
 432  37.30285
 433  76.55646
 434  -289.5285
 435  -319.955
 436  -173.8001
 437  -24.04092
 438  107.5089
 439  -89.24368
 440  -67.59916
 441  -196.2183
 442  -273.6622
 443  -171.1171
 444  -36.30065
 445  -12.38795
 446  21.6475
 447  -82.57615
 448  -216.5838
 449  -171.3696
 450  -164.759
 451  -98.13826
 452  -441.8298
 453  -625.1416
 454  -397.4864
 455  -282.812
 456  -179.7537
 457  -67.06037
 458  -460.2575
 459  -135.2733
 460  -251.4005
 461  -166.3802
 462  -278.3543
 463  -144.3949
 464  -343.471
 465  -388.1385
 466  -191.0345
 467  -205.1588
 468  -263.7845
 469  -482.1912
 470  -469.5491
 471  -159.1485
 472  -252.3652
 473  -184.8881
 474  -158.8877
 475  -108.2749
 476  137.5938
 477  -190.2774
 478  -408.6092
 479  90.19387
 480  436.4429
 481  197.1871
 482  255.9319
 483  341.3364
 484  272.6779
 485  74.95695
 486  214.6383
 487  446.9177
 488  158.2346
 489  296.7258
 490  396.8894
 491  347.8463
 492  183.8279
 493  259.027
 494  496.5631
 495  506.8404
 496  45.83721
 497  -114.0114
 498  324.5044
 499  220.5986
 500  220.0628
 501  437.1949
 502  426.7701
 503  293.5758
 504  57.01751
 505  48.05341
 506  263.5062
 507  -94.46949
 508  51.45498
 509  59.11691
 510  152.2303
 511  116.7307
