# Input file       =  1179977562.101060-PSRB0329-2ms-sampling-dd.dat
# Candidate        =  PSR_0332+5434
# Telescope        =  AR
# Epoch_topo       =  57901.147929410414
# Epoch_bary       =  N/A
# T_sample         =  0.002
# Data Folded      =  7208960
# Data Avg         =  8.15456013859561e-10
# Data StdDev      =  17.133103113694  
# Profile Bins     =  512
# Profile Avg      =  0.135594579535703
# Profile StdDev   =  2032.9998942565  
# Reduced chi-sqr  =  1.197
# Prob(Noise)      <  0.00142   (~3.0 sigma)
# P_topo (ms)      =  714.520356660959  +/- 0.000126
# P'_topo (s/s)    =  -0                +/- 6.79e-11
# P''_topo (s/s^2) =  0                 +/- 3.05e-14
# P_bary (ms)      =  N/A
# P'_bary (s/s)    =  N/A
# P''_bary (s/s^2) =  N/A
# P_orb (s)        =  N/A
# asin(i)/c (s)    =  N/A
# eccentricity     =  N/A
# w (rad)          =  N/A
# T_peri           =  N/A
######################################################
   0  -1528.618
   1  -2066.44
   2  -2105.372
   3  -2245.704
   4  -2014.84
   5  -1712.82
   6  -2623.509
   7  -3143.892
   8  -3215.06
   9  -2493.758
  10  -1393.4
  11  -1466.597
  12  -1453.895
  13  -843.0834
  14  -1219.427
  15  -1174.125
  16  -1404.667
  17  -1282.574
  18  -1328.882
  19  -1383.478
  20  -1382.459
  21  -1233.579
  22  -694.8327
  23  -1825.72
  24  -2059.815
  25  -2557.671
  26  -2454.295
  27  -2570.463
  28  -2357.833
  29  -2025.506
  30  -1503.102
  31  -934.4384
  32  -662.2573
  33  -1091.617
  34  -1356.741
  35  -1733.365
  36  -2201.851
  37  -1666.355
  38  -1021.932
  39  -720.249
  40  -913.4218
  41  -1582.6
  42  -1692.919
  43  -1938.881
  44  -1687.168
  45  -1712.369
  46  -1459.347
  47  -1206.001
  48  -911.6901
  49  -847.7018
  50  -1336.309
  51  -1244.51
  52  -1451.274
  53  -1618.495
  54  -617.3316
  55  -207.211
  56  767.7307
  57  1202.406
  58  874.5706
  59  790.0201
  60  1151.003
  61  1993.845
  62  2936.272
  63  2406.004
  64  133.5335
  65  429.4817
  66  943.8365
  67  2438.633
  68  2453.154
  69  2063.157
  70  903.5508
  71  -76.35122
  72  653.2825
  73  758.9298
  74  345.993
  75  453.4042
  76  -55.07766
  77  -732.2582
  78  -1884.076
  79  -1283.142
  80  72.13612
  81  74.12766
  82  -322.0205
  83  -13.52313
  84  -1070.937
  85  -1182.94
  86  -1394.864
  87  83.49816
  88  -108.4263
  89  -482.5803
  90  -1069.581
  91  -1741.272
  92  -2323.467
  93  -2584.477
  94  -2856.648
  95  -2441.936
  96  -1610.688
  97  -1765.513
  98  -2380.607
  99  -3160.315
 100  -2903.737
 101  -2603.123
 102  -1824.988
 103  -1099.63
 104  -659.4075
 105  -140.8702
 106  -1284.375
 107  -2699.178
 108  -2368.177
 109  -1893.136
 110  -1131.288
 111  -1151.625
 112  -637.4617
 113  -1028.049
 114  -1814.579
 115  -2132.675
 116  -1894.791
 117  -1902.586
 118  -1315.158
 119  -751.0713
 120  -460.5819
 121  -608.0898
 122  -822.1948
 123  -1282.846
 124  -1643.773
 125  -1351.942
 126  -539.6876
 127  -298.4817
 128  31.4685
 129  375.712
 130  -217.1089
 131  -995.7784
 132  -1515.172
 133  -1266.159
 134  -890.5876
 135  -447.7881
 136  -142.0563
 137  -557.6485
 138  -1027.743
 139  -1379.416
 140  -576.4937
 141  -878.6714
 142  -377.2141
 143  1199.376
 144  1138.592
 145  1565.566
 146  2336.302
 147  4201.702
 148  4525.767
 149  5224.956
 150  4975.693
 151  4436.931
 152  2634.07
 153  3283.793
 154  2037.899
 155  958.4967
 156  384.13
 157  412.5232
 158  -182.6746
 159  -89.6236
 160  -936.1617
 161  -776.187
 162  752.5594
 163  1233.236
 164  564.3642
 165  716.5562
 166  261.7546
 167  630.4568
 168  1071.053
 169  1836.21
 170  1820.034
 171  1518.357
 172  1225.862
 173  -590.9933
 174  -780.0679
 175  -984.0366
 176  -199.383
 177  113.2379
 178  1026.265
 179  691.2855
 180  45.54737
 181  -238.3074
 182  -213.8506
 183  590.1767
 184  616.7136
 185  801.5162
 186  780.0817
 187  708.2141
 188  -603.348
 189  -1770.562
 190  -816.2039
 191  -107.7811
 192  336.3419
 193  907.8239
 194  1178.102
 195  1607.085
 196  1256.703
 197  922.7405
 198  174.0655
 199  -1011.448
 200  -886.3561
 201  -897.3241
 202  -985.9289
 203  -740.2234
 204  382.7443
 205  266.9501
 206  -420.7031
 207  -888.1591
 208  -1222.756
 209  -1441.88
 210  -628.834
 211  1993.149
 212  3700.889
 213  3127.115
 214  2023.116
 215  -385.7607
 216  -1106.79
 217  -224.8775
 218  744.8327
 219  1369.539
 220  1017.055
 221  128.6832
 222  -1017.652
 223  -2241.949
 224  -2052.302
 225  -2198.092
 226  -1634.383
 227  -1542.3
 228  -1268.911
 229  -727.618
 230  -472.6239
 231  -956.1974
 232  -1640.488
 233  -1386.988
 234  -919.6741
 235  -884.0222
 236  -377.0245
 237  241.7913
 238  677.6479
 239  546.2214
 240  802.4094
 241  1271.925
 242  615.4899
 243  -898.8476
 244  1620.046
 245  2740.652
 246  3977.735
 247  3938.087
 248  3736.664
 249  2577.226
 250  1335.534
 251  811.1897
 252  1409.269
 253  1243.587
 254  1279.057
 255  -170.5325
 256  -993.5551
 257  -1265.947
 258  -1319.549
 259  -1223.687
 260  -643.4355
 261  -243.6664
 262  -401.8325
 263  -518.4847
 264  -930.4329
 265  -423.8366
 266  -499.2022
 267  -136.2541
 268  51.73058
 269  -200.7434
 270  -533.4929
 271  -514.6495
 272  -926.0378
 273  -1110.661
 274  -1660.798
 275  -1875.362
 276  -1207.884
 277  -802.2701
 278  -748.7859
 279  -152.5822
 280  -95.79338
 281  -789.5217
 282  -560.4375
 283  -1083.12
 284  469.6929
 285  2226.151
 286  3962.681
 287  3267.151
 288  1611.437
 289  -0.5474547
 290  -359.868
 291  233.6548
 292  611.1119
 293  1900.087
 294  2271.396
 295  2389.022
 296  1860.762
 297  1349.433
 298  781.9086
 299  1314.566
 300  3524.978
 301  4403.003
 302  4867.799
 303  3708.806
 304  2310.55
 305  1501.348
 306  1524.982
 307  2171.581
 308  757.3107
 309  663.2892
 310  2190.369
 311  3539.664
 312  4858.38
 313  3783.412
 314  1161.883
 315  106.5482
 316  -694.9208
 317  -275.3374
 318  1184.713
 319  2666.813
 320  2927.029
 321  2528.876
 322  2757.122
 323  110.4918
 324  325.1072
 325  1145.018
 326  5532.777
 327  7132.247
 328  6061.343
 329  3758.074
 330  -229.961
 331  -1698.568
 332  -653.9083
 333  -515.6844
 334  1328.989
 335  1441.693
 336  454.3374
 337  70.4527
 338  -637.1083
 339  -246.268
 340  143.8145
 341  856.5947
 342  1575.837
 343  2094.331
 344  2192.629
 345  1708.042
 346  -139.395
 347  733.4014
 348  1148.754
 349  2132.58
 350  2361.756
 351  2175.603
 352  1222.287
 353  -209.642
 354  -749.3246
 355  -1057.433
 356  -1208.843
 357  -757.1522
 358  -1014.946
 359  -655.8218
 360  -861.5191
 361  -832.8633
 362  -768.0313
 363  -789.4268
 364  -1084.924
 365  -541.6828
 366  493.6628
 367  700.2076
 368  540.8281
 369  788.5471
 370  28.61891
 371  -751.4512
 372  -1126.993
 373  16.25443
 374  -290.3012
 375  -23.76835
 376  452.93
 377  728.387
 378  438.4163
 379  140.7705
 380  -96.94592
 381  -285.3904
 382  -478.4731
 383  -352.651
 384  -884.5339
 385  -928.3221
 386  -430.6114
 387  -455.1977
 388  -1081.807
 389  -1449.767
 390  -2224.944
 391  -2305.721
 392  -1803.906
 393  -873.3653
 394  27.4079
 395  -613.8829
 396  -1043.202
 397  -2127.83
 398  -2109.164
 399  -1832.412
 400  -1939.121
 401  -1192.317
 402  -579.3089
 403  -1040.021
 404  -1839.078
 405  -1822.21
 406  -535.3545
 407  591.9691
 408  2135.372
 409  2553.079
 410  2383.574
 411  2238.116
 412  -1843.234
 413  537.3854
 414  2674.619
 415  4745.646
 416  4633.72
 417  3622.679
 418  1769.621
 419  -304.0289
 420  -750.2378
 421  176.5864
 422  -108.1216
 423  352.6823
 424  -485.6191
 425  -635.8674
 426  -42.48763
 427  -797.4236
 428  -965.0286
 429  -389.9398
 430  183.2696
 431  273.6313
 432  -143.2228
 433  -246.1862
 434  356.6391
 435  539.7869
 436  500.1123
 437  1112.129
 438  512.4669
 439  -94.2655
 440  -218.0592
 441  -942.0999
 442  -1207.184
 443  -1530.149
 444  -406.308
 445  -811.086
 446  -1660.668
 447  -1643.658
 448  -1152.486
 449  -1040.703
 450  -740.5845
 451  -485.5995
 452  -599.1437
 453  -731.8782
 454  -1146.991
 455  68.71989
 456  -61.50185
 457  267.5516
 458  1109.581
 459  1939.698
 460  1740.182
 461  960.1298
 462  355.6141
 463  712.4698
 464  1533.307
 465  1088.339
 466  906.4249
 467  1616.146
 468  2328.647
 469  2492.506
 470  2467.947
 471  2121.678
 472  1520.02
 473  -299.7555
 474  -187.6749
 475  121.0698
 476  -118.6896
 477  -568.3915
 478  -472.222
 479  -1049.061
 480  -889.8878
 481  -1321.381
 482  -1335.978
 483  -997.9637
 484  -620.0288
 485  -83.02399
 486  31.46973
 487  281.8082
 488  289.5557
 489  -155.6235
 490  -410.2979
 491  -573.3264
 492  670.7847
 493  1521.588
 494  1347.96
 495  867.2308
 496  63.75912
 497  -674.4249
 498  -920.4663
 499  -1402.848
 500  -679.4457
 501  -273.4023
 502  -954.9504
 503  -1073.748
 504  -677.2148
 505  -636.8732
 506  -931.8723
 507  -1381.08
 508  -1160.326
 509  -180.5423
 510  -10.03587
 511  -620.9044
