# Input file       =  1179145456.098846_cleaned.dat
# Candidate        =  PSR_0332+5434
# Telescope        =  AR
# Epoch_topo       =  57891.517072903313
# Epoch_bary       =  N/A
# T_sample         =  0.002
# Data Folded      =  7340032
# Data Avg         =  0.0229088728380705
# Data StdDev      =  1.00003408962522 
# Profile Bins     =  512
# Profile Avg      =  328.44527257931  
# Profile StdDev   =  119.737118031102 
# Reduced chi-sqr  =  1.218
# Prob(Noise)      <  0.000526   (~3.3 sigma)
# P_topo (ms)      =  714.530192462141  +/- 0.000251
# P'_topo (s/s)    =  -0                +/- 1.32e-10
# P''_topo (s/s^2) =  0                 +/- 5.85e-14
# P_bary (ms)      =  N/A
# P'_bary (s/s)    =  N/A
# P''_bary (s/s^2) =  N/A
# P_orb (s)        =  N/A
# asin(i)/c (s)    =  N/A
# eccentricity     =  N/A
# w (rad)          =  N/A
# T_peri           =  N/A
######################################################
   0  238.5956
   1  234.7621
   2  219.9492
   3  337.6308
   4  348.5233
   5  348.3691
   6  398.5757
   7  315.6278
   8  272.2543
   9  193.6344
  10  271.2895
  11  362.6346
  12  280.9346
  13  281.7426
  14  287.6646
  15  231.2159
  16  380.9561
  17  342.0643
  18  398.0652
  19  435.4637
  20  392.7194
  21  192.8425
  22  74.40286
  23  142.3396
  24  378.9457
  25  201.6234
  26  168.7281
  27  242.1401
  28  251.115
  29  291.1751
  30  271.5677
  31  216.3153
  32  178.7917
  33  90.81255
  34  246.4935
  35  313.785
  36  320.6425
  37  256.7721
  38  230.9225
  39  303.7406
  40  335.8705
  41  259.2191
  42  253.4801
  43  165.7677
  44  247.5403
  45  293.3281
  46  175.3479
  47  171.4409
  48  183.5184
  49  177.4998
  50  287.6175
  51  270.1868
  52  196.3175
  53  266.3795
  54  299.1606
  55  284.4129
  56  335.4108
  57  286.4367
  58  340.5671
  59  344.7939
  60  344.5571
  61  295.0873
  62  364.5026
  63  439.8833
  64  291.4939
  65  379.4954
  66  375.2809
  67  306.6772
  68  342.7688
  69  400.3264
  70  254.9831
  71  205.9293
  72  201.9544
  73  203.569
  74  261.9837
  75  172.479
  76  215.6554
  77  279.0475
  78  276.8056
  79  226.8756
  80  133.6119
  81  262.458
  82  229.2138
  83  342.7482
  84  339.4355
  85  287.6125
  86  295.6796
  87  367.2893
  88  306.0313
  89  278.0359
  90  332.0529
  91  236.8166
  92  177.8497
  93  324.128
  94  360.1158
  95  272.4745
  96  194.5602
  97  491.824
  98  519.0256
  99  300.972
 100  365.2941
 101  247.8413
 102  200.657
 103  212.1079
 104  194.9587
 105  332.9976
 106  279.1112
 107  253.5049
 108  331.5572
 109  453.1591
 110  473.6723
 111  412.1446
 112  407.1443
 113  471.7737
 114  358.5862
 115  342.761
 116  265.4501
 117  279.8648
 118  341.0374
 119  310.3255
 120  245.1738
 121  398.2227
 122  429.0999
 123  404.2911
 124  234.9873
 125  309.3966
 126  387.1653
 127  425.0224
 128  277.0871
 129  309.482
 130  317.9632
 131  284.1354
 132  327.9439
 133  316.1998
 134  353.502
 135  276.3636
 136  289.9597
 137  366.3
 138  267.4204
 139  423.1756
 140  437.2839
 141  362.8319
 142  276.7092
 143  306.1212
 144  393.5672
 145  374.8899
 146  270.9586
 147  302.8131
 148  375.0049
 149  347.1411
 150  295.0991
 151  383.8835
 152  391.5434
 153  436.1225
 154  411.2349
 155  350.8603
 156  281.6263
 157  339.0262
 158  260.0153
 159  386.6347
 160  391.3996
 161  352.1488
 162  220.4586
 163  147.3143
 164  355.2853
 165  342.5103
 166  169.4632
 167  304.6223
 168  365.8385
 169  336.7962
 170  260.1187
 171  283.5692
 172  274.5569
 173  301.6781
 174  390.4559
 175  337.647
 176  401.39
 177  279.5569
 178  231.9541
 179  391.3263
 180  373.3341
 181  240.8925
 182  262.6927
 183  364.1057
 184  370.961
 185  395.7745
 186  365.2336
 187  319.9659
 188  384.4394
 189  463.8363
 190  394.8004
 191  363.6183
 192  408.3991
 193  338.8578
 194  209.5306
 195  267.826
 196  187.0264
 197  168.0229
 198  201.9725
 199  325.1752
 200  317.7415
 201  354.6597
 202  370.3066
 203  434.2636
 204  358.1846
 205  182.6991
 206  187.7121
 207  287.269
 208  291.6324
 209  328.4409
 210  402.985
 211  426.711
 212  257.1613
 213  286.034
 214  415.3211
 215  340.4911
 216  257.7861
 217  390.4355
 218  407.0228
 219  244.2922
 220  268.8481
 221  232.6827
 222  204.5506
 223  241.6143
 224  298.2254
 225  338.4062
 226  397.704
 227  408.6534
 228  380.8614
 229  315.7812
 230  267.6517
 231  338.2082
 232  325.9425
 233  372.6905
 234  402.3105
 235  326.4112
 236  237.002
 237  405.5288
 238  425.5441
 239  376.6683
 240  260.7036
 241  339.6104
 242  373.336
 243  269.9759
 244  250.966
 245  348.2911
 246  335.051
 247  349.0795
 248  399.0143
 249  417.4497
 250  487.3686
 251  513.8333
 252  415.8905
 253  344.9382
 254  232.7723
 255  355.2913
 256  463.3878
 257  478.9474
 258  392.7913
 259  315.2173
 260  330.553
 261  344.8267
 262  311.4528
 263  442.4495
 264  476.0824
 265  329.1116
 266  307.0758
 267  382.2878
 268  342.1411
 269  300.4163
 270  243.7449
 271  280.3412
 272  198.1143
 273  95.54758
 274  241.8122
 275  125.5414
 276  285.2897
 277  389.3428
 278  561.6005
 279  636.39
 280  566.8785
 281  429.8664
 282  541.5978
 283  568.5574
 284  546.1424
 285  507.488
 286  481.99
 287  414.3478
 288  345.6346
 289  426.2718
 290  451.9557
 291  308.4926
 292  337.5442
 293  436.0946
 294  297.1776
 295  352.0817
 296  362.5465
 297  354.5154
 298  384.1457
 299  484.6375
 300  466.4623
 301  404.5614
 302  280.8144
 303  263.6302
 304  248.1647
 305  304.7745
 306  333.8415
 307  321.2206
 308  439.6694
 309  433.4025
 310  358.0934
 311  349.2341
 312  354.7032
 313  289.3241
 314  385.7956
 315  487.3777
 316  441.9954
 317  424.4254
 318  398.3365
 319  421.7776
 320  395.4218
 321  428.1478
 322  477.6918
 323  293.0429
 324  304.9317
 325  278.5641
 326  240.2463
 327  359.0994
 328  408.6045
 329  452.1322
 330  295.7395
 331  200.5453
 332  384.4332
 333  370.2791
 334  267.9067
 335  278.226
 336  349.983
 337  312.7592
 338  391.9333
 339  394.0384
 340  383.2309
 341  524.2409
 342  572.3749
 343  520.7562
 344  598.6213
 345  739.3757
 346  772.3341
 347  779.0142
 348  732.0945
 349  577.0588
 350  423.9932
 351  200.8829
 352  317.8159
 353  395.7284
 354  356.6584
 355  332.3411
 356  341.6952
 357  359.1935
 358  277.2516
 359  284.8705
 360  318.0139
 361  362.0233
 362  358.6945
 363  367.963
 364  418.6584
 365  512.0594
 366  513.585
 367  406.283
 368  220.1967
 369  208.853
 370  350.4584
 371  401.1783
 372  413.8434
 373  361.5813
 374  235.6503
 375  344.1915
 376  395.3264
 377  259.027
 378  227.2034
 379  300.347
 380  254.1462
 381  283.0485
 382  240.6749
 383  327.7866
 384  403.2392
 385  392.0716
 386  324.0435
 387  304.3873
 388  329.7184
 389  341.1353
 390  388.7361
 391  341.2798
 392  354.3703
 393  360.3722
 394  296.5166
 395  410.1819
 396  361.0664
 397  383.3984
 398  282.4485
 399  349.4301
 400  483.108
 401  320.7295
 402  175.9787
 403  167.7752
 404  164.7233
 405  270.6771
 406  267.2377
 407  290.3557
 408  305.8039
 409  341.6964
 410  378.6376
 411  370.6076
 412  332.8239
 413  264.9436
 414  194.1151
 415  263.7754
 416  366.4272
 417  283.9038
 418  271.9653
 419  271.8702
 420  276.4905
 421  336.1959
 422  391.901
 423  272.3345
 424  334.3922
 425  311.7916
 426  211.3765
 427  311.2918
 428  458.6581
 429  391.8735
 430  133.7894
 431  164.7023
 432  427.3139
 433  434.052
 434  383.6564
 435  375.4645
 436  304.6795
 437  373.5851
 438  194.7701
 439  195.2864
 440  308.0785
 441  212.6201
 442  331.0031
 443  303.8677
 444  266.5578
 445  402.5953
 446  352.4423
 447  279.5099
 448  306.2458
 449  401.1945
 450  414.8758
 451  323.2307
 452  363.0267
 453  280.2653
 454  315.7112
 455  321.648
 456  350.249
 457  371.559
 458  291.4815
 459  262.2557
 460  222.3055
 461  296.1578
 462  374.231
 463  348.6552
 464  388.4399
 465  347.83
 466  413.1818
 467  386.0466
 468  326.4641
 469  308.9922
 470  184.721
 471  171.6687
 472  27.15413
 473  203.1233
 474  338.3731
 475  345.7071
 476  341.1894
 477  236.259
 478  220.4495
 479  279.0209
 480  229.9121
 481  272.6413
 482  194.6713
 483  242.212
 484  301.6664
 485  394.9749
 486  485.3341
 487  438.8875
 488  361.8778
 489  331.0726
 490  356.7737
 491  417.9923
 492  285.1261
 493  338.7107
 494  392.0721
 495  409.6154
 496  490.839
 497  388.2664
 498  183.6282
 499  154.2963
 500  281.8268
 501  321.2719
 502  326.9698
 503  351.4805
 504  236.074
 505  224.8394
 506  258.752
 507  174.5124
 508  233.7776
 509  281.7294
 510  349.2828
 511  291.0757
