# Input file       =  1179891925.097309_cleaned.dat
# Candidate        =  PSR_0332+5434
# Telescope        =  AR
# Epoch_topo       =  57900.156760385522
# Epoch_bary       =  N/A
# T_sample         =  0.002
# Data Folded      =  7208960
# Data Avg         =  0.17302980770103 
# Data StdDev      =  6.10978983392513 
# Profile Bins     =  256
# Profile Avg      =  4871.34802354362 
# Profile StdDev   =  1025.28026212491 
# Reduced chi-sqr  =  0.546
# Prob(Noise)      <  1   (~0.0 sigma)
# P_topo (ms)      =  714.521329236796  +/- 0.000141
# P'_topo (s/s)    =  -0                +/- 7.57e-11
# P''_topo (s/s^2) =  0                 +/- 3.4e-14
# P_bary (ms)      =  N/A
# P'_bary (s/s)    =  N/A
# P''_bary (s/s^2) =  N/A
# P_orb (s)        =  N/A
# asin(i)/c (s)    =  N/A
# eccentricity     =  N/A
# w (rad)          =  N/A
# T_peri           =  N/A
######################################################
   0  4122.795
   1  4959.942
   2  4410.709
   3  3885.273
   4  4400.01
   5  4320.425
   6  4181.668
   7  5297.438
   8  4871.944
   9  4658.831
  10  4129.581
  11  3832.343
  12  3636.636
  13  3793.206
  14  4019.022
  15  3503.777
  16  3866.743
  17  4519.677
  18  3658.9
  19  4787.431
  20  3853.566
  21  4677.041
  22  3554.777
  23  4168.757
  24  3624.753
  25  4960.868
  26  4651.718
  27  4376.229
  28  4354.983
  29  4823.336
  30  5278.066
  31  4171.256
  32  4418.925
  33  5201.504
  34  5066.65
  35  4072.699
  36  4869.151
  37  4576.977
  38  3892.662
  39  4806.932
  40  4073.846
  41  4236.49
  42  4655.733
  43  5717.646
  44  4739.584
  45  4332.058
  46  3976.221
  47  4161.108
  48  5036.64
  49  4051.002
  50  4985.463
  51  5109.053
  52  4230.344
  53  4904.028
  54  4944.535
  55  4584.137
  56  4175.868
  57  5219.592
  58  5314.728
  59  4843.785
  60  4737.274
  61  5168.037
  62  5294.125
  63  4280.831
  64  4232.68
  65  3257.66
  66  4430.307
  67  5422.151
  68  5199.229
  69  5008.293
  70  4328.505
  71  5183.191
  72  4799.244
  73  4771.516
  74  4640.335
  75  6169.548
  76  5171.864
  77  5335.692
  78  4662.114
  79  5143.767
  80  5428.63
  81  4939.133
  82  5161.863
  83  4799.453
  84  4965.571
  85  4566.904
  86  5012.591
  87  5452.906
  88  4809.432
  89  5220.502
  90  5237.439
  91  5768.358
  92  5693.276
  93  4546.283
  94  4288.824
  95  4618.451
  96  5909.96
  97  4864.825
  98  4946.107
  99  5383.602
 100  5424.294
 101  4812.248
 102  4044.665
 103  5459.092
 104  5231.903
 105  3955.621
 106  4209.473
 107  6419.869
 108  5013.117
 109  4419.485
 110  4681.464
 111  5933.384
 112  5496.43
 113  4929.687
 114  5359.857
 115  6011.889
 116  6401.431
 117  5227.054
 118  5387.185
 119  5812.812
 120  6093.047
 121  5458.993
 122  5254.986
 123  5315.919
 124  4980.121
 125  5289.903
 126  4130.427
 127  4355.705
 128  4923.088
 129  4135.067
 130  3346.297
 131  4223.845
 132  4655.503
 133  5646.886
 134  5589.5
 135  5573.695
 136  5297.916
 137  5433.601
 138  5054.062
 139  5567.058
 140  5666.557
 141  6314.982
 142  4742.336
 143  4070.641
 144  4900.348
 145  5569.212
 146  4243.95
 147  4308.96
 148  5208.689
 149  5642.618
 150  5139.177
 151  4436.741
 152  5808.898
 153  5409.688
 154  4528.733
 155  4474.217
 156  4787.481
 157  5175.851
 158  5045.996
 159  5415.261
 160  5087.042
 161  5671.341
 162  5899.654
 163  6767.512
 164  6487.98
 165  6955.478
 166  6531.405
 167  5123.612
 168  4905.794
 169  4367.267
 170  4647.29
 171  4577.746
 172  4932.224
 173  5061.351
 174  5545.117
 175  4963.979
 176  5172.456
 177  6367.453
 178  4826.16
 179  4520.012
 180  4962.792
 181  4975.891
 182  6035.513
 183  5386.643
 184  4561.455
 185  3904.35
 186  4977.906
 187  4268.172
 188  3953.151
 189  3911.071
 190  4472.328
 191  5190.517
 192  4958.335
 193  4568.261
 194  4248.363
 195  4565.78
 196  4577.807
 197  4037.81
 198  5245.153
 199  5058.668
 200  4781.863
 201  5271.722
 202  5193.621
 203  5083.803
 204  4759.529
 205  4671.458
 206  4460.386
 207  5012.908
 208  4336.212
 209  5826.728
 210  5917.702
 211  4950.878
 212  4682.841
 213  5007.187
 214  5325.077
 215  5116.95
 216  5086.991
 217  4423.306
 218  5275.587
 219  5545.694
 220  5095.033
 221  4243.787
 222  5277.636
 223  4515.235
 224  4269.323
 225  5121.051
 226  4285.74
 227  4203.588
 228  4453.19
 229  4840.468
 230  4213.343
 231  4882.159
 232  5684.485
 233  4394.372
 234  3608.963
 235  3670.246
 236  4796.31
 237  3058.239
 238  3912.74
 239  4281.958
 240  5745.804
 241  5218.703
 242  4826.384
 243  4874.959
 244  5474.347
 245  5925.807
 246  4835.991
 247  5340.233
 248  5462.216
 249  5337.632
 250  4657.682
 251  4753.082
 252  5019.848
 253  5630.09
 254  5447.727
 255  4858.991
