# Input file       =  1179389028.098606_cleaned.dat
# Candidate        =  PSR_0332+5434
# Telescope        =  AR
# Epoch_topo       =  57894.336193270901
# Epoch_bary       =  N/A
# T_sample         =  0.002
# Data Folded      =  7340032
# Data Avg         =  0.0252236945363746
# Data StdDev      =  1.00007165065066 
# Profile Bins     =  512
# Profile Avg      =  361.617029128578 
# Profile StdDev   =  119.741615326728 
# Reduced chi-sqr  =  1.378
# Prob(Noise)      <  2.68e-08   (~5.4 sigma)
# P_topo (ms)      =  714.527096223414  +/- 0.000376
# P'_topo (s/s)    =  -0                +/- 1.98e-10
# P''_topo (s/s^2) =  0                 +/- 8.76e-14
# P_bary (ms)      =  N/A
# P'_bary (s/s)    =  N/A
# P''_bary (s/s^2) =  N/A
# P_orb (s)        =  N/A
# asin(i)/c (s)    =  N/A
# eccentricity     =  N/A
# w (rad)          =  N/A
# T_peri           =  N/A
######################################################
   0  473.9996
   1  571.9817
   2  482.3429
   3  278.4317
   4  263.6255
   5  298.662
   6  344.9259
   7  429.3803
   8  422.0281
   9  421.1572
  10  409.2064
  11  318.7982
  12  396.3894
  13  420.4008
  14  282.8192
  15  245.8976
  16  358.6152
  17  430.9993
  18  317.4253
  19  299.7395
  20  194.1559
  21  248.2413
  22  397.699
  23  381.8
  24  322.0486
  25  315.7122
  26  431.6548
  27  434.3963
  28  318.5586
  29  319.84
  30  264.329
  31  231.922
  32  221.533
  33  313.7438
  34  320.0464
  35  378.4098
  36  453.5148
  37  489.1786
  38  412.2327
  39  349.3856
  40  497.6367
  41  380.5962
  42  343.1519
  43  348.0422
  44  324.1162
  45  368.9825
  46  326.5767
  47  329.0302
  48  372.9937
  49  375.9426
  50  263.011
  51  346.2271
  52  313.8587
  53  268.442
  54  431.737
  55  391.1573
  56  279.353
  57  273.0352
  58  368.4312
  59  275.2646
  60  310.8652
  61  240.5544
  62  265.5797
  63  286.0095
  64  447.902
  65  345.8021
  66  223.2925
  67  202.7948
  68  255.4393
  69  307.2286
  70  424.7744
  71  362.9536
  72  361.7232
  73  369.73
  74  232.7094
  75  340.2811
  76  329.5857
  77  381.7405
  78  400.535
  79  449.9937
  80  470.3527
  81  312.5728
  82  296.4163
  83  400.9507
  84  426.2422
  85  480.7386
  86  440.6761
  87  348.1632
  88  383.2051
  89  245.9754
  90  186.787
  91  220.9796
  92  389.3861
  93  425.6867
  94  429.2617
  95  529.3217
  96  437.3824
  97  414.4803
  98  265.2585
  99  282.7359
 100  298.8571
 101  423.8211
 102  252.3102
 103  236.6242
 104  247.1817
 105  220.472
 106  343.659
 107  441.5509
 108  473.5371
 109  433.3014
 110  451.5348
 111  456.9284
 112  439.0233
 113  417.5156
 114  453.9299
 115  362.1728
 116  254.0476
 117  261.2466
 118  329.8585
 119  401.2511
 120  473.6155
 121  404.9613
 122  365.3883
 123  414.1653
 124  423.9485
 125  341.3905
 126  366.2584
 127  491.5899
 128  584.3612
 129  307.668
 130  286.2647
 131  461.814
 132  461.3865
 133  443.763
 134  377.46
 135  408.0344
 136  400.4763
 137  379.9531
 138  442.0641
 139  408.2712
 140  448.3922
 141  437.3396
 142  382.2602
 143  400.8936
 144  340.4148
 145  323.1176
 146  391.505
 147  460.2353
 148  330.5565
 149  339.7237
 150  397.9701
 151  253.6172
 152  316.7018
 153  397.2848
 154  499.407
 155  345.3949
 156  276.5776
 157  226.7618
 158  419.8501
 159  352.7413
 160  357.9668
 161  381.2371
 162  440.8992
 163  357.258
 164  293.0674
 165  345.3024
 166  404.4023
 167  348.825
 168  380.305
 169  384.8007
 170  412.1129
 171  329.4256
 172  293.6983
 173  417.8539
 174  311.0528
 175  211.032
 176  321.4617
 177  339.6973
 178  225.3423
 179  259.6329
 180  403.2194
 181  312.1744
 182  271.4522
 183  316.0208
 184  261.4669
 185  384.5023
 186  410.8136
 187  341.1327
 188  273.5834
 189  402.0256
 190  443.762
 191  377.2325
 192  311.2519
 193  339.8073
 194  313.4342
 195  370.119
 196  357.1553
 197  291.8485
 198  171.6804
 199  202.6204
 200  267.5694
 201  213.8286
 202  156.9181
 203  115.3053
 204  260.699
 205  240.4799
 206  447.2662
 207  403.908
 208  299.7501
 209  251.2278
 210  237.2101
 211  240.9023
 212  448.8725
 213  363.995
 214  349.0739
 215  289.6652
 216  254.7176
 217  263.4914
 218  291.4147
 219  327.4211
 220  240.3704
 221  251.8214
 222  333.9443
 223  331.8188
 224  344.9605
 225  240.0432
 226  192.8939
 227  248.2143
 228  329.1772
 229  242.4649
 230  269.3501
 231  372.0317
 232  412.2605
 233  386.6848
 234  244.34
 235  224.863
 236  289.2486
 237  246.2257
 238  269.0181
 239  304.6217
 240  187.9711
 241  153.1842
 242  268.4069
 243  297.1101
 244  376.0355
 245  271.2585
 246  264.5067
 247  272.9498
 248  251.8191
 249  280.4448
 250  200.6748
 251  287.6682
 252  204.4478
 253  272.1528
 254  323.0077
 255  301.6364
 256  299.1237
 257  282.1828
 258  311.9527
 259  263.5316
 260  197.4227
 261  257.0277
 262  305.4608
 263  290.2559
 264  194.4195
 265  233.3873
 266  288.3223
 267  241.7921
 268  220.6812
 269  318.7758
 270  409.8909
 271  377.1091
 272  395.1496
 273  411.6198
 274  397.301
 275  357.4822
 276  355.9764
 277  433.3208
 278  467.3275
 279  377.4512
 280  306.3373
 281  255.9513
 282  322.3945
 283  230.1242
 284  347.6004
 285  451.0201
 286  338.9218
 287  470.3037
 288  358.4297
 289  279.858
 290  265.545
 291  328.3753
 292  285.1815
 293  315.8606
 294  437.2826
 295  365.8281
 296  290.7182
 297  281.4539
 298  238.2496
 299  259.8864
 300  232.6285
 301  339.0926
 302  371.7295
 303  325.4805
 304  371.6596
 305  377.3834
 306  387.188
 307  401.0314
 308  330.9231
 309  247.9316
 310  270.7691
 311  253.6514
 312  226.2839
 313  325.0349
 314  430.0901
 315  431.7762
 316  312.1558
 317  375.0723
 318  393.3882
 319  501.9696
 320  377.1795
 321  309.1326
 322  389.3247
 323  529.4573
 324  332.4177
 325  293.0528
 326  385.9322
 327  430.3433
 328  380.8122
 329  328.9132
 330  278.1495
 331  334.7492
 332  432.3946
 333  482.0777
 334  559.3011
 335  414.3311
 336  385.9846
 337  511.3211
 338  496.1414
 339  493.1688
 340  479.4591
 341  589.0903
 342  491.4656
 343  462.1101
 344  557.5886
 345  437.2522
 346  516.276
 347  429.4868
 348  403.6556
 349  445.6128
 350  509.4906
 351  422.674
 352  377.6422
 353  380.4698
 354  406.4268
 355  329.7709
 356  414.3569
 357  342.9634
 358  390.588
 359  396.3956
 360  399.4026
 361  574.785
 362  510.0874
 363  334.0309
 364  270.2083
 365  290.3004
 366  319.0778
 367  211.786
 368  245.4312
 369  236.3195
 370  269.7404
 371  210.8959
 372  318.3176
 373  376.6869
 374  419.4857
 375  446.9678
 376  430.9855
 377  381.9149
 378  406.626
 379  382.9755
 380  517.8315
 381  479.7681
 382  431.5118
 383  407.2019
 384  382.764
 385  346.7478
 386  478.8234
 387  539.412
 388  451.3206
 389  415.33
 390  278.021
 391  344.2927
 392  267.8078
 393  443.811
 394  481.3637
 395  366.9317
 396  422.3643
 397  538.8147
 398  450.0259
 399  369.3038
 400  301.9577
 401  347.3431
 402  413.9675
 403  427.5666
 404  387.3564
 405  305.102
 406  280.1488
 407  455.0186
 408  427.2156
 409  329.743
 410  286.6064
 411  341.505
 412  413.3806
 413  305.1449
 414  150.2766
 415  308.1925
 416  385.0036
 417  306.3102
 418  412.7749
 419  448.3011
 420  385.0114
 421  501.1231
 422  487.03
 423  518.4536
 424  475.1921
 425  472.8507
 426  290.4765
 427  213.7754
 428  366.2999
 429  589.6957
 430  463.4847
 431  446.8643
 432  445.2934
 433  406.9367
 434  434.2516
 435  352.5989
 436  364.4565
 437  295.2544
 438  282.2673
 439  347.1636
 440  423.1103
 441  360.4778
 442  460.9358
 443  490.7664
 444  353.5758
 445  334.1466
 446  354.4386
 447  578.8192
 448  650.7062
 449  573.3976
 450  728.9399
 451  879.043
 452  917.4025
 453  840.5497
 454  880.9991
 455  810.83
 456  561.4044
 457  350.5569
 458  416.1786
 459  422.2014
 460  384.2557
 461  305.9986
 462  426.7004
 463  525.3081
 464  439.6706
 465  402.7554
 466  349.884
 467  464.053
 468  383.7468
 469  424.5786
 470  435.9857
 471  378.4548
 472  479.7413
 473  519.2158
 474  461.4615
 475  287.1827
 476  371.4637
 477  321.4583
 478  314.396
 479  257.5433
 480  315.3872
 481  304.7118
 482  300.2894
 483  175.7663
 484  229.3247
 485  354.2328
 486  314.7037
 487  237.2269
 488  391.2808
 489  401.8557
 490  327.208
 491  285.3705
 492  312.5935
 493  369.9377
 494  292.5972
 495  420.5032
 496  347.0073
 497  321.1526
 498  216.2637
 499  186.1746
 500  228.838
 501  266.1202
 502  303.547
 503  438.9173
 504  383.4833
 505  346.5771
 506  463.4324
 507  436.6245
 508  304.2732
 509  307.7421
 510  283.9258
 511  455.8568
