# Input file       =  1179231636.095346_cleaned.dat
# Candidate        =  PSR_0332+5434
# Telescope        =  AR
# Epoch_topo       =  57892.514526566505
# Epoch_bary       =  N/A
# T_sample         =  0.002
# Data Folded      =  7340032
# Data Avg         =  0.0191140253537897
# Data StdDev      =  1.00012064697345 
# Profile Bins     =  512
# Profile Avg      =  274.02448094198  
# Profile StdDev   =  119.747481805227 
# Reduced chi-sqr  =  1.258
# Prob(Noise)      <  6.4e-05   (~3.8 sigma)
# P_topo (ms)      =  714.529217283011  +/- 0.000315
# P'_topo (s/s)    =  -0                +/- 1.66e-10
# P''_topo (s/s^2) =  0                 +/- 7.33e-14
# P_bary (ms)      =  N/A
# P'_bary (s/s)    =  N/A
# P''_bary (s/s^2) =  N/A
# P_orb (s)        =  N/A
# asin(i)/c (s)    =  N/A
# eccentricity     =  N/A
# w (rad)          =  N/A
# T_peri           =  N/A
######################################################
   0  847.2496
   1  795.7307
   2  568.7229
   3  437.847
   4  304.0601
   5  361.1528
   6  309.5199
   7  266.783
   8  250.0094
   9  347.8563
  10  250.7907
  11  332.1712
  12  348.2075
  13  308.1153
  14  290.1299
  15  288.3713
  16  244.7529
  17  255.5022
  18  280.0831
  19  292.3541
  20  210.2014
  21  244.5929
  22  368.5296
  23  304.554
  24  212.8588
  25  280.4973
  26  252.986
  27  246.6025
  28  260.5432
  29  203.0722
  30  376.1071
  31  181.8217
  32  243.0369
  33  279.4195
  34  338.0472
  35  322.027
  36  231.5483
  37  231.4103
  38  214.0786
  39  265.4886
  40  348.2865
  41  278.294
  42  239.8301
  43  241.4182
  44  151.3508
  45  290.6213
  46  300.9177
  47  443.3907
  48  376.4767
  49  324.837
  50  252.7476
  51  248.5594
  52  322.36
  53  378.7115
  54  286.7461
  55  201.9433
  56  307.7574
  57  345.8466
  58  190.6855
  59  163.5678
  60  205.6265
  61  236.6326
  62  141.2657
  63  251.3732
  64  340.8381
  65  304.0705
  66  251.0865
  67  208.6918
  68  247.4874
  69  130.136
  70  157.3715
  71  122.14
  72  191.1317
  73  345.7387
  74  303.761
  75  201.7937
  76  165.4279
  77  237.3991
  78  206.6362
  79  204.8799
  80  125.7696
  81  129.3889
  82  158.2658
  83  209.1363
  84  249.7727
  85  367.0488
  86  313.2685
  87  161.6251
  88  166.435
  89  166.219
  90  226.8917
  91  223.4238
  92  241.7879
  93  230.9204
  94  203.9973
  95  262.9369
  96  383.2828
  97  424.5243
  98  378.1954
  99  407.0188
 100  236.7144
 101  156.1486
 102  190.2491
 103  286.2529
 104  379.347
 105  323.1654
 106  199.3869
 107  196.7869
 108  252.272
 109  344.0243
 110  319.7659
 111  264.2216
 112  402.7457
 113  316.7141
 114  150.8369
 115  207.1261
 116  268.2549
 117  289.9734
 118  382.0779
 119  257.7114
 120  172.3784
 121  248.5579
 122  236.4628
 123  262.0192
 124  234.7074
 125  317.0243
 126  286.5156
 127  249.1532
 128  327.5468
 129  284.0313
 130  166.8919
 131  260.7625
 132  315.9152
 133  160.9205
 134  276.9116
 135  177.666
 136  272.6931
 137  366.6178
 138  251.4326
 139  324.9247
 140  384.469
 141  259.938
 142  234.6228
 143  312.9333
 144  335.277
 145  324.2723
 146  292.4878
 147  145.6787
 148  190.2484
 149  313.4586
 150  318.6129
 151  354.8743
 152  318.9517
 153  256.6963
 154  233.6773
 155  365.8287
 156  334.5716
 157  359.7338
 158  351.0105
 159  258.8396
 160  208.9606
 161  295.9422
 162  345.1582
 163  290.6266
 164  408.5414
 165  369.8796
 166  252.9774
 167  230.6233
 168  261.0834
 169  376.4218
 170  289.8154
 171  249.0735
 172  287.4835
 173  265.5998
 174  315.8164
 175  217.2108
 176  203.7647
 177  248.568
 178  314.9521
 179  347.5237
 180  308.775
 181  294.1147
 182  285.2344
 183  309.0675
 184  387.5709
 185  372.1796
 186  290.6615
 187  272.4544
 188  416.2657
 189  518.6688
 190  511.2035
 191  264.3767
 192  241.2754
 193  281.0503
 194  273.7694
 195  288.3627
 196  236.7124
 197  206.4253
 198  273.049
 199  318.219
 200  228.1053
 201  298.9904
 202  249.5857
 203  315.9358
 204  251.6537
 205  274.0345
 206  322.673
 207  245.1167
 208  270.2391
 209  333.9549
 210  342.6126
 211  238.7491
 212  241.921
 213  210.4426
 214  265.3433
 215  239.5149
 216  217.0751
 217  186.46
 218  274.1136
 219  288.6921
 220  232.168
 221  165.6433
 222  128.0746
 223  207.0242
 224  259.2411
 225  323.4095
 226  333.4133
 227  218.2446
 228  186.3788
 229  276.3674
 230  257.9781
 231  404.318
 232  244.9919
 233  160.8794
 234  237.1675
 235  244.7163
 236  335.1191
 237  262.1553
 238  328.2282
 239  324.6057
 240  371.2337
 241  297.9294
 242  353.1134
 243  392.6008
 244  351.1018
 245  304.7839
 246  323.4148
 247  299.1873
 248  309.0168
 249  401.4953
 250  381.8326
 251  290.3833
 252  199.4681
 253  206.5056
 254  231.7855
 255  206.8183
 256  171.379
 257  240.3058
 258  287.7347
 259  277.4048
 260  327.2433
 261  308.4142
 262  239.3134
 263  224.9103
 264  229.1991
 265  379.4776
 266  311.8091
 267  290.0551
 268  416.6382
 269  351.8972
 270  472.608
 271  426.4779
 272  305.6675
 273  158.104
 274  129.1276
 275  298.8889
 276  258.9026
 277  287.6268
 278  317.9131
 279  297.9468
 280  255.635
 281  221.1074
 282  213.3901
 283  176.7039
 284  196.0725
 285  187.3503
 286  132.6324
 287  212.3393
 288  245.5901
 289  236.8285
 290  179.2379
 291  151.0414
 292  177.095
 293  171.3393
 294  154.4615
 295  214.8261
 296  239.6151
 297  350.4319
 298  286.4207
 299  312.4936
 300  220.9013
 301  56.96688
 302  185.4033
 303  280.0775
 304  364.3863
 305  255.534
 306  244.8669
 307  311.5154
 308  225.9985
 309  107.6303
 310  229.1428
 311  121.5717
 312  210.7384
 313  215.3279
 314  258.2237
 315  307.4302
 316  366.1152
 317  348.2515
 318  355.1313
 319  342.9596
 320  275.3447
 321  230.2862
 322  272.8507
 323  208.2938
 324  253.9442
 325  423.1811
 326  294.8046
 327  250.474
 328  394.6422
 329  381.7763
 330  352.4546
 331  269.8974
 332  313.5911
 333  293.5998
 334  323.633
 335  154.3704
 336  179.3197
 337  236.3681
 338  217.2617
 339  130.0445
 340  144.2144
 341  174.8948
 342  207.6154
 343  264.3973
 344  332.0651
 345  318.505
 346  119.4213
 347  192.9454
 348  420.5077
 349  454.2753
 350  317.7015
 351  312.2862
 352  300.3907
 353  238.9662
 354  296.571
 355  283.3889
 356  253.5988
 357  217.671
 358  129.5256
 359  159.1193
 360  182.4044
 361  270.2422
 362  230.4388
 363  209.7489
 364  253.9543
 365  206.5168
 366  293.1104
 367  309.972
 368  627.0377
 369  471.5659
 370  299.402
 371  143.2943
 372  331.7856
 373  341.7902
 374  283.4592
 375  282.0473
 376  218.5329
 377  113.6551
 378  52.50549
 379  213.4913
 380  213.57
 381  231.9003
 382  251.7868
 383  308.9728
 384  202.4201
 385  209.1953
 386  280.5435
 387  206.2839
 388  135.1785
 389  215.1102
 390  232.243
 391  85.39259
 392  82.43281
 393  126.3131
 394  238.0916
 395  199.8281
 396  196.1516
 397  278.1554
 398  228.2712
 399  232.9923
 400  168.2078
 401  279.5543
 402  258.7087
 403  239.1088
 404  210.8971
 405  233.9757
 406  192.964
 407  168.6752
 408  256.84
 409  185.24
 410  296.1848
 411  403.249
 412  364.161
 413  150.51
 414  132.2504
 415  236.2376
 416  215.7289
 417  232.055
 418  106.1238
 419  235.8325
 420  222.7002
 421  259.5119
 422  235.8601
 423  211.4072
 424  280.046
 425  289.0401
 426  325.1354
 427  231.5301
 428  262.9565
 429  459.747
 430  323.2738
 431  274.4886
 432  287.608
 433  306.7308
 434  292.3841
 435  217.7214
 436  336.1818
 437  354.8123
 438  461.5739
 439  345.5386
 440  259.7929
 441  234.7979
 442  225.5205
 443  230.3453
 444  343.9817
 445  366.4635
 446  409.3172
 447  234.3884
 448  202.2604
 449  248.3147
 450  160.3176
 451  424.1444
 452  337.9954
 453  317.0544
 454  374.4077
 455  396.7621
 456  349.1701
 457  298.6456
 458  388.0699
 459  338.51
 460  331.4474
 461  251.6105
 462  307.3445
 463  252.5997
 464  316.1765
 465  334.8709
 466  335.3267
 467  227.6379
 468  261.1895
 469  307.5332
 470  185.1462
 471  92.95964
 472  66.35856
 473  132.4019
 474  234.6145
 475  94.2391
 476  93.13808
 477  129.6141
 478  202.2124
 479  303.9067
 480  282.1395
 481  271.3997
 482  181.8144
 483  148.7972
 484  201.3067
 485  238.9939
 486  246.1561
 487  264.9071
 488  157.7152
 489  281.5475
 490  265.1148
 491  331.1097
 492  402.2856
 493  350.2897
 494  382.77
 495  320.9614
 496  193.0361
 497  276.7655
 498  312.0756
 499  210.6453
 500  174.1726
 501  284.6615
 502  372.9175
 503  328.8521
 504  429.6065
 505  333.4672
 506  238.1491
 507  397.6755
 508  537.3087
 509  666.2449
 510  823.5357
 511  969.8195
