# Input file       =  1179490092.10149_cleaned.dat
# Candidate        =  PSR_0332+5434
# Telescope        =  AR
# Epoch_topo       =  57895.505915526504
# Epoch_bary       =  N/A
# T_sample         =  0.002
# Data Folded      =  7340032
# Data Avg         =  0.0214700975288619
# Data StdDev      =  1.00009461937755 
# Profile Bins     =  512
# Profile Avg      =  307.791479541494 
# Profile StdDev   =  119.74436544214  
# Reduced chi-sqr  =  1.334
# Prob(Noise)      <  5.99e-07   (~4.9 sigma)
# P_topo (ms)      =  714.526277053967  +/- 0.000168
# P'_topo (s/s)    =  -0                +/- 8.84e-11
# P''_topo (s/s^2) =  0                 +/- 3.9e-14
# P_bary (ms)      =  N/A
# P'_bary (s/s)    =  N/A
# P''_bary (s/s^2) =  N/A
# P_orb (s)        =  N/A
# asin(i)/c (s)    =  N/A
# eccentricity     =  N/A
# w (rad)          =  N/A
# T_peri           =  N/A
######################################################
   0  1002.359
   1  889.8849
   2  650.6646
   3  464.3102
   4  361.2124
   5  364.0044
   6  260.9063
   7  291.547
   8  305.7904
   9  301.7003
  10  331.3048
  11  422.8459
  12  449.4812
  13  346.8122
  14  369.0385
  15  368.4102
  16  367.7035
  17  353.0666
  18  332.443
  19  388.4863
  20  311.5229
  21  188.4708
  22  245.0345
  23  266.0338
  24  235.9812
  25  292.5426
  26  318.4846
  27  397.9727
  28  455.3503
  29  414.9902
  30  371.818
  31  335.876
  32  327.998
  33  407.8629
  34  288.2129
  35  246.3975
  36  447.6204
  37  373.6572
  38  290.1418
  39  332.55
  40  358.3654
  41  336.4467
  42  302.1135
  43  366.0253
  44  337.0877
  45  303.4812
  46  366.643
  47  251.4833
  48  279.8549
  49  393.6162
  50  370.5603
  51  321.6345
  52  348.0696
  53  311.9655
  54  417.006
  55  378.9889
  56  214.563
  57  321.1614
  58  368.8234
  59  304.8899
  60  232.6332
  61  322.6786
  62  284.3876
  63  239.2605
  64  266.996
  65  391.9733
  66  415.6917
  67  215.673
  68  135.2089
  69  171.9318
  70  282.7162
  71  337.0507
  72  256.7141
  73  277.6443
  74  368.7818
  75  410.3969
  76  271.6429
  77  194.0635
  78  196.4269
  79  293.5996
  80  357.9629
  81  395.9288
  82  275.5419
  83  279.7124
  84  239.3575
  85  136.4277
  86  226.7473
  87  244.3743
  88  294.0682
  89  168.5106
  90  144.1371
  91  249.3062
  92  324.3116
  93  347.4882
  94  259.0426
  95  303.4149
  96  174.4927
  97  211.8374
  98  293.3513
  99  274.4969
 100  382.6277
 101  259.6686
 102  297.6164
 103  230.417
 104  167.469
 105  179.5909
 106  249.0674
 107  297.7443
 108  289.2462
 109  217.4392
 110  267.8505
 111  342.3973
 112  333.5797
 113  176.4383
 114  68.43726
 115  224.693
 116  150.7014
 117  204.0039
 118  262.4561
 119  321.5361
 120  259.5011
 121  256.2914
 122  301.8152
 123  210.1075
 124  195.5497
 125  185.1879
 126  224.0907
 127  334.4428
 128  345.5533
 129  392.6253
 130  197.9733
 131  137.4268
 132  320.9239
 133  341.2746
 134  309.7093
 135  342.2817
 136  334.3388
 137  376.9815
 138  298.0975
 139  259.7995
 140  170.5164
 141  178.8285
 142  253.5902
 143  242.6559
 144  336.9689
 145  243.7981
 146  270.8367
 147  280.8516
 148  208.9715
 149  102.023
 150  195.6323
 151  319.4135
 152  385.4138
 153  362.3148
 154  398.3926
 155  413.3936
 156  331.1109
 157  261.5003
 158  236.338
 159  238.4252
 160  343.9754
 161  420.3691
 162  390.9859
 163  346.5902
 164  344.9095
 165  288.4673
 166  359.4253
 167  371.4386
 168  374.8306
 169  228.987
 170  292.9837
 171  232.9411
 172  177.8303
 173  229.5682
 174  342.3192
 175  359.2649
 176  341.818
 177  343.3614
 178  324.9683
 179  241.4563
 180  139.3162
 181  205.0652
 182  120.9554
 183  190.5296
 184  390.7967
 185  374.6725
 186  175.2614
 187  193.1508
 188  227.9396
 189  219.8903
 190  203.3696
 191  254.2441
 192  253.0369
 193  286.7407
 194  308.3853
 195  243.07
 196  163.2352
 197  106.8066
 198  275.782
 199  234.4509
 200  252.5072
 201  266.0418
 202  220.7723
 203  250.8115
 204  197.0419
 205  114.963
 206  200.1847
 207  328.5201
 208  403.433
 209  266.8661
 210  273.6742
 211  230.5758
 212  360.832
 213  243.2339
 214  286.6036
 215  387.9507
 216  420.214
 217  360.7626
 218  258.1143
 219  319.4253
 220  409.1576
 221  294.1094
 222  315.2413
 223  345.5721
 224  295.6299
 225  268.782
 226  254.5053
 227  345.5426
 228  395.2356
 229  244.1455
 230  252.8495
 231  301.3926
 232  299.7195
 233  199.1927
 234  166.8684
 235  143.8582
 236  285.4483
 237  289.9486
 238  227.726
 239  103.4793
 240  214.6863
 241  219.0265
 242  303.1552
 243  318.9894
 244  347.8715
 245  370.3063
 246  313.1449
 247  424.2143
 248  342.534
 249  263.4739
 250  82.59136
 251  132.177
 252  376.5814
 253  426.5395
 254  303.5896
 255  293.9915
 256  396.0048
 257  500.6015
 258  340.2686
 259  255.9545
 260  210.3723
 261  200.2415
 262  303.3569
 263  305.5751
 264  270.9534
 265  95.41404
 266  103.868
 267  281.541
 268  213.8289
 269  179.2948
 270  212.8112
 271  244.0635
 272  216.6964
 273  129.4781
 274  329.8843
 275  302.8418
 276  255.5008
 277  219.1552
 278  163.5977
 279  209.1786
 280  207.4629
 281  196.7374
 282  361.0935
 283  442.2219
 284  390.4522
 285  273.7604
 286  389.9442
 287  492.2977
 288  400.6338
 289  436.0556
 290  405.1779
 291  499.3524
 292  363.2285
 293  248.1218
 294  405.5049
 295  511.0467
 296  458.8636
 297  429.6428
 298  386.1416
 299  304.24
 300  364.5298
 301  314.925
 302  344.7041
 303  276.2187
 304  259.8813
 305  311.8043
 306  336.4203
 307  332.7585
 308  177.472
 309  366.8959
 310  435.9679
 311  377.8309
 312  396.9246
 313  377.1044
 314  232.2127
 315  179.5094
 316  141.5502
 317  226.5146
 318  216.8147
 319  161.1496
 320  287.3685
 321  419.6502
 322  271.7035
 323  238.9381
 324  189.6862
 325  357.5255
 326  382.6248
 327  381.4433
 328  369.4145
 329  271.2207
 330  397.1485
 331  393.5054
 332  356.905
 333  201.9525
 334  312.3291
 335  359.7536
 336  367.4679
 337  442.9895
 338  409.6061
 339  344.8863
 340  384.1222
 341  359.9514
 342  349.1743
 343  245.531
 344  205.8908
 345  301.4871
 346  337.7321
 347  355.2345
 348  293.5121
 349  158.3129
 350  367.5984
 351  273.6835
 352  72.82098
 353  122.0628
 354  263.3066
 355  371.0576
 356  323.5132
 357  221.781
 358  273.2127
 359  408.6378
 360  369.2152
 361  286.5437
 362  230.4496
 363  305.5484
 364  221.931
 365  296.9066
 366  222.3655
 367  234.7775
 368  330.3686
 369  299.824
 370  393.6292
 371  431.6283
 372  434.0512
 373  290.1615
 374  199.9408
 375  276.7174
 376  292.5847
 377  356.1664
 378  446.2538
 379  195.275
 380  352.6219
 381  432.2449
 382  322.6957
 383  269.7622
 384  272.2951
 385  308.9542
 386  317.4547
 387  316.5079
 388  233.6196
 389  227.2646
 390  215.2969
 391  412.3531
 392  503.235
 393  358.6971
 394  393.2155
 395  390.8487
 396  316.8057
 397  391.1478
 398  357.5774
 399  304.0328
 400  371.5461
 401  306.1167
 402  343.8862
 403  425.2542
 404  389.5008
 405  382.1294
 406  433.8589
 407  429.3135
 408  378.3558
 409  264.0873
 410  311.4041
 411  257.8569
 412  219.2215
 413  420.1403
 414  378.858
 415  239.5425
 416  204.5123
 417  279.5573
 418  369.3993
 419  277.9758
 420  319.4312
 421  451.4409
 422  496.2042
 423  348.5729
 424  160.6908
 425  207.0174
 426  353.7529
 427  255.5753
 428  283.3109
 429  351.4977
 430  248.6725
 431  397.355
 432  295.2061
 433  309.8932
 434  324.3965
 435  246.9175
 436  188.9767
 437  128.637
 438  198.7605
 439  277.0177
 440  353.1003
 441  324.243
 442  413.3948
 443  312.6983
 444  325.0973
 445  459.283
 446  338.8528
 447  165.1973
 448  214.5529
 449  148.0457
 450  290.5609
 451  362.2696
 452  436.418
 453  425.7421
 454  261.6149
 455  299.0658
 456  350.9925
 457  290.1961
 458  422.3401
 459  439.4489
 460  347.1868
 461  344.3845
 462  291.91
 463  364.4107
 464  397.5804
 465  546.4241
 466  456.782
 467  254.126
 468  354.2764
 469  346.27
 470  317.0002
 471  296.7216
 472  344.1493
 473  304.6973
 474  347.3217
 475  387.7827
 476  435.7353
 477  356.2009
 478  233.9085
 479  239.3
 480  304.2381
 481  256.5011
 482  209.6447
 483  288.0039
 484  319.6518
 485  307.4977
 486  283.7095
 487  314.7079
 488  387.995
 489  317.338
 490  238.6358
 491  211.5964
 492  188.3006
 493  175.8883
 494  301.1732
 495  279.2605
 496  196.7255
 497  304.1692
 498  437.7202
 499  394.3066
 500  288.0368
 501  351.2989
 502  331.1519
 503  417.1306
 504  510.5248
 505  527.8793
 506  486.9284
 507  467.0328
 508  425.8885
 509  486.9583
 510  650.9147
 511  869.7646
