# Input file       =  1179490092.10149_cleaned.dat
# Candidate        =  PSR_0332+5434
# Telescope        =  AR
# Epoch_topo       =  57895.505915526504
# Epoch_bary       =  N/A
# T_sample         =  0.002
# Data Folded      =  7340032
# Data Avg         =  0.0214700975288619
# Data StdDev      =  1.00009461937755 
# Profile Bins     =  512
# Profile Avg      =  307.791474997998 
# Profile StdDev   =  119.74436544214  
# Reduced chi-sqr  =  1.339
# Prob(Noise)      <  4.1e-07   (~4.9 sigma)
# P_topo (ms)      =  714.526277917308  +/- 0.000166
# P'_topo (s/s)    =  -0                +/- 8.76e-11
# P''_topo (s/s^2) =  0                 +/- 3.87e-14
# P_bary (ms)      =  N/A
# P'_bary (s/s)    =  N/A
# P''_bary (s/s^2) =  N/A
# P_orb (s)        =  N/A
# asin(i)/c (s)    =  N/A
# eccentricity     =  N/A
# w (rad)          =  N/A
# T_peri           =  N/A
######################################################
   0  328.9971
   1  399.0049
   2  474.7468
   3  550.4537
   4  484.6813
   5  475.3232
   6  430.5898
   7  454.666
   8  607.7656
   9  804.8329
  10  990.4956
  11  946.1973
  12  718.7729
  13  500.8063
  14  368.1138
  15  376.199
  16  278.4563
  17  276.9388
  18  304.7943
  19  310.8574
  20  301.1757
  21  416.0793
  22  439.7771
  23  386.0658
  24  342.3134
  25  386.2152
  26  348.1865
  27  365.5478
  28  333.6193
  29  372.1157
  30  368.8102
  31  198.7017
  32  228.3005
  33  258.4578
  34  236.7851
  35  285.0448
  36  305.876
  37  376.6419
  38  449.5995
  39  426.9098
  40  381.4026
  41  347.9063
  42  319.0538
  43  405.0886
  44  319.5532
  45  227.0268
  46  410.8243
  47  419.2001
  48  295.9199
  49  312.6892
  50  357.095
  51  355.8471
  52  304.0793
  53  339.1072
  54  355.3274
  55  289.8997
  56  358.9638
  57  290.1853
  58  255.3233
  59  360.4474
  60  403.199
  61  314.5444
  62  357.126
  63  310.5467
  64  393.6374
  65  409.8298
  66  244.1033
  67  261.561
  68  384.6199
  69  322.6472
  70  241.5758
  71  294.3581
  72  306.6795
  73  252.2029
  74  243.0218
  75  361.9436
  76  436.3845
  77  270.6518
  78  131.5641
  79  167.7558
  80  225.8938
  81  364.6605
  82  253.9551
  83  290.099
  84  325.21
  85  424.6814
  86  298.1825
  87  214.5908
  88  179.4387
  89  279.2292
  90  336.8595
  91  396.0958
  92  306.1125
  93  271.1273
  94  263.6238
  95  151.2312
  96  197.4827
  97  241.5552
  98  290.8465
  99  216.3141
 100  121.306
 101  213.7453
 102  322.326
 103  346.9335
 104  285.8626
 105  292.2153
 106  213.496
 107  170.2578
 108  295.9646
 109  257.8819
 110  381.2252
 111  284.4794
 112  278.6096
 113  271.2821
 114  163.5062
 115  182.261
 116  209.0161
 117  296.2634
 118  300.1239
 119  229.4481
 120  245.4518
 121  327.5052
 122  355.8433
 123  229.0638
 124  58.46493
 125  196.7889
 126  185.0237
 127  165.0141
 128  259.0774
 129  296.3952
 130  294.2964
 131  238.8831
 132  311.9204
 133  229.8006
 134  192.4997
 135  186.9675
 136  210.8911
 137  303.1163
 138  340.246
 139  387.9174
 140  265.6695
 141  111.8566
 142  291.2841
 143  358.29
 144  301.0002
 145  345.2556
 146  316.6597
 147  377.786
 148  316.3422
 149  279.8532
 150  199.8534
 151  154.2666
 152  247.9149
 153  229.8983
 154  332.6122
 155  265.3077
 156  253.6806
 157  278.1904
 158  245.3505
 159  106.4911
 160  161.9053
 161  287.8002
 162  387.7582
 163  372.0973
 164  376.8516
 165  417.3225
 166  363.4984
 167  262.696
 168  253.4407
 169  226.6116
 170  307.7539
 171  401.9403
 172  418.8116
 173  345.2751
 174  371.6031
 175  270.153
 176  358.3508
 177  353.3665
 178  400.3065
 179  252.6846
 180  271.9182
 181  262.1644
 182  190.6622
 183  193.6767
 184  319.1689
 185  347.0159
 186  361.6208
 187  334.8444
 188  341.15
 189  271.167
 190  147.4368
 191  197.9149
 192  136.1698
 193  149.4812
 194  337.279
 195  425.2301
 196  227.1063
 197  165.9041
 198  228.4327
 199  216.9742
 200  207.3011
 201  229.4084
 202  271.2608
 203  260.939
 204  329.1582
 205  237.0314
 206  210.7779
 207  77.25445
 208  252.1572
 209  250.4566
 210  245.6453
 211  276.9662
 212  218.1725
 213  234.0489
 214  226.8297
 215  129.891
 216  165.1402
 217  291.5722
 218  407.1313
 219  300.4788
 220  275.2538
 221  227.9645
 222  328.2714
 223  293.8704
 224  237.1877
 225  394.5764
 226  401.0403
 227  402.3943
 228  260.5915
 229  290.8538
 230  400.7744
 231  336.8341
 232  290.737
 233  355.8434
 234  295.7777
 235  277.5359
 236  256.8299
 237  302.6706
 238  409.9452
 239  276.4341
 240  246.067
 241  283.4872
 242  310.4013
 243  222.1931
 244  176.424
 245  132.9393
 246  250.7966
 247  299.1427
 248  264.5032
 249  112.0438
 250  186.7743
 251  213.5475
 252  281.1884
 253  328.3934
 254  317.5416
 255  391.4515
 256  306.4859
 257  396.2856
 258  384.8002
 259  273.0765
 260  147.1223
 261  72.30369
 262  331.9253
 263  434.0777
 264  331.2212
 265  286.2516
 266  353.4933
 267  502.2465
 268  379.9401
 269  266.9575
 270  221.2474
 271  211.4186
 272  253.7899
 273  334.0856
 274  268.345
 275  165.0262
 276  55.5496
 277  255.2066
 278  245.367
 279  178.4368
 280  204.0164
 281  241.9412
 282  227.5119
 283  141.9769
 284  264.2202
 285  336.2944
 286  250.8782
 287  233.1651
 288  167.0916
 289  207.8638
 290  215.5189
 291  185.9018
 292  300.7796
 293  443.1196
 294  418.9299
 295  298.5663
 296  315.854
 297  514.3038
 298  399.3726
 299  443.55
 300  401.0677
 301  479.3768
 302  436.6667
 303  232.8309
 304  361.1523
 305  492.0219
 306  491.4445
 307  423.3567
 308  413.8663
 309  302.6804
 310  355.491
 311  333.5758
 312  347.1884
 313  288.9211
 314  247.8676
 315  302.2206
 316  325.5936
 317  354.4143
 318  202.8739
 319  300.6429
 320  434.7716
 321  408.252
 322  366.8571
 323  402.1047
 324  258.0647
 325  195.0517
 326  142.4901
 327  201.5165
 328  235.1642
 329  168.7105
 330  230.9118
 331  427.5305
 332  303.7871
 333  252.6037
 334  174.242
 335  309.368
 336  392.6298
 337  378.6112
 338  393.9892
 339  269.6901
 340  368.4268
 341  395.438
 342  393.0336
 343  225.0798
 344  268.6486
 345  376.5018
 346  337.2308
 347  431.0701
 348  429.673
 349  353.0296
 350  370.6296
 351  368.7071
 352  362.673
 353  284.9999
 354  194.3239
 355  265.8948
 356  331.4858
 357  344.1275
 358  350.5619
 359  155.0812
 360  314.2772
 361  349.7691
 362  90.1291
 363  108.0771
 364  202.9109
 365  365.0411
 366  342.5016
 367  261.2533
 368  224.246
 369  386.1654
 370  386.1734
 371  313.3669
 372  229.3927
 373  291.0711
 374  246.7564
 375  271.7723
 376  258.6637
 377  199.831
 378  325.466
 379  306.7956
 380  366.1891
 381  426.6637
 382  434.8946
 383  337.1458
 384  197.798
 385  254.0612
 386  304.9919
 387  316.4013
 388  460.138
 389  247.0737
 390  276.6029
 391  457.6109
 392  345.0908
 393  271.0451
 394  273.8138
 395  293.7044
 396  320.9341
 397  320.8696
 398  257.2512
 399  241.7314
 400  182.3447
 401  356.2184
 402  503.4019
 403  395.6879
 404  380.6432
 405  398.5112
 406  330.7237
 407  352.5639
 408  401.9026
 409  285.0541
 410  374.7702
 411  328.9066
 412  312.8715
 413  420.4617
 414  393.2584
 415  386.0801
 416  410.3633
 417  445.548
 418  383.3356
 419  307.3428
 420  270.7484
 421  321.728
 422  176.0907
 423  382.6954
 424  401.7671
 425  282.2345
 426  199.6308
 427  246.4373
 428  367.848
 429  293.1419
 430  304.3721
 431  411.037
 432  512.9395
 433  388.9163
 434  203.6971
 435  166.2053
 436  334.7406
 437  293.0779
 438  244.6475
 439  369.1571
 440  249.9388
 441  369.1949
 442  332.5837
 443  280.7384
 444  344.0875
 445  262.4789
 446  211.1133
 447  125.3905
 448  174.4323
 449  248.6577
 450  363.3339
 451  312.4822
 452  401.4503
 453  343.9406
 454  298.7385
 455  441.2551
 456  394.7308
 457  176.7036
 458  208.6325
 459  160.2594
 460  251.4642
 461  340.1407
 462  431.1297
 463  432.4281
 464  309.3221
 465  254.0836
 466  357.5244
 467  305.6437
 468  379.6425
 469  469.5921
 470  344.4294
 471  345.8667
 472  299.6454
 473  355.7117
 474  378.0388
 475  506.1586
 476  513.0639
 477  278.2308
 478  327.1393
 479  355.8447
 480  328.8455
 481  291.443
 482  343.8905
 483  304.9746
 484  332.344
 485  380.4615
 486  421.1047
 487  394.6113
 488  252.2775
 489  232.5675
 490  303.3853
 491  265.0841
 492  217.3584
 493  259.5149
 494  325.8529
 495  312.3563
 496  288.6529
 497  281.712
 498  392.0676
 499  332.828
 500  274.3701
 501  200.2701
 502  205.9953
 503  155.6266
 504  278.0909
 505  304.179
 506  199.1914
 507  256.8011
 508  420.1282
 509  414.2831
 510  303.7983
 511  342.0395
