# Input file       =  1179029680.096024_cleaned.dat
# Candidate        =  PSR_0332+5434
# Telescope        =  AR
# Epoch_topo       =  57890.177072870647
# Epoch_bary       =  N/A
# T_sample         =  0.002
# Data Folded      =  7208960
# Data Avg         =  0.179836779770399
# Data StdDev      =  4.27400365098976 
# Profile Bins     =  256
# Profile Avg      =  5064.6003532519  
# Profile StdDev   =  717.218055403134 
# Reduced chi-sqr  =  0.749
# Prob(Noise)      <  0.999   (~0.0 sigma)
# P_topo (ms)      =  714.53115341905   +/- 7.8e-05
# P'_topo (s/s)    =  -0                +/- 4.19e-11
# P''_topo (s/s^2) =  0                 +/- 1.88e-14
# P_bary (ms)      =  N/A
# P'_bary (s/s)    =  N/A
# P''_bary (s/s^2) =  N/A
# P_orb (s)        =  N/A
# asin(i)/c (s)    =  N/A
# eccentricity     =  N/A
# w (rad)          =  N/A
# T_peri           =  N/A
######################################################
   0  4493.659
   1  5661.997
   2  4938.908
   3  5406.952
   4  4933.886
   5  5523.315
   6  4810.187
   7  4930.7
   8  4842.061
   9  4621.169
  10  4416.917
  11  4729.598
  12  5214.665
  13  5309.425
  14  5202.579
  15  5012.817
  16  5134.707
  17  4835.302
  18  5725.172
  19  5022.433
  20  5842.16
  21  5362.965
  22  6116.101
  23  4572.365
  24  4597.559
  25  5133.118
  26  4904.279
  27  3956.029
  28  4799.369
  29  5849.039
  30  4972.961
  31  3960.235
  32  5641.495
  33  5610.461
  34  5428.67
  35  4743.934
  36  4612.393
  37  4920.87
  38  5313.381
  39  4513.052
  40  4142.32
  41  4317.254
  42  4996.972
  43  5175.704
  44  4791.78
  45  4935.157
  46  5835.159
  47  5176.133
  48  5125.768
  49  4836.336
  50  5119.661
  51  5495.905
  52  4257.363
  53  5397.252
  54  5495.444
  55  6069.662
  56  4667.165
  57  4212.096
  58  4419.529
  59  4994.254
  60  5129.154
  61  5272.327
  62  4597.338
  63  4959.574
  64  4973.15
  65  5345.13
  66  5015.613
  67  4808.745
  68  4324.183
  69  5134.891
  70  6181.742
  71  5483.692
  72  4515.284
  73  4273.146
  74  5388.666
  75  4779.95
  76  4484.272
  77  4577.203
  78  5325.571
  79  5674.055
  80  5033.589
  81  3923.373
  82  4483.972
  83  5555.546
  84  5221.683
  85  4036.504
  86  5096.554
  87  5942.757
  88  5880.79
  89  4423.952
  90  4252.967
  91  5166.67
  92  5943.702
  93  5761.917
  94  5103.581
  95  4886.783
  96  5440.679
  97  4798.487
  98  4800.641
  99  4811.755
 100  4756.497
 101  4952.323
 102  5772.951
 103  5313.608
 104  5593.03
 105  4808.819
 106  4600.445
 107  5107.788
 108  4725.175
 109  5208.798
 110  5025.618
 111  5101.643
 112  5555.028
 113  4789.24
 114  4283.014
 115  5354.589
 116  4334.715
 117  4565.54
 118  4774.564
 119  5467.863
 120  5494.779
 121  4895.741
 122  4329.401
 123  4083.046
 124  4939.45
 125  5502.092
 126  4628.617
 127  4878.922
 128  4837.023
 129  6192.749
 130  4991.364
 131  3861.155
 132  4292.661
 133  5430.971
 134  4681.82
 135  5079.526
 136  5471.876
 137  4886.742
 138  5631.051
 139  5956.521
 140  4859.473
 141  4861.174
 142  4805.53
 143  4771.012
 144  5540.673
 145  4737.662
 146  5238.261
 147  4453.435
 148  5402.689
 149  4432.905
 150  4464.599
 151  4629.941
 152  5032.048
 153  4737.876
 154  5619.522
 155  4242.148
 156  5649.257
 157  5067.572
 158  5358.692
 159  5147.386
 160  5148.759
 161  6390.755
 162  6395.518
 163  6373.954
 164  6121.063
 165  6572.395
 166  6023.692
 167  5188.516
 168  4892.255
 169  4715.279
 170  5954.137
 171  5595.935
 172  4645.467
 173  5168.316
 174  5012.892
 175  5226.75
 176  4894.673
 177  5330.253
 178  4810.439
 179  5633.425
 180  5382.329
 181  4725.17
 182  4222.441
 183  5741.059
 184  5294.513
 185  5355.932
 186  5719.201
 187  5341.767
 188  5023.798
 189  5101.735
 190  5899.625
 191  5237.782
 192  4827.028
 193  6415.688
 194  6051.306
 195  5143.993
 196  4693.492
 197  5169.105
 198  5525.141
 199  5839.063
 200  4295.21
 201  4079.252
 202  4689.149
 203  5909.24
 204  5402.953
 205  3789.648
 206  4797.487
 207  4828.371
 208  5107.738
 209  4644.233
 210  5543.364
 211  5260.955
 212  4852.715
 213  4985.963
 214  4545.085
 215  4693.191
 216  5681.167
 217  4276.458
 218  5075.779
 219  5043.079
 220  4886.943
 221  4964.366
 222  4832.148
 223  4291.543
 224  4679.042
 225  4806.617
 226  5119.795
 227  5289.679
 228  5867.709
 229  4984.073
 230  5116.958
 231  5686.86
 232  5097.556
 233  4570.598
 234  4555.289
 235  5865.369
 236  5931.068
 237  4823.379
 238  4512.825
 239  5760.674
 240  5832.621
 241  5221.631
 242  4836.108
 243  5683.196
 244  5327.885
 245  5653.978
 246  4559.736
 247  4793.177
 248  5200.319
 249  4480.562
 250  4133.213
 251  4510.925
 252  5275.484
 253  5184.396
 254  4290.872
 255  4509.422
