# Input file       =  1179662434.104653-PSRB0329-2ms-sampling-dd.dat
# Candidate        =  PSR_0332+5434
# Telescope        =  AR
# Epoch_topo       =  57897.500614637189
# Epoch_bary       =  N/A
# T_sample         =  0.002
# Data Folded      =  7340032
# Data Avg         =  -1.21140836403922e-09
# Data StdDev      =  5.45952185825068 
# Profile Bins     =  512
# Profile Avg      =  -0.0137822365469757
# Profile StdDev   =  653.685129253679 
# Reduced chi-sqr  =  0.792
# Prob(Noise)      <  1   (~0.0 sigma)
# P_topo (ms)      =  714.524308119201  +/- 0.000467
# P'_topo (s/s)    =  -0                +/- 2.47e-10
# P''_topo (s/s^2) =  0                 +/- 1.09e-13
# P_bary (ms)      =  N/A
# P'_bary (s/s)    =  N/A
# P''_bary (s/s^2) =  N/A
# P_orb (s)        =  N/A
# asin(i)/c (s)    =  N/A
# eccentricity     =  N/A
# w (rad)          =  N/A
# T_peri           =  N/A
######################################################
   0  -448.461
   1  -817.5847
   2  -1051.927
   3  -489.8456
   4  -418.7487
   5  -178.8784
   6  -360.2502
   7  -642.5348
   8  -774.2043
   9  -388.9023
  10  -387.6217
  11  -632.5157
  12  -575.48
  13  -567.4883
  14  -591.9744
  15  -332.4224
  16  -439.4206
  17  -693.3723
  18  -1079.035
  19  -1171.621
  20  -417.495
  21  -492.3073
  22  -471.6586
  23  -374.1518
  24  -336.7781
  25  -667.6634
  26  -500.6018
  27  -407.476
  28  -995.0236
  29  -792.5324
  30  -554.1942
  31  -691.6986
  32  -323.7433
  33  487.1261
  34  372.1954
  35  -105.2306
  36  -453.9581
  37  -395.988
  38  -279.0934
  39  -208.4549
  40  289.0385
  41  385.0987
  42  -69.17014
  43  -299.5663
  44  -161.1928
  45  -46.45186
  46  3.529753
  47  450.9619
  48  300.54
  49  239.7868
  50  375.1759
  51  360.5829
  52  748.0192
  53  1172.791
  54  1748.046
  55  1295.674
  56  664.3588
  57  726.7939
  58  335.5801
  59  491.8245
  60  499.6869
  61  446.8486
  62  223.8432
  63  416.2845
  64  393.2862
  65  595.2933
  66  428.8637
  67  416.0314
  68  392.9756
  69  360.7836
  70  509.613
  71  682.4487
  72  511.0719
  73  318.3502
  74  -36.3028
  75  -60.69957
  76  190.6809
  77  149.3703
  78  75.27724
  79  55.02447
  80  -128.7831
  81  150.5731
  82  14.48017
  83  -236.2153
  84  -47.62575
  85  104.9281
  86  46.03236
  87  -356.2935
  88  -221.4418
  89  -131.4588
  90  -42.55924
  91  -86.71258
  92  135.7704
  93  164.169
  94  -72.92801
  95  -385.4966
  96  -135.1615
  97  -223.3961
  98  288.6817
  99  126.0494
 100  316.537
 101  -108.1069
 102  -92.13998
 103  248.0054
 104  -293.8532
 105  -674.4255
 106  -373.241
 107  -26.37008
 108  73.23431
 109  260.3831
 110  202.8717
 111  310.8178
 112  -24.58612
 113  -669.1421
 114  -558.9377
 115  -560.9951
 116  -727.0341
 117  -661.139
 118  -350.151
 119  138.8377
 120  -128.2958
 121  -531.4212
 122  -614.0541
 123  -934.4099
 124  -1104.414
 125  -798.2528
 126  -176.525
 127  -61.34253
 128  285.1263
 129  269.4186
 130  -376.2158
 131  -530.8432
 132  -394.4424
 133  12.72827
 134  321.675
 135  449.7678
 136  578.9772
 137  60.80384
 138  169.2583
 139  -17.14887
 140  -98.5295
 141  -139.6471
 142  -362.9584
 143  -345.0039
 144  -386.3544
 145  -119.1116
 146  -318.4567
 147  -379.9435
 148  -620.019
 149  -344.4189
 150  -530.9603
 151  -359.6659
 152  88.27931
 153  336.6676
 154  362.6503
 155  156.3809
 156  98.57928
 157  -480.2298
 158  -901.015
 159  -515.9995
 160  -350.8333
 161  73.61374
 162  334.8046
 163  -15.395
 164  -181.4075
 165  -261.2368
 166  -161.4928
 167  423.0408
 168  675.012
 169  442.7659
 170  397.1936
 171  202.1141
 172  540.3134
 173  499.2695
 174  515.6039
 175  414.8333
 176  -25.23009
 177  10.0947
 178  -72.70209
 179  -166.2128
 180  -349.899
 181  -2.434394
 182  215.2915
 183  -46.80359
 184  -417.7531
 185  -246.2611
 186  -781.6656
 187  -469.0996
 188  -127.2975
 189  -448.4778
 190  -581.5901
 191  -31.39515
 192  176.0131
 193  128.3885
 194  67.91556
 195  457.7321
 196  455.431
 197  -166.5111
 198  276.185
 199  512.1609
 200  557.4937
 201  504.5539
 202  569.6616
 203  278.3154
 204  7.772332
 205  188.2826
 206  22.87125
 207  108.1836
 208  666.5126
 209  631.9867
 210  513.0442
 211  466.8187
 212  937.528
 213  582.4292
 214  504.9396
 215  317.6302
 216  -283.0486
 217  -48.97889
 218  281.059
 219  375.9327
 220  -76.08876
 221  1.364935
 222  -250.158
 223  -253.0503
 224  -340.6458
 225  -277.1288
 226  152.4597
 227  3.429177
 228  367.7394
 229  87.99286
 230  166.3252
 231  67.05961
 232  274.1911
 233  465.9607
 234  1104.367
 235  1256.166
 236  962.7933
 237  834.9984
 238  254.1244
 239  456.0561
 240  360.2924
 241  596.7798
 242  639.0515
 243  815.955
 244  994.0389
 245  429.1914
 246  22.34478
 247  -50.9403
 248  467.585
 249  597.5905
 250  439.32
 251  649.1049
 252  59.28851
 253  228.1638
 254  407.4314
 255  336.0466
 256  60.65326
 257  293.15
 258  376.0078
 259  40.21657
 260  128.2558
 261  236.6879
 262  352.825
 263  302.5024
 264  494.8849
 265  19.85684
 266  -102.5785
 267  197.6514
 268  248.4784
 269  543.6671
 270  1022.612
 271  584.8464
 272  502.5965
 273  819.9644
 274  453.598
 275  205.9643
 276  719.9418
 277  -80.33377
 278  -218.0088
 279  -189.3675
 280  145.7463
 281  182.0821
 282  -99.93615
 283  -68.76365
 284  19.31573
 285  78.43166
 286  355.3884
 287  384.9102
 288  209.0589
 289  245.026
 290  14.91479
 291  -244.7853
 292  -150.5573
 293  -30.66097
 294  -37.88521
 295  318.9403
 296  564.812
 297  816.1385
 298  142.2446
 299  -213.38
 300  -56.38292
 301  590.2485
 302  702.2087
 303  568.3186
 304  546.9138
 305  382.0723
 306  343.5084
 307  369.7948
 308  604.0051
 309  612.6333
 310  298.54
 311  397.7314
 312  60.35079
 313  421.8918
 314  270.8339
 315  501.0544
 316  483.8779
 317  512.0573
 318  540.6498
 319  115.5388
 320  66.68167
 321  172.3442
 322  -174.6445
 323  -483.3501
 324  -295.8353
 325  358.6227
 326  -220.4623
 327  -535.595
 328  -254.1303
 329  -443.7325
 330  -385.433
 331  49.16426
 332  361.6824
 333  88.65144
 334  -66.73933
 335  86.93307
 336  658.1806
 337  805.8896
 338  782.1353
 339  663.6798
 340  -8.012579
 341  -153.9035
 342  106.2053
 343  266.6701
 344  812.3258
 345  373.6801
 346  489.5672
 347  499.2814
 348  235.4725
 349  -6.347448
 350  447.316
 351  82.03071
 352  -181.732
 353  -469.5524
 354  -412.7371
 355  167.5261
 356  -207.3951
 357  -521.4839
 358  -647.6096
 359  -470.7252
 360  -344.2839
 361  -510.8898
 362  -557.7156
 363  -44.95873
 364  154.9337
 365  -428.1476
 366  -515.7524
 367  -532.8892
 368  -254.3332
 369  450.9204
 370  123.5641
 371  -338.9314
 372  -377.1316
 373  -56.2543
 374  -324.8465
 375  -272.9478
 376  -182.4457
 377  -386.7445
 378  -201.1635
 379  -365.0852
 380  -308.7075
 381  -299.8179
 382  -104.2564
 383  -148.9221
 384  -359.373
 385  -521.1294
 386  -487.1924
 387  -359.7991
 388  -57.87824
 389  -200.6857
 390  -69.40509
 391  -352.679
 392  -475.2313
 393  -700.3891
 394  -199.721
 395  -407.3384
 396  -190.4643
 397  -405.5632
 398  -539.9823
 399  -652.1686
 400  -449.4154
 401  -277.783
 402  110.7647
 403  -39.79303
 404  -47.22217
 405  368.2743
 406  355.2307
 407  404.3953
 408  370.5211
 409  733.2086
 410  434.1875
 411  276.3209
 412  336.1347
 413  -316.0877
 414  -190.1903
 415  -171.7462
 416  -70.02116
 417  -146.344
 418  257.3629
 419  322.5727
 420  178.6973
 421  -274.3289
 422  -457.0815
 423  -395.1527
 424  -102.3524
 425  265.0833
 426  -163.9374
 427  -352.3824
 428  -277.9104
 429  -414.5095
 430  -604.9192
 431  -663.5187
 432  -432.893
 433  -215.0042
 434  -247.9656
 435  -529.6078
 436  -764.1386
 437  -726.885
 438  88.85564
 439  154.1024
 440  -518.9207
 441  -88.00577
 442  174.2543
 443  -55.8826
 444  -116.9277
 445  -242.4313
 446  -680.9503
 447  -514.5298
 448  -295.813
 449  412.6553
 450  379.4394
 451  248.1138
 452  -389.2486
 453  -517.6688
 454  -593.0543
 455  -148.5638
 456  88.6494
 457  -52.92023
 458  -136.1868
 459  -244.9103
 460  -380.4076
 461  -347.5214
 462  101.6268
 463  -72.10933
 464  -493.9656
 465  -403.5468
 466  -261.4671
 467  30.62788
 468  387.5687
 469  277.9665
 470  20.39556
 471  -113.9706
 472  -519.7062
 473  -239.904
 474  -163.8169
 475  308.1195
 476  24.67252
 477  -253.4135
 478  -213.5538
 479  -172.8188
 480  240.684
 481  522.4111
 482  477.9327
 483  111.7165
 484  -82.47813
 485  308.4658
 486  28.18751
 487  277.9377
 488  253.3961
 489  215.0803
 490  108.9606
 491  -178.1463
 492  -245.4048
 493  -604.7369
 494  -531.4692
 495  -221.3261
 496  -122.9714
 497  -103.3868
 498  146.5457
 499  275.04
 500  -134.9272
 501  -378.4917
 502  -99.02341
 503  -111.3822
 504  -183.2512
 505  -361.3026
 506  -658.7936
 507  -442.6604
 508  -238.6443
 509  -239.9024
 510  -444.5383
 511  -165.9595
