# Input file       =  1179561381.09626_cleaned.dat
# Candidate        =  PSR_0332+5434
# Telescope        =  AR
# Epoch_topo       =  57896.331019632642
# Epoch_bary       =  N/A
# T_sample         =  0.002
# Data Folded      =  7340032
# Data Avg         =  0.0283310710027847
# Data StdDev      =  1.00002850291826 
# Profile Bins     =  512
# Profile Avg      =  406.118765791306 
# Profile StdDev   =  119.736449117715 
# Reduced chi-sqr  =  0.939
# Prob(Noise)      <  0.835   (~0.0 sigma)
# P_topo (ms)      =  714.525130416198  +/- 0.000457
# P'_topo (s/s)    =  -0                +/- 2.41e-10
# P''_topo (s/s^2) =  0                 +/- 1.06e-13
# P_bary (ms)      =  N/A
# P'_bary (s/s)    =  N/A
# P''_bary (s/s^2) =  N/A
# P_orb (s)        =  N/A
# asin(i)/c (s)    =  N/A
# eccentricity     =  N/A
# w (rad)          =  N/A
# T_peri           =  N/A
######################################################
   0  384.5132
   1  476.5647
   2  510.1248
   3  463.9731
   4  509.0626
   5  525.8881
   6  430.1091
   7  423.2817
   8  483.3924
   9  418.5261
  10  394.6472
  11  402.8645
  12  354.3755
  13  390.8528
  14  349.4972
  15  267.4588
  16  282.4821
  17  394.2379
  18  426.4026
  19  444.3199
  20  504.6949
  21  382.0842
  22  409.0709
  23  349.5503
  24  358.0491
  25  393.5921
  26  457.2372
  27  524.7463
  28  468.2068
  29  319.8726
  30  430.7492
  31  454.3478
  32  463.901
  33  544.8028
  34  448.462
  35  440.7875
  36  374.0093
  37  410.573
  38  506.5031
  39  521.0071
  40  404.3686
  41  402.3357
  42  361.1726
  43  350.9231
  44  371.5941
  45  415.7908
  46  346.1886
  47  417.0204
  48  319.9114
  49  289.8793
  50  316.5409
  51  407.6538
  52  446.7596
  53  495.0805
  54  457.0901
  55  441.1932
  56  422.4965
  57  450.4106
  58  400.2584
  59  347.2039
  60  493.6401
  61  408.5657
  62  460.608
  63  486.3222
  64  471.3477
  65  509.6082
  66  408.0126
  67  362.0251
  68  406.6801
  69  495.8871
  70  461.5412
  71  462.587
  72  549.7787
  73  419.0344
  74  385.0192
  75  387.8809
  76  410.0392
  77  380.8835
  78  351.8929
  79  350.9417
  80  440.8751
  81  456.7584
  82  418.7416
  83  545.2881
  84  532.4999
  85  467.482
  86  389.4556
  87  396.4506
  88  421.8183
  89  338.3943
  90  427.7639
  91  357.3573
  92  345.6431
  93  455.0104
  94  529.1069
  95  506.6641
  96  473.9748
  97  477.2589
  98  471.8387
  99  391.822
 100  393.056
 101  375.1689
 102  333.5719
 103  317.882
 104  233.6814
 105  280.9146
 106  299.2246
 107  349.1591
 108  344.986
 109  419.7351
 110  435.0336
 111  271.7267
 112  335.8553
 113  329.7521
 114  381.9983
 115  384.1139
 116  434.584
 117  574.6862
 118  472.3923
 119  387.5626
 120  403.0562
 121  453.0032
 122  305.9935
 123  266.4614
 124  383.1753
 125  456.0781
 126  345.8687
 127  340.2442
 128  415.0591
 129  402.4664
 130  299.9281
 131  304.6217
 132  351.706
 133  377.9668
 134  391.6516
 135  429.4639
 136  370.164
 137  290.1636
 138  294.2122
 139  439.6402
 140  477.2271
 141  439.4741
 142  368.8712
 143  398.2328
 144  394.097
 145  331.8078
 146  441.0529
 147  366.1074
 148  384.5786
 149  400.7484
 150  447.6076
 151  382.9264
 152  360.4349
 153  411.0993
 154  374.7986
 155  421.274
 156  477.4136
 157  408.2905
 158  352.8839
 159  444.962
 160  509.0323
 161  522.218
 162  488.4917
 163  421.3043
 164  283.2003
 165  382.7039
 166  440.9738
 167  441.575
 168  424.5704
 169  420.4695
 170  449.619
 171  418.9737
 172  376.6023
 173  363.5966
 174  340.2125
 175  394.9112
 176  459.8996
 177  358.9632
 178  401.3627
 179  539.7004
 180  478.6213
 181  409.274
 182  409.5883
 183  433.4245
 184  343.8497
 185  348.2568
 186  326.9247
 187  199.957
 188  375.9628
 189  512.9472
 190  340.0583
 191  224.4058
 192  299.1667
 193  372.9817
 194  379.2166
 195  428.0362
 196  394.1938
 197  387.8069
 198  393.6581
 199  379.3367
 200  436.9173
 201  348.9799
 202  335.2021
 203  380.1969
 204  261.0469
 205  247.2108
 206  344.2195
 207  429.4983
 208  462.1289
 209  378.0941
 210  417.0199
 211  465.2496
 212  475.5351
 213  653.2651
 214  508.4361
 215  398.7787
 216  411.0411
 217  394.494
 218  353.0237
 219  393.948
 220  379.8875
 221  431.5658
 222  484.992
 223  446.5441
 224  469.062
 225  428.6826
 226  460.8206
 227  358.9337
 228  317.3243
 229  487.5535
 230  487.4831
 231  439.5717
 232  380.0021
 233  438.3734
 234  473.6861
 235  505.0537
 236  465.4084
 237  391.7907
 238  449.7355
 239  426.822
 240  487.4788
 241  556.2511
 242  503.0092
 243  513.931
 244  452.5694
 245  514.6844
 246  387.5721
 247  482.4595
 248  633.7849
 249  356.144
 250  388.9368
 251  535.6223
 252  527.7116
 253  451.9998
 254  388.9361
 255  349.9641
 256  470.0988
 257  400.6946
 258  415.4247
 259  504.0445
 260  461.1279
 261  374.4329
 262  497.7302
 263  441.0424
 264  489.0629
 265  467.164
 266  355.227
 267  317.7059
 268  325.6112
 269  399.0923
 270  332.7814
 271  340.7507
 272  381.8158
 273  483.9021
 274  475.0374
 275  512.8046
 276  477.8283
 277  387.7771
 278  339.4571
 279  424.5414
 280  537.1669
 281  476.8177
 282  524.0477
 283  414.5157
 284  430.1601
 285  427.5816
 286  469.1248
 287  460.3219
 288  410.5117
 289  375.6461
 290  463.1739
 291  473.4097
 292  474.101
 293  381.7668
 294  371.8819
 295  370.8435
 296  415.5318
 297  499.6387
 298  443.5824
 299  347.2771
 300  371.1898
 301  507.1861
 302  417.1785
 303  422.1231
 304  496.1057
 305  540.5109
 306  566.0452
 307  360.5751
 308  284.1491
 309  344.4778
 310  359.9962
 311  367.3478
 312  390.8817
 313  359.9999
 314  351.394
 315  336.8085
 316  401.4388
 317  423.6009
 318  275.451
 319  378.4808
 320  419.8176
 321  422.4913
 322  435.8987
 323  398.1203
 324  298.4693
 325  400.5094
 326  321.4141
 327  313.7158
 328  420.3871
 329  444.2585
 330  429.7141
 331  502.8958
 332  514.874
 333  471.5406
 334  283.8563
 335  346.0682
 336  424.9421
 337  469.3934
 338  381.7479
 339  336.4276
 340  219.017
 341  237.01
 342  356.756
 343  310.6826
 344  340.7537
 345  368.484
 346  364.1995
 347  252.3272
 348  205.5622
 349  195.7297
 350  374.6689
 351  328.568
 352  349.4878
 353  324.7504
 354  322.5834
 355  456.0003
 356  357.273
 357  352.2325
 358  373.3988
 359  374.8352
 360  438.9259
 361  481.3983
 362  354.7263
 363  291.6276
 364  308.3338
 365  333.241
 366  397.5963
 367  356.5765
 368  366.875
 369  315.5123
 370  387.2515
 371  493.2241
 372  501.3911
 373  437.0206
 374  474.217
 375  465.8042
 376  575.8309
 377  542.7471
 378  513.7025
 379  515.571
 380  439.8282
 381  410.9662
 382  423.4463
 383  468.6109
 384  434.5273
 385  372.695
 386  368.7744
 387  312.7052
 388  299.7051
 389  352.8978
 390  359.3015
 391  224.2602
 392  262.8768
 393  402.9106
 394  376.0378
 395  418.0585
 396  353.5433
 397  270.4276
 398  341.4592
 399  409.9005
 400  354.4042
 401  349.2945
 402  290.9456
 403  280.5623
 404  288.5259
 405  456.097
 406  431.8188
 407  263.1941
 408  289.6465
 409  391.9226
 410  380.6555
 411  336.8977
 412  301.6026
 413  221.9674
 414  364.462
 415  431.3342
 416  402.9237
 417  373.5951
 418  429.5014
 419  377.1683
 420  363.5831
 421  368.4723
 422  435.7877
 423  366.5843
 424  334.5125
 425  416.1502
 426  443.1755
 427  354.8403
 428  378.0084
 429  438.8741
 430  352.7859
 431  399.2056
 432  352.4374
 433  306.4868
 434  378.6762
 435  440.2372
 436  420.2944
 437  432.8351
 438  376.9136
 439  362.653
 440  314.0586
 441  420.6311
 442  513.3577
 443  462.5852
 444  454.346
 445  457.1657
 446  434.7614
 447  433.6633
 448  437.9955
 449  328.4765
 450  321.087
 451  381.0636
 452  335.1096
 453  403.5404
 454  426.79
 455  412.0495
 456  380.8799
 457  315.9819
 458  307.5114
 459  310.9676
 460  380.2474
 461  324.245
 462  305.4536
 463  399.6989
 464  412.9254
 465  263.7301
 466  170.0853
 467  296.8478
 468  333.8642
 469  370.8805
 470  276.368
 471  322.6567
 472  328.56
 473  434.2081
 474  422.2461
 475  463.9581
 476  448.9126
 477  296.3632
 478  309.3143
 479  443.726
 480  323.0384
 481  314.4615
 482  367.4474
 483  475.11
 484  423.5559
 485  231.1514
 486  335.9105
 487  421.0883
 488  452.6522
 489  417.0532
 490  520.3022
 491  447.0147
 492  453.2318
 493  439.6123
 494  624.3584
 495  699.1152
 496  745.2567
 497  848.2919
 498  929.3668
 499  828.128
 500  665.2068
 501  578.1191
 502  422.7187
 503  434.7342
 504  490.318
 505  385.6442
 506  321.1649
 507  427.4562
 508  416.0755
 509  455.659
 510  417.4878
 511  424.3945
