# Input file       =  1179059303.106471_cleaned.dat
# Candidate        =  PSR_0332+5434
# Telescope        =  AR
# Epoch_topo       =  57890.519931787858
# Epoch_bary       =  N/A
# T_sample         =  0.002
# Data Folded      =  7340032
# Data Avg         =  0.023884462590349
# Data StdDev      =  1.00003066236128 
# Profile Bins     =  512
# Profile Avg      =  342.412463687719 
# Profile StdDev   =  119.736707674384 
# Reduced chi-sqr  =  1.151
# Prob(Noise)      <  0.00994   (~2.3 sigma)
# P_topo (ms)      =  714.531163979568  +/- 0.000713
# P'_topo (s/s)    =  -0                +/- 3.76e-10
# P''_topo (s/s^2) =  0                 +/- 1.66e-13
# P_bary (ms)      =  N/A
# P'_bary (s/s)    =  N/A
# P''_bary (s/s^2) =  N/A
# P_orb (s)        =  N/A
# asin(i)/c (s)    =  N/A
# eccentricity     =  N/A
# w (rad)          =  N/A
# T_peri           =  N/A
######################################################
   0  807.3235
   1  745.1113
   2  577.9112
   3  453.2653
   4  265.1878
   5  378.2473
   6  280.3809
   7  422.0764
   8  414.7702
   9  282.81
  10  365.5665
  11  380.2666
  12  448.5048
  13  496.5905
  14  407.0074
  15  356.2173
  16  299.9732
  17  298.9252
  18  378.1342
  19  453.8736
  20  342.7562
  21  245.2384
  22  424.9736
  23  439.525
  24  433.9844
  25  451.2872
  26  598.0671
  27  441.1028
  28  367.1424
  29  454.9512
  30  409.9535
  31  302.8535
  32  314.83
  33  397.5047
  34  368.8674
  35  333.16
  36  332.6078
  37  317.9403
  38  503.0707
  39  399.746
  40  424.7471
  41  442.7105
  42  444.2306
  43  340.8158
  44  428.0537
  45  424.9394
  46  321.8781
  47  306.3235
  48  393.9354
  49  519.5874
  50  469.8984
  51  370.1031
  52  405.3974
  53  415.2338
  54  356.0405
  55  277.8
  56  399.852
  57  521.7295
  58  455.9241
  59  348.3875
  60  218.9723
  61  263.4325
  62  409.8592
  63  433.558
  64  399.4179
  65  390.1454
  66  435.0686
  67  423.9393
  68  289.6487
  69  341.2083
  70  415.6295
  71  469.5754
  72  441.1866
  73  386.3298
  74  122.7114
  75  241.7685
  76  274.2903
  77  283.9633
  78  311.4135
  79  342.708
  80  405.3571
  81  358.21
  82  274.6878
  83  339.2921
  84  242.4454
  85  238.595
  86  285.8309
  87  352.4166
  88  397.0459
  89  468.1155
  90  325.7503
  91  309.5191
  92  301.5523
  93  336.1432
  94  399.2913
  95  345.5923
  96  291.127
  97  345.3524
  98  358.4325
  99  224.4504
 100  325.8838
 101  307.9745
 102  439.7522
 103  436.5939
 104  354.7653
 105  338.0063
 106  351.3849
 107  350.11
 108  353.7685
 109  406.4378
 110  452.7872
 111  505.7802
 112  402.601
 113  355.2289
 114  292.6471
 115  319.6895
 116  375.8194
 117  376.3696
 118  308.7612
 119  250.5523
 120  396.6209
 121  457.3372
 122  376.1076
 123  352.1993
 124  356.2403
 125  391.9532
 126  365.4233
 127  355.9079
 128  393.182
 129  397.2472
 130  365.6969
 131  407.1073
 132  397.0999
 133  322.6421
 134  397.8517
 135  530.9979
 136  511.1247
 137  345.7295
 138  361.6696
 139  357.9073
 140  359.4479
 141  364.0535
 142  380.7146
 143  401.3596
 144  372.0578
 145  293.8011
 146  457.453
 147  476.6088
 148  490.1344
 149  358.7546
 150  207.6145
 151  259.0047
 152  216.1441
 153  276.5836
 154  242.6692
 155  228.5545
 156  291.6458
 157  344.0169
 158  238.0318
 159  194.3338
 160  164.3214
 161  288.846
 162  259.7428
 163  223.1574
 164  303.8214
 165  300.3795
 166  276.6817
 167  206.7165
 168  177.0296
 169  246.2382
 170  195.0918
 171  266.252
 172  420.4908
 173  348.4583
 174  298.2729
 175  301.9461
 176  229.4561
 177  207.5269
 178  290.8106
 179  297.1494
 180  283.5787
 181  269.612
 182  339.6122
 183  334.0679
 184  391.9172
 185  404.8556
 186  250.6866
 187  378.6209
 188  317.4124
 189  356.7266
 190  329.2009
 191  362.1446
 192  282.3363
 193  302.8265
 194  344.2142
 195  382.3493
 196  463.0333
 197  454.9474
 198  325.8503
 199  200.5421
 200  339.9576
 201  315.3926
 202  338.8969
 203  413.8983
 204  279.3536
 205  295.9373
 206  528.2214
 207  470.6326
 208  369.6636
 209  345.8441
 210  228.4173
 211  203.6384
 212  219.7009
 213  335.7957
 214  315.6674
 215  301.3182
 216  406.4908
 217  359.3738
 218  320.9782
 219  302.7208
 220  289.516
 221  268.2714
 222  311.2437
 223  306.5742
 224  297.5582
 225  258.9257
 226  116.6348
 227  166.9299
 228  216.1306
 229  280.1994
 230  257.8918
 231  295.0596
 232  218.7686
 233  257.3751
 234  280.5516
 235  322.8246
 236  375.7389
 237  389.8767
 238  441.7499
 239  285.1557
 240  332.8766
 241  305.3101
 242  377.3744
 243  335.9857
 244  338.2183
 245  341.9713
 246  396.8774
 247  389.4993
 248  373.0023
 249  311.9206
 250  267.8975
 251  404.4855
 252  334.222
 253  468.369
 254  394.5492
 255  327.6928
 256  419.8759
 257  566.1573
 258  519.2184
 259  332.7359
 260  416.4706
 261  377.5551
 262  335.6644
 263  439.1284
 264  385.0901
 265  262.9791
 266  403.3028
 267  390.6732
 268  389.8701
 269  412.6722
 270  400.6538
 271  386.5194
 272  464.6595
 273  452.98
 274  289.9055
 275  324.2072
 276  432.9762
 277  377.9789
 278  297.7704
 279  458.1234
 280  395.8204
 281  380.1578
 282  427.0994
 283  434.6613
 284  338.8126
 285  286.5046
 286  380.7907
 287  421.8169
 288  311.5562
 289  384.5098
 290  297.4758
 291  271.9996
 292  303.3672
 293  310.0373
 294  257.7965
 295  381.1891
 296  309.7837
 297  308.9931
 298  171.0618
 299  404.5194
 300  388.4455
 301  315.0097
 302  277.8428
 303  222.2082
 304  253.0484
 305  319.0787
 306  364.8593
 307  242.9199
 308  127.9293
 309  169.203
 310  237.5072
 311  121.5833
 312  126.4734
 313  334.4934
 314  394.1839
 315  298.6607
 316  227.9987
 317  326.6429
 318  253.9894
 319  252.1794
 320  224.8171
 321  324.6374
 322  241.0004
 323  231.6134
 324  288.6232
 325  332.172
 326  296.3449
 327  282.1851
 328  296.4897
 329  235.654
 330  309.7654
 331  404.643
 332  353.768
 333  301.0905
 334  317.5791
 335  292.7464
 336  206.6627
 337  385.541
 338  346.1181
 339  374.3801
 340  355.5659
 341  378.8889
 342  455.06
 343  436.4629
 344  402.3303
 345  255.241
 346  184.6773
 347  258.0216
 348  267.5128
 349  265.429
 350  307.5684
 351  318.5291
 352  340.7278
 353  231.0788
 354  83.00261
 355  175.5589
 356  338.4583
 357  260.6162
 358  189.2939
 359  215.7474
 360  257.3193
 361  237.7537
 362  244.0244
 363  287.8073
 364  345.2792
 365  457.5416
 366  424.6992
 367  424.92
 368  405.408
 369  340.234
 370  234.1514
 371  225.0774
 372  420.3817
 373  387.1118
 374  413.588
 375  433.0372
 376  433.0247
 377  272.3144
 378  323.8412
 379  427.6036
 380  488.7934
 381  372.6999
 382  280.4117
 383  298.7469
 384  243.6254
 385  370.4822
 386  307.8518
 387  287.8447
 388  267.5441
 389  315.7525
 390  264.4696
 391  280.7693
 392  323.6161
 393  272.0946
 394  251.2843
 395  266.9129
 396  204.0476
 397  326.2692
 398  281.2608
 399  213.4739
 400  222.436
 401  358.5818
 402  325.981
 403  167.5297
 404  203.6825
 405  386.9373
 406  342.1297
 407  164.4538
 408  210.8004
 409  328.7354
 410  347.8115
 411  256.2862
 412  257.6289
 413  320.4372
 414  290.6821
 415  253.2973
 416  424.0669
 417  402.9655
 418  296.3749
 419  244.1815
 420  339.2853
 421  315.6199
 422  262.7563
 423  260.326
 424  239.687
 425  213.9694
 426  338.0299
 427  322.9427
 428  294.198
 429  257.6752
 430  262.6112
 431  218.3032
 432  279.9256
 433  252.728
 434  380.613
 435  311.7389
 436  131.0837
 437  315.9401
 438  474.5371
 439  367.0334
 440  256.5705
 441  318.8789
 442  381.5899
 443  323.8207
 444  294.69
 445  388.4812
 446  453.9024
 447  417.3055
 448  309.692
 449  245.4644
 450  407.8639
 451  316.1602
 452  271.0183
 453  264.4431
 454  414.6469
 455  381.4753
 456  424.9723
 457  465.6616
 458  414.0507
 459  385.3836
 460  347.8849
 461  306.8888
 462  409.6664
 463  308.4195
 464  386.9124
 465  302.1145
 466  338.0314
 467  314.9336
 468  374.5115
 469  311.3765
 470  172.6003
 471  201.0855
 472  210.6019
 473  348.1689
 474  457.2831
 475  347.8009
 476  308.8493
 477  196.817
 478  266.9376
 479  363.1292
 480  416.1781
 481  334.6637
 482  431.0876
 483  437.008
 484  413.2735
 485  369.4828
 486  429.7946
 487  386.515
 488  387.0004
 489  448.6372
 490  512.9636
 491  341.5529
 492  429.3842
 493  516.569
 494  469.9324
 495  347.4926
 496  326.2947
 497  472.2313
 498  411.9651
 499  190.4639
 500  245.3952
 501  397.0449
 502  477.0724
 503  466.4753
 504  422.9876
 505  503.7014
 506  658.3577
 507  520.0775
 508  499.1357
 509  635.3776
 510  704.2661
 511  753.3394
