# Input file       =  1179130528.109754_cleaned.dat
# Candidate        =  PSR_0332+5434
# Telescope        =  AR
# Epoch_topo       =  57891.344295251780
# Epoch_bary       =  N/A
# T_sample         =  0.002
# Data Folded      =  7340032
# Data Avg         =  0.0250653309423408
# Data StdDev      =  1.00004614012718 
# Profile Bins     =  512
# Profile Avg      =  359.350544893235 
# Profile StdDev   =  119.738560874293 
# Reduced chi-sqr  =  1.164
# Prob(Noise)      <  0.00597   (~2.5 sigma)
# P_topo (ms)      =  714.53002712325   +/- 0.000436
# P'_topo (s/s)    =  -0                +/- 2.3e-10
# P''_topo (s/s^2) =  0                 +/- 1.01e-13
# P_bary (ms)      =  N/A
# P'_bary (s/s)    =  N/A
# P''_bary (s/s^2) =  N/A
# P_orb (s)        =  N/A
# asin(i)/c (s)    =  N/A
# eccentricity     =  N/A
# w (rad)          =  N/A
# T_peri           =  N/A
######################################################
   0  306.0928
   1  259.0643
   2  237.8628
   3  291.9128
   4  384.7844
   5  415.2187
   6  292.8744
   7  336.047
   8  317.2704
   9  362.0131
  10  315.577
  11  233.6088
  12  240.6331
  13  338.5481
  14  414.4381
  15  395.4135
  16  246.5611
  17  267.3769
  18  384.1524
  19  429.6058
  20  400.5372
  21  277.8182
  22  361.6399
  23  435.7901
  24  385.5166
  25  447.804
  26  344.3255
  27  382.9774
  28  415.5717
  29  454.7915
  30  424.1466
  31  348.4682
  32  466.1418
  33  440.719
  34  373.036
  35  191.8554
  36  275.3838
  37  376.3307
  38  345.2053
  39  381.3214
  40  374.1443
  41  394.4652
  42  433.1885
  43  397.2657
  44  385.5227
  45  445.898
  46  421.3341
  47  325.8315
  48  208.2041
  49  329.7625
  50  324.6601
  51  283.5023
  52  325.0302
  53  323.5601
  54  218.2732
  55  179.4283
  56  278.8813
  57  396.3119
  58  168.2527
  59  68.83527
  60  257.7014
  61  418.4501
  62  341.1543
  63  364.9983
  64  298.3567
  65  271.2026
  66  307.7103
  67  317.5052
  68  276.1801
  69  331.5544
  70  382.981
  71  320.9292
  72  229.9709
  73  298.3431
  74  348.1955
  75  277.6248
  76  225.0636
  77  352.3807
  78  355.3175
  79  338.0468
  80  337.9979
  81  276.6519
  82  176.4234
  83  336.1547
  84  400.9789
  85  365.9034
  86  303.4287
  87  359.5064
  88  333.1462
  89  313.229
  90  298.2459
  91  367.3772
  92  379.8586
  93  385.5287
  94  291.1275
  95  415.2069
  96  488.4043
  97  409.5179
  98  472.9965
  99  426.5942
 100  283.7234
 101  382.492
 102  417.7844
 103  356.8418
 104  278.6786
 105  358.2972
 106  295.9221
 107  261.0191
 108  291.4561
 109  255.6766
 110  281.4662
 111  257.4578
 112  311.3907
 113  251.2273
 114  170.8941
 115  156.0499
 116  353.2677
 117  358.1832
 118  273.6433
 119  401.4016
 120  346.0941
 121  286.1202
 122  405.9021
 123  327.2544
 124  312.1484
 125  346.5074
 126  337.4986
 127  371.0849
 128  328.1854
 129  313.17
 130  309.8699
 131  281.5906
 132  192.0349
 133  222.7395
 134  289.2083
 135  236.9291
 136  340.3175
 137  377.1809
 138  332.0249
 139  411.0992
 140  268.5416
 141  340.0682
 142  246.6334
 143  280.2318
 144  334.6107
 145  229.9235
 146  254.5662
 147  211.4771
 148  255.2411
 149  343.3058
 150  366.6189
 151  368.7738
 152  386.9541
 153  387.8684
 154  323.3558
 155  335.2308
 156  416.0445
 157  415.5837
 158  372.2591
 159  369.4744
 160  356.9899
 161  427.5391
 162  529.0931
 163  429.9859
 164  396.4749
 165  378.7999
 166  348.4677
 167  409.0241
 168  369.7097
 169  366.8677
 170  405.389
 171  384.0579
 172  416.5727
 173  342.6503
 174  402.9047
 175  548.6958
 176  527.1714
 177  404.0481
 178  394.4024
 179  358.4952
 180  429.405
 181  519.0356
 182  451.8857
 183  447.6765
 184  424.048
 185  435.3897
 186  416.7678
 187  348.6665
 188  380.9527
 189  311.2335
 190  474.864
 191  454.3091
 192  418.2502
 193  385.4397
 194  407.5126
 195  283.9792
 196  342.3033
 197  348.0986
 198  286.4221
 199  320.4783
 200  291.7622
 201  184.1472
 202  286.197
 203  321.7314
 204  247.1315
 205  320.7426
 206  520.0823
 207  471.6567
 208  443.7519
 209  332.8505
 210  312.4653
 211  378.2436
 212  441.4684
 213  403.0909
 214  476.4777
 215  500.2551
 216  390.9931
 217  283.2554
 218  270.7524
 219  378.0667
 220  403.2937
 221  331.1368
 222  267.5308
 223  292.7565
 224  411.3631
 225  382.3996
 226  358.0297
 227  402.6262
 228  337.9922
 229  381.3456
 230  369.815
 231  379.4969
 232  419.3978
 233  459.7631
 234  495.3822
 235  396.0667
 236  312.7082
 237  340.2809
 238  434.5966
 239  406.9018
 240  174.8247
 241  302.8751
 242  316.7256
 243  470.2126
 244  395.2381
 245  263.0246
 246  416.357
 247  386.7982
 248  334.2008
 249  274.6955
 250  335.0807
 251  487.2745
 252  336.4981
 253  382.2914
 254  368.2441
 255  370.0169
 256  406.3323
 257  467.5178
 258  373.2826
 259  367.7287
 260  445.5516
 261  501.5298
 262  520.2206
 263  376.1725
 264  262.9077
 265  291.6846
 266  528.0587
 267  509.0121
 268  294.7328
 269  263.7063
 270  438.2427
 271  457.39
 272  412.3903
 273  295.9937
 274  318.6571
 275  405.2266
 276  363.3822
 277  351.7613
 278  335.0145
 279  348.4788
 280  278.3876
 281  287.7293
 282  200.9122
 283  221.2178
 284  315.8847
 285  388.8777
 286  332.6755
 287  322.5936
 288  383.1466
 289  470.3002
 290  353.8267
 291  210.3864
 292  332.4228
 293  354.0007
 294  247.3404
 295  270.9339
 296  364.6446
 297  285.2689
 298  366.7914
 299  399.8774
 300  410.9568
 301  320.4197
 302  351.912
 303  228.9775
 304  355.0025
 305  380.5249
 306  381.3864
 307  382.7919
 308  321.6616
 309  257.8914
 310  191.4241
 311  202.8359
 312  258.3683
 313  159.7897
 314  269.0943
 315  270.47
 316  201.7558
 317  377.468
 318  321.9761
 319  189.9525
 320  300.3566
 321  358.8961
 322  334.5182
 323  326.3001
 324  219.3285
 325  198.2233
 326  154.6521
 327  193.3746
 328  323.2089
 329  371.4044
 330  262.0702
 331  412.632
 332  282.4619
 333  278.0454
 334  317.14
 335  334.7249
 336  291.1328
 337  281.4379
 338  358.9709
 339  371.9621
 340  388.4308
 341  301.9556
 342  351.168
 343  407.6327
 344  306.6622
 345  343.7929
 346  419.4963
 347  611.719
 348  469.8605
 349  391.563
 350  244.7734
 351  299.5982
 352  233.8273
 353  394.702
 354  393.8023
 355  441.4063
 356  360.1889
 357  377.1332
 358  478.6717
 359  352.7414
 360  391.6718
 361  563.2915
 362  585.7858
 363  632.3295
 364  844.9349
 365  961.5438
 366  922.8802
 367  743.9048
 368  579.2077
 369  494.1901
 370  473.1879
 371  348.1858
 372  348.5762
 373  374.1772
 374  245.9344
 375  408.4465
 376  430.6292
 377  351.2729
 378  388.3205
 379  386.7229
 380  398.9234
 381  489.6652
 382  395.8159
 383  234.8374
 384  286.7505
 385  235.3668
 386  344.494
 387  298.8021
 388  284.7758
 389  289.4047
 390  330.9998
 391  188.6426
 392  282.1288
 393  332.5661
 394  309.6979
 395  289.6875
 396  464.4146
 397  422.6331
 398  357.7443
 399  374.2313
 400  463.9726
 401  460.1618
 402  492.6357
 403  375.7705
 404  261.4373
 405  309.2156
 406  356.9357
 407  421.2446
 408  335.2065
 409  397.9052
 410  497.0392
 411  328.8195
 412  401.2393
 413  456.3064
 414  433.2923
 415  409.2426
 416  318.4123
 417  432.7575
 418  361.9705
 419  420.4816
 420  368.6982
 421  304.4036
 422  368.9817
 423  421.105
 424  404.1699
 425  488.7196
 426  387.7546
 427  338.7931
 428  341.7072
 429  388.9812
 430  426.0761
 431  450.4336
 432  415.4059
 433  435.166
 434  392.8745
 435  351.8947
 436  580.9585
 437  576.7034
 438  494.2735
 439  414.8192
 440  383.7852
 441  497.1451
 442  374.0035
 443  335.6152
 444  397.2279
 445  434.3144
 446  426.3063
 447  345.9954
 448  352.0371
 449  400.6032
 450  529.9929
 451  466.9814
 452  439.5541
 453  528.9474
 454  475.7214
 455  462.2258
 456  442.5812
 457  441.4766
 458  381.46
 459  480.2359
 460  505.343
 461  417.666
 462  422.3013
 463  476.0011
 464  343.1886
 465  357.6734
 466  440.8943
 467  427.2401
 468  236.6845
 469  331.5242
 470  382.9778
 471  387.6218
 472  401.064
 473  399.3049
 474  366.6309
 475  355.505
 476  255.7084
 477  264.7264
 478  261.4765
 479  158.6035
 480  258.4008
 481  397.9488
 482  366.0697
 483  285.8046
 484  439.5355
 485  414.9422
 486  371.7557
 487  315.205
 488  342.079
 489  268.0697
 490  217.1291
 491  359.871
 492  280.9292
 493  182.159
 494  322.9258
 495  345.1923
 496  399.3269
 497  357.2816
 498  423.9084
 499  336.0314
 500  254.8293
 501  276.1833
 502  277.2981
 503  267.8974
 504  298.1386
 505  376.8939
 506  423.4633
 507  383.6683
 508  331.4488
 509  287.5526
 510  340.9069
 511  386.9755
