# Input file       =  1179302869.096330-PSRB0329-2ms-sampling-dd.dat
# Candidate        =  PSR_0332+5434
# Telescope        =  AR
# Epoch_topo       =  57893.338982596411
# Epoch_bary       =  N/A
# T_sample         =  0.002
# Data Folded      =  7340032
# Data Avg         =  -4.74358309901532e-11
# Data StdDev      =  3.03801659464437 
# Profile Bins     =  512
# Profile Avg      =  -0.460091419542725
# Profile StdDev   =  363.750951439774 
# Reduced chi-sqr  =  0.917
# Prob(Noise)      <  0.911   (~0.0 sigma)
# P_topo (ms)      =  714.528075719742  +/- 0.0007
# P'_topo (s/s)    =  -0                +/- 3.69e-10
# P''_topo (s/s^2) =  0                 +/- 1.63e-13
# P_bary (ms)      =  N/A
# P'_bary (s/s)    =  N/A
# P''_bary (s/s^2) =  N/A
# P_orb (s)        =  N/A
# asin(i)/c (s)    =  N/A
# eccentricity     =  N/A
# w (rad)          =  N/A
# T_peri           =  N/A
######################################################
   0  -307.8274
   1  -333.352
   2  -35.63561
   3  -124.6652
   4  -426.6472
   5  -474.4934
   6  -253.9597
   7  11.74991
   8  -380.1526
   9  -233.8653
  10  -139.6035
  11  -285.5787
  12  -167.9415
  13  24.9339
  14  -187.8458
  15  -54.68109
  16  -228.5765
  17  -650.3786
  18  -509.6522
  19  -339.8797
  20  -400.6635
  21  -300.9107
  22  -85.82501
  23  -284.4049
  24  -329.986
  25  -189.3352
  26  -13.39992
  27  -163.1509
  28  139.8589
  29  161.5873
  30  42.5019
  31  -34.28562
  32  -298.7552
  33  -55.01492
  34  -48.23661
  35  -303.3531
  36  -450.8942
  37  -189.764
  38  -5.912519
  39  95.4977
  40  -177.6671
  41  -410.5121
  42  -189.147
  43  -267.3282
  44  -147.4342
  45  -51.84611
  46  182.2264
  47  -101.1495
  48  71.04642
  49  33.08961
  50  52.23478
  51  -128.4623
  52  -30.61111
  53  -231.4297
  54  -219.2187
  55  12.49142
  56  -17.17278
  57  22.8271
  58  -20.79619
  59  181.7487
  60  201.417
  61  12.45185
  62  275.6925
  63  264.5781
  64  -86.07476
  65  -269.2827
  66  -141.6229
  67  55.04362
  68  13.72279
  69  -27.27374
  70  -141.8695
  71  94.70531
  72  377.3755
  73  -99.87773
  74  -199.5368
  75  3.136435
  76  103.8979
  77  -57.9054
  78  -434.0672
  79  -283.2956
  80  -174.9977
  81  -499.069
  82  -234.4807
  83  -203.7887
  84  -293.58
  85  158.2804
  86  -59.83495
  87  -238.761
  88  -294.1363
  89  -476.8215
  90  -281.0577
  91  -88.65327
  92  -337.6528
  93  -87.18
  94  83.81032
  95  269.7915
  96  -4.256289
  97  -449.3914
  98  -88.03893
  99  13.61312
 100  -278.5074
 101  -114.772
 102  -62.30628
 103  28.57748
 104  -45.51487
 105  -67.37596
 106  -224.6069
 107  -183.333
 108  71.64867
 109  264.9782
 110  235.5711
 111  -79.40294
 112  -201.2489
 113  -38.48209
 114  -13.37035
 115  5.64399
 116  -8.462366
 117  262.0597
 118  -242.068
 119  -57.51625
 120  108.5965
 121  -37.50875
 122  -342.5497
 123  -444.4129
 124  -542.338
 125  -363.7668
 126  -209.0658
 127  -74.87794
 128  -43.46215
 129  -171.9089
 130  -117.3984
 131  -310.7452
 132  75.82465
 133  -153.7999
 134  -86.3434
 135  4.345712
 136  -132.9905
 137  -192.0901
 138  31.42386
 139  159.4736
 140  -223.5798
 141  -303.8368
 142  -19.7575
 143  -86.00234
 144  -7.651697
 145  329.9433
 146  228.314
 147  176.3176
 148  541.0338
 149  520.7616
 150  37.07361
 151  -22.54257
 152  109.8293
 153  -67.41979
 154  -29.43455
 155  177.3121
 156  282.1699
 157  -49.55621
 158  220.5397
 159  -203.2188
 160  -396.2095
 161  -49.51
 162  16.74772
 163  83.19404
 164  95.17292
 165  136.7903
 166  -209.071
 167  -84.94762
 168  379.1908
 169  301.5164
 170  76.89925
 171  147.8336
 172  403.6486
 173  104.7143
 174  -188.1403
 175  -2.751476
 176  188.8815
 177  41.78949
 178  96.26674
 179  443.1275
 180  226.3455
 181  95.39244
 182  53.11774
 183  163.0166
 184  102.5017
 185  194.3389
 186  28.69385
 187  -95.1356
 188  -70.15865
 189  -252.3836
 190  -87.89962
 191  -200.2405
 192  257.4247
 193  13.7558
 194  -178.2092
 195  -169.3923
 196  128.6674
 197  217.1678
 198  178.1512
 199  -1.649951
 200  -41.41685
 201  26.69891
 202  -42.58568
 203  179.4318
 204  548.7483
 205  302.2933
 206  -4.821005
 207  88.998
 208  -62.54642
 209  69.6756
 210  150.104
 211  251.1836
 212  13.29541
 213  4.093681
 214  120.155
 215  -63.67946
 216  74.95557
 217  176.6495
 218  73.34921
 219  -78.83768
 220  -52.00375
 221  -369.2563
 222  -133.3102
 223  44.28413
 224  -234.2493
 225  7.825093
 226  -62.02903
 227  -334.6728
 228  -502.1071
 229  -375.6869
 230  -45.05232
 231  -203.0081
 232  -287.9429
 233  -55.12058
 234  -33.84631
 235  -80.98398
 236  -0.9685923
 237  -65.42771
 238  60.15512
 239  67.20548
 240  176.9886
 241  -200.5286
 242  288.7881
 243  264.2961
 244  90.4259
 245  -127.8522
 246  -229.1191
 247  34.45208
 248  42.46524
 249  -146.8764
 250  -319.2766
 251  -47.68973
 252  54.25616
 253  126.7847
 254  -231.7181
 255  -4.364953
 256  -99.36273
 257  -17.88557
 258  110.0754
 259  287.1669
 260  71.18896
 261  204.1898
 262  232.6955
 263  383.298
 264  488.0443
 265  36.65044
 266  291.1326
 267  690.7539
 268  150.7018
 269  100.3007
 270  217.2207
 271  183.13
 272  -241.906
 273  42.97918
 274  177.2766
 275  177.1686
 276  380.1342
 277  545.3951
 278  440.6431
 279  203.4113
 280  127.8521
 281  19.70342
 282  95.70859
 283  200.7455
 284  380.985
 285  242.208
 286  46.63675
 287  -181.6546
 288  34.85752
 289  189.0794
 290  -17.01297
 291  -8.502154
 292  137.9433
 293  212.5352
 294  233.172
 295  414.5764
 296  422.0362
 297  176.9648
 298  78.81046
 299  429.3114
 300  311.5502
 301  240.1794
 302  490.0975
 303  597.0954
 304  463.255
 305  837.8067
 306  687.4408
 307  619.2811
 308  1278.543
 309  1601.985
 310  1296.705
 311  1260.758
 312  869.8223
 313  299.5924
 314  -31.02147
 315  -133.2068
 316  143.6976
 317  250.8203
 318  289.1857
 319  -0.6550073
 320  -142.774
 321  152.3211
 322  200.4229
 323  268.9393
 324  156.1396
 325  323.9516
 326  -211.681
 327  -161.3532
 328  -196.6315
 329  -287.4065
 330  -259.2512
 331  -234.7648
 332  -60.56278
 333  26.27028
 334  252.4634
 335  -189.4911
 336  -109.2752
 337  278.9589
 338  146.2623
 339  -60.82469
 340  -26.40233
 341  -27.29466
 342  -149.664
 343  -23.36682
 344  209.9945
 345  182.536
 346  151.7903
 347  33.06633
 348  18.01827
 349  67.15531
 350  -50.00303
 351  -211.2697
 352  -76.53486
 353  -179.1263
 354  -153.3071
 355  -273.6304
 356  -187.7043
 357  -265.3546
 358  -422.8152
 359  -247.3453
 360  -167.0656
 361  -248.623
 362  95.05583
 363  91.88799
 364  373.3054
 365  423.1137
 366  185.8517
 367  55.27131
 368  -315.2312
 369  -90.01489
 370  79.30012
 371  -27.97434
 372  86.23492
 373  160.337
 374  387.2664
 375  168.6095
 376  -45.1318
 377  -304.4801
 378  -70.25033
 379  235.6395
 380  -184.2408
 381  -198.4205
 382  -97.66465
 383  -67.26649
 384  -74.74508
 385  175.5967
 386  268.4627
 387  182.6885
 388  -77.26013
 389  -303.0324
 390  58.73475
 391  428.6319
 392  328.9013
 393  167.8022
 394  247.4682
 395  430.9565
 396  99.62309
 397  32.82987
 398  62.76513
 399  -126.5175
 400  277.6047
 401  45.53612
 402  -271.8369
 403  -225.0452
 404  -217.099
 405  -95.40836
 406  5.945733
 407  -118.3083
 408  -63.81079
 409  2.970776
 410  -55.1085
 411  248.5602
 412  100.8363
 413  -12.60579
 414  -101.7523
 415  -27.70074
 416  -125.6745
 417  -203.7735
 418  -208.9617
 419  28.25264
 420  -15.1151
 421  233.0655
 422  48.66659
 423  -59.36304
 424  -82.32099
 425  -231.0062
 426  -23.31541
 427  64.6635
 428  -76.00409
 429  -382.0071
 430  -327.2342
 431  -422.2848
 432  -278.4873
 433  -193.2701
 434  56.28823
 435  338.1587
 436  407.1491
 437  13.88279
 438  -330.9062
 439  -184.99
 440  275.1118
 441  358.867
 442  331.5527
 443  93.87225
 444  17.85681
 445  -54.0667
 446  -274.8428
 447  -297.3608
 448  -40.46305
 449  4.955908
 450  37.30603
 451  72.34904
 452  115.544
 453  -12.49426
 454  -182.6977
 455  92.79854
 456  273.2288
 457  178.7421
 458  -107.7481
 459  -133.8546
 460  78.14401
 461  102.5075
 462  14.9382
 463  -132.4602
 464  -264.3455
 465  72.73795
 466  58.17137
 467  -200.4297
 468  -185.0788
 469  -58.91557
 470  99.71725
 471  -126.6284
 472  -143.9859
 473  -64.88846
 474  -30.17939
 475  -139.8037
 476  -272.4108
 477  -53.64605
 478  -8.092194
 479  -55.30764
 480  -88.48965
 481  -22.58965
 482  -46.65683
 483  -93.42099
 484  133.5781
 485  -166.9324
 486  -249.1773
 487  -82.09265
 488  -218.4385
 489  -402.4815
 490  -290.1931
 491  -143.8611
 492  -58.74109
 493  -72.58794
 494  -227.6108
 495  -278.0897
 496  -218.5974
 497  -390.2789
 498  -245.4841
 499  -217.04
 500  -94.76063
 501  11.78857
 502  2.702879
 503  9.912827
 504  -68.35715
 505  -251.0322
 506  59.41002
 507  100.6114
 508  239.5588
 509  -50.00025
 510  -172.6067
 511  -205.5037
