# Input file       =  1179546704.108974-PSRB0329-2ms-sampling-dd.dat
# Candidate        =  PSR_0332+5434
# Telescope        =  AR
# Epoch_topo       =  57896.161147094608
# Epoch_bary       =  N/A
# T_sample         =  0.002
# Data Folded      =  7208960
# Data Avg         =  2.65539362114461e-10
# Data StdDev      =  8.44011881960124 
# Profile Bins     =  512
# Profile Avg      =  0.012109950963385
# Profile StdDev   =  1001.49754273335 
# Reduced chi-sqr  =  0.707
# Prob(Noise)      <  1   (~0.0 sigma)
# P_topo (ms)      =  714.525287059587  +/- 4.49e-05
# P'_topo (s/s)    =  -0                +/- 2.41e-11
# P''_topo (s/s^2) =  0                 +/- 1.08e-14
# P_bary (ms)      =  N/A
# P'_bary (s/s)    =  N/A
# P''_bary (s/s^2) =  N/A
# P_orb (s)        =  N/A
# asin(i)/c (s)    =  N/A
# eccentricity     =  N/A
# w (rad)          =  N/A
# T_peri           =  N/A
######################################################
   0  -9.695092
   1  925.9349
   2  -22.19044
   3  -379.333
   4  -515.5483
   5  -507.8105
   6  69.90855
   7  -447.8724
   8  -814.6922
   9  -484.8159
  10  -43.12435
  11  -305.3417
  12  -914.8892
  13  -458.5066
  14  -313.4372
  15  -79.73284
  16  -199.0452
  17  437.9231
  18  961.7029
  19  250.0401
  20  -465.5699
  21  -960.1749
  22  -443.9126
  23  -419.8831
  24  -965.2779
  25  -705.0543
  26  223.8394
  27  -148.572
  28  -855.2651
  29  -1040.716
  30  -88.09438
  31  -79.95385
  32  -250.9127
  33  151.4933
  34  849.056
  35  512.6987
  36  -110.8835
  37  -480.3694
  38  -176.0982
  39  -362.9156
  40  -435.4904
  41  -734.9299
  42  -714.2982
  43  -282.8474
  44  -983.7964
  45  -655.6465
  46  -231.6403
  47  170.4256
  48  -186.1203
  49  -164.1757
  50  260.2101
  51  42.02858
  52  137.8311
  53  -598.8133
  54  -624.9717
  55  220.1263
  56  -44.38103
  57  281.654
  58  257.0017
  59  503.711
  60  -189.8922
  61  -895.4134
  62  -259.0233
  63  339.8884
  64  407.5141
  65  316.9017
  66  590.2545
  67  335.4678
  68  -119.984
  69  -531.5362
  70  -643.0541
  71  -562.7358
  72  -377.4645
  73  -58.54303
  74  30.6008
  75  78.30571
  76  -79.83398
  77  -453.0412
  78  -1232.646
  79  -1062.063
  80  -87.67603
  81  417.8634
  82  976.4095
  83  629.105
  84  785.8599
  85  -33.71152
  86  -1248.521
  87  -1258.565
  88  -678.3735
  89  -141.7751
  90  -46.81218
  91  33.91744
  92  320.3257
  93  46.93362
  94  -664.5368
  95  -851.0843
  96  -347.1749
  97  -591.5387
  98  -173.5966
  99  490.7673
 100  1280.155
 101  1273.12
 102  734.1583
 103  -237.3279
 104  -587.5031
 105  -294.8024
 106  -260.0505
 107  -639.6628
 108  23.45019
 109  220.9535
 110  24.67831
 111  -520.1852
 112  -465.8847
 113  -177.877
 114  -277.5604
 115  -386.7247
 116  371.2509
 117  1135.935
 118  42.45556
 119  -701.0284
 120  -841.4453
 121  -320.165
 122  3.744676
 123  -297.2445
 124  269.9163
 125  272.4512
 126  155.9484
 127  -776.0921
 128  -707.1617
 129  123.7056
 130  318.5267
 131  372.3037
 132  265.5227
 133  1000.862
 134  551.7554
 135  23.24385
 136  -591.3656
 137  -1178.304
 138  -336.0274
 139  -273.2423
 140  -208.8672
 141  -535.3488
 142  -112.8201
 143  -576.0385
 144  -722.1603
 145  -420.7239
 146  25.12656
 147  527.576
 148  115.4956
 149  815.8375
 150  238.7041
 151  -431.0533
 152  -1084.812
 153  -945.8616
 154  -328.4636
 155  -223.814
 156  15.93981
 157  -271.1278
 158  279.8187
 159  -673.2363
 160  -1155.09
 161  -1303.245
 162  -850.4597
 163  -172.8313
 164  -84.7273
 165  1144.325
 166  1672.019
 167  1703.283
 168  93.88308
 169  -1051.948
 170  -794.9005
 171  -768.84
 172  -560.5384
 173  -2.489764
 174  534.6824
 175  938.2528
 176  119.4459
 177  -670.2848
 178  -372.328
 179  -731.3284
 180  -608.6
 181  297.0801
 182  840.4116
 183  1152.355
 184  951.8445
 185  -209.356
 186  -796.3243
 187  -531.4107
 188  -308.7035
 189  -1207.933
 190  -433.5922
 191  212.0423
 192  -431.4134
 193  -695.0148
 194  -811.2955
 195  -46.43292
 196  108.0323
 197  -132.197
 198  368.018
 199  913.9652
 200  852.0458
 201  20.40776
 202  -602.981
 203  -830.6472
 204  -550.1658
 205  -209.4072
 206  -300.8536
 207  140.9603
 208  47.71466
 209  -446.4262
 210  -789.7767
 211  -212.2555
 212  204.9133
 213  -270.0139
 214  270.6658
 215  312.4315
 216  555.6234
 217  608.7142
 218  -166.0055
 219  -784.3393
 220  -616.8653
 221  -353.1048
 222  -684.3553
 223  -79.82486
 224  143.3834
 225  93.75223
 226  -753.3759
 227  -659.7623
 228  -270.0815
 229  61.84227
 230  59.05605
 231  575.4489
 232  1823.946
 233  1318.316
 234  690.9552
 235  466.6793
 236  357.1697
 237  1087.653
 238  1816.143
 239  1944.419
 240  2043.675
 241  1013.469
 242  502.1585
 243  -54.22583
 244  -205.1389
 245  604.4197
 246  274.5977
 247  370.0306
 248  789.7124
 249  1316.706
 250  859.753
 251  53.12878
 252  -826.0211
 253  -632.6688
 254  -441.6946
 255  -999.2841
 256  -992.6729
 257  -17.72903
 258  329.6978
 259  -149.0846
 260  -941.4577
 261  -614.3865
 262  -188.5303
 263  -701.5035
 264  236.6454
 265  1008.145
 266  1160.23
 267  422.6235
 268  -247.2666
 269  -282.9918
 270  57.68927
 271  -30.17692
 272  -299.6474
 273  94.15219
 274  408.8065
 275  -286.1728
 276  -332.0373
 277  456.6975
 278  415.9873
 279  219.3998
 280  -204.509
 281  338.5526
 282  731.9473
 283  741.2831
 284  243.2219
 285  -210.6965
 286  168.2461
 287  -58.96033
 288  -201.4302
 289  -602.5616
 290  -75.19656
 291  187.6271
 292  -271.5821
 293  -336.1302
 294  30.04115
 295  37.5108
 296  -111.4706
 297  -159.148
 298  461.0684
 299  945.7236
 300  114.3949
 301  -280.623
 302  -591.9734
 303  -139.6497
 304  74.48139
 305  -83.28908
 306  721.2097
 307  503.466
 308  361.1732
 309  -365.5763
 310  -447.9939
 311  313.0832
 312  580.7244
 313  792.6689
 314  756.5498
 315  1052.362
 316  117.1828
 317  -520.2011
 318  -783.2708
 319  -663.5282
 320  -426.8698
 321  -403.4462
 322  -76.47277
 323  552.9172
 324  395.8161
 325  -705.4521
 326  -1104.612
 327  -794.2713
 328  -35.30771
 329  -270.5878
 330  225.3025
 331  1196.51
 332  742.9902
 333  -5.044476
 334  -946.3625
 335  -765.5012
 336  -23.16668
 337  -226.9467
 338  394.7444
 339  373.8674
 340  701.7843
 341  81.25842
 342  -355.2449
 343  -433.7672
 344  -49.52976
 345  444.849
 346  724.3234
 347  1217.519
 348  1483.195
 349  1081.997
 350  435.0888
 351  -358.6835
 352  3.949799
 353  668.9918
 354  229.2003
 355  475.8927
 356  791.9206
 357  907.5356
 358  570.2343
 359  268.1497
 360  637.9108
 361  492.6228
 362  333.2525
 363  521.4274
 364  916.983
 365  1093.489
 366  593.4478
 367  33.22297
 368  635.957
 369  382.55
 370  192.8303
 371  -189.9772
 372  97.96245
 373  843.0704
 374  318.8725
 375  360.6431
 376  280.2584
 377  369.3049
 378  317.5419
 379  153.578
 380  343.1877
 381  464.8483
 382  1076.251
 383  -360.0161
 384  -618.4033
 385  -503.5341
 386  -224.8159
 387  491.0729
 388  -282.6447
 389  469.971
 390  253.5272
 391  -381.3505
 392  -454.3128
 393  55.86325
 394  610.678
 395  504.4529
 396  337.8385
 397  945.0785
 398  1402.975
 399  74.42042
 400  -485.2254
 401  -302.6232
 402  711.8344
 403  483.9218
 404  -283.8784
 405  532.9561
 406  744.6295
 407  158.1607
 408  -478.434
 409  -178.5564
 410  100.5351
 411  204.9467
 412  978.3188
 413  1050.993
 414  1879.941
 415  686.6804
 416  -381.0079
 417  -1109.95
 418  -1669.477
 419  -532.8943
 420  -283.5324
 421  -20.41033
 422  517.0103
 423  123.3312
 424  -643.7584
 425  -1050.3
 426  -1437.076
 427  -463.8409
 428  108.8188
 429  536.8287
 430  891.2579
 431  907.6123
 432  344.9209
 433  -303.0797
 434  -201.0769
 435  -291.0819
 436  -239.4782
 437  -603.2756
 438  -230.4997
 439  952.3945
 440  152.9721
 441  -76.60751
 442  233.797
 443  1385.907
 444  1526.77
 445  982.6822
 446  1523.161
 447  1373.194
 448  384.6102
 449  -36.84428
 450  -685.1946
 451  -356.2237
 452  -342.9423
 453  -192.9212
 454  -344.0235
 455  -244.7401
 456  -99.1131
 457  -510.2335
 458  -905.6651
 459  86.80328
 460  316.3201
 461  95.93272
 462  -221.9657
 463  154.3107
 464  755.7993
 465  317.7775
 466  -53.45127
 467  -231.5713
 468  -9.884471
 469  -244.6412
 470  -585.1456
 471  46.45872
 472  143.1544
 473  55.46939
 474  -427.7911
 475  -872.5328
 476  218.9726
 477  -100.8491
 478  293.4538
 479  675.805
 480  549.694
 481  480.2823
 482  -460.8065
 483  -721.6281
 484  -634.4712
 485  -446.5619
 486  -332.303
 487  -570.7338
 488  -276.8745
 489  -498.3562
 490  -790.4088
 491  -841.9921
 492  -339.5991
 493  -192.0001
 494  -112.8102
 495  118.469
 496  14.14379
 497  628.5336
 498  191.5121
 499  -197.7508
 500  -363.1123
 501  -356.7999
 502  -383.7141
 503  -259.3779
 504  -35.08617
 505  440.1192
 506  27.88313
 507  -1381.262
 508  -967.4879
 509  -306.3192
 510  -227.47
 511  179.9639
