# Input file       =  1179748560.125391_cleaned.dat
# Candidate        =  PSR_0332+5434
# Telescope        =  AR
# Epoch_topo       =  57898.497443580913
# Epoch_bary       =  N/A
# T_sample         =  0.002
# Data Folded      =  7340032
# Data Avg         =  0.0220840927390212
# Data StdDev      =  1.00011963955771 
# Profile Bins     =  512
# Profile Avg      =  316.543784955944 
# Profile StdDev   =  119.747361184281 
# Reduced chi-sqr  =  0.903
# Prob(Noise)      <  0.942   (~0.0 sigma)
# P_topo (ms)      =  714.523320446617  +/- 0.000327
# P'_topo (s/s)    =  -0                +/- 1.73e-10
# P''_topo (s/s^2) =  0                 +/- 7.62e-14
# P_bary (ms)      =  N/A
# P'_bary (s/s)    =  N/A
# P''_bary (s/s^2) =  N/A
# P_orb (s)        =  N/A
# asin(i)/c (s)    =  N/A
# eccentricity     =  N/A
# w (rad)          =  N/A
# T_peri           =  N/A
######################################################
   0  625.3271
   1  556.6271
   2  447.6431
   3  476.1797
   4  397.9603
   5  332.2562
   6  284.5024
   7  328.4557
   8  276.7654
   9  406.3288
  10  333.9282
  11  189.3806
  12  206.077
  13  308.5398
  14  332.4553
  15  277.0139
  16  171.7314
  17  222.5508
  18  223.5174
  19  285.0894
  20  268.2492
  21  229.7461
  22  281.2699
  23  229.2968
  24  175.7727
  25  317.7525
  26  322.4788
  27  280.0641
  28  203.7134
  29  163.6678
  30  236.5306
  31  236.3804
  32  284.2
  33  329.0183
  34  169.9145
  35  89.45516
  36  314.4987
  37  345.2425
  38  353.3349
  39  357.694
  40  400.3796
  41  263.6735
  42  243.914
  43  398.8369
  44  365.1054
  45  326.7314
  46  368.502
  47  308.1305
  48  292.433
  49  391.4152
  50  412.6269
  51  387.0475
  52  316.9491
  53  189.24
  54  211.0928
  55  188.8703
  56  253.1793
  57  204.6873
  58  186.125
  59  314.7026
  60  388.5216
  61  338.5814
  62  232.2267
  63  271.145
  64  404.1428
  65  412.721
  66  368.6414
  67  266.4305
  68  314.6155
  69  284.0785
  70  324.7493
  71  255.1788
  72  232.3526
  73  336.8791
  74  351.5769
  75  250.6544
  76  226.6548
  77  311.7581
  78  284.9646
  79  260.4274
  80  247.3182
  81  236.6457
  82  200.8356
  83  194.3971
  84  167.3536
  85  346.2652
  86  331.4294
  87  329.5987
  88  375.3124
  89  369.5446
  90  330.5887
  91  368.1184
  92  392.6718
  93  364.4366
  94  368.3784
  95  491.4998
  96  452.0668
  97  458.26
  98  298.895
  99  359.4473
 100  401.3801
 101  337.9469
 102  408.0201
 103  334.1595
 104  341.3326
 105  397.0569
 106  344.7003
 107  380.0276
 108  368.2775
 109  283.605
 110  470.6484
 111  408.7079
 112  354.053
 113  337.8993
 114  276.9459
 115  305.288
 116  325.1337
 117  343.831
 118  193.5618
 119  420.2573
 120  425.8134
 121  376.6558
 122  318.9115
 123  314.4781
 124  359.7117
 125  369.3684
 126  399.6275
 127  281.2679
 128  290.1133
 129  329.0309
 130  384.0081
 131  415.1406
 132  355.9567
 133  339.5446
 134  179.184
 135  241.5324
 136  336.822
 137  372.5804
 138  481.3364
 139  446.4987
 140  411.8514
 141  340.2783
 142  269.6307
 143  369.1128
 144  385.6554
 145  232.3759
 146  243.0716
 147  367.161
 148  326.1907
 149  306.9405
 150  377.8224
 151  368.1189
 152  299.602
 153  217.0017
 154  282.4051
 155  283.1327
 156  262.9962
 157  306.6804
 158  363.1766
 159  298.7641
 160  352.6087
 161  463.5005
 162  364.8792
 163  273.0414
 164  341.9999
 165  363.4922
 166  441.7654
 167  534.4351
 168  356.2568
 169  231.9124
 170  336.5679
 171  408.4344
 172  426.5239
 173  312.9358
 174  237.8696
 175  405.9457
 176  470.3561
 177  354.6689
 178  369.789
 179  485.2455
 180  396.3638
 181  265.5956
 182  310.8441
 183  408.4464
 184  387.4463
 185  214.463
 186  311.9728
 187  331.5826
 188  314.0302
 189  361.7294
 190  251.9912
 191  141.3117
 192  247.4983
 193  326.1543
 194  374.5002
 195  292.0361
 196  240.3108
 197  187.4605
 198  320.7395
 199  200.7239
 200  275.4106
 201  254.9421
 202  218.3907
 203  286.6259
 204  270.1793
 205  261.352
 206  416.4984
 207  419.9089
 208  398.0227
 209  449.8802
 210  420.0349
 211  395.5657
 212  231.9911
 213  265.5045
 214  368.2253
 215  398.4067
 216  304.689
 217  143.8672
 218  138.3777
 219  273.657
 220  407.5304
 221  370.5354
 222  304.6528
 223  259.3597
 224  249.8909
 225  311.0239
 226  299.1231
 227  250.7878
 228  229.1181
 229  255.9061
 230  325.0704
 231  424.4348
 232  326.175
 233  339.0008
 234  356.9469
 235  286.5447
 236  376.9783
 237  383.6246
 238  324.6261
 239  286.4968
 240  396.8987
 241  446.9971
 242  371.3911
 243  416.2389
 244  452.4517
 245  369.0421
 246  360.6724
 247  438.6407
 248  304.9687
 249  357.3028
 250  286.313
 251  299.9237
 252  357.1105
 253  507.6122
 254  388.1792
 255  323.3086
 256  427.4272
 257  407.8831
 258  414.7676
 259  284.5647
 260  239.9543
 261  256.7224
 262  307.1645
 263  286.2601
 264  281.2046
 265  342.5731
 266  361.7028
 267  311.5013
 268  240.0765
 269  270.7276
 270  265.2756
 271  239.0157
 272  274.4709
 273  337.9681
 274  484.3264
 275  388.2826
 276  371.5473
 277  376.1392
 278  369.6085
 279  356.9679
 280  376.2239
 281  359.885
 282  261.2948
 283  307.8443
 284  301.7657
 285  394.1112
 286  298.8346
 287  338.3732
 288  382.8195
 289  389.4441
 290  283.5845
 291  284.184
 292  254.4299
 293  270.7669
 294  387.8452
 295  365.543
 296  291.0101
 297  300.9304
 298  293.524
 299  214.2162
 300  308.6062
 301  250.4699
 302  234.8387
 303  266.1019
 304  233.7001
 305  232.6343
 306  320.2834
 307  367.6535
 308  242.7437
 309  186.5179
 310  279.1833
 311  365.0629
 312  286.914
 313  161.8836
 314  235.7212
 315  325.2611
 316  282.3292
 317  192.1219
 318  243.4772
 319  238.7819
 320  205.2145
 321  363.948
 322  306.3546
 323  204.5548
 324  314.0786
 325  367.7955
 326  328.5178
 327  223.3622
 328  299.2577
 329  226.0025
 330  210.7066
 331  385.8233
 332  369.7708
 333  569.371
 334  369.785
 335  275.2108
 336  347.912
 337  315.4908
 338  250.7777
 339  305.9459
 340  330.4365
 341  354.2852
 342  431.0156
 343  471.8716
 344  412.3653
 345  400.0762
 346  473.5799
 347  292.877
 348  215.8244
 349  193.1308
 350  216.4616
 351  258.727
 352  242.1289
 353  184.029
 354  253.9322
 355  216.7268
 356  236.3045
 357  314.7624
 358  344.2324
 359  177.796
 360  345.3815
 361  281.5742
 362  159.2659
 363  162.9945
 364  165.7706
 365  403.3981
 366  248.602
 367  260.6842
 368  305.0238
 369  434.0713
 370  447.5211
 371  327.3453
 372  200.2613
 373  211.1676
 374  290.2054
 375  325.0136
 376  421.9442
 377  424.4427
 378  209.2627
 379  269.7703
 380  322.1106
 381  363.0949
 382  441.2368
 383  360.1952
 384  348.116
 385  299.8039
 386  139.1662
 387  373.0273
 388  328.4156
 389  341.6926
 390  342.9004
 391  370.0896
 392  347.8557
 393  249.9526
 394  300.6813
 395  327.9526
 396  295.2357
 397  315.0503
 398  318.6813
 399  290.1877
 400  412.0298
 401  354.3263
 402  342.0201
 403  239.4818
 404  260.1584
 405  230.1956
 406  106.3449
 407  187.6298
 408  358.2262
 409  359.0872
 410  294.0652
 411  262.2691
 412  362.3526
 413  406.8004
 414  348.263
 415  335.3158
 416  276.7596
 417  381.5942
 418  417.9128
 419  250.929
 420  228.4281
 421  219.4397
 422  110.8078
 423  209.716
 424  265.9665
 425  363.2724
 426  288.0138
 427  276.1579
 428  285.8373
 429  307.2334
 430  268.3621
 431  255.4075
 432  257.0158
 433  305.9779
 434  328.391
 435  353.2203
 436  300.8795
 437  231.5103
 438  297.4661
 439  364.5204
 440  313.2902
 441  291.5107
 442  355.4904
 443  250.6427
 444  331.5706
 445  259.68
 446  222.6266
 447  212.9994
 448  431.4448
 449  441.8294
 450  347.4908
 451  308.4799
 452  410.4221
 453  230.9962
 454  235.3929
 455  405.9682
 456  381.7361
 457  318.8003
 458  387.1458
 459  409.816
 460  422.2978
 461  307.9958
 462  311.9183
 463  310.4704
 464  333.3747
 465  269.7909
 466  317.3543
 467  280.9554
 468  341.6034
 469  327.9585
 470  435.6609
 471  415.1637
 472  320.8612
 473  367.6828
 474  299.6704
 475  369.4421
 476  272.2153
 477  311.3511
 478  399.3566
 479  213.7827
 480  151.6932
 481  177.9837
 482  175.2664
 483  314.1783
 484  194.083
 485  89.809
 486  87.23666
 487  164.2617
 488  189.6445
 489  239.4995
 490  296.7462
 491  323.3949
 492  308.6916
 493  363.0824
 494  288.5011
 495  260.6038
 496  473.1421
 497  328.9673
 498  271.2335
 499  319.8299
 500  432.0099
 501  364.0258
 502  346.3987
 503  293.7998
 504  331.1632
 505  386.1431
 506  316.5033
 507  364.9823
 508  300.5475
 509  493.5923
 510  608.0984
 511  689.2046
