# Input file       =  1179374391.100717_cleaned.dat
# Candidate        =  PSR_0332+5434
# Telescope        =  AR
# Epoch_topo       =  57894.166783573113
# Epoch_bary       =  N/A
# T_sample         =  0.002
# Data Folded      =  7208960
# Data Avg         =  0.0317663324626009
# Data StdDev      =  1.00004073206093 
# Profile Bins     =  512
# Profile Avg      =  447.271972066097 
# Profile StdDev   =  118.664009026309 
# Reduced chi-sqr  =  1.076
# Prob(Noise)      <  0.113   (~1.2 sigma)
# P_topo (ms)      =  714.527251601562  +/- 0.000225
# P'_topo (s/s)    =  -0                +/- 1.21e-10
# P''_topo (s/s^2) =  0                 +/- 5.43e-14
# P_bary (ms)      =  N/A
# P'_bary (s/s)    =  N/A
# P''_bary (s/s^2) =  N/A
# P_orb (s)        =  N/A
# asin(i)/c (s)    =  N/A
# eccentricity     =  N/A
# w (rad)          =  N/A
# T_peri           =  N/A
######################################################
   0  587.5907
   1  745.7834
   2  627.6469
   3  453.0289
   4  502.8312
   5  467.3483
   6  422.2886
   7  483.4649
   8  477.9834
   9  386.9319
  10  414.6739
  11  463.7763
  12  519.7277
  13  473.3628
  14  502.2405
  15  538.5995
  16  508.1931
  17  362.7258
  18  443.8428
  19  474.7438
  20  493.0544
  21  506.8771
  22  575.2738
  23  370.3459
  24  375.2532
  25  421.6544
  26  501.0446
  27  461.7343
  28  507.5793
  29  577.309
  30  573.5091
  31  567.6926
  32  458.6387
  33  526.1328
  34  482.246
  35  405.1476
  36  474.2837
  37  548.6895
  38  567.4587
  39  528.1098
  40  537.1583
  41  475.3371
  42  471.9293
  43  500.0658
  44  480.996
  45  444.0266
  46  421.8823
  47  469.5472
  48  573.5266
  49  554.5481
  50  457.8942
  51  490.4397
  52  370.7744
  53  277.5961
  54  390.7999
  55  462.3619
  56  526.1821
  57  577.4409
  58  476.0253
  59  368.6993
  60  352.8997
  61  486.2981
  62  507.8292
  63  572.0627
  64  532.3104
  65  459.2821
  66  386.3853
  67  469.2945
  68  468.089
  69  449.9704
  70  504.5438
  71  428.1558
  72  412.8504
  73  391.0001
  74  516.3911
  75  510.3097
  76  522.3553
  77  575.5354
  78  507.7477
  79  519.0065
  80  527.4102
  81  540.1035
  82  597.4442
  83  526.9545
  84  490.8368
  85  493.068
  86  616.3521
  87  605.9026
  88  570.6029
  89  471.7842
  90  447.6368
  91  450.0558
  92  497.1299
  93  523.7668
  94  356.2903
  95  318.5805
  96  453.1678
  97  328.4904
  98  292.8038
  99  425.7424
 100  516.9252
 101  620.6537
 102  520.6682
 103  489.7272
 104  585.0672
 105  480.6739
 106  342.1229
 107  433.4106
 108  496.1793
 109  587.4924
 110  540.0585
 111  463.3876
 112  571.9017
 113  534.4088
 114  585.0441
 115  604.8134
 116  517.3142
 117  510.2993
 118  479.9886
 119  488.5705
 120  464.8065
 121  481.6725
 122  510.9401
 123  447.0618
 124  331.9437
 125  332.8103
 126  411.0419
 127  408.6353
 128  551.9193
 129  638.5964
 130  551.0186
 131  442.0147
 132  487.7189
 133  410.9002
 134  367.668
 135  427.164
 136  458.4186
 137  405.1402
 138  386.3289
 139  408.0727
 140  423.4831
 141  509.4677
 142  454.6814
 143  428.0612
 144  341.3927
 145  393.042
 146  447.7272
 147  565.0315
 148  468.8795
 149  391.7512
 150  367.6806
 151  475.8094
 152  471.394
 153  436.728
 154  495.9856
 155  378.7464
 156  346.4129
 157  396.9692
 158  433.1259
 159  381.6281
 160  368.8368
 161  462.0123
 162  384.824
 163  423.9366
 164  259.6132
 165  416.5289
 166  544.7176
 167  424.9776
 168  349.3636
 169  266.2099
 170  379.0938
 171  389.8389
 172  396.1367
 173  410.0207
 174  401.54
 175  394.2043
 176  381.8052
 177  424.6932
 178  416.6453
 179  483.9613
 180  527.5737
 181  429.2579
 182  442.3661
 183  419.135
 184  463.3109
 185  415.0272
 186  404.5635
 187  512.924
 188  414.2137
 189  315.9666
 190  377.6127
 191  364.9437
 192  503.9692
 193  504.9213
 194  397.5063
 195  333.6812
 196  335.6905
 197  390.9732
 198  376.5777
 199  414.9483
 200  558.0688
 201  417.3677
 202  321.5315
 203  360.8215
 204  318.4099
 205  341.4623
 206  470.3911
 207  472.612
 208  383.3523
 209  465.6939
 210  442.0569
 211  488.1627
 212  371.6046
 213  398.6983
 214  377.6077
 215  430.3766
 216  357.7645
 217  456.6626
 218  476.6212
 219  442.081
 220  444.4478
 221  462.9244
 222  493.5042
 223  381.816
 224  343.0445
 225  526.9855
 226  483.2202
 227  389.7185
 228  331.9417
 229  437.8946
 230  514.4937
 231  598.0017
 232  458.3421
 233  473.6981
 234  528.5373
 235  502.4028
 236  618.4084
 237  539.5053
 238  439.9124
 239  422.3288
 240  325.2463
 241  323.6156
 242  370.1024
 243  381.423
 244  350.4344
 245  390.0652
 246  274.3289
 247  290.8406
 248  318.9069
 249  245.9279
 250  382.0111
 251  336.7334
 252  349.7055
 253  404.7157
 254  454.6746
 255  454.7888
 256  370.9837
 257  514.8084
 258  420.3302
 259  384.0049
 260  369.5492
 261  418.9927
 262  428.4615
 263  448.747
 264  440.8853
 265  415.0506
 266  360.1414
 267  297.1357
 268  275.5845
 269  445.9137
 270  421.9218
 271  383.6884
 272  415.4107
 273  415.6859
 274  274.2964
 275  331.7958
 276  343.5526
 277  485.3061
 278  425.539
 279  266.7818
 280  229.6066
 281  352.5387
 282  497.7374
 283  448.2913
 284  406.3237
 285  379.6653
 286  415.0726
 287  438.2531
 288  413.0951
 289  418.5247
 290  400.4826
 291  377.6377
 292  385.4117
 293  317.8143
 294  416.0021
 295  442.2783
 296  489.38
 297  539.7469
 298  454.5443
 299  453.572
 300  441.2379
 301  632.4996
 302  631.9293
 303  585.1715
 304  409.6458
 305  430.5843
 306  474.5155
 307  356.7555
 308  496.7936
 309  570.5605
 310  493.0916
 311  404.7354
 312  440.3662
 313  346.0143
 314  314.3045
 315  452.8896
 316  535.3753
 317  532.0452
 318  517.0739
 319  510.7152
 320  478.9477
 321  448.6986
 322  411.0615
 323  362.022
 324  468.1559
 325  253.4464
 326  303.317
 327  519.8123
 328  542.1284
 329  483.4342
 330  443.1556
 331  412.6339
 332  444.6572
 333  390.6768
 334  403.9526
 335  357.7449
 336  431.3381
 337  370.5683
 338  367.1302
 339  426.5625
 340  368.1606
 341  354.8303
 342  426.7009
 343  522.3096
 344  416.0031
 345  438.3377
 346  453.5774
 347  506.3656
 348  469.5756
 349  489.1885
 350  494.4826
 351  539.2926
 352  473.2034
 353  504.8034
 354  495.36
 355  450.2802
 356  478.5406
 357  500.5287
 358  527.7689
 359  390.4253
 360  348.7681
 361  385.1702
 362  445.9369
 363  413.5137
 364  341.655
 365  427.9981
 366  326.06
 367  359.7477
 368  446.8421
 369  430.6532
 370  331.9745
 371  310.0227
 372  313.5961
 373  312.6548
 374  288.7467
 375  319.6714
 376  279.0098
 377  365.5565
 378  446.293
 379  468.95
 380  429.1623
 381  488.4565
 382  517.828
 383  509.8968
 384  592.398
 385  744.3088
 386  814.1656
 387  755.153
 388  839.7444
 389  862.9832
 390  713.4943
 391  603.5236
 392  474.198
 393  524.8945
 394  498.4641
 395  471.0318
 396  423.664
 397  425.9179
 398  542.5031
 399  424.8781
 400  341.5609
 401  405.4832
 402  450.8532
 403  559.405
 404  480.1137
 405  427.3817
 406  421.3894
 407  362.6459
 408  365.0519
 409  517.7019
 410  455.2206
 411  392.8286
 412  449.6401
 413  496.9065
 414  444.8277
 415  566.4741
 416  648.3134
 417  605.7876
 418  566.96
 419  465.2542
 420  529.8336
 421  582.7944
 422  576.6209
 423  573.9634
 424  521.9969
 425  585.7336
 426  576.7919
 427  586.094
 428  589.0779
 429  581.5217
 430  562.4559
 431  507.2406
 432  530.2089
 433  516.9733
 434  455.8641
 435  430.0905
 436  513.7766
 437  535.0801
 438  456.1646
 439  583.7315
 440  530.6453
 441  461.3288
 442  479.0475
 443  404.1181
 444  405.2439
 445  338.2882
 446  404.8333
 447  393.0562
 448  451.1909
 449  434.946
 450  492.7058
 451  428.254
 452  381.2591
 453  365.4477
 454  377.5359
 455  422.8814
 456  362.3725
 457  354.3174
 458  442.7818
 459  413.6814
 460  372.0898
 461  263.6901
 462  361.7513
 463  309.1956
 464  321.3614
 465  349.1434
 466  360.3657
 467  367.5868
 468  301.5122
 469  266.1105
 470  336.7157
 471  413.7172
 472  412.9682
 473  286.2585
 474  349.0972
 475  349.1171
 476  381.3947
 477  518.1682
 478  515.6292
 479  381.11
 480  379.8591
 481  464.3354
 482  416.5237
 483  432.1403
 484  402.7305
 485  318.7885
 486  285.4799
 487  307.4141
 488  402.2865
 489  538.7139
 490  390.727
 491  317.3918
 492  372.9245
 493  406.0208
 494  406.9928
 495  492.3265
 496  503.7517
 497  380.8547
 498  368.1083
 499  508.5938
 500  473.0118
 501  393.32
 502  455.8762
 503  498.3195
 504  465.4518
 505  381.5731
 506  451.1281
 507  414.8035
 508  415.0306
 509  454.3577
 510  494.6302
 511  550.3492
