# Input file       =  1179977562.10106_cleaned.dat
# Candidate        =  PSR_0332+5434
# Telescope        =  AR
# Epoch_topo       =  57901.147929410414
# Epoch_bary       =  N/A
# T_sample         =  0.002
# Data Folded      =  7208960
# Data Avg         =  0.0327536806756122
# Data StdDev      =  1.0009281716772  
# Profile Bins     =  512
# Profile Avg      =  461.140847290039 
# Profile StdDev   =  118.769311879743 
# Reduced chi-sqr  =  1.307
# Prob(Noise)      <  3.4e-06   (~4.5 sigma)
# P_topo (ms)      =  714.520356660959  +/- 6.5e-05
# P'_topo (s/s)    =  -0                +/- 3.49e-11
# P''_topo (s/s^2) =  0                 +/- 1.57e-14
# P_bary (ms)      =  N/A
# P'_bary (s/s)    =  N/A
# P''_bary (s/s^2) =  N/A
# P_orb (s)        =  N/A
# asin(i)/c (s)    =  N/A
# eccentricity     =  N/A
# w (rad)          =  N/A
# T_peri           =  N/A
######################################################
   0  358.8723
   1  389.3581
   2  378.3906
   3  423.897
   4  504.1994
   5  524.7996
   6  420.6512
   7  444.6676
   8  301.0236
   9  338.4554
  10  511.9469
  11  398.0492
  12  432.8315
  13  490.9499
  14  473.9456
  15  452.7014
  16  451.7336
  17  416.1362
  18  392.0945
  19  476.5298
  20  477.0906
  21  514.2277
  22  619.4522
  23  484.5531
  24  411.8763
  25  346.4385
  26  398.7694
  27  411.3341
  28  479.7127
  29  502.6231
  30  468.425
  31  467.0136
  32  475.1471
  33  453.5175
  34  517.5767
  35  398.0762
  36  377.8871
  37  424.8078
  38  469.683
  39  491.7191
  40  526.9609
  41  477.7791
  42  402.6186
  43  379.5768
  44  466.5645
  45  354.7871
  46  435.7177
  47  331.1627
  48  387.856
  49  407.6904
  50  368.2154
  51  389.5693
  52  413.88
  53  524.2457
  54  732.678
  55  770.0482
  56  953.933
  57  990.3068
  58  948.1375
  59  833.8239
  60  658.401
  61  505.3537
  62  537.145
  63  497.8294
  64  449.4505
  65  486.6265
  66  403.4332
  67  473.1634
  68  568.6769
  69  513.912
  70  402.888
  71  621.5096
  72  684.2792
  73  590.8145
  74  509.7923
  75  494.8687
  76  469.8302
  77  387.4861
  78  373.629
  79  464.4218
  80  489.8107
  81  539.4113
  82  440.1001
  83  393.0603
  84  350.2942
  85  444.8409
  86  428.2799
  87  510.8152
  88  493.8525
  89  474.1196
  90  482.3838
  91  368.5353
  92  366.5068
  93  282.0493
  94  202.717
  95  275.1653
  96  464.7281
  97  470.4154
  98  369.2032
  99  238.1394
 100  290.8871
 101  389.0456
 102  402.8648
 103  416.852
 104  360.9323
 105  414.5648
 106  400.3211
 107  254.9595
 108  331.9209
 109  296.7064
 110  264.4372
 111  352.3201
 112  516.1451
 113  516.5755
 114  480.4704
 115  353.7552
 116  342.6483
 117  349.9679
 118  466.3261
 119  611.3912
 120  578.9846
 121  499.6515
 122  484.1433
 123  492.3538
 124  431.5429
 125  397.72
 126  423.3127
 127  387.9821
 128  469.1768
 129  546.7631
 130  512.0986
 131  505.2923
 132  519.6341
 133  476.4749
 134  485.4986
 135  436.8742
 136  473.3231
 137  426.1441
 138  533.009
 139  576.803
 140  528.761
 141  431.3542
 142  406.8461
 143  451.551
 144  537.9349
 145  661.6256
 146  681.3664
 147  575.64
 148  428.3423
 149  268.9049
 150  295.3515
 151  574.9912
 152  631.1559
 153  606.392
 154  575.4229
 155  574.4991
 156  417.0702
 157  512.3428
 158  520.2289
 159  490.3022
 160  533.7115
 161  572.3846
 162  666.7278
 163  542.3282
 164  345.3906
 165  309.9424
 166  352.1429
 167  521.863
 168  592.3606
 169  541.1669
 170  510.8286
 171  507.9772
 172  452.5364
 173  379.8525
 174  380.4504
 175  354.6297
 176  234.5181
 177  204.0713
 178  396.4578
 179  397.3026
 180  243.4005
 181  231.4497
 182  348.5741
 183  337.649
 184  332.4626
 185  353.3432
 186  406.8093
 187  436.3256
 188  297.4182
 189  247.9584
 190  369.2691
 191  415.9505
 192  419.9724
 193  424.7847
 194  410.5164
 195  458.629
 196  439.3438
 197  400.502
 198  397.0985
 199  381.6234
 200  389.0159
 201  439.0651
 202  502.2061
 203  553.5942
 204  637.2258
 205  525.4125
 206  402.5996
 207  349.6406
 208  326.7285
 209  481.3636
 210  496.3596
 211  480.8334
 212  528.04
 213  488.0503
 214  548.8597
 215  479.6802
 216  327.5242
 217  424.0981
 218  534.9902
 219  558.4236
 220  598.8894
 221  527.4026
 222  453.8184
 223  326.9933
 224  385.44
 225  383.8569
 226  469.2212
 227  522.3657
 228  391.5649
 229  431.0654
 230  565.3784
 231  475.316
 232  422.6945
 233  490.8291
 234  563.5709
 235  552.9421
 236  557.7184
 237  482.8329
 238  483.2977
 239  474.3646
 240  458.8672
 241  526.5755
 242  421.1046
 243  350.6733
 244  365.5148
 245  505.1837
 246  571.9187
 247  479.3902
 248  509.0853
 249  506.8019
 250  476.4917
 251  499.2335
 252  593.2706
 253  579.6613
 254  571.0906
 255  439.0198
 256  484.4453
 257  568.9874
 258  484.8967
 259  463.1323
 260  538.0065
 261  495.3005
 262  480.329
 263  583.6005
 264  560.5577
 265  508.0128
 266  421.546
 267  489.2336
 268  512.0259
 269  435.9054
 270  533.4128
 271  612.7047
 272  474.6197
 273  494.9844
 274  478.7106
 275  510.0028
 276  521.3641
 277  529.7847
 278  519.133
 279  575.2845
 280  618.7078
 281  499.4877
 282  503.0095
 283  524.5414
 284  650.0715
 285  699.4572
 286  712.5297
 287  627.7491
 288  464.2336
 289  473.1928
 290  431.5248
 291  503.9884
 292  486.7504
 293  521.8922
 294  515.0139
 295  572.8821
 296  483.3626
 297  489.8195
 298  601.8318
 299  571.6606
 300  525.27
 301  518.2836
 302  558.1182
 303  529.8931
 304  508.814
 305  451.6701
 306  384.2708
 307  378.9328
 308  415.6986
 309  387.7513
 310  506.1359
 311  515.363
 312  481.8814
 313  523.0176
 314  514.0768
 315  449.5246
 316  337.693
 317  308.99
 318  458.7501
 319  499.0103
 320  484.6559
 321  403.3212
 322  419.3149
 323  515.4796
 324  480.09
 325  228.0052
 326  252.4922
 327  612.6552
 328  573.7613
 329  506.4917
 330  432.255
 331  361.9929
 332  508.9562
 333  435.6362
 334  522.0209
 335  577.7216
 336  539.0353
 337  561.874
 338  528.6614
 339  432.9335
 340  447.1822
 341  383.8962
 342  349.8015
 343  415.3822
 344  414.6388
 345  423.3426
 346  434.2673
 347  436.9404
 348  312.9691
 349  351.1677
 350  419.7093
 351  484.5989
 352  439.9628
 353  362.2432
 354  418.4118
 355  378.5905
 356  369.6696
 357  432.5301
 358  341.9546
 359  444.9272
 360  462.3954
 361  407.9842
 362  451.8379
 363  524.5344
 364  380.732
 365  380.0733
 366  543.9161
 367  584.5413
 368  491.2105
 369  415.2014
 370  331.9216
 371  347.4641
 372  343.2238
 373  419.7419
 374  429.2178
 375  426.7741
 376  494.8619
 377  531.2366
 378  488.5167
 379  558.513
 380  466.8889
 381  417.1561
 382  475.9836
 383  466.1803
 384  438.2188
 385  464.5498
 386  501.0417
 387  445.8463
 388  367.4276
 389  417.6148
 390  252.2452
 391  159.029
 392  309.7502
 393  442.5547
 394  520.5961
 395  478.8928
 396  577.2063
 397  469.0166
 398  362.5641
 399  499.4915
 400  403.5653
 401  407.877
 402  614.5497
 403  579.6606
 404  411.0733
 405  305.8434
 406  446.398
 407  467.9124
 408  506.8046
 409  452.8966
 410  471.8466
 411  515.1635
 412  474.8095
 413  509.5948
 414  477.4046
 415  533.588
 416  507.4536
 417  485.5628
 418  606.1226
 419  522.9593
 420  458.9096
 421  519.5352
 422  477.7507
 423  486.9453
 424  387.0623
 425  474.4216
 426  539.513
 427  493.279
 428  402.221
 429  388.6689
 430  455.3687
 431  521.1011
 432  441.3925
 433  520.1223
 434  542.9637
 435  436.5168
 436  444.2073
 437  525.6425
 438  387.6857
 439  337.702
 440  375.9855
 441  356.2626
 442  408.4268
 443  397.8775
 444  487.7046
 445  405.162
 446  323.593
 447  320.6399
 448  421.0822
 449  511.9043
 450  486.1314
 451  387.2455
 452  435.878
 453  553.6032
 454  450.9575
 455  449.4564
 456  397.5842
 457  370.4838
 458  492.2459
 459  698.9467
 460  614.3839
 461  529.3506
 462  493.8246
 463  468.8183
 464  358.3691
 465  357.7589
 466  505.8873
 467  407.7332
 468  425.0842
 469  423.9878
 470  491.3322
 471  490.5474
 472  461.8517
 473  272.9402
 474  321.7604
 475  499.6645
 476  399.7348
 477  379.7818
 478  417.6855
 479  363.6777
 480  356.6235
 481  380.7807
 482  373.1523
 483  411.5672
 484  522.7524
 485  450.9861
 486  402.0766
 487  464.5037
 488  403.829
 489  363.9839
 490  455.3549
 491  387.9774
 492  473.4803
 493  519.0905
 494  460.4381
 495  377.097
 496  355.6811
 497  318.0338
 498  418.0835
 499  393.3954
 500  599.0828
 501  655.9787
 502  454.2435
 503  462.5026
 504  584.0786
 505  609.9609
 506  569.3069
 507  415.5826
 508  377.8415
 509  545.8863
 510  531.2649
 511  464.0383
