# Input file       =  1179115899.100237_cleaned.dat
# Candidate        =  PSR_0332+5434
# Telescope        =  AR
# Epoch_topo       =  57891.174978012001
# Epoch_bary       =  N/A
# T_sample         =  0.002
# Data Folded      =  7208960
# Data Avg         =  0.303777320366565
# Data StdDev      =  5.72533771896139 
# Profile Bins     =  512
# Profile Avg      =  4277.16207565005 
# Profile StdDev   =  679.363854871571 
# Reduced chi-sqr  =  2.783
# Prob(Noise)      <  8.08e-87   (~19.7 sigma)
# P_topo (ms)      =  714.530181263239  +/- 1.39e-05
# P'_topo (s/s)    =  -0                +/- 7.45e-12
# P''_topo (s/s^2) =  0                 +/- 3.35e-15
# P_bary (ms)      =  N/A
# P'_bary (s/s)    =  N/A
# P''_bary (s/s^2) =  N/A
# P_orb (s)        =  N/A
# asin(i)/c (s)    =  N/A
# eccentricity     =  N/A
# w (rad)          =  N/A
# T_peri           =  N/A
######################################################
   0  5322.723
   1  4316.079
   2  3499.95
   3  3339.131
   4  3666.256
   5  3722.267
   6  4645.884
   7  5250.965
   8  5605.267
   9  5003.326
  10  4161.528
  11  3924.446
  12  3844.134
  13  4113.873
  14  4627.527
  15  5388.865
  16  5390.744
  17  4450.519
  18  3589.183
  19  3104.552
  20  3011.336
  21  3050.514
  22  3927.156
  23  5206.589
  24  6019.761
  25  5415.033
  26  4531.821
  27  3988.51
  28  3838.135
  29  3878.976
  30  4136.906
  31  4906.312
  32  5414.367
  33  5202.681
  34  4680.435
  35  3816.659
  36  3333.595
  37  2922.029
  38  3001.018
  39  4388.094
  40  5355.125
  41  4849.365
  42  4726.558
  43  4427.607
  44  3755.945
  45  3422.699
  46  3379.48
  47  3956.179
  48  4909.815
  49  4647.103
  50  4074.757
  51  3461.484
  52  3243.783
  53  3463.144
  54  3314.571
  55  3939.834
  56  4973.945
  57  5491.097
  58  4988.259
  59  4214.065
  60  3872.473
  61  4064.995
  62  3881.35
  63  3926.725
  64  4659.476
  65  5486.015
  66  5026.09
  67  3921.382
  68  3213.701
  69  3316.571
  70  3333.034
  71  3490.948
  72  4280.52
  73  4992.128
  74  5283.602
  75  5076.933
  76  4349.559
  77  4176.362
  78  3986.762
  79  3842.785
  80  4365.213
  81  5143.453
  82  5193.317
  83  4432.727
  84  3397.669
  85  3212.004
  86  3059.214
  87  3148.025
  88  3892.039
  89  5180.818
  90  5744.952
  91  4576.797
  92  3813.473
  93  3487.533
  94  3624.219
  95  3786.275
  96  3973.523
  97  4906.016
  98  5464.374
  99  5264.427
 100  3666.988
 101  2948.457
 102  2524.728
 103  2472.371
 104  2976.999
 105  3997.571
 106  4999.473
 107  5335.253
 108  4486.51
 109  3658.697
 110  3479.319
 111  3031.726
 112  3447.204
 113  4304.407
 114  5061.482
 115  5044.559
 116  4466.083
 117  3361.328
 118  2959.172
 119  3045.822
 120  2904.842
 121  3096.077
 122  4496.459
 123  5408.057
 124  4994.128
 125  4339.804
 126  3801.086
 127  3448.808
 128  3432.286
 129  3609.306
 130  4555.659
 131  5276.087
 132  5086.201
 133  3754.182
 134  3312.69
 135  3436.701
 136  3295.406
 137  2981.124
 138  3752.774
 139  5027.27
 140  5313.068
 141  4682.119
 142  4036.11
 143  4040.206
 144  3973.04
 145  3522.569
 146  3922.005
 147  4643.731
 148  4847.534
 149  4313.843
 150  3608.057
 151  2912.217
 152  2870.737
 153  3139.739
 154  3641.857
 155  4403.102
 156  4777.04
 157  4979.44
 158  4383.731
 159  4059.213
 160  3820.89
 161  3571.216
 162  3668.073
 163  4594.616
 164  5152.084
 165  5174.854
 166  4186.192
 167  3282.778
 168  3041.468
 169  2981.071
 170  3196.284
 171  4087.32
 172  5143.369
 173  4985.458
 174  4494.441
 175  3929.291
 176  3794.055
 177  3931.28
 178  3852.74
 179  4081.276
 180  5190.418
 181  5607.379
 182  4733.975
 183  3825.468
 184  3270.886
 185  2939.459
 186  2717.844
 187  3657.072
 188  5133.135
 189  5348.07
 190  5156.816
 191  4240.319
 192  3702.29
 193  3926.616
 194  3925.085
 195  4339.955
 196  4443.037
 197  5289.9
 198  4987.578
 199  3602.643
 200  3161.516
 201  2817.847
 202  3166.433
 203  3458.445
 204  4252.229
 205  5149.502
 206  5483.648
 207  5025.64
 208  3911.838
 209  3828.539
 210  3783.351
 211  3658.462
 212  4099.268
 213  4851.689
 214  5107.883
 215  4434.479
 216  3960.505
 217  3480.937
 218  3267.566
 219  3464.403
 220  3712.306
 221  4786.604
 222  5390.195
 223  5365.629
 224  4648.827
 225  4387.764
 226  4250.548
 227  4070.705
 228  4223.201
 229  4869.195
 230  5771.61
 231  5127.246
 232  4637.862
 233  4019.289
 234  4047.273
 235  3838.993
 236  4004.455
 237  4837.2
 238  5423.861
 239  5736.993
 240  5296.123
 241  4674.756
 242  4626.84
 243  4370.871
 244  4109.608
 245  4477.886
 246  5852.917
 247  5817.281
 248  4992.943
 249  4170.461
 250  3693.865
 251  3486.499
 252  3281.241
 253  3895.857
 254  4709.918
 255  5698.425
 256  5787.529
 257  4560.023
 258  4150.853
 259  4040.035
 260  3722.208
 261  3598.85
 262  4591.411
 263  5489.854
 264  5412.444
 265  4504.396
 266  3700.623
 267  3652.844
 268  3288.381
 269  3603.487
 270  4348.999
 271  5711.576
 272  5894.022
 273  5411.362
 274  4725.833
 275  3992.039
 276  4125.387
 277  3648.238
 278  4181.706
 279  5391.96
 280  5319.692
 281  5088.4
 282  3723.15
 283  3231.566
 284  2994.302
 285  3007.219
 286  3948.852
 287  4496.934
 288  5675.978
 289  5305.004
 290  4664.667
 291  4032.794
 292  3829.936
 293  3422.359
 294  3712.02
 295  4673.883
 296  5008.877
 297  4905.809
 298  4107.5
 299  3555.774
 300  3268.395
 301  3264.89
 302  3285.723
 303  4200.231
 304  5231.53
 305  5732.708
 306  4941.607
 307  4266.523
 308  4279.612
 309  4170.215
 310  4068.699
 311  4342.879
 312  5173.9
 313  5206.758
 314  4688.908
 315  4229.034
 316  3262.994
 317  2943.277
 318  3403.945
 319  3946.67
 320  5112.274
 321  5839.555
 322  5615.397
 323  5169.165
 324  4134.926
 325  4440.255
 326  4068.32
 327  4855.693
 328  5803.655
 329  6819.271
 330  6991.008
 331  5392.192
 332  4605.825
 333  3837.586
 334  3521.356
 335  3633.546
 336  4295.176
 337  5382.452
 338  5282.073
 339  5316.053
 340  4402.289
 341  4204.204
 342  3948.586
 343  3768.532
 344  4256.129
 345  5322.642
 346  5668.865
 347  5022.029
 348  4330.21
 349  3545.808
 350  3301.634
 351  3161.041
 352  3602.895
 353  4909.219
 354  5131.644
 355  5293.959
 356  4754.025
 357  4297.131
 358  4150.717
 359  3961.904
 360  4093.269
 361  4615.782
 362  5329.991
 363  5057.512
 364  4229.819
 365  3408.533
 366  3352.397
 367  3107.684
 368  3310.59
 369  4178.035
 370  5164.132
 371  5639.218
 372  5042.591
 373  4322.886
 374  3805.216
 375  4008.479
 376  4074.442
 377  4474.023
 378  5189.992
 379  5410.422
 380  4923.789
 381  3619.186
 382  3110.837
 383  3257.162
 384  3208.763
 385  3830.695
 386  4652.991
 387  5268.876
 388  5305.52
 389  4442.22
 390  3922.059
 391  3401.877
 392  3726.18
 393  3711.522
 394  4530.803
 395  5153.643
 396  4563.011
 397  3801.37
 398  2957.519
 399  3177.945
 400  2897.262
 401  2662.827
 402  3129.798
 403  4395.386
 404  5131.142
 405  4803.473
 406  4388.177
 407  3704.353
 408  3647.699
 409  3497.255
 410  4095.747
 411  5403.604
 412  5203.257
 413  4792.843
 414  3498.962
 415  3130.868
 416  2701.935
 417  3080.734
 418  3896.155
 419  4900.385
 420  5520.509
 421  5035.145
 422  4218.674
 423  3608.694
 424  3526.415
 425  3190.705
 426  3219.249
 427  4667.473
 428  5485.423
 429  5334.326
 430  4597.279
 431  3831.884
 432  3383.238
 433  3195.225
 434  3429.956
 435  4205.009
 436  5428.668
 437  6136.405
 438  5562.959
 439  4456.704
 440  4026.126
 441  4017.135
 442  4133.722
 443  4110.796
 444  5139.639
 445  5859.205
 446  5075.246
 447  3747.516
 448  3663.816
 449  3755.301
 450  3198.423
 451  3602.401
 452  4935.041
 453  5693.541
 454  5686.504
 455  5022.243
 456  3814.256
 457  3587.797
 458  3843.528
 459  4063.732
 460  4386.219
 461  5324.182
 462  5585.408
 463  4785.938
 464  3838.736
 465  3401.132
 466  3041.889
 467  3129.247
 468  4146.112
 469  5376.084
 470  5713.279
 471  5134.305
 472  4525.948
 473  3974.171
 474  3991.142
 475  3947.04
 476  4089.29
 477  5061.86
 478  5356.088
 479  4329.406
 480  3638.201
 481  3328.656
 482  3297.082
 483  3138
 484  3637.541
 485  4618.506
 486  5622.443
 487  5396.684
 488  4523.062
 489  4241.108
 490  4196.476
 491  3912.716
 492  4212.096
 493  5279.747
 494  5359.665
 495  5066.162
 496  4327.447
 497  3475.169
 498  3294.197
 499  3320.646
 500  3282.707
 501  3954.773
 502  5478.673
 503  5912.982
 504  5282.326
 505  4110.484
 506  3971.136
 507  3860.366
 508  3572.76
 509  3925.947
 510  5183.177
 511  5597.296
