# Input file       =  1179115899.100237_cleaned.dat
# Candidate        =  PSR_0332+5434
# Telescope        =  AR
# Epoch_topo       =  57891.174978012001
# Epoch_bary       =  N/A
# T_sample         =  0.002
# Data Folded      =  7208960
# Data Avg         =  0.303777320366565
# Data StdDev      =  5.72533771896139 
# Profile Bins     =  512
# Profile Avg      =  4277.16207567131 
# Profile StdDev   =  679.363854871571 
# Reduced chi-sqr  =  2.791
# Prob(Noise)      <  2.1e-87   (~19.8 sigma)
# P_topo (ms)      =  714.53018109575   +/- 1.39e-05
# P'_topo (s/s)    =  -0                +/- 7.44e-12
# P''_topo (s/s^2) =  0                 +/- 3.34e-15
# P_bary (ms)      =  N/A
# P'_bary (s/s)    =  N/A
# P''_bary (s/s^2) =  N/A
# P_orb (s)        =  N/A
# asin(i)/c (s)    =  N/A
# eccentricity     =  N/A
# w (rad)          =  N/A
# T_peri           =  N/A
######################################################
   0  5013.973
   1  5349.007
   2  4333.366
   3  3442.596
   4  3060.116
   5  2932.954
   6  3144.624
   7  3829.989
   8  5116.787
   9  5000.05
  10  4625.615
  11  3988.41
  12  3803.848
  13  3966.24
  14  3798.02
  15  3972.423
  16  4957.595
  17  5697.273
  18  4904.763
  19  3974.808
  20  3352.796
  21  2972.783
  22  2776.62
  23  3308.447
  24  4974.691
  25  5349.344
  26  5235.429
  27  4405.275
  28  3758.97
  29  3895.186
  30  3902.785
  31  4273.924
  32  4395.018
  33  5135.853
  34  5171.177
  35  3830.741
  36  3218.705
  37  2815.574
  38  3091.126
  39  3399.854
  40  4050.631
  41  5061.177
  42  5448.797
  43  5229.967
  44  4040.792
  45  3746.46
  46  3874.749
  47  3633.901
  48  3978.984
  49  4711.985
  50  5185.31
  51  4552.174
  52  4028.387
  53  3572.754
  54  3212.231
  55  3500.967
  56  3562.369
  57  4631.995
  58  5264.171
  59  5488.811
  60  4718.825
  61  4445.346
  62  4291.509
  63  4021.32
  64  4269.314
  65  4605.443
  66  5774.006
  67  5255.253
  68  4721.216
  69  4056.753
  70  4039.5
  71  3939.621
  72  3883.898
  73  4697.827
  74  5279.85
  75  5755.423
  76  5438.188
  77  4767.017
  78  4623.715
  79  4357.591
  80  4228.216
  81  4226.046
  82  5677.556
  83  5946.847
  84  5146.536
  85  4335.862
  86  3719.683
  87  3558.585
  88  3256.777
  89  3755.418
  90  4546.211
  91  5498.585
  92  5972.472
  93  4720.605
  94  4193.19
  95  4026.519
  96  3871.926
  97  3474.352
  98  4391.583
  99  5344.922
 100  5499.299
 101  4809.325
 102  3728.732
 103  3655.897
 104  3276.174
 105  3580.149
 106  4150.333
 107  5487.063
 108  5923.816
 109  5526.462
 110  4904.593
 111  4046.781
 112  4141.475
 113  3679.991
 114  3984
 115  5213.145
 116  5387.771
 117  5247.847
 118  3930.283
 119  3271.746
 120  2992.517
 121  2966.751
 122  3802.708
 123  4345.698
 124  5478.73
 125  5504.001
 126  4809.698
 127  4108.687
 128  3851.615
 129  3465.402
 130  3619.559
 131  4539.626
 132  4928.508
 133  4992.063
 134  4271.506
 135  3653.86
 136  3257.804
 137  3283.137
 138  3212.527
 139  3978.791
 140  5109.486
 141  5686.317
 142  5164.833
 143  4303.787
 144  4267.236
 145  4228.735
 146  4055.696
 147  4248.71
 148  4991.479
 149  5315.524
 150  4758.899
 151  4360.472
 152  3422.572
 153  2926.049
 154  3328.629
 155  3801.669
 156  4913.759
 157  5736.366
 158  5669.333
 159  5392.178
 160  4190.081
 161  4409.956
 162  4034.876
 163  4707.21
 164  5622.643
 165  6686.042
 166  7094.155
 167  5662.876
 168  4729.798
 169  3958.319
 170  3561.557
 171  3565.069
 172  4117.43
 173  5221.249
 174  5339.452
 175  5387.896
 176  4541.677
 177  4246.05
 178  3967.355
 179  3808.495
 180  4035.228
 181  5228.863
 182  5607.326
 183  5225.515
 184  4448.726
 185  3678.372
 186  3297.756
 187  3188.855
 188  3420.755
 189  4729.98
 190  5158.83
 191  5269.24
 192  4880.259
 193  4340.038
 194  4161.333
 195  4012.096
 196  4010.962
 197  4492.927
 198  5202.777
 199  5231.67
 200  4392.269
 201  3509.888
 202  3354.491
 203  3141.248
 204  3204.27
 205  3996.997
 206  4980.486
 207  5661.15
 208  5175.798
 209  4475.261
 210  3852.555
 211  3964.613
 212  4005.287
 213  4373.67
 214  5104.657
 215  5424.946
 216  5067.329
 217  3866.132
 218  3105.833
 219  3248.773
 220  3166.994
 221  3657.554
 222  4531.768
 223  5174.887
 224  5415.314
 225  4536.409
 226  4089.69
 227  3412.401
 228  3700.815
 229  3660.513
 230  4336.287
 231  5126.873
 232  4680.323
 233  4002.841
 234  3000.553
 235  3191.693
 236  2944.294
 237  2701.123
 238  2915.85
 239  4240.159
 240  5003.623
 241  4943.842
 242  4477.091
 243  3782.535
 244  3713.142
 245  3397.304
 246  3941.666
 247  5173.906
 248  5407.688
 249  4824.854
 250  3771.182
 251  3138.749
 252  2768.799
 253  2967.365
 254  3673.191
 255  4768.881
 256  5411.177
 257  5241.369
 258  4284.382
 259  3742.434
 260  3551.786
 261  3262.839
 262  3124.567
 263  4318.537
 264  5520.434
 265  5358.752
 266  4789.007
 267  3932.679
 268  3434.113
 269  3268.903
 270  3308.313
 271  3993.001
 272  5198.962
 273  6098.018
 274  5760.793
 275  4611.818
 276  4111.913
 277  3926.092
 278  4184.861
 279  4027.52
 280  4923.635
 281  5835.45
 282  5302.325
 283  3931.734
 284  3607.913
 285  3810.063
 286  3285.442
 287  3378.428
 288  4735.97
 289  5620.3
 290  5763.136
 291  5164.472
 292  4024.44
 293  3556.036
 294  3778.171
 295  4031.786
 296  4217.67
 297  5210.947
 298  5593.25
 299  5029.654
 300  3943.562
 301  3482.809
 302  3115.369
 303  3024.714
 304  3876.845
 305  5189.49
 306  5732.451
 307  5287.836
 308  4629.498
 309  4069.834
 310  3912.288
 311  4062.365
 312  3931.298
 313  4904.498
 314  5388.068
 315  4586.426
 316  3676.398
 317  3434.427
 318  3272.92
 319  3138.396
 320  3535.325
 321  4336.622
 322  5573.024
 323  5457.48
 324  4741.827
 325  4180.473
 326  4273.296
 327  3975.341
 328  3989.06
 329  5181.894
 330  5341.05
 331  5190.422
 332  4468.561
 333  3633.041
 334  3217.997
 335  3352.491
 336  3298.111
 337  3685.578
 338  5260.31
 339  5927.911
 340  5492.077
 341  4284.454
 342  3905.34
 343  3979.073
 344  3494.71
 345  3884.016
 346  4877.459
 347  5649.906
 348  5461.572
 349  4486.393
 350  3604.834
 351  3273.662
 352  3689.474
 353  3618.079
 354  4480.804
 355  5139.522
 356  5591.389
 357  5224.261
 358  4240.866
 359  3967.993
 360  3771.528
 361  4118.662
 362  4459.512
 363  5279.833
 364  5504.601
 365  4636.82
 366  3761.216
 367  3110.69
 368  3050.835
 369  2990.461
 370  3709.801
 371  4948.792
 372  5956.959
 373  5638.268
 374  4639.495
 375  4067.489
 376  3810.764
 377  3908.661
 378  4067.362
 379  4695.493
 380  5382.051
 381  5244.18
 382  4881.417
 383  3924.635
 384  3433.406
 385  2975.191
 386  2934.514
 387  4048.26
 388  5275.522
 389  4958.652
 390  4767.823
 391  4517.445
 392  3878.154
 393  3418.978
 394  3415.149
 395  3774.351
 396  4772.277
 397  4761.01
 398  4172.093
 399  3585.631
 400  3267.585
 401  3412.888
 402  3347.031
 403  3705.959
 404  4799.695
 405  5459.651
 406  5187.601
 407  4267.763
 408  3912.853
 409  3999.598
 410  3996.25
 411  3866.97
 412  4496.526
 413  5362.117
 414  5207.654
 415  4135.237
 416  3267.905
 417  3268.874
 418  3344.372
 419  3439.295
 420  4117.879
 421  4894.454
 422  5258.257
 423  5157.645
 424  4501.017
 425  4109.918
 426  4111.892
 427  3746.656
 428  4296.236
 429  4948.078
 430  5323.615
 431  4638.029
 432  3502.421
 433  3208.421
 434  3059.678
 435  3141.783
 436  3645.908
 437  5031.739
 438  5709.511
 439  4854.208
 440  3915.496
 441  3488.716
 442  3630.668
 443  3701.417
 444  3917.135
 445  4645.805
 446  5502.731
 447  5365.576
 448  3985.491
 449  3047.502
 450  2582.445
 451  2467.715
 452  2775.36
 453  3834.776
 454  4808.782
 455  5365.075
 456  4695.377
 457  3753.195
 458  3532.814
 459  3097.024
 460  3263.705
 461  4160.049
 462  4948.75
 463  5096.985
 464  4642.688
 465  3563.498
 466  2972.557
 467  3018.014
 468  2972.404
 469  2932.675
 470  4230.745
 471  5341.144
 472  5086.856
 473  4488.156
 474  3854.701
 475  3558.252
 476  3369.696
 477  3545.236
 478  4352.959
 479  5213.393
 480  5225.423
 481  3927.298
 482  3356.966
 483  3405.724
 484  3399.664
 485  2951.146
 486  3529.71
 487  4817.675
 488  5387.757
 489  4826.494
 490  4081.766
 491  4049.409
 492  3960.956
 493  3623.109
 494  3772.999
 495  4628.643
 496  4765.592
 497  4476.993
 498  3716.702
 499  3037.49
 500  2861.35
 501  3023.402
 502  3518.784
 503  4268.453
 504  4781.418
 505  4932.555
 506  4522.838
 507  4149.804
 508  3781.223
 509  3691.764
 510  3490.285
 511  4482.429
