# Input file       =  1179288241.096729_cleaned.dat
# Candidate        =  PSR_0332+5434
# Telescope        =  AR
# Epoch_topo       =  57893.169677045473
# Epoch_bary       =  N/A
# T_sample         =  0.002
# Data Folded      =  7208960
# Data Avg         =  0.292589468097272
# Data StdDev      =  6.49964980382684 
# Profile Bins     =  512
# Profile Avg      =  4119.70379589408 
# Profile StdDev   =  771.243088668676 
# Reduced chi-sqr  =  1.404
# Prob(Noise)      <  4.1e-09   (~5.8 sigma)
# P_topo (ms)      =  714.528230608875  +/- 3.07e-05
# P'_topo (s/s)    =  -0                +/- 1.65e-11
# P''_topo (s/s^2) =  0                 +/- 7.41e-15
# P_bary (ms)      =  N/A
# P'_bary (s/s)    =  N/A
# P''_bary (s/s^2) =  N/A
# P_orb (s)        =  N/A
# asin(i)/c (s)    =  N/A
# eccentricity     =  N/A
# w (rad)          =  N/A
# T_peri           =  N/A
######################################################
   0  4163.977
   1  4397.008
   2  4804.354
   3  4483.614
   4  3792.222
   5  3982.832
   6  3818.249
   7  3570.949
   8  3941.217
   9  4863.942
  10  5148.49
  11  4807.064
  12  4370.117
  13  3704.12
  14  3858.396
  15  4163.481
  16  4275.801
  17  4167.454
  18  4201.804
  19  4107.495
  20  3828.858
  21  3885.717
  22  3719.034
  23  4097.179
  24  4408.616
  25  4741.441
  26  5504.662
  27  5324.212
  28  4929.518
  29  3959.415
  30  4018.271
  31  3844.767
  32  3762.585
  33  3993.834
  34  3983.215
  35  4328.542
  36  4176.4
  37  3826.431
  38  3652.189
  39  4198.632
  40  4429.303
  41  4410.349
  42  5368.434
  43  5568.771
  44  5025.111
  45  4300.862
  46  3566.875
  47  3740.992
  48  4058.395
  49  4320.259
  50  4353.795
  51  5435.38
  52  5374.904
  53  3896.862
  54  3375.143
  55  3666.526
  56  4068.881
  57  4632.614
  58  5155.312
  59  5924.927
  60  5589.321
  61  4736.25
  62  4211.109
  63  4168.471
  64  4172.324
  65  3804.539
  66  3714.99
  67  3942.854
  68  3772.865
  69  3607.147
  70  3136.092
  71  3465.559
  72  3384.859
  73  4024.512
  74  4154.814
  75  4775.562
  76  5153.424
  77  5196.903
  78  4350.512
  79  4082.384
  80  3526.409
  81  3773.423
  82  3935.139
  83  4119.21
  84  4631.256
  85  4959.746
  86  3970.256
  87  2993.015
  88  2900.291
  89  3352.797
  90  3246.421
  91  3857.06
  92  4914.346
  93  5157.165
  94  4032.074
  95  3610.472
  96  3339.032
  97  3391.859
  98  3355.624
  99  3973.198
 100  3952.947
 101  3843.633
 102  4021.01
 103  3427.83
 104  3402.686
 105  3823.239
 106  4034.902
 107  4054.722
 108  4370.566
 109  4812.633
 110  4912.012
 111  4641.482
 112  3921.469
 113  3772.757
 114  3640.419
 115  3963.636
 116  4118.871
 117  4165.208
 118  4063.688
 119  3962.115
 120  2956.472
 121  3011.393
 122  3740.752
 123  4645.062
 124  5140.301
 125  5697.556
 126  5272.353
 127  4314.399
 128  3847.906
 129  3410.681
 130  3586.808
 131  3686.271
 132  3795.76
 133  4136.104
 134  4253.859
 135  3551.169
 136  2987.427
 137  3191.329
 138  3760.831
 139  3803.541
 140  4299.91
 141  4893.653
 142  5097.1
 143  4883.555
 144  4508.198
 145  3862.025
 146  3906.209
 147  4053.669
 148  3899.829
 149  4133.304
 150  4317.021
 151  3997.686
 152  3684.743
 153  3228.564
 154  3115.926
 155  3478.079
 156  3872.213
 157  4581.183
 158  5541.673
 159  5441.382
 160  4628.818
 161  4121.547
 162  3499.478
 163  3096.867
 164  3281.51
 165  3403.396
 166  4055.755
 167  4804.151
 168  4827.838
 169  3840.282
 170  3419.539
 171  3682.248
 172  3566.996
 173  3824.123
 174  4881.582
 175  5529.748
 176  4997.919
 177  3939.6
 178  3699.329
 179  3393.96
 180  3529.533
 181  3973.529
 182  4202.985
 183  4096.565
 184  3806.439
 185  3575.363
 186  3453.744
 187  3785.756
 188  4324.793
 189  4073.684
 190  4507.043
 191  4691.699
 192  4525.117
 193  4649.357
 194  4311.132
 195  4430.11
 196  4559.775
 197  4125.491
 198  3882.13
 199  4196.407
 200  5025.466
 201  4280.053
 202  3328.908
 203  3167.187
 204  3853.818
 205  3618.311
 206  4189.103
 207  4784.419
 208  5236.12
 209  4971.504
 210  4384.578
 211  3445.403
 212  3431.129
 213  3846.995
 214  4101.391
 215  4118.492
 216  4094.049
 217  3903.833
 218  3087.62
 219  2952.616
 220  2961.372
 221  3893.799
 222  4084.74
 223  3972.176
 224  4860.367
 225  4912.946
 226  4440.997
 227  3434.13
 228  3058.475
 229  3747.151
 230  3550.501
 231  3812.129
 232  4289.67
 233  4661.619
 234  4050.362
 235  3733.627
 236  3198.7
 237  3010.846
 238  3560.997
 239  4514.335
 240  5469.931
 241  5881.889
 242  5785.475
 243  4886.424
 244  4251.109
 245  3555.11
 246  3643.797
 247  4030.04
 248  3544.381
 249  4511.588
 250  4557.003
 251  3820.69
 252  3190.092
 253  3121.476
 254  3255.551
 255  3346.624
 256  3932.993
 257  4524.472
 258  4880.047
 259  4646.897
 260  3738.174
 261  3344.206
 262  2943.317
 263  3371.115
 264  3186.985
 265  3165.815
 266  3630.181
 267  3300.384
 268  3019.315
 269  3264.211
 270  3728.838
 271  3775.27
 272  3650.43
 273  4170.015
 274  4647.771
 275  4660.626
 276  4771.924
 277  3991.498
 278  3383.231
 279  3534.15
 280  3715.135
 281  3684.536
 282  3784.031
 283  3732.729
 284  3912.157
 285  3856.016
 286  3844.734
 287  3869.316
 288  4055.898
 289  4087.337
 290  4635.908
 291  4989.792
 292  4711.577
 293  4628.534
 294  3531.255
 295  3880.187
 296  3910.254
 297  4117.336
 298  4685.17
 299  4979.051
 300  4235.582
 301  3095.815
 302  3110.292
 303  4186.532
 304  4784.187
 305  4873.383
 306  5457.644
 307  6001.017
 308  5584.484
 309  4952.71
 310  4140.656
 311  3787.377
 312  4120.177
 313  3539.241
 314  3978.314
 315  4649.469
 316  4902.58
 317  4664.708
 318  4119.152
 319  3779.358
 320  3669.688
 321  4130.462
 322  4463.178
 323  5401.19
 324  6133.552
 325  6439.38
 326  5425.91
 327  5427.165
 328  6044.539
 329  5816.464
 330  5818.996
 331  5483.648
 332  5343.734
 333  4449.314
 334  3672.389
 335  3436.682
 336  3355.713
 337  3764.081
 338  4207.811
 339  4730.669
 340  4990.073
 341  4986.934
 342  4446.814
 343  3960.337
 344  3630.148
 345  3283.937
 346  3326.29
 347  3342.057
 348  4031.566
 349  3877.798
 350  3860.39
 351  4134.646
 352  4123.072
 353  3852.53
 354  3289.518
 355  3529.862
 356  4476.671
 357  5145.959
 358  5078.001
 359  4177.028
 360  3509.664
 361  3568.183
 362  3668.041
 363  3506.051
 364  3499.929
 365  4017.876
 366  4173.38
 367  3648.56
 368  3203.899
 369  3722.445
 370  3898.399
 371  3912.071
 372  4172.848
 373  4457.74
 374  4674.83
 375  4369.114
 376  3721.943
 377  3572.782
 378  3617.221
 379  3467.412
 380  3636.764
 381  4188.032
 382  4377.805
 383  3855.856
 384  3337.785
 385  3002.804
 386  3188.243
 387  3447.966
 388  4196.556
 389  5087.081
 390  5144.605
 391  4803.486
 392  4259.974
 393  3317.845
 394  3350.909
 395  3782.464
 396  3584.66
 397  4093.009
 398  4170.57
 399  4186.283
 400  3607.019
 401  3399.49
 402  4016.171
 403  4227.196
 404  4407.574
 405  5088
 406  5386.236
 407  5460.477
 408  4618.378
 409  4099.987
 410  3882.417
 411  3819.575
 412  3340.383
 413  3840.001
 414  4194.07
 415  4444.98
 416  4348.396
 417  3796.499
 418  3567.534
 419  3622.251
 420  3711.401
 421  4339.611
 422  4952.593
 423  5629.518
 424  5297.673
 425  4506.338
 426  3794.816
 427  3719.5
 428  3440.185
 429  3390.106
 430  3179.713
 431  3711.278
 432  4452.628
 433  3971.479
 434  3322.879
 435  3555.698
 436  3423.568
 437  3412.617
 438  4015.5
 439  4608.328
 440  4749.258
 441  4648.039
 442  4292.759
 443  3930.906
 444  3313.751
 445  3261.402
 446  3524.115
 447  3824.85
 448  4173.184
 449  3989.288
 450  3704.903
 451  3833.815
 452  3781.354
 453  3966.367
 454  4636.969
 455  4920.56
 456  4838.904
 457  4882.499
 458  4187.277
 459  3300.818
 460  3788.644
 461  3814.098
 462  3636.825
 463  3250.493
 464  3958.333
 465  4009.312
 466  3183.771
 467  2622.117
 468  3340.89
 469  4088.408
 470  4176.406
 471  4468.524
 472  4887.034
 473  4998.583
 474  4663.993
 475  4275.687
 476  3908.524
 477  3691.244
 478  4085.848
 479  4225.103
 480  4784.713
 481  4899.684
 482  4406.889
 483  4032.022
 484  3981.214
 485  4031.121
 486  3846.501
 487  4696.897
 488  5366.315
 489  5202.207
 490  5152.524
 491  4480.004
 492  3549.906
 493  3703.21
 494  3921.542
 495  3191.881
 496  3729.163
 497  4833.413
 498  4660.341
 499  4087.49
 500  3334.216
 501  3310.064
 502  3728.21
 503  3681.675
 504  4621.766
 505  5529.63
 506  5640.374
 507  4824.117
 508  4508.657
 509  3751.855
 510  3563.136
 511  3740.661
