# Input file       =  1179891925.097309_cleaned.dat
# Candidate        =  PSR_0332+5434
# Telescope        =  AR
# Epoch_topo       =  57900.156760385522
# Epoch_bary       =  N/A
# T_sample         =  0.002
# Data Folded      =  7208960
# Data Avg         =  0.0300507529057617
# Data StdDev      =  1.00007058878771 
# Profile Bins     =  512
# Profile Avg      =  422.858456055093 
# Profile StdDev   =  118.667551800901 
# Reduced chi-sqr  =  1.096
# Prob(Noise)      <  0.0663   (~1.5 sigma)
# P_topo (ms)      =  714.521329234712  +/- 0.000361
# P'_topo (s/s)    =  -0                +/- 1.94e-10
# P''_topo (s/s^2) =  0                 +/- 8.73e-14
# P_bary (ms)      =  N/A
# P'_bary (s/s)    =  N/A
# P''_bary (s/s^2) =  N/A
# P_orb (s)        =  N/A
# asin(i)/c (s)    =  N/A
# eccentricity     =  N/A
# w (rad)          =  N/A
# T_peri           =  N/A
######################################################
   0  426.3251
   1  461.2961
   2  421.0435
   3  508.536
   4  513.4099
   5  578.2181
   6  526.4708
   7  473.286
   8  348.9312
   9  436.3889
  10  402.4955
  11  284.8835
  12  279.5476
  13  319.674
  14  454.9628
  15  422.4085
  16  379.7325
  17  428.222
  18  426.2011
  19  501.828
  20  390.6661
  21  338.1268
  22  342.1805
  23  457.3297
  24  358.4888
  25  373.4215
  26  383.4976
  27  433.7424
  28  363.8365
  29  419.5857
  30  464.8274
  31  507.062
  32  526.4976
  33  473.0289
  34  430.6285
  35  409.533
  36  496.8299
  37  416.4918
  38  395.9194
  39  402.581
  40  415.2482
  41  482.7299
  42  492.6458
  43  551.7698
  44  534.3781
  45  434.4019
  46  423.0414
  47  379.8501
  48  410.9878
  49  423.4326
  50  434.9567
  51  425.6268
  52  398.8205
  53  411.227
  54  364.3468
  55  427.9686
  56  449.522
  57  456.8292
  58  400.1025
  59  365.392
  60  411.3839
  61  466.8625
  62  364.2161
  63  445.226
  64  492.1522
  65  507.9789
  66  545.8063
  67  412.2784
  68  341.4535
  69  275.4035
  70  337.0476
  71  283.2121
  72  308.296
  73  391.1599
  74  438.824
  75  370.6928
  76  368.0302
  77  323.2601
  78  327.7825
  79  393.7051
  80  472.1718
  81  466.8992
  82  432.2958
  83  467.6163
  84  372.0494
  85  278.5402
  86  342.4785
  87  439.9975
  88  457.241
  89  461.4222
  90  490.5555
  91  375.4733
  92  367.3254
  93  398.5547
  94  453.313
  95  519.7812
  96  581.9607
  97  485.1512
  98  409.709
  99  497.4916
 100  472.2164
 101  480.1995
 102  494.582
 103  562.1907
 104  575.419
 105  498.1076
 106  520.5426
 107  572.5885
 108  497.8716
 109  567.1849
 110  540.2583
 111  516.6328
 112  617.3885
 113  627.1597
 114  588.8335
 115  578.1225
 116  479.9809
 117  452.0223
 118  503.0279
 119  592.6241
 120  589.4328
 121  547.4884
 122  565.2761
 123  489.4242
 124  479.2893
 125  580.2297
 126  479.8813
 127  488.7934
 128  528.1509
 129  480.5584
 130  435.7056
 131  513.8665
 132  421.2673
 133  345.4348
 134  335.5959
 135  322.7167
 136  416.4015
 137  530.4686
 138  421.7343
 139  329.9086
 140  339.3086
 141  260.516
 142  305.4833
 143  334.4731
 144  382.8631
 145  375.1013
 146  294.0277
 147  390.1376
 148  513.5601
 149  522.7028
 150  502.791
 151  520.2811
 152  490.423
 153  431.419
 154  439.5117
 155  501.1758
 156  480.9221
 157  416.5674
 158  510.0641
 159  422.7462
 160  491.5635
 161  504.971
 162  496.6358
 163  510.0454
 164  483.0657
 165  452.6312
 166  436.8488
 167  507.7018
 168  357.0565
 169  449.5257
 170  550.751
 171  597.4511
 172  520.2242
 173  399.1794
 174  330.3281
 175  383.1116
 176  509.6606
 177  424.4514
 178  447.7306
 179  510.8253
 180  452.3448
 181  450.2939
 182  502.4677
 183  372.6526
 184  433.8283
 185  512.0327
 186  604.0319
 187  502.8494
 188  501.2482
 189  460.2086
 190  355.8091
 191  342.5314
 192  457.0572
 193  412.9893
 194  504.5663
 195  524.1683
 196  374.1062
 197  382.1187
 198  428.2389
 199  470.1477
 200  543.1208
 201  591.0629
 202  473.4396
 203  474.8839
 204  492.47
 205  505.4875
 206  521.1382
 207  616.6863
 208  733.3323
 209  797.462
 210  899.1266
 211  813.1835
 212  721.6434
 213  600.274
 214  498.7121
 215  446.2759
 216  384.3881
 217  404.4879
 218  357.2682
 219  429.0325
 220  327.4282
 221  288.276
 222  355.5858
 223  319.0811
 224  341.1052
 225  414.4195
 226  387.7204
 227  364.0469
 228  345.0709
 229  408.5194
 230  422.1973
 231  357.9552
 232  357.2578
 233  421.6877
 234  435.795
 235  491.8588
 236  576.6967
 237  494.345
 238  371.4247
 239  349.1078
 240  391.1411
 241  455.2791
 242  504.1612
 243  542.3201
 244  487.2318
 245  521.8802
 246  466.4726
 247  504.2248
 248  493.3866
 249  373.7842
 250  374.0443
 251  359.8318
 252  308.3195
 253  387.1712
 254  331.9303
 255  376.4373
 256  263.1236
 257  287.6201
 258  358.0692
 259  363.9566
 260  280.1654
 261  289.7025
 262  423.4735
 263  517.2811
 264  509.3109
 265  471.1079
 266  439.6977
 267  271.4454
 268  430.3549
 269  427.6904
 270  332.5455
 271  295.5789
 272  444.4682
 273  410.7019
 274  314.3999
 275  305.9645
 276  257.894
 277  357.4468
 278  424.917
 279  377.9562
 280  380.8402
 281  281.5825
 282  371.1606
 283  413.765
 284  445.3804
 285  395.1033
 286  451.5239
 287  414.9696
 288  444.8094
 289  316.1747
 290  462.8391
 291  483.1536
 292  415.6984
 293  452.3667
 294  490.4993
 295  465.0147
 296  478.3314
 297  333.545
 298  363.2026
 299  383.5572
 300  568.1469
 301  598.5173
 302  545.671
 303  438.3531
 304  447.5459
 305  430.0934
 306  478.7766
 307  514.5742
 308  466.2173
 309  492.5732
 310  492.1167
 311  435.0172
 312  524.0033
 313  379.4605
 314  451.7662
 315  472.7202
 316  455.2274
 317  446.7341
 318  475.1758
 319  490.1613
 320  544.4059
 321  517.162
 322  382.8859
 323  344.7628
 324  434.3988
 325  516.5932
 326  578.2717
 327  541.3707
 328  376.4507
 329  409.1418
 330  478.6121
 331  542.1504
 332  514.4008
 333  462.0986
 334  429.573
 335  349.9149
 336  441.4186
 337  462.288
 338  405.0918
 339  470.3291
 340  446.1499
 341  428.3195
 342  379.0991
 343  372.978
 344  428.1705
 345  505.5735
 346  496.221
 347  433.6869
 348  436.3092
 349  383.3309
 350  422.5083
 351  470.2003
 352  441.1063
 353  431.7016
 354  382.8262
 355  285.4917
 356  267.7136
 357  394.188
 358  406.4077
 359  347.5865
 360  375.8207
 361  493.4515
 362  518.6829
 363  458.4066
 364  366.602
 365  355.7166
 366  501.0196
 367  518.56
 368  471.949
 369  485.4992
 370  560.1715
 371  490.6205
 372  471.1656
 373  429.0421
 374  491.7544
 375  487.4044
 376  497.3642
 377  476.6668
 378  405.9451
 379  486.3988
 380  467.3067
 381  358.2515
 382  358.0322
 383  455.234
 384  450.4688
 385  310.5573
 386  397.8477
 387  474.0506
 388  419.3395
 389  404.5125
 390  458.6273
 391  425.825
 392  360.4466
 393  306.474
 394  306.0217
 395  401.325
 396  486.5265
 397  475.2214
 398  359.4564
 399  298.9712
 400  360.7904
 401  397.3686
 402  429.2893
 403  366.0424
 404  300.7308
 405  376.0981
 406  389.5964
 407  445.7686
 408  489.9429
 409  486.6415
 410  414.7821
 411  407.2496
 412  425.58
 413  396.0423
 414  316.5396
 415  301.1765
 416  296.2203
 417  142.8137
 418  275.6004
 419  226.8694
 420  249.2551
 421  278.8589
 422  327.3093
 423  352.818
 424  267.0939
 425  238.8166
 426  266.3985
 427  345.2516
 428  384.7068
 429  270.0787
 430  255.4617
 431  348.1728
 432  424.6221
 433  345.8108
 434  260.3142
 435  380.5728
 436  359.0857
 437  292.2708
 438  234.0275
 439  299.1462
 440  376.3163
 441  304.516
 442  223.9454
 443  259.8971
 444  420.9765
 445  342.4896
 446  343.7953
 447  338.5431
 448  264.4056
 449  305.2747
 450  357.5747
 451  406.736
 452  438.3248
 453  408.4258
 454  395.622
 455  409.2906
 456  488.9001
 457  373.9606
 458  359.7461
 459  344.4613
 460  441.0272
 461  543.8995
 462  414.6777
 463  340.4388
 464  255.9151
 465  354.8754
 466  421.62
 467  354.9826
 468  419.4495
 469  406.9337
 470  375.7935
 471  373.1629
 472  475.3891
 473  491.4688
 474  430.5562
 475  302.957
 476  369.0243
 477  359.7962
 478  422.875
 479  446.3351
 480  460.0927
 481  387.5008
 482  384.8637
 483  354.2538
 484  336.5373
 485  197.8325
 486  242.8885
 487  204.5343
 488  308.0494
 489  328.8595
 490  370.6563
 491  406.0485
 492  316.197
 493  307.7353
 494  425.8368
 495  431.1434
 496  423.6385
 497  386.2097
 498  345.4351
 499  309.9931
 500  367.3677
 501  376.8635
 502  378.9122
 503  350.266
 504  272.6294
 505  361.4198
 506  328.4852
 507  332.1089
 508  443.8515
 509  437.7149
 510  344.6423
 511  485.5119
