# Input file       =  1179977562.10106_cleaned.dat
# Candidate        =  PSR_0332+5434
# Telescope        =  AR
# Epoch_topo       =  57901.147929410414
# Epoch_bary       =  N/A
# T_sample         =  0.002
# Data Folded      =  7208960
# Data Avg         =  0.178607160168361
# Data StdDev      =  5.1003091560419  
# Profile Bins     =  256
# Profile Avg      =  5029.36145818848 
# Profile StdDev   =  855.879899401597 
# Reduced chi-sqr  =  1.328
# Prob(Noise)      <  0.000348   (~3.4 sigma)
# P_topo (ms)      =  714.520356716191  +/- 3.04e-05
# P'_topo (s/s)    =  -0                +/- 1.63e-11
# P''_topo (s/s^2) =  0                 +/- 7.34e-15
# P_bary (ms)      =  N/A
# P'_bary (s/s)    =  N/A
# P''_bary (s/s^2) =  N/A
# P_orb (s)        =  N/A
# asin(i)/c (s)    =  N/A
# eccentricity     =  N/A
# w (rad)          =  N/A
# T_peri           =  N/A
######################################################
   0  4352.706
   1  3804.086
   2  5541.143
   3  5150.286
   4  4724.483
   5  5578.607
   6  6121.764
   7  5524.184
   8  4798.262
   9  4571.571
  10  5576.71
  11  5797.051
  12  5138.756
  13  5124.487
  14  5718.341
  15  5766.167
  16  4888.66
  17  5047.128
  18  5354.296
  19  6002.532
  20  4995.824
  21  5618.149
  22  6884.764
  23  6716.802
  24  4788.589
  25  4855.922
  26  5449.834
  27  5929.543
  28  5260.701
  29  5440.451
  30  6003.712
  31  6464.073
  32  5202.472
  33  4014.59
  34  4156.468
  35  5723.651
  36  5379.021
  37  4436.353
  38  4340.628
  39  5989.695
  40  5092.76
  41  4787.894
  42  3502.764
  43  5802.373
  44  5633.53
  45  4556.489
  46  5342.565
  47  6601.375
  48  6587.318
  49  4539.924
  50  4837.081
  51  5305.005
  52  5935.223
  53  5019.748
  54  4812.917
  55  6023.959
  56  5333.405
  57  4789.223
  58  4460.327
  59  5027.085
  60  5245.934
  61  4366.765
  62  4328.989
  63  5689.421
  64  5675.361
  65  4385.1
  66  4389.81
  67  4679.174
  68  5931.975
  69  5649.245
  70  4367.334
  71  5169.752
  72  5812.397
  73  5641.363
  74  4165.875
  75  3158.584
  76  5007.138
  77  5869.066
  78  4782.6
  79  5131.208
  80  5544.438
  81  6154.195
  82  4556.917
  83  4682.065
  84  4842.449
  85  5903.178
  86  5096.045
  87  5342.792
  88  5603.823
  89  6125.271
  90  5300.151
  91  4848.283
  92  4554.767
  93  5648.77
  94  4328.237
  95  4968.445
  96  5654.336
  97  5718.647
  98  4571.085
  99  3414.258
 100  4425.421
 101  5238.304
 102  4513.052
 103  3471.529
 104  5040.843
 105  6035.8
 106  5353.131
 107  4236.575
 108  3687.829
 109  6491.398
 110  5464.497
 111  4685.116
 112  4252.198
 113  5385.59
 114  5903.87
 115  5418.237
 116  4059.05
 117  5080.185
 118  5483.126
 119  4164.897
 120  4048.377
 121  5135.912
 122  5937.271
 123  4829.27
 124  3775.599
 125  4419.236
 126  5527.691
 127  4063.856
 128  3751.076
 129  4818.751
 130  6746.717
 131  4967.688
 132  5266.851
 133  4322.498
 134  5536.787
 135  4326.635
 136  4237.117
 137  4849.236
 138  6040.522
 139  4468.611
 140  3456.937
 141  4437.786
 142  4913.797
 143  4924.013
 144  4056.663
 145  4850.644
 146  5772.369
 147  5631.321
 148  3541.878
 149  3787.2
 150  5257.945
 151  5279.498
 152  4428.323
 153  4249.542
 154  5294.161
 155  5892.167
 156  4370.074
 157  4014.372
 158  4539.665
 159  5241.346
 160  4378.832
 161  4219.735
 162  5496.839
 163  8013.606
 164  8209.753
 165  6827.198
 166  5075.963
 167  5915.74
 168  5540.061
 169  4575.793
 170  5421.479
 171  6414.454
 172  6240.567
 173  4666.624
 174  4103.291
 175  5454.421
 176  5789.226
 177  4711.921
 178  4533.715
 179  5980.004
 180  5789.974
 181  4384.323
 182  3636.808
 183  4084.427
 184  5439.448
 185  3326.414
 186  4220.486
 187  5050.71
 188  5265.449
 189  3347.428
 190  2926.152
 191  4481.564
 192  5244.083
 193  4103.619
 194  3570.985
 195  5730.036
 196  5617.695
 197  4870.594
 198  3404.575
 199  4044.515
 200  5410.112
 201  5031.809
 202  4406.224
 203  4681.497
 204  5605.672
 205  5305.382
 206  3590.783
 207  4454.704
 208  6787.848
 209  5951.417
 210  3541.85
 211  5333.819
 212  6796.598
 213  5743.662
 214  4683.92
 215  4624.815
 216  5485.352
 217  5961.547
 218  4200.198
 219  4688.873
 220  5545.143
 221  5860.133
 222  5135.575
 223  3918.504
 224  3307.189
 225  5220.75
 226  3854.046
 227  3828.155
 228  4392.937
 229  5776.345
 230  3844.451
 231  4051.468
 232  4956.643
 233  4941.826
 234  4539.919
 235  4279.318
 236  5480.835
 237  5820.032
 238  5695.361
 239  3450.039
 240  4376.659
 241  5705.901
 242  5642.349
 243  4277.168
 244  4547.311
 245  6471.479
 246  6212.202
 247  4174.289
 248  4053.135
 249  5515.288
 250  5624.735
 251  4716.745
 252  4727.422
 253  6019.565
 254  6266.971
 255  4963.339
