# Input file       =  1179733660.1152_cleaned.dat
# Candidate        =  PSR_0332+5434
# Telescope        =  AR
# Epoch_topo       =  57898.324989759261
# Epoch_bary       =  N/A
# T_sample         =  0.002
# Data Folded      =  7340032
# Data Avg         =  0.0254315522159977
# Data StdDev      =  1.0000742689545  
# Profile Bins     =  512
# Profile Avg      =  364.587919872491 
# Profile StdDev   =  119.741928824197 
# Reduced chi-sqr  =  1.091
# Prob(Noise)      <  0.0756   (~1.4 sigma)
# P_topo (ms)      =  714.523158000233  +/- 0.000208
# P'_topo (s/s)    =  -0                +/- 1.1e-10
# P''_topo (s/s^2) =  0                 +/- 4.86e-14
# P_bary (ms)      =  N/A
# P'_bary (s/s)    =  N/A
# P''_bary (s/s^2) =  N/A
# P_orb (s)        =  N/A
# asin(i)/c (s)    =  N/A
# eccentricity     =  N/A
# w (rad)          =  N/A
# T_peri           =  N/A
######################################################
   0  751.5736
   1  713.4644
   2  520.2571
   3  468.2862
   4  467.5577
   5  486.3719
   6  418.9543
   7  381.6896
   8  466.2431
   9  319.8534
  10  384.4225
  11  430.5406
  12  450.4169
  13  442.7294
  14  455.0732
  15  536.0765
  16  416.037
  17  447.2326
  18  464.422
  19  395.9875
  20  528.598
  21  516.7952
  22  341.5359
  23  377.4017
  24  460.1577
  25  303.9139
  26  249.7693
  27  401.1225
  28  445.6278
  29  312.8781
  30  252.7684
  31  361.9967
  32  381.332
  33  366.4135
  34  428.2854
  35  446.7674
  36  321.6178
  37  320.4944
  38  288.0516
  39  393.2757
  40  273.1443
  41  413.0142
  42  471.8148
  43  402.9421
  44  329.0374
  45  340.1925
  46  389.1603
  47  456.4885
  48  440.6788
  49  354.58
  50  358.2947
  51  511.0389
  52  444.9964
  53  267.7498
  54  276.2136
  55  544.6496
  56  493.5695
  57  349.9581
  58  308.2326
  59  412.0996
  60  353.3894
  61  297.7596
  62  361.82
  63  465.354
  64  509.1855
  65  467.3405
  66  366.9851
  67  333.9296
  68  313.8046
  69  373.0165
  70  390.7972
  71  247.9507
  72  231.3301
  73  284.8453
  74  301.6627
  75  486.7639
  76  515.2718
  77  442.5948
  78  333.9417
  79  293.823
  80  245.3118
  81  384.0646
  82  382.612
  83  328.2603
  84  404.1182
  85  495.9706
  86  342.3678
  87  384.7499
  88  348.8972
  89  341.3671
  90  273.3053
  91  256.5931
  92  323.828
  93  331.3555
  94  375.9546
  95  451.028
  96  412.8715
  97  473.9252
  98  429.6091
  99  414.1172
 100  414.5591
 101  381.3725
 102  315.9824
 103  337.5168
 104  448.0448
 105  410.7736
 106  371.1077
 107  382.6929
 108  378.0838
 109  385.8095
 110  304.2102
 111  340.9909
 112  274.0115
 113  306.253
 114  343.7271
 115  443.1306
 116  393.228
 117  325.692
 118  323.4789
 119  460.9442
 120  395.616
 121  236.2064
 122  271.7316
 123  362.5834
 124  182.2418
 125  150.9999
 126  333.8867
 127  307.7849
 128  251.7109
 129  253.7012
 130  196.5836
 131  336.7799
 132  353.4937
 133  258.7531
 134  341.8294
 135  357.9833
 136  226.4215
 137  222.2906
 138  311.1129
 139  278.1635
 140  234.6392
 141  192.1714
 142  195.7929
 143  125.0968
 144  269.3733
 145  400.4842
 146  351.7937
 147  283.4016
 148  307.0126
 149  287.8037
 150  298.9246
 151  310.6269
 152  448.9914
 153  409.5056
 154  414.8377
 155  329.5272
 156  213.4334
 157  250.9408
 158  280.3651
 159  396.6252
 160  441.1483
 161  301.6378
 162  268.5103
 163  438.4146
 164  443.2275
 165  406.4804
 166  456.7604
 167  410.3584
 168  465.118
 169  401.8778
 170  442.9568
 171  331.9273
 172  376.0219
 173  241.7532
 174  293.9955
 175  351.617
 176  338.3582
 177  272.5988
 178  329.0985
 179  353.2178
 180  332.2311
 181  424.0895
 182  383.2112
 183  406.2994
 184  354.5026
 185  479.3578
 186  517.3956
 187  499.3568
 188  413.2454
 189  440.6078
 190  440.3221
 191  542.4706
 192  465.0312
 193  501.2803
 194  602.4524
 195  515.5125
 196  502.3087
 197  377.138
 198  425.2263
 199  405.7687
 200  470.6929
 201  433.9988
 202  510.1029
 203  550.0989
 204  501.6191
 205  538.2609
 206  521.298
 207  515.5502
 208  500.9386
 209  433.406
 210  339.6256
 211  315.7675
 212  291.0471
 213  403.6525
 214  435.817
 215  376.6888
 216  355.921
 217  362.8724
 218  347.5717
 219  350.8285
 220  390.1822
 221  503.0074
 222  441.8415
 223  254.838
 224  259.9965
 225  331.5648
 226  366.499
 227  343.0091
 228  420.986
 229  349.5852
 230  250.4375
 231  391.7316
 232  310.3415
 233  394.7411
 234  256.3601
 235  390.623
 236  410.2142
 237  325.7606
 238  451.473
 239  336.5599
 240  412.7289
 241  315.9537
 242  279.6804
 243  357.0637
 244  382.1226
 245  287.3596
 246  251.0792
 247  372.6373
 248  469.9824
 249  323.2623
 250  313.4576
 251  219.3798
 252  317.6033
 253  324.3129
 254  304.9665
 255  283.6955
 256  386.1074
 257  361.8473
 258  358.7169
 259  420.563
 260  529.6653
 261  504.3691
 262  419.5255
 263  336.3558
 264  451.6349
 265  490.166
 266  442.2245
 267  394.1027
 268  298.653
 269  279.8866
 270  439.4243
 271  507.2015
 272  415.6549
 273  233.3961
 274  192.7834
 275  446.3619
 276  482.4332
 277  375.9987
 278  392.7076
 279  393.1611
 280  355.1401
 281  394.0078
 282  366.2897
 283  445.6874
 284  402.6147
 285  497.2364
 286  484.4925
 287  367.9001
 288  308.4752
 289  289.4579
 290  252.5985
 291  336.6104
 292  268.3723
 293  346.3427
 294  470.4258
 295  409.0665
 296  323.2058
 297  310.5701
 298  254.9026
 299  300.6941
 300  292.7979
 301  234.2123
 302  220.5531
 303  152.751
 304  215.7905
 305  226.3158
 306  288.8119
 307  172.7364
 308  226.553
 309  246.0505
 310  178.7416
 311  232.7921
 312  414.1685
 313  329.4593
 314  306.5456
 315  368.7576
 316  329.2027
 317  338.2361
 318  256.3918
 319  355.5526
 320  265.6175
 321  131.9496
 322  294.4085
 323  394.3174
 324  257.4417
 325  333.9506
 326  349.6652
 327  398.3698
 328  384.1518
 329  369.5966
 330  400.1336
 331  337.956
 332  396.2193
 333  463.6412
 334  322.9263
 335  237.4121
 336  328.7837
 337  371.833
 338  353.0394
 339  309.0176
 340  442.3718
 341  409.0711
 342  344.135
 343  329.9616
 344  295.9816
 345  301.0196
 346  466.2134
 347  393.8071
 348  271.6863
 349  434.0574
 350  417.1061
 351  365.3445
 352  325.899
 353  432.1364
 354  343.8524
 355  335.7952
 356  345.1963
 357  441.1105
 358  412.9378
 359  383.6769
 360  473.7487
 361  471.3965
 362  357.1616
 363  391.7507
 364  418.0349
 365  463.8368
 366  484.0966
 367  296.5094
 368  234.9654
 369  302.3978
 370  269.9797
 371  307.7837
 372  294.0281
 373  366.515
 374  375.9289
 375  320.7775
 376  317.1324
 377  284.6538
 378  211.4391
 379  151.0959
 380  270.0937
 381  360.2589
 382  306.0094
 383  161.6968
 384  249.3844
 385  283.4808
 386  279.0244
 387  359.1849
 388  246.8466
 389  183.462
 390  245.8083
 391  348.0988
 392  252.3858
 393  126.6355
 394  192.6351
 395  162.6203
 396  210.0737
 397  301.8869
 398  313.0094
 399  322.7951
 400  347.3304
 401  349.8819
 402  495.0959
 403  393.772
 404  332.0446
 405  385.5627
 406  324.5043
 407  364.9324
 408  351.2037
 409  426.4398
 410  445.1558
 411  503.787
 412  284.1548
 413  333.0627
 414  321.4519
 415  319.7219
 416  387.7656
 417  421.0439
 418  453.1693
 419  373.2531
 420  300.9039
 421  375.5551
 422  341.1567
 423  354.4391
 424  387.6367
 425  333.011
 426  179.817
 427  320.0311
 428  341.576
 429  341.4243
 430  392.5199
 431  540.7399
 432  428.9042
 433  238.0286
 434  266.9942
 435  361.5447
 436  293.7685
 437  377.0613
 438  325.5117
 439  359.4919
 440  535.5607
 441  537.7911
 442  471.2512
 443  407.0027
 444  408.7295
 445  401.0486
 446  343.1064
 447  465.9209
 448  390.9373
 449  386.1158
 450  507.2368
 451  472.175
 452  182.3024
 453  224.8583
 454  250.4487
 455  453.3867
 456  320.4148
 457  473.3604
 458  363.1653
 459  329.7781
 460  374.4305
 461  349.0074
 462  311.357
 463  349.1664
 464  515.7379
 465  371.5571
 466  368.2092
 467  385.0431
 468  294.5177
 469  318.3261
 470  319.0851
 471  330.6812
 472  252.1061
 473  273.0077
 474  310.3339
 475  294.6215
 476  297.6279
 477  409.5506
 478  418.7372
 479  496.4396
 480  363.6928
 481  318.2121
 482  418.4865
 483  414.5958
 484  347.6324
 485  317.9187
 486  329.0608
 487  475.0384
 488  402.7049
 489  437.8681
 490  401.0546
 491  300.7103
 492  349.0302
 493  362.3255
 494  473.6554
 495  518.1744
 496  376.5135
 497  416.5134
 498  392.262
 499  347.7778
 500  386.5156
 501  337.8362
 502  249.2913
 503  313.5927
 504  343.9985
 505  338.6093
 506  501.2849
 507  423.9041
 508  508.256
 509  590.6956
 510  652.0574
 511  696.0614
