# Input file       =  1179460511.106845_cleaned.dat
# Candidate        =  PSR_0332+5434
# Telescope        =  AR
# Epoch_topo       =  57895.163542903298
# Epoch_bary       =  N/A
# T_sample         =  0.002
# Data Folded      =  7208960
# Data Avg         =  0.0326435599243474
# Data StdDev      =  1.00003793896173 
# Profile Bins     =  512
# Profile Avg      =  459.622521283766 
# Profile StdDev   =  118.66367759946  
# Reduced chi-sqr  =  1.008
# Prob(Noise)      <  0.438   (~0.2 sigma)
# P_topo (ms)      =  714.526270761377  +/- 0.000177
# P'_topo (s/s)    =  -0                +/- 9.52e-11
# P''_topo (s/s^2) =  0                 +/- 4.28e-14
# P_bary (ms)      =  N/A
# P'_bary (s/s)    =  N/A
# P''_bary (s/s^2) =  N/A
# P_orb (s)        =  N/A
# asin(i)/c (s)    =  N/A
# eccentricity     =  N/A
# w (rad)          =  N/A
# T_peri           =  N/A
######################################################
   0  936.3172
   1  929.1109
   2  796.3638
   3  710.6916
   4  537.2021
   5  420.0356
   6  462.9046
   7  435.3597
   8  417.5742
   9  496.5083
  10  435.1407
  11  392.3649
  12  451.5745
  13  457.8629
  14  409.1169
  15  516.7688
  16  518.1547
  17  508.2928
  18  502.1886
  19  385.2173
  20  462.1276
  21  448.4726
  22  403.3917
  23  470.679
  24  525.3533
  25  435.0481
  26  430.6255
  27  437.5618
  28  422.5418
  29  357.8601
  30  403.9653
  31  564.7023
  32  520.8599
  33  350.2842
  34  480.5566
  35  544.5696
  36  495.7095
  37  479.4199
  38  472.298
  39  530.8687
  40  518.6562
  41  521.5602
  42  491.6616
  43  467.88
  44  417.2576
  45  367.6648
  46  436.9804
  47  425.3958
  48  386.6983
  49  390.0521
  50  465.3904
  51  426.2903
  52  474.1835
  53  353.9471
  54  265.3198
  55  373.2556
  56  424.3385
  57  421.2746
  58  520.1763
  59  541.6812
  60  453.1716
  61  373.4683
  62  391.5856
  63  388.1805
  64  508.5804
  65  483.315
  66  497.5794
  67  455.3014
  68  398.489
  69  436.0315
  70  496.5592
  71  489.5518
  72  543.5133
  73  498.9073
  74  505.219
  75  394.3789
  76  457.656
  77  539.773
  78  522.6425
  79  464.6614
  80  501.5158
  81  474.9969
  82  461.7974
  83  546.4899
  84  507.8493
  85  388.9863
  86  512.7978
  87  404.7968
  88  403.5419
  89  421.2496
  90  450.7413
  91  440.8341
  92  471.1219
  93  486.0194
  94  519.9349
  95  544.1389
  96  421.0216
  97  459.5932
  98  550.5435
  99  457.5761
 100  488.6545
 101  414.7287
 102  475.1273
 103  465.4203
 104  527.0653
 105  573.0869
 106  514.6985
 107  502.1169
 108  439.4937
 109  409.2462
 110  448.0622
 111  447.7954
 112  386.3691
 113  460.1663
 114  476.1193
 115  535.0149
 116  386.2217
 117  261.403
 118  301.3899
 119  254.4945
 120  405.4562
 121  417.8184
 122  427.9001
 123  417.0218
 124  363.4524
 125  435.8864
 126  404.2275
 127  365.6331
 128  373.7627
 129  364.654
 130  535.8591
 131  397.0622
 132  428.8797
 133  366.6231
 134  360.2578
 135  386.5711
 136  366.8175
 137  452.2413
 138  381.5247
 139  419.2893
 140  443.2278
 141  404.269
 142  488.1057
 143  483.7751
 144  381.3788
 145  533.9737
 146  514.3563
 147  526.7019
 148  509.4201
 149  462.095
 150  374.0674
 151  441.8234
 152  484.3198
 153  445.219
 154  395.0286
 155  471.7143
 156  346.1277
 157  406.5123
 158  430.1526
 159  342.0669
 160  532.4114
 161  429.0608
 162  418.8924
 163  522.6736
 164  465.7282
 165  380.5721
 166  307.6677
 167  349.5051
 168  407.0887
 169  367.5838
 170  503.3297
 171  527.2336
 172  593.5549
 173  552.2614
 174  406.0356
 175  361.6571
 176  444.9335
 177  524.4319
 178  482.4389
 179  437.8158
 180  363.3472
 181  414.7491
 182  414.9392
 183  351.0571
 184  459.4822
 185  497.9126
 186  492.7741
 187  470.7498
 188  536.3287
 189  399.6248
 190  321.3756
 191  317.9057
 192  364.6494
 193  326.5639
 194  348.7969
 195  391.395
 196  484.2307
 197  552.7594
 198  456.5969
 199  434.9467
 200  407.9148
 201  427.6843
 202  465.3775
 203  524.9982
 204  590.7483
 205  541.7776
 206  550.956
 207  426.3968
 208  496.6634
 209  404.6218
 210  334.5491
 211  466.6055
 212  451.9671
 213  519.1865
 214  478.175
 215  471.8255
 216  510.9568
 217  501.8489
 218  420.0307
 219  484.456
 220  535.0877
 221  556.1291
 222  442.0318
 223  468.1619
 224  514.6893
 225  399.8536
 226  369.9626
 227  409.8314
 228  423.4541
 229  501.0647
 230  564.56
 231  421.1134
 232  405.2935
 233  433.0008
 234  493.1396
 235  469.784
 236  483.7164
 237  482.3137
 238  510.2181
 239  419.5609
 240  319.9826
 241  353.5957
 242  439.3676
 243  431.1391
 244  369.3434
 245  391.2374
 246  382.26
 247  359.8187
 248  423.0251
 249  361.9367
 250  402.5488
 251  490.6908
 252  483.5808
 253  521.1392
 254  456.3285
 255  461.9763
 256  381.5518
 257  428.0934
 258  436.6792
 259  351.5569
 260  455.6134
 261  408.4359
 262  313.8028
 263  469.5822
 264  477.3272
 265  334.5459
 266  330.1045
 267  370.1219
 268  410.5265
 269  558.6237
 270  476.5583
 271  518.1211
 272  506.1975
 273  427.7693
 274  396.3634
 275  430.3675
 276  459.8004
 277  459.3816
 278  491.1276
 279  479.653
 280  485.0466
 281  376.4325
 282  432.1805
 283  485.785
 284  535.7873
 285  511.9338
 286  497.0493
 287  500.618
 288  577.7625
 289  611.0446
 290  529.356
 291  465.1954
 292  438.9105
 293  502.444
 294  554.1639
 295  491.0905
 296  442.9698
 297  445.6275
 298  361.3465
 299  353.935
 300  452.1806
 301  531.8962
 302  464.7728
 303  468.6638
 304  502.0529
 305  421.3867
 306  442.2934
 307  431.2184
 308  402.9958
 309  354.5346
 310  343.8097
 311  506.34
 312  537.1892
 313  669.1053
 314  504.2111
 315  430.1797
 316  385.0266
 317  374.6408
 318  357.31
 319  388.0559
 320  467.9604
 321  478.4715
 322  478.3607
 323  406.7426
 324  417.3691
 325  433.9868
 326  429.493
 327  328.4538
 328  456.7471
 329  444.3375
 330  444.1379
 331  441.9709
 332  323.6827
 333  441.612
 334  478.9043
 335  401.7687
 336  320.2719
 337  452.6102
 338  465.6893
 339  527.4771
 340  495.8183
 341  507.4869
 342  537.5439
 343  557.4326
 344  601.834
 345  533.2327
 346  555.4021
 347  495.3496
 348  482.701
 349  540.1421
 350  639.1075
 351  566.2762
 352  417.4516
 353  516.2993
 354  493.5417
 355  542.1815
 356  472.3665
 357  343.355
 358  484.7415
 359  598.8044
 360  547.6891
 361  461.711
 362  529.845
 363  527.4438
 364  483.8616
 365  442.9306
 366  422.4214
 367  510.4805
 368  486.516
 369  510.3625
 370  508.368
 371  473.9528
 372  395.7986
 373  380.1681
 374  312.4321
 375  460.317
 376  520.2737
 377  515.1759
 378  460.9998
 379  523.4651
 380  501.0349
 381  463.0602
 382  582.7556
 383  647.9929
 384  564.351
 385  582.121
 386  695.7
 387  657.6317
 388  579.8517
 389  550.4007
 390  584.0333
 391  544.6899
 392  575.9929
 393  680.3267
 394  605.8497
 395  610.2222
 396  619.0499
 397  610.3735
 398  569.1313
 399  547.4547
 400  507.0608
 401  574.8929
 402  565.8884
 403  593.4035
 404  524.3567
 405  452.7301
 406  399.1537
 407  454.6146
 408  541.0114
 409  491.5285
 410  469.1239
 411  450.9234
 412  388.9479
 413  448.3439
 414  381.2078
 415  447.7091
 416  452.6387
 417  392.2842
 418  297.839
 419  338.698
 420  570.7986
 421  545.8065
 422  480.14
 423  476.1345
 424  439.8582
 425  403.6572
 426  278.1144
 427  276.8846
 428  382.1543
 429  376.1986
 430  436.8405
 431  418.194
 432  390.5057
 433  392.5734
 434  390.7502
 435  379.5163
 436  362.9857
 437  516.1465
 438  513.5682
 439  523.8175
 440  401.0636
 441  326.1915
 442  335.4517
 443  377.5632
 444  578.6027
 445  554.7809
 446  472.7288
 447  343.1895
 448  344.8375
 449  350.054
 450  310.7273
 451  403.1527
 452  588.9788
 453  496.4804
 454  554.8856
 455  440.9515
 456  436.7394
 457  404.4433
 458  468.9733
 459  453.3134
 460  372.394
 461  330.5273
 462  459.0671
 463  387.7939
 464  441.8603
 465  464.8914
 466  407.2353
 467  333.437
 468  361.2073
 469  468.4729
 470  498.0073
 471  521.5278
 472  503.7943
 473  466.3078
 474  463.8601
 475  338.7597
 476  399.1414
 477  412.0321
 478  330.4628
 479  294.9524
 480  410.8223
 481  457.803
 482  449.3279
 483  490.0203
 484  596.123
 485  525.4746
 486  404.2285
 487  449.6564
 488  445.1363
 489  512.8989
 490  450.9463
 491  442.8746
 492  364.4501
 493  427.6875
 494  549.2582
 495  434.9626
 496  353.7054
 497  447.8663
 498  418.4386
 499  344.8151
 500  317.3358
 501  356.5388
 502  418.3755
 503  421.6415
 504  503.6367
 505  480.9422
 506  509.6254
 507  487.34
 508  574.9641
 509  752.7501
 510  814.8539
 511  946.4814
