# Input file       =  1179820436.100343_cleaned.dat
# Candidate        =  PSR_0332+5434
# Telescope        =  AR
# Epoch_topo       =  57899.329341439152
# Epoch_bary       =  N/A
# T_sample         =  0.002
# Data Folded      =  7340032
# Data Avg         =  0.0287161344314263
# Data StdDev      =  1.00006151291222 
# Profile Bins     =  512
# Profile Avg      =  411.688600461761 
# Profile StdDev   =  119.740401504522 
# Reduced chi-sqr  =  1.018
# Prob(Noise)      <  0.382   (~0.3 sigma)
# P_topo (ms)      =  714.522173972429  +/- 0.000572
# P'_topo (s/s)    =  -0                +/- 3.02e-10
# P''_topo (s/s^2) =  0                 +/- 1.33e-13
# P_bary (ms)      =  N/A
# P'_bary (s/s)    =  N/A
# P''_bary (s/s^2) =  N/A
# P_orb (s)        =  N/A
# asin(i)/c (s)    =  N/A
# eccentricity     =  N/A
# w (rad)          =  N/A
# T_peri           =  N/A
######################################################
   0  512.6659
   1  415.3733
   2  311.9168
   3  393.6471
   4  428.5952
   5  516.7908
   6  469.1596
   7  517.8106
   8  551.8172
   9  497.1545
  10  500.7195
  11  568.3065
  12  521.6531
  13  501.9692
  14  486.7614
  15  462.5164
  16  425.3364
  17  502.421
  18  503.1752
  19  518.23
  20  508.8393
  21  356.981
  22  380.2817
  23  487.5017
  24  467.6615
  25  428.0142
  26  432.1776
  27  390.5352
  28  272.2458
  29  329.9854
  30  347.8188
  31  396.2773
  32  507.4098
  33  456.0365
  34  343.4989
  35  334.9152
  36  367.1195
  37  411.7234
  38  390.3563
  39  250.6798
  40  299.6878
  41  292.4619
  42  361.3169
  43  366.4929
  44  508.1332
  45  458.1927
  46  370.6074
  47  338.1044
  48  338.0325
  49  401.1493
  50  430.688
  51  394.8621
  52  320.6376
  53  313.5553
  54  240.3908
  55  246.4547
  56  366.4964
  57  382.6255
  58  362.3834
  59  289.886
  60  430.167
  61  503.5697
  62  394.8915
  63  370.6602
  64  383.5309
  65  387.4443
  66  544.3957
  67  486.073
  68  336.5196
  69  446.7616
  70  471.0251
  71  393.584
  72  414.5469
  73  422.0951
  74  458.3277
  75  407.6143
  76  305.7834
  77  407.1898
  78  398.7894
  79  494.4288
  80  351.8757
  81  384.2466
  82  361.9698
  83  392.1108
  84  459.2617
  85  501.3374
  86  363.6714
  87  408.052
  88  423.2186
  89  430.7088
  90  319.4276
  91  314.413
  92  295.2817
  93  441.4605
  94  352.0536
  95  356.2732
  96  402.9286
  97  444.5721
  98  467.0891
  99  448.0327
 100  549.6239
 101  471.5945
 102  475.938
 103  527.1938
 104  405.8776
 105  418.0302
 106  345.5198
 107  358.1179
 108  489.4368
 109  365.6552
 110  370.106
 111  576.9377
 112  492.0918
 113  477.3797
 114  346.453
 115  380.5797
 116  457.1702
 117  409.2553
 118  295.0326
 119  355.8268
 120  353.1679
 121  518.0779
 122  502.8225
 123  368.2207
 124  460.7297
 125  413.2238
 126  324.8047
 127  362.368
 128  595.9422
 129  539.5098
 130  492.0241
 131  305.5424
 132  383.7467
 133  433.4914
 134  453.0304
 135  476.4827
 136  454.2379
 137  502.2238
 138  400.816
 139  401.3933
 140  387.9998
 141  374.0309
 142  319.6587
 143  413.1504
 144  485.0013
 145  385.7307
 146  412.787
 147  415.9512
 148  476.6208
 149  506.1013
 150  400.5982
 151  382.2585
 152  480.1719
 153  340.1895
 154  274.1442
 155  353.4676
 156  429.3702
 157  320.6656
 158  350.6283
 159  455.0646
 160  416.8096
 161  456.321
 162  401.4477
 163  266.0704
 164  270.9613
 165  399.787
 166  428.2648
 167  340.5201
 168  246.7976
 169  328.031
 170  409.3687
 171  271.2041
 172  233.2215
 173  354.792
 174  403.3459
 175  513.0795
 176  441.5648
 177  329.59
 178  424.4167
 179  307.734
 180  307.9217
 181  424.3033
 182  453.7927
 183  423.0326
 184  485.9923
 185  437.4264
 186  560.658
 187  357.5556
 188  388.3306
 189  334.5639
 190  348.0217
 191  329.2134
 192  300.3074
 193  399.7173
 194  442.2537
 195  446.258
 196  467.9791
 197  384.4404
 198  509.2878
 199  413.5699
 200  499.8749
 201  385.274
 202  403.7624
 203  552.3991
 204  407.1447
 205  369.3166
 206  414.8698
 207  460.0927
 208  356.6495
 209  330.9164
 210  391.673
 211  388.3545
 212  321.2707
 213  320.2255
 214  420.1526
 215  469.6479
 216  348.1279
 217  311.2356
 218  359.9682
 219  398.072
 220  231.4441
 221  249.4267
 222  243.5533
 223  298.1772
 224  424.6434
 225  478.9132
 226  480.6652
 227  495.3206
 228  399.5578
 229  341.7735
 230  434.3813
 231  434.211
 232  361.6221
 233  401.82
 234  414.4222
 235  404.5574
 236  306.2516
 237  350.026
 238  447.401
 239  454.2973
 240  379.7861
 241  492.6721
 242  514.4641
 243  496.2331
 244  570.3099
 245  519.4583
 246  378.7346
 247  227.5346
 248  320.5331
 249  424.9081
 250  466.0246
 251  382.9069
 252  406.1734
 253  444.3525
 254  480.3214
 255  361.9135
 256  293.6378
 257  380.6902
 258  429.5087
 259  269.3782
 260  307.1524
 261  399.7639
 262  275.2211
 263  222.1422
 264  362.3614
 265  277.7222
 266  248.6979
 267  259.0581
 268  343.533
 269  401.6269
 270  376.4406
 271  350.7905
 272  499.748
 273  338.3639
 274  294.0124
 275  276.9768
 276  296.6795
 277  402.0377
 278  452.2541
 279  421.7787
 280  442.3224
 281  415.6174
 282  415.5411
 283  244.8238
 284  386.9786
 285  496.8677
 286  557.6655
 287  403.5744
 288  261.1786
 289  234.0306
 290  236.4659
 291  316.7546
 292  260.3201
 293  494.8196
 294  506.2367
 295  503.6399
 296  433.0979
 297  357.2646
 298  398.4951
 299  360.2458
 300  370.1573
 301  379.4012
 302  416.4062
 303  396.3638
 304  247.1623
 305  352.4245
 306  464.2107
 307  536.0633
 308  498.2112
 309  424.3495
 310  489.253
 311  480.0063
 312  429.7747
 313  434.8921
 314  521.2877
 315  490.2733
 316  308.8885
 317  410.5375
 318  447.9966
 319  308.4967
 320  321.0941
 321  489.1609
 322  400.041
 323  343.8807
 324  532.2371
 325  583.7225
 326  515.7772
 327  457.2296
 328  548.7574
 329  538.6472
 330  398.1802
 331  390.6052
 332  414.7968
 333  412.7651
 334  426.9604
 335  419.7858
 336  340.8395
 337  282.8466
 338  297.7935
 339  279.5467
 340  402.6489
 341  491.371
 342  287.227
 343  316.0044
 344  267.9812
 345  394.4294
 346  359.7925
 347  338.9792
 348  378.3425
 349  403.9481
 350  379.9501
 351  390.7993
 352  393.7181
 353  357.4465
 354  389.2414
 355  337.4805
 356  291.6501
 357  293.1666
 358  222.0256
 359  272.1521
 360  253.9262
 361  319.9098
 362  496.9217
 363  399.1099
 364  356.7105
 365  259.0667
 366  235.8709
 367  256.9346
 368  330.151
 369  319.6268
 370  284.1696
 371  321.4255
 372  337.1998
 373  399.4263
 374  453.7632
 375  491.0766
 376  416.2705
 377  360.4977
 378  455.1003
 379  539.8442
 380  494.396
 381  420.3741
 382  397.2746
 383  388.1586
 384  463.0773
 385  392.7481
 386  303.6816
 387  374.3168
 388  340.6522
 389  453.0546
 390  375.167
 391  417.3278
 392  502.0838
 393  408.1231
 394  291.4998
 395  361.6096
 396  335.8783
 397  503.497
 398  417.5195
 399  366.0923
 400  409.6337
 401  456.4274
 402  533.5925
 403  387.8894
 404  296.3225
 405  409.0632
 406  431.0812
 407  436.7685
 408  352.8616
 409  297.6179
 410  354.6314
 411  410.1855
 412  364.8202
 413  348.7008
 414  288.3686
 415  307.6731
 416  380.8966
 417  487.7016
 418  426.0459
 419  310.1439
 420  287.2282
 421  357.9478
 422  352.719
 423  428.2959
 424  460.8509
 425  473.4734
 426  432.4156
 427  434.6648
 428  439.3159
 429  414.0468
 430  438.4274
 431  321.3853
 432  327.3303
 433  412.1635
 434  453.8851
 435  563.1719
 436  502.9256
 437  576.9163
 438  525.9422
 439  456.5115
 440  428.5933
 441  403.3636
 442  449.8928
 443  404.9376
 444  396.7939
 445  347.2945
 446  359.818
 447  358.6568
 448  469.1992
 449  515.2724
 450  472.1675
 451  412.2501
 452  481.5081
 453  503.7114
 454  677.3291
 455  798.1054
 456  734.3781
 457  742.1791
 458  688.1566
 459  479.4836
 460  422.9037
 461  505.325
 462  415.4875
 463  492.9169
 464  456.3354
 465  480.3784
 466  328.7713
 467  329.366
 468  361.7339
 469  433.2596
 470  571.9041
 471  512.5149
 472  553.15
 473  656.5815
 474  520.3094
 475  455.7613
 476  465.089
 477  502.9615
 478  482.3087
 479  432.514
 480  512.3051
 481  533.3962
 482  608.9423
 483  521.0418
 484  410.1798
 485  452.3582
 486  559.9137
 487  486.6519
 488  470.6425
 489  498.9951
 490  480.7856
 491  533.9433
 492  545.6187
 493  504.2501
 494  388.0904
 495  467.1964
 496  617.8502
 497  599.3213
 498  547.631
 499  537.9399
 500  566.644
 501  469.4564
 502  462.079
 503  501.1865
 504  563.1807
 505  502.1902
 506  542.2026
 507  469.2451
 508  392.9343
 509  350.8354
 510  324.9786
 511  458.9832
