# Input file       =  1179130528.109754_cleaned.dat
# Candidate        =  PSR_0332+5434
# Telescope        =  AR
# Epoch_topo       =  57891.344295251780
# Epoch_bary       =  N/A
# T_sample         =  0.002
# Data Folded      =  7340032
# Data Avg         =  0.0760112545082977
# Data StdDev      =  2.81200249183169 
# Profile Bins     =  256
# Profile Avg      =  2179.45399285459 
# Profile StdDev   =  476.150993886758 
# Reduced chi-sqr  =  1.230
# Prob(Noise)      <  0.00711   (~2.5 sigma)
# P_topo (ms)      =  714.53002716378   +/- 0.000519
# P'_topo (s/s)    =  -0                +/- 2.74e-10
# P''_topo (s/s^2) =  0                 +/- 1.21e-13
# P_bary (ms)      =  N/A
# P'_bary (s/s)    =  N/A
# P''_bary (s/s^2) =  N/A
# P_orb (s)        =  N/A
# asin(i)/c (s)    =  N/A
# eccentricity     =  N/A
# w (rad)          =  N/A
# T_peri           =  N/A
######################################################
   0  1915.838
   1  2183.866
   2  2222.59
   3  2356.4
   4  2467.932
   5  1965.494
   6  1814.462
   7  1681.326
   8  1831.447
   9  1149.976
  10  2084.501
  11  905.5712
  12  2227.042
  13  2009.852
  14  1933.983
  15  1850.948
  16  1829.336
  17  2058.646
  18  1724.937
  19  1859.37
  20  1739.918
  21  1970.636
  22  1800.124
  23  1621.869
  24  2104.348
  25  2012.81
  26  1895.011
  27  1916.899
  28  2103.765
  29  2092.073
  30  2539.086
  31  2639.775
  32  2304.747
  33  2393.838
  34  2151.146
  35  1677.242
  36  1721.251
  37  1550.42
  38  1637.105
  39  1137.106
  40  1946.075
  41  2002.238
  42  1779.437
  43  2026.837
  44  1841.312
  45  2151.43
  46  1795.421
  47  1798.281
  48  1443.168
  49  1687.859
  50  1994.529
  51  2409.362
  52  1913.319
  53  1715.707
  54  1578.154
  55  1352.464
  56  1847.445
  57  2283.313
  58  2201.721
  59  1879.365
  60  2348.441
  61  2254.208
  62  2443.397
  63  2579.377
  64  2244.509
  65  2112.899
  66  2184.83
  67  2145.094
  68  2124.169
  69  2834.417
  70  2638.445
  71  2439.73
  72  2986.267
  73  2563.328
  74  2574.347
  75  2321.786
  76  2164.594
  77  2761.938
  78  2361.767
  79  2035.191
  80  2009.017
  81  1800.625
  82  1257.814
  83  1908.73
  84  1933.896
  85  2814.544
  86  2352.359
  87  2104.966
  88  2285.958
  89  2778.209
  90  2061.337
  91  2115.764
  92  2116.923
  93  1934.231
  94  2379.305
  95  2356.844
  96  2267.276
  97  2335.154
  98  2505.902
  99  2447.055
 100  2073.465
 101  2337.06
 102  1681.919
 103  2397.452
 104  2014.111
 105  2293.305
 106  1964.627
 107  2603.468
 108  2178.235
 109  2173.014
 110  2587.181
 111  2093.058
 112  2896.73
 113  2471.5
 114  1860.964
 115  2975.194
 116  1590.439
 117  2683.105
 118  2009.177
 119  2302.894
 120  2031.611
 121  2100.656
 122  1696.626
 123  1499.529
 124  2268.174
 125  2051.523
 126  2389.036
 127  1644.484
 128  2138.812
 129  1764.043
 130  2073.607
 131  2428.527
 132  2127.152
 133  1863.33
 134  2301.562
 135  2409.722
 136  1848.439
 137  1378.253
 138  1592.304
 139  1689.703
 140  2116.595
 141  1495.717
 142  2060.761
 143  2050.941
 144  1344.397
 145  1198.703
 146  1907.928
 147  2168.964
 148  1673.552
 149  1974.446
 150  1687.862
 151  1937.471
 152  2125.742
 153  2338.629
 154  1979.498
 155  3158.67
 156  2462.086
 157  1825.358
 158  2065.6
 159  2499.866
 160  2167.959
 161  2271.683
 162  2696.61
 163  3454.169
 164  4786.418
 165  4197.459
 166  2937.463
 167  2313.279
 168  2215.376
 169  2267.59
 170  2480.558
 171  2363.414
 172  2784.466
 173  1913.435
 174  1787.167
 175  1985.5
 176  1954.532
 177  1673.453
 178  2039.704
 179  1813.927
 180  2809.477
 181  2498.806
 182  2961.797
 183  2692.237
 184  2132.913
 185  2655.326
 186  2511.361
 187  2608.082
 188  2890.59
 189  2581.096
 190  2512.816
 191  2629.501
 192  2281.066
 193  2595.242
 194  2746.573
 195  2116.112
 196  2369.14
 197  2622.391
 198  2569.3
 199  2177.254
 200  3475.595
 201  2746.3
 202  2732.832
 203  2067.311
 204  2594.666
 205  2379.468
 206  2704.076
 207  2991.962
 208  2756.936
 209  2754.718
 210  2709.957
 211  2614.299
 212  2761.75
 213  2605.635
 214  2091.014
 215  2546.829
 216  1773.305
 217  2291.569
 218  2371.029
 219  2197.379
 220  1661.586
 221  1462.256
 222  2435.53
 223  2093.551
 224  2503.422
 225  2140.633
 226  1908.973
 227  1781.951
 228  1517.862
 229  2153.551
 230  2543.706
 231  2321.438
 232  1564.282
 233  1720.106
 234  1959.277
 235  2315.293
 236  1959.779
 237  2059.447
 238  1674.122
 239  1970.848
 240  2412.621
 241  2016.449
 242  1936.461
 243  1618.447
 244  1981.579
 245  2311.954
 246  1697.027
 247  2466.645
 248  1997.106
 249  2547.892
 250  2582.005
 251  2148.208
 252  2517.687
 253  2277.997
 254  2661.775
 255  1615.339
