# Input file       =  1179317779.097507-PSRB0329-2ms-sampling-dd.dat
# Candidate        =  PSR_0332+5434
# Telescope        =  AR
# Epoch_topo       =  57893.511552054479
# Epoch_bary       =  N/A
# T_sample         =  0.002
# Data Folded      =  7340032
# Data Avg         =  5.75656362670744e-10
# Data StdDev      =  5.49441995945207 
# Profile Bins     =  512
# Profile Avg      =  0.0292367579836444
# Profile StdDev   =  657.863584874304 
# Reduced chi-sqr  =  0.853
# Prob(Noise)      <  0.993   (~0.0 sigma)
# P_topo (ms)      =  714.528240271466  +/- 0.000178
# P'_topo (s/s)    =  -0                +/- 9.41e-11
# P''_topo (s/s^2) =  0                 +/- 4.15e-14
# P_bary (ms)      =  N/A
# P'_bary (s/s)    =  N/A
# P''_bary (s/s^2) =  N/A
# P_orb (s)        =  N/A
# asin(i)/c (s)    =  N/A
# eccentricity     =  N/A
# w (rad)          =  N/A
# T_peri           =  N/A
######################################################
   0  -307.3048
   1  -650.152
   2  -165.5357
   3  -117.122
   4  -511.413
   5  -838.3882
   6  -1158.518
   7  -694.9457
   8  -644.9874
   9  -424.6404
  10  -426.828
  11  -355.3049
  12  -714.8162
  13  -483.2156
  14  -3.61097
  15  358.5591
  16  259.688
  17  275.0418
  18  564.8806
  19  -82.1685
  20  -288.7396
  21  -250.6682
  22  -383.4316
  23  321.1363
  24  261.0798
  25  118.5807
  26  -45.81351
  27  -46.26072
  28  23.33666
  29  -4.689659
  30  -351.514
  31  -139.5905
  32  246.1503
  33  -109.1649
  34  -25.6191
  35  -163.9987
  36  40.95755
  37  172.2135
  38  5.61352
  39  -92.10639
  40  -185.6761
  41  -107.8682
  42  -129.0555
  43  -172.3601
  44  59.64534
  45  -769.0672
  46  -711.0276
  47  -854.3699
  48  -449.94
  49  -625.0526
  50  -465.038
  51  -164.2595
  52  -426.0776
  53  -619.267
  54  -672.7241
  55  -631.0995
  56  -51.63143
  57  -138.0387
  58  -403.3561
  59  -292.1617
  60  -330.5367
  61  -133.4122
  62  -22.36455
  63  -342.3573
  64  -47.04025
  65  -284.122
  66  -230.0404
  67  -719.1823
  68  -1028.793
  69  -1100.314
  70  -708.9487
  71  -648.4235
  72  -510.4482
  73  -210.444
  74  -114.49
  75  -288.0359
  76  -527.0637
  77  -624.8237
  78  36.01136
  79  -193.9516
  80  -304.5275
  81  -263.3096
  82  399.1699
  83  341.3387
  84  -94.99356
  85  141.3136
  86  280.7506
  87  -229.8262
  88  -820.8837
  89  -441.7631
  90  -178.0588
  91  -538.4329
  92  -423.674
  93  5.086
  94  -318.3389
  95  -568.1636
  96  -390.9533
  97  -115.9743
  98  335.5605
  99  511.9643
 100  406.5854
 101  304.121
 102  -202.6612
 103  -148.7344
 104  -30.69443
 105  61.72197
 106  79.38744
 107  402.9324
 108  100.6087
 109  -89.11222
 110  -53.50338
 111  -276.1031
 112  -587.0869
 113  -555.6111
 114  -475.9072
 115  -232.2908
 116  107.3079
 117  126.249
 118  -534.2665
 119  -518.5502
 120  -824.4236
 121  -758.0039
 122  -367.5702
 123  56.78292
 124  252.669
 125  130.6077
 126  -52.72359
 127  -347.0054
 128  -619.5644
 129  -98.41279
 130  -190.1243
 131  178.0898
 132  -122.1179
 133  -715.1644
 134  -508.2368
 135  110.1303
 136  12.82236
 137  83.74613
 138  -307.7451
 139  -142.764
 140  430.0337
 141  8.309006
 142  180.8832
 143  266.6099
 144  318.1389
 145  411.8053
 146  463.4662
 147  139.1043
 148  -11.0007
 149  114.4857
 150  419.6421
 151  216.0265
 152  496.3326
 153  639.1068
 154  27.61205
 155  -62.24863
 156  57.76736
 157  170.2319
 158  183.1063
 159  642.9048
 160  976.1663
 161  611.4539
 162  410.8568
 163  197.5597
 164  526.13
 165  684.3475
 166  762.0667
 167  711.8934
 168  286.0331
 169  383.9772
 170  188.6925
 171  569.0389
 172  420.2645
 173  302.8898
 174  564.9346
 175  529.4936
 176  527.0901
 177  141.2691
 178  36.16813
 179  188.0139
 180  676.6876
 181  700.6248
 182  352.9695
 183  9.290038
 184  142.5044
 185  61.5976
 186  116.9596
 187  235.3331
 188  157.9487
 189  438.184
 190  289.9449
 191  209.3819
 192  306.9545
 193  352.302
 194  138.5894
 195  476.7147
 196  603.7487
 197  241.8924
 198  675.1437
 199  1004.71
 200  1116.628
 201  361.604
 202  422.3984
 203  339.8428
 204  42.5217
 205  408.4031
 206  599.0765
 207  524.7218
 208  -149.9838
 209  128.2413
 210  639.7231
 211  342.8952
 212  23.50625
 213  238.8842
 214  303.8533
 215  -143.2257
 216  96.16169
 217  183.8326
 218  164.3551
 219  -37.65929
 220  -96.04884
 221  110.0661
 222  224.1061
 223  -19.01788
 224  -118.364
 225  93.30408
 226  -245.9677
 227  -468.3067
 228  -118.3365
 229  215.8207
 230  96.80226
 231  -120.6695
 232  70.56646
 233  -70.96824
 234  321.98
 235  271.8203
 236  -135.6426
 237  247.077
 238  291.9118
 239  201.0302
 240  -282.3775
 241  -59.96832
 242  294.7766
 243  383.1355
 244  395.4603
 245  240.0119
 246  313.3288
 247  -117.1615
 248  -77.99267
 249  -97.28898
 250  -451.0574
 251  -343.3671
 252  -544.2916
 253  -642.7702
 254  -157.9618
 255  -81.60814
 256  -44.71097
 257  3.055874
 258  120.3427
 259  83.89369
 260  307.1574
 261  -22.73949
 262  -215.499
 263  -130.5702
 264  -358.4259
 265  -351.3442
 266  -251.2093
 267  -267.5751
 268  158.9013
 269  132.9068
 270  -277.0744
 271  -137.1981
 272  -83.27841
 273  -317.6562
 274  100.9458
 275  13.16333
 276  170.0987
 277  -364.6861
 278  -170.5027
 279  -12.6925
 280  24.20518
 281  138.4153
 282  -317.9071
 283  -379.0481
 284  104.737
 285  181.8712
 286  46.53917
 287  -97.24733
 288  -182.0971
 289  374.9174
 290  764.9117
 291  325.1425
 292  499.3976
 293  549.931
 294  262.2452
 295  -242.0621
 296  170.5414
 297  21.85578
 298  59.26792
 299  -40.66304
 300  -162.9281
 301  433.6919
 302  366.9713
 303  119.8823
 304  -188.6672
 305  -224.0497
 306  79.41342
 307  10.94244
 308  269.022
 309  475.4196
 310  556.1683
 311  370.9391
 312  181.7445
 313  267.4282
 314  156.7776
 315  213.8517
 316  256.9245
 317  264.5247
 318  848.1296
 319  479.0887
 320  171.5108
 321  -38.61275
 322  -35.64246
 323  -138.0635
 324  198.5026
 325  528.5255
 326  760.6577
 327  485.8304
 328  158.1654
 329  15.94208
 330  28.00305
 331  513.6161
 332  494.9621
 333  900.3307
 334  710.3297
 335  223.1426
 336  572.6046
 337  529.8782
 338  654.5811
 339  580.3883
 340  89.95211
 341  162.6012
 342  613.504
 343  1003.929
 344  621.3917
 345  308.3562
 346  168.277
 347  424.0556
 348  501.4954
 349  1288.503
 350  1686.407
 351  1580.69
 352  1588.505
 353  860.0988
 354  196.4785
 355  -413.7685
 356  -78.55701
 357  -10.36265
 358  477.2384
 359  893.4935
 360  609.626
 361  287.0011
 362  327.0114
 363  104.3619
 364  297.4298
 365  523.006
 366  620.2919
 367  1123.669
 368  821.3685
 369  409.8877
 370  -395.8801
 371  -208.4085
 372  -80.3593
 373  -213.95
 374  -238.0338
 375  5.467954
 376  -364.0993
 377  -435.2209
 378  -225.0492
 379  198.1166
 380  -380.0903
 381  -693.8535
 382  -394.4883
 383  114.9924
 384  -348.4142
 385  -849.1348
 386  -738.0192
 387  -891.3146
 388  -1346.263
 389  -1300.638
 390  -704.301
 391  -317.7551
 392  -496.0242
 393  -876.7231
 394  -547.6209
 395  -818.0229
 396  -1169.664
 397  -1019.506
 398  -647.4887
 399  -213.6568
 400  202.1763
 401  231.2141
 402  -231.6096
 403  -315.352
 404  -518.5331
 405  -622.4819
 406  -508.6501
 407  -487.3043
 408  -305.3033
 409  -391.049
 410  -588.587
 411  -682.0416
 412  -366.726
 413  -505.2872
 414  -758.0757
 415  -741.8209
 416  -596.1893
 417  -349.6017
 418  -434.1143
 419  68.6783
 420  -468.2255
 421  -616.445
 422  -789.4602
 423  -598.566
 424  -366.4069
 425  34.82553
 426  -138.7612
 427  -365.8461
 428  -119.0598
 429  -819.28
 430  -583.8384
 431  -299.9044
 432  1.412144
 433  145.8361
 434  281.9354
 435  -148.0524
 436  -483.2147
 437  -120.838
 438  507.4725
 439  173.7336
 440  351.8666
 441  326.6941
 442  -271.794
 443  -457.4322
 444  -389.5766
 445  -207.8547
 446  -357.052
 447  -226.6039
 448  -243.3168
 449  -419.692
 450  -280.0233
 451  -418.361
 452  -736.1487
 453  -952.8685
 454  -522.1531
 455  -359.3803
 456  -621.2393
 457  -127.0037
 458  241.0959
 459  -88.59352
 460  -246.9622
 461  3.867226
 462  71.74093
 463  -168.9222
 464  120.0526
 465  518.937
 466  556.3408
 467  280.4476
 468  224.3566
 469  -349.579
 470  160.2779
 471  465.3558
 472  421.3198
 473  -89.54829
 474  -8.344225
 475  150.5184
 476  197.2653
 477  334.82
 478  501.2355
 479  293.726
 480  119.889
 481  251.6234
 482  190.0523
 483  -1.612627
 484  -145.601
 485  -13.14753
 486  249.3373
 487  181.069
 488  5.931584
 489  103.7154
 490  112.2477
 491  -0.4078992
 492  522.1099
 493  995.3143
 494  1154.216
 495  984.2219
 496  110.2459
 497  -179.9731
 498  -184.7458
 499  319.7152
 500  757.1469
 501  568.1777
 502  406.4649
 503  119.6216
 504  -16.22404
 505  -292.9477
 506  -112.0401
 507  316.8713
 508  214.7825
 509  -152.9761
 510  -66.5543
 511  -197.5031
