# Input file       =  1179317779.097507_cleaned.dat
# Candidate        =  PSR_0332+5434
# Telescope        =  AR
# Epoch_topo       =  57893.511552054479
# Epoch_bary       =  N/A
# T_sample         =  0.002
# Data Folded      =  7340032
# Data Avg         =  0.0168626974199818
# Data StdDev      =  1.00006760652002 
# Profile Bins     =  512
# Profile Avg      =  241.730808659804 
# Profile StdDev   =  119.741131110687 
# Reduced chi-sqr  =  1.114
# Prob(Noise)      <  0.0382   (~1.8 sigma)
# P_topo (ms)      =  714.528240271466  +/- 0.000247
# P'_topo (s/s)    =  -0                +/- 1.3e-10
# P''_topo (s/s^2) =  0                 +/- 5.75e-14
# P_bary (ms)      =  N/A
# P'_bary (s/s)    =  N/A
# P''_bary (s/s^2) =  N/A
# P_orb (s)        =  N/A
# asin(i)/c (s)    =  N/A
# eccentricity     =  N/A
# w (rad)          =  N/A
# T_peri           =  N/A
######################################################
   0  243.6298
   1  158.2034
   2  217.2331
   3  291.4247
   4  191.8304
   5  187.8288
   6  103.7409
   7  151.2787
   8  146.5645
   9  120.6407
  10  177.103
  11  148.2166
  12  66.74528
  13  199.3814
  14  273.0818
  15  338.5963
  16  212.7527
  17  274.1257
  18  390.4914
  19  253.4116
  20  248.5474
  21  230.0516
  22  206.2714
  23  364.8514
  24  296.022
  25  235.9641
  26  273.3268
  27  271.1478
  28  258.8439
  29  259.0235
  30  175.0587
  31  249.9838
  32  232.9919
  33  177.5216
  34  143.1084
  35  68.4312
  36  202.8802
  37  268.0869
  38  208.0085
  39  196.5386
  40  204.0249
  41  188.6428
  42  196.0621
  43  194.4916
  44  333.12
  45  133.0204
  46  210.9374
  47  161.2937
  48  178.5963
  49  35.41299
  50  111.6352
  51  295.9068
  52  212.9283
  53  169.2294
  54  183.2946
  55  196.6543
  56  366.3453
  57  263.3645
  58  161.9028
  59  206.9984
  60  234.1263
  61  222.746
  62  301.6622
  63  231.8872
  64  264.9504
  65  192.9443
  66  243.0078
  67  135.8599
  68  45.62612
  69  52.11631
  70  163.2596
  71  184.3728
  72  178.5251
  73  253.1062
  74  270.5011
  75  296.4361
  76  166.7797
  77  131.2724
  78  215.8366
  79  208.3339
  80  276.2177
  81  205.4129
  82  383.9002
  83  341.1252
  84  256.5623
  85  260.4472
  86  357.7916
  87  267.0739
  88  111.6752
  89  236.0317
  90  275.8363
  91  173.0159
  92  147.2582
  93  220.367
  94  125.5622
  95  65.83124
  96  142.4702
  97  198.8542
  98  327.2317
  99  329.0518
 100  251.2588
 101  231.8805
 102  138.8658
 103  139.7332
 104  175.7817
 105  263.1237
 106  236.0246
 107  311.0592
 108  288.4518
 109  249.2039
 110  151.3557
 111  131.1673
 112  79.01966
 113  87.7658
 114  106.154
 115  -11.88391
 116  156.5928
 117  189.5273
 118  78.56673
 119  143.3429
 120  92.28796
 121  158.8596
 122  148.8031
 123  237.5121
 124  241.8462
 125  255.6431
 126  266.3838
 127  191.9641
 128  162.9859
 129  247.9393
 130  222.9891
 131  259.2334
 132  197.5418
 133  -14.77831
 134  57.5252
 135  283.4884
 136  244.4684
 137  269.9641
 138  135.843
 139  111.0971
 140  253.4104
 141  145.8388
 142  181.4871
 143  203.4694
 144  220.1023
 145  225.3372
 146  289.1291
 147  213.5547
 148  147.4615
 149  113.2701
 150  185.2785
 151  160.7274
 152  179.6885
 153  263.938
 154  141.909
 155  216.6053
 156  181.1548
 157  176.2271
 158  315.0519
 159  385.9935
 160  434.1308
 161  258.6583
 162  207.1001
 163  141.2932
 164  134.799
 165  255.046
 166  281.1613
 167  273.3539
 168  149.4375
 169  242.3847
 170  263.7765
 171  363.0755
 172  264.4517
 173  164.6996
 174  234.292
 175  275.0798
 176  308.433
 177  230.1759
 178  136.7007
 179  189.7354
 180  284.4633
 181  242.2786
 182  173.6786
 183  147.2637
 184  228.1998
 185  226.0133
 186  244.6229
 187  286.2827
 188  214.4687
 189  263.6866
 190  166.5123
 191  182.2877
 192  274.8176
 193  258.1945
 194  305.5833
 195  411.1872
 196  381.1645
 197  273.38
 198  272.485
 199  390.6345
 200  453.8362
 201  307.5121
 202  362.1751
 203  319.8646
 204  217.7537
 205  272.5913
 206  266.3108
 207  243.1155
 208  122.2562
 209  194.9679
 210  371.2662
 211  355.6768
 212  253.2571
 213  342.6475
 214  406.9866
 215  217.1681
 216  253.5039
 217  332.0816
 218  298.4144
 219  211.306
 220  168.4437
 221  298.1507
 222  275.9413
 223  200.5836
 224  259.429
 225  329.6037
 226  262.3186
 227  186.6948
 228  271.9425
 229  374.7909
 230  352.3523
 231  220.4178
 232  222.6029
 233  202.989
 234  317.8321
 235  332.9638
 236  228.354
 237  357.359
 238  437.2654
 239  341.0148
 240  165.3108
 241  220.0305
 242  336.401
 243  356.0122
 244  294.3595
 245  383.0435
 246  347.4995
 247  157.6047
 248  212.5856
 249  287.1654
 250  182.2979
 251  182.3687
 252  148.5011
 253  171.3706
 254  343.579
 255  365.6194
 256  295.154
 257  327.2004
 258  324.7448
 259  301.2738
 260  326.0551
 261  228.8942
 262  175.9758
 263  276.7458
 264  219.9331
 265  247.3195
 266  229.1688
 267  108.9676
 268  232.9667
 269  253.6304
 270  225.2132
 271  247.7914
 272  287.4634
 273  154.1892
 274  264.2619
 275  268.0452
 276  274.6807
 277  153.0988
 278  194.7954
 279  299.0238
 280  302.2406
 281  313.0155
 282  206.677
 283  174.0777
 284  296.7547
 285  325.5292
 286  284.2692
 287  236.244
 288  221.7697
 289  390.0063
 290  499.4944
 291  437.7789
 292  395.627
 293  365.6706
 294  268.6359
 295  178.3689
 296  285.7478
 297  260.694
 298  265.1562
 299  156.07
 300  156.4661
 301  266.1693
 302  267.4973
 303  259.4204
 304  157.5798
 305  140.0342
 306  337.8649
 307  305.1405
 308  236.8315
 309  217.4045
 310  289.8611
 311  206.7783
 312  261.4397
 313  236.3367
 314  197.8282
 315  170.123
 316  224.0474
 317  183.432
 318  274.1841
 319  260.6422
 320  183.0113
 321  195.0015
 322  205.4657
 323  132.2133
 324  243.8443
 325  299.2664
 326  348.0451
 327  303.6091
 328  201.38
 329  253.0647
 330  286.6999
 331  381.7091
 332  267.2762
 333  360.9801
 334  286.8625
 335  198.2294
 336  373.9796
 337  247.4413
 338  307.1113
 339  325.7942
 340  267.376
 341  240.833
 342  267.0781
 343  423.2498
 344  327.5547
 345  180.2352
 346  261.4477
 347  394.1418
 348  489.9162
 349  647.2127
 350  680.6409
 351  633.8862
 352  663.4902
 353  491.5552
 354  314.683
 355  181.3029
 356  262.4118
 357  146.6628
 358  182.8952
 359  340.5602
 360  251.5685
 361  217.1077
 362  322.9728
 363  319.8993
 364  324.7568
 365  377.1014
 366  374.4599
 367  513.8699
 368  411.9444
 369  319.2905
 370  223.4005
 371  272.0366
 372  289.4913
 373  315.1004
 374  277.6208
 375  326.2106
 376  191.8289
 377  268.3644
 378  348.7014
 379  431.5969
 380  259.9954
 381  203.545
 382  285.5933
 383  302.3833
 384  142.8966
 385  10.10915
 386  143.8231
 387  173.0844
 388  100.0664
 389  89.49757
 390  213.3844
 391  287.0258
 392  189.3677
 393  108.0983
 394  265.8513
 395  264.8122
 396  129.8922
 397  127.3719
 398  141.0691
 399  191.6744
 400  357.947
 401  275.2191
 402  221.7713
 403  339.6259
 404  211.1949
 405  61.65458
 406  75.88995
 407  131.8573
 408  157.1774
 409  204.9206
 410  159.2219
 411  114.4378
 412  191.7247
 413  202.1238
 414  145.4272
 415  168.5815
 416  152.8148
 417  241.1529
 418  235.9785
 419  376.4544
 420  162.3632
 421  173.0417
 422  224.2623
 423  185.1146
 424  217.9779
 425  249.223
 426  172.8049
 427  155.6574
 428  326.0969
 429  213.1065
 430  275.356
 431  277.7631
 432  217.8947
 433  262.8069
 434  283.1144
 435  248.7569
 436  164.306
 437  235.8592
 438  408.8351
 439  265.7965
 440  320.7166
 441  333.0107
 442  219.1272
 443  169.5267
 444  218.9355
 445  227.0983
 446  200.6981
 447  272.1788
 448  238.3553
 449  227.0135
 450  193.8552
 451  177.2967
 452  126.9132
 453  51.75704
 454  258.411
 455  274.7689
 456  191.0793
 457  294.9344
 458  419.0066
 459  315.2919
 460  245.6572
 461  263.7283
 462  273.5079
 463  249.6593
 464  252.7528
 465  327.2027
 466  288.1142
 467  270.3249
 468  284.012
 469  132.1288
 470  266.308
 471  300.3462
 472  290.9807
 473  185.0036
 474  211.2352
 475  300.3044
 476  278.9494
 477  286.5208
 478  308.9236
 479  178.4843
 480  207.0098
 481  258.7819
 482  140.2998
 483  57.96582
 484  98.09275
 485  153.9969
 486  121.2948
 487  74.1355
 488  170.7379
 489  243.2299
 490  272.433
 491  255.7904
 492  375.4565
 493  363.9505
 494  430.6466
 495  476.9489
 496  177.7467
 497  127.0008
 498  211.6337
 499  290.1781
 500  435.7591
 501  298.9461
 502  236.2144
 503  246.0983
 504  244.0962
 505  228.5307
 506  193.2459
 507  233.1826
 508  138.2243
 509  176.5503
 510  266.1958
 511  245.3109
