# Input file       =  1179490092.101490-PSRB0329-2ms-sampling-dd.dat
# Candidate        =  PSR_0332+5434
# Telescope        =  AR
# Epoch_topo       =  57895.505915526504
# Epoch_bary       =  N/A
# T_sample         =  0.002
# Data Folded      =  7340032
# Data Avg         =  -1.03908551010684e-09
# Data StdDev      =  5.18345554540946 
# Profile Bins     =  512
# Profile Avg      =  -0.0852053288734156
# Profile StdDev   =  620.630871375862 
# Reduced chi-sqr  =  0.669
# Prob(Noise)      <  1   (~0.0 sigma)
# P_topo (ms)      =  714.526277917308  +/- 0.000104
# P'_topo (s/s)    =  -0                +/- 5.49e-11
# P''_topo (s/s^2) =  0                 +/- 2.42e-14
# P_bary (ms)      =  N/A
# P'_bary (s/s)    =  N/A
# P''_bary (s/s^2) =  N/A
# P_orb (s)        =  N/A
# asin(i)/c (s)    =  N/A
# eccentricity     =  N/A
# w (rad)          =  N/A
# T_peri           =  N/A
######################################################
   0  50.36352
   1  179.3741
   2  346.9995
   3  832.3313
   4  991.5753
   5  811.1555
   6  622.8845
   7  390.5915
   8  871.0427
   9  1244.004
  10  1822.44
  11  1889.248
  12  1122.512
  13  536.0004
  14  -85.03982
  15  -59.53912
  16  -195.3922
  17  -99.16124
  18  55.96218
  19  -0.3457544
  20  -109.1226
  21  -11.97299
  22  318.1008
  23  153.0985
  24  117.6339
  25  -33.32182
  26  -376.3753
  27  -65.49117
  28  74.22741
  29  75.94551
  30  115.2135
  31  -555.9974
  32  -604.1602
  33  -558.4384
  34  -392.1795
  35  -291.8217
  36  -276.9787
  37  179.6298
  38  269.8609
  39  449.474
  40  39.44379
  41  -31.07164
  42  -150.9761
  43  353.1362
  44  171.7137
  45  -93.064
  46  400.0461
  47  434.9117
  48  84.78212
  49  -228.7173
  50  130.2252
  51  163.0646
  52  -131.3525
  53  13.51319
  54  78.14216
  55  260.2196
  56  220.1948
  57  -33.01533
  58  -395.8036
  59  -366.1982
  60  -177.7415
  61  -275.019
  62  -64.08203
  63  -47.56877
  64  232.7432
  65  11.17974
  66  -453.3775
  67  -443.3205
  68  227.8007
  69  290.9213
  70  211.4707
  71  351.2271
  72  150.5359
  73  195.025
  74  -16.01669
  75  443.8527
  76  409.9366
  77  -174.95
  78  -354.537
  79  -358.1913
  80  -215.0293
  81  -44.9622
  82  -268.3134
  83  -154.7933
  84  -122.544
  85  197.5052
  86  -178.6772
  87  -279.8845
  88  -446.7399
  89  -5.126947
  90  143.4014
  91  -170.5332
  92  -425.1011
  93  -432.1223
  94  -203.2094
  95  -177.8174
  96  86.25567
  97  -54.30265
  98  -293.4355
  99  -763.5526
 100  -910.3314
 101  -387.0342
 102  214.514
 103  407.2891
 104  472.1463
 105  390.5915
 106  -60.56602
 107  -339.4097
 108  -81.94613
 109  -342.715
 110  80.98375
 111  -100.1033
 112  -252.9586
 113  5.362293
 114  -363.7887
 115  -270.5013
 116  -82.38826
 117  -101.0123
 118  -481.7979
 119  -911.2802
 120  -97.71871
 121  242.6
 122  746.3494
 123  294.5421
 124  -554.1982
 125  -530.2292
 126  -728.7181
 127  -640.3983
 128  -261.7123
 129  65.80339
 130  138.8865
 131  -0.9185327
 132  -240.0488
 133  -448.6269
 134  -522.3828
 135  -496.2546
 136  -296.1346
 137  6.890734
 138  152.7469
 139  14.75365
 140  -32.36183
 141  -500.148
 142  74.05047
 143  370.4552
 144  260.293
 145  211.7699
 146  139.6018
 147  318.42
 148  -98.26035
 149  -117.4291
 150  -401.4534
 151  -542.6566
 152  -384.4756
 153  -547.5477
 154  157.0709
 155  82.03449
 156  -13.36489
 157  33.13794
 158  -182.3106
 159  -735.8057
 160  -777.152
 161  1.307186
 162  471.8646
 163  866.1407
 164  742.325
 165  503.2792
 166  -42.20832
 167  -306.4525
 168  -92.98766
 169  36.9955
 170  642.4904
 171  1146.341
 172  1129.41
 173  258.752
 174  99.22557
 175  -59.0944
 176  374.9716
 177  515.1802
 178  664.9722
 179  241.6045
 180  75.34318
 181  -102.0778
 182  -389.3679
 183  -481.0074
 184  -82.7904
 185  55.0637
 186  -21.7713
 187  -156.6172
 188  -91.76485
 189  -328.349
 190  -497.8655
 191  -493.3994
 192  -892.0247
 193  -779.3146
 194  -324.6391
 195  35.20835
 196  -301.1206
 197  -326.6562
 198  -278.7336
 199  -441.5256
 200  -472.1495
 201  -543.6184
 202  -94.83656
 203  -25.0677
 204  169.5334
 205  54.4255
 206  -322.2571
 207  -495.238
 208  -217.1474
 209  -269.4042
 210  -340.2586
 211  -92.23537
 212  -215.7734
 213  -227.3712
 214  -139.5096
 215  -482.6972
 216  -412.7628
 217  -301.7951
 218  97.9207
 219  -140.4671
 220  -228.733
 221  -226.9743
 222  22.42123
 223  56.87777
 224  -222.4994
 225  104.9995
 226  121.4622
 227  31.36456
 228  -335.0149
 229  -41.66082
 230  255.1195
 231  -49.08962
 232  -283.7933
 233  356.3063
 234  442.6378
 235  81.2095
 236  -121.5611
 237  105.5671
 238  337.1007
 239  -187.2843
 240  -237.3336
 241  -104.462
 242  -178.0352
 243  -281.9933
 244  49.17304
 245  -222.3099
 246  -68.55717
 247  -132.4302
 248  -312.3586
 249  -807.4404
 250  -650.7614
 251  -449.0188
 252  -272.0681
 253  -235.5244
 254  -127.3764
 255  135.1576
 256  -238.0464
 257  -100.9189
 258  7.534194
 259  -275.0203
 260  -663.979
 261  -827.1961
 262  -106.3205
 263  199.0522
 264  -118.318
 265  -309.29
 266  -77.76421
 267  75.18609
 268  -392.1041
 269  -460.9285
 270  -335.5983
 271  -594.135
 272  -364.0353
 273  -223.8956
 274  -630.7213
 275  -975.6283
 276  -744.6138
 277  -50.80136
 278  -221.0055
 279  -397.2503
 280  -400.5541
 281  -454.5363
 282  -739.2318
 283  -737.3065
 284  -157.4869
 285  -1.008707
 286  -60.96413
 287  -257.0927
 288  -550.0638
 289  -655.1492
 290  -343.7485
 291  -467.3356
 292  -21.44661
 293  343.81
 294  88.17708
 295  -316.1425
 296  -105.8288
 297  501.1778
 298  276.0007
 299  559.6705
 300  336.9871
 301  210.8951
 302  48.83001
 303  -332.1429
 304  286.3883
 305  832.4006
 306  894.6469
 307  476.2198
 308  74.02908
 309  -131.4864
 310  -98.31112
 311  -214.1842
 312  -74.8251
 313  -278.1606
 314  -214.0246
 315  132.6157
 316  -10.11799
 317  -20.59689
 318  4.899341
 319  160.0618
 320  656.983
 321  610.6133
 322  215.01
 323  106.7671
 324  -373.4207
 325  190.6434
 326  -152.8896
 327  -131.221
 328  -49.23673
 329  -113.3766
 330  -292.718
 331  20.65542
 332  -67.87283
 333  113.541
 334  -320.6738
 335  -183.4257
 336  220.6905
 337  228.5771
 338  -9.909905
 339  -225.6118
 340  247.3105
 341  382.8028
 342  44.76273
 343  -174.2011
 344  -47.15845
 345  -112.8221
 346  -1.086905
 347  219.1099
 348  357.4284
 349  -75.65404
 350  104.0232
 351  267.6456
 352  193.1624
 353  6.351442
 354  -587.1898
 355  -179.0031
 356  -1.668751
 357  195.547
 358  352.6287
 359  30.34217
 360  160.0062
 361  34.39463
 362  -463.753
 363  -363.9466
 364  18.41943
 365  579.5129
 366  707.1622
 367  176.244
 368  -181.1107
 369  154.4848
 370  125.5529
 371  180.184
 372  87.75529
 373  380.4736
 374  71.31129
 375  -260.3669
 376  -144.0761
 377  -108.7885
 378  57.65039
 379  14.24914
 380  220.6724
 381  200.6019
 382  178.6841
 383  211.6821
 384  -42.54127
 385  -0.9934578
 386  1.717484
 387  19.94341
 388  448.8177
 389  -90.4137
 390  32.07779
 391  695.2316
 392  339.3892
 393  -113.0463
 394  -373.9546
 395  -384.4589
 396  -396.0328
 397  -242.0062
 398  -266.5092
 399  -154.8982
 400  -436.1751
 401  18.09876
 402  347.5976
 403  72.65876
 404  -265.9717
 405  -25.60991
 406  121.7417
 407  225.9782
 408  215.0298
 409  37.05117
 410  506.1857
 411  387.6987
 412  156.7486
 413  394.1817
 414  194.3093
 415  143.8147
 416  175.6712
 417  623.5273
 418  364.5995
 419  194.9301
 420  86.48252
 421  117.9583
 422  -289.7847
 423  377.2998
 424  690.2208
 425  188.891
 426  113.3836
 427  39.06705
 428  28.92365
 429  -172.539
 430  -190.2013
 431  218.1511
 432  559.2043
 433  339.9633
 434  -141.8324
 435  -497.6951
 436  -241.1197
 437  -283.8931
 438  -306.7351
 439  56.05917
 440  82.39506
 441  474.4573
 442  436.8449
 443  291.7916
 444  378.0307
 445  -29.30488
 446  -215.9289
 447  -103.8794
 448  -66.66921
 449  104.3794
 450  543.35
 451  305.4996
 452  235.4
 453  97.47935
 454  -171.5591
 455  150.713
 456  338.7445
 457  -50.82236
 458  343.0374
 459  253.5491
 460  63.63579
 461  6.138708
 462  399.6009
 463  550.6921
 464  303.8928
 465  282.3584
 466  456.0517
 467  -71.3897
 468  108.5226
 469  229.1588
 470  -189.4175
 471  -217.8486
 472  -231.7413
 473  -4.546703
 474  29.22109
 475  348.1948
 476  333.1021
 477  -101.0313
 478  -77.97608
 479  86.76615
 480  38.31218
 481  -1.295405
 482  24.35489
 483  70.99319
 484  282.7975
 485  165.5941
 486  362.5914
 487  299.658
 488  -40.85296
 489  -98.37805
 490  260.5473
 491  251.1514
 492  71.22713
 493  441.6113
 494  218.411
 495  -276.0851
 496  -597.2065
 497  -219.217
 498  698.8151
 499  788.91
 500  884.8929
 501  324.3908
 502  -231.6517
 503  -569.8623
 504  -297.3966
 505  25.81967
 506  77.50874
 507  326.4402
 508  538.3332
 509  687.7674
 510  240.9014
 511  86.78747
