# Input file       =  1179216699.106159_cleaned.dat
# Candidate        =  PSR_0332+5434
# Telescope        =  AR
# Epoch_topo       =  57892.341644747212
# Epoch_bary       =  N/A
# T_sample         =  0.002
# Data Folded      =  7340032
# Data Avg         =  0.0259250020203131
# Data StdDev      =  1.0000239376054  
# Profile Bins     =  512
# Profile Avg      =  371.720782391063 
# Profile StdDev   =  119.735902498945 
# Reduced chi-sqr  =  1.143
# Prob(Noise)      <  0.0136   (~2.2 sigma)
# P_topo (ms)      =  714.529052719579  +/- 0.000175
# P'_topo (s/s)    =  -0                +/- 9.25e-11
# P''_topo (s/s^2) =  0                 +/- 4.08e-14
# P_bary (ms)      =  N/A
# P'_bary (s/s)    =  N/A
# P''_bary (s/s^2) =  N/A
# P_orb (s)        =  N/A
# asin(i)/c (s)    =  N/A
# eccentricity     =  N/A
# w (rad)          =  N/A
# T_peri           =  N/A
######################################################
   0  304.378
   1  273.6544
   2  407.3904
   3  271.021
   4  393.776
   5  395.128
   6  367.365
   7  400.9846
   8  396.4731
   9  328.4461
  10  297.0443
  11  429.7215
  12  402.0886
  13  508.8867
  14  568.7872
  15  372.2278
  16  233.8912
  17  388.9884
  18  422.1015
  19  423.0586
  20  485.0335
  21  559.2528
  22  417.0187
  23  328.4894
  24  402.6994
  25  381.7415
  26  257.5433
  27  311.5548
  28  348.1965
  29  306.4386
  30  320.3659
  31  391.5587
  32  369.4467
  33  342.6198
  34  241.8079
  35  266.2723
  36  329.2414
  37  231.1082
  38  251.3598
  39  252.9009
  40  332.5188
  41  405.4374
  42  408.6555
  43  378.2144
  44  247.1739
  45  185.161
  46  297.4645
  47  221.487
  48  252.2957
  49  256.4261
  50  369.943
  51  453.5269
  52  380.0043
  53  305.2952
  54  327.192
  55  303.0109
  56  473.8013
  57  349.5105
  58  296.9507
  59  452.5619
  60  465.1977
  61  317.8362
  62  378.5723
  63  374.2527
  64  432.232
  65  354.5351
  66  447.042
  67  445.0561
  68  534.564
  69  451.9341
  70  297.8083
  71  213.3373
  72  399.1823
  73  300.9066
  74  323.8935
  75  382.1149
  76  325.275
  77  259.1979
  78  260.3874
  79  392.9238
  80  293.2474
  81  264.0834
  82  278.2482
  83  338.2756
  84  285.1953
  85  241.5725
  86  248.1079
  87  223.6708
  88  320.4427
  89  396.7943
  90  300.722
  91  280.8021
  92  348.0356
  93  411.7589
  94  424.8168
  95  452.3758
  96  434.1471
  97  419.5659
  98  411.8998
  99  341.2355
 100  348.2915
 101  409.7535
 102  449.6136
 103  436.9214
 104  331.2672
 105  309.812
 106  395.7711
 107  392.5368
 108  459.9464
 109  401.6435
 110  353.3713
 111  329.4852
 112  390.339
 113  333.4397
 114  336.2638
 115  301.5208
 116  377.6275
 117  341.6092
 118  310.9609
 119  352.1313
 120  439.5867
 121  368.4119
 122  273.1145
 123  282.7435
 124  334.9044
 125  405.9244
 126  389.081
 127  350.4539
 128  415.6375
 129  372.2751
 130  286.4086
 131  223.2465
 132  248.7969
 133  317.1274
 134  369.1057
 135  364.6835
 136  354.6959
 137  310.0983
 138  292.5103
 139  285.2694
 140  389.6741
 141  442.443
 142  426.7459
 143  452.7446
 144  442.7506
 145  362.3198
 146  486.0891
 147  453.9516
 148  347.3083
 149  325.9803
 150  317.671
 151  326.1397
 152  224.538
 153  276.9256
 154  353.3919
 155  380.3141
 156  373.8869
 157  275.5186
 158  377.3177
 159  390.0844
 160  295.8839
 161  341.6934
 162  458.4811
 163  424.409
 164  395.2849
 165  349.3687
 166  287.1905
 167  247.7317
 168  192.1231
 169  277.0555
 170  374.814
 171  312.3507
 172  323.2886
 173  333.7626
 174  359.5787
 175  486.293
 176  563.9987
 177  498.4344
 178  385.8848
 179  397.3714
 180  386.6835
 181  424.5504
 182  390.3628
 183  405.3008
 184  346.9333
 185  406.4718
 186  371.4059
 187  278.7254
 188  363.4777
 189  304.1093
 190  276.9432
 191  285.5215
 192  345.8299
 193  396.3784
 194  373.248
 195  352.2953
 196  377.8741
 197  300.7562
 198  403.7029
 199  480.5884
 200  422.7854
 201  337.5995
 202  419.1796
 203  448.5749
 204  363.2172
 205  315.5982
 206  299.8942
 207  396.6645
 208  318.3018
 209  298.8448
 210  395.882
 211  271.9592
 212  278.8911
 213  176.9294
 214  282.6996
 215  317.7586
 216  342.1525
 217  422.4602
 218  463.0935
 219  339.6592
 220  281.9289
 221  246.1531
 222  229.7985
 223  262.6667
 224  244.593
 225  247.2824
 226  240.1715
 227  232.8149
 228  433.8601
 229  415.1079
 230  427.6342
 231  414.9542
 232  353.8043
 233  415.1242
 234  454.0483
 235  398.5999
 236  324.8142
 237  404.6195
 238  471.8894
 239  407.9476
 240  453.347
 241  238.7173
 242  320.0117
 243  471.2875
 244  354.4474
 245  396.5897
 246  317.5065
 247  316.1105
 248  266.4063
 249  316.894
 250  392.5573
 251  301.7589
 252  441.5186
 253  348.5519
 254  331.9001
 255  431.3317
 256  354.5283
 257  406.2801
 258  493.7795
 259  410.3771
 260  425.0365
 261  405.6874
 262  421.572
 263  302.1211
 264  248.6553
 265  264.1239
 266  255.0683
 267  477.2607
 268  537.6715
 269  498.3357
 270  409.016
 271  511.7253
 272  657.0784
 273  790.892
 274  755.2927
 275  863.2379
 276  1026.786
 277  819.1555
 278  538.4912
 279  369.0256
 280  468.3878
 281  514.907
 282  481.7153
 283  570.8057
 284  479.3935
 285  513.8552
 286  392.8432
 287  305.2523
 288  393.5316
 289  489.3799
 290  528.1787
 291  432.0233
 292  426.8049
 293  352.1967
 294  359.0907
 295  380.9701
 296  443.5227
 297  361.7161
 298  344.9488
 299  354.4605
 300  279.2071
 301  240.4344
 302  329.419
 303  353.8794
 304  346.5883
 305  353.7534
 306  213.5307
 307  274.3234
 308  217.7286
 309  139.1289
 310  267.8068
 311  391.6659
 312  449.5443
 313  411.6046
 314  297.9517
 315  279.7247
 316  346.457
 317  409.2185
 318  286.0035
 319  348.1323
 320  340.5698
 321  399.0413
 322  496.0412
 323  433.5183
 324  363.8926
 325  299.7644
 326  370.7448
 327  376.7004
 328  434.8357
 329  481.9488
 330  362.5427
 331  403.1572
 332  395.4785
 333  447.7547
 334  538.3967
 335  542.4673
 336  422.4332
 337  375.6755
 338  375.7339
 339  447.9843
 340  424.2386
 341  426.4047
 342  348.6799
 343  424.8772
 344  361.7791
 345  353.4406
 346  339.3897
 347  203.9619
 348  262.6841
 349  383.5931
 350  424.7157
 351  344.523
 352  382.8169
 353  410.2754
 354  341.5652
 355  280.9588
 356  434.873
 357  484.264
 358  393.4515
 359  387.9696
 360  346.0114
 361  409.2047
 362  414.6864
 363  504.0465
 364  604.6613
 365  475.4828
 366  500.0267
 367  402.8072
 368  342.8676
 369  428.4766
 370  466.6558
 371  457.4017
 372  417.5317
 373  466.1221
 374  406.386
 375  405.5517
 376  339.4335
 377  403.8037
 378  428.4324
 379  377.2381
 380  361.8612
 381  362.9507
 382  340.8954
 383  262.5068
 384  224.1782
 385  305.6472
 386  313.1426
 387  367.3081
 388  352.4673
 389  342.1917
 390  208.1616
 391  166.1901
 392  282.2281
 393  363.1624
 394  391.6895
 395  328.6784
 396  364.1857
 397  282.8804
 398  271.2955
 399  349.0829
 400  426.2476
 401  388.4294
 402  393.2369
 403  316.5623
 404  261.5081
 405  204.8932
 406  259.3408
 407  401.6056
 408  431.0066
 409  429.442
 410  395.8202
 411  290.3117
 412  340.4381
 413  481.7527
 414  368.264
 415  289.7878
 416  268.1333
 417  310.5559
 418  342.4369
 419  319.0524
 420  314.7037
 421  388.8455
 422  369.6425
 423  393.5123
 424  312.3835
 425  390.7684
 426  471.7767
 427  393.0981
 428  362.0304
 429  367.7005
 430  501.2544
 431  550.2986
 432  430.1803
 433  457.9414
 434  538.3831
 435  567.866
 436  501.283
 437  464.5077
 438  509.6079
 439  399.5415
 440  336.8524
 441  426.3979
 442  366.8348
 443  451.8452
 444  429.7275
 445  356.1763
 446  253.4664
 447  315.2986
 448  377.9022
 449  428.4745
 450  471.6217
 451  321.2614
 452  335.9559
 453  314.7552
 454  236.2213
 455  298.5488
 456  358.8185
 457  249.6395
 458  289.5857
 459  374.9022
 460  503.0927
 461  312.8365
 462  290.7143
 463  344.988
 464  512.4201
 465  392.0126
 466  239.0204
 467  363.4116
 468  384.8335
 469  360.8826
 470  265.4892
 471  283.4988
 472  338.5355
 473  326.6217
 474  328.2291
 475  363.0958
 476  453.1011
 477  383.5496
 478  393.1052
 479  434.223
 480  381.0898
 481  466.6138
 482  272.6347
 483  296.7953
 484  331.1139
 485  275.1187
 486  332.5106
 487  318.5845
 488  578.8996
 489  553.7897
 490  492.1431
 491  423.2282
 492  417.8692
 493  372.1064
 494  370.1113
 495  374.185
 496  336.4427
 497  371.6276
 498  417.4354
 499  335.1545
 500  233.6059
 501  284.0831
 502  415.8675
 503  453.3859
 504  445.3952
 505  345.8813
 506  278.7142
 507  356.8296
 508  357.256
 509  379.3991
 510  472.7543
 511  361.188
