# Input file       =  1179977562.10106_cleaned.dat
# Candidate        =  PSR_0332+5434
# Telescope        =  AR
# Epoch_topo       =  57901.147929410414
# Epoch_bary       =  N/A
# T_sample         =  0.002
# Data Folded      =  7208960
# Data Avg         =  0.178607160168361
# Data StdDev      =  5.1003091560419  
# Profile Bins     =  512
# Profile Avg      =  2514.68072908524 
# Profile StdDev   =  605.198480748129 
# Reduced chi-sqr  =  1.109
# Prob(Noise)      <  0.0448   (~1.7 sigma)
# P_topo (ms)      =  714.520356660959  +/- 2.84e-05
# P'_topo (s/s)    =  -0                +/- 1.53e-11
# P''_topo (s/s^2) =  0                 +/- 6.86e-15
# P_bary (ms)      =  N/A
# P'_bary (s/s)    =  N/A
# P''_bary (s/s^2) =  N/A
# P_orb (s)        =  N/A
# asin(i)/c (s)    =  N/A
# eccentricity     =  N/A
# w (rad)          =  N/A
# T_peri           =  N/A
######################################################
   0  1949.347
   1  2124.519
   2  2204
   3  2449.072
   4  2874.691
   5  3111.552
   6  2581.257
   7  2295.576
   8  1689.333
   9  1590.201
  10  2224.073
  11  2218.51
  12  2238.882
  13  2510.799
  14  2580.449
  15  2561.68
  16  2063.887
  17  2032.599
  18  2157.344
  19  2525.896
  20  2468.002
  21  2800.218
  22  3467.352
  23  2670.859
  24  2123.187
  25  1671.786
  26  1742.972
  27  1897.955
  28  2220.862
  29  2683.193
  30  2820.8
  31  2672.268
  32  2346.919
  33  2102.927
  34  2315.513
  35  2038.252
  36  2384.255
  37  2651.313
  38  2885.22
  39  2993.768
  40  2762.27
  41  2056.859
  42  1770.664
  43  2044.337
  44  2312.648
  45  2105.704
  46  2537.156
  47  2601.01
  48  2596.306
  49  2165.242
  50  1932.598
  51  2147.56
  52  2260.242
  53  2684.006
  54  3856.406
  55  3932.486
  56  4152.456
  57  4076.119
  58  4010.576
  59  3309.754
  60  2700.002
  61  2432.659
  62  2884.168
  63  2923.446
  64  2931.023
  65  2854.024
  66  2191.309
  67  2257.779
  68  2774.453
  69  2798.26
  70  2411.302
  71  3359.589
  72  3661.071
  73  3124.086
  74  2446.74
  75  2251.743
  76  2315.895
  77  1998.568
  78  2138.529
  79  2811.892
  80  3090.609
  81  2918.311
  82  2526.683
  83  2397.015
  84  2002.995
  85  2396.508
  86  2638.91
  87  3121.242
  88  3017.944
  89  2915.282
  90  2586.347
  91  2102.074
  92  1908.441
  93  1854.558
  94  1793.508
  95  1931.384
  96  2654.964
  97  2822.995
  98  2159.68
  99  1515.029
 100  1671.158
 101  2175.741
 102  2412.333
 103  2508.252
 104  2635.15
 105  2772.675
 106  2070.764
 107  1532.084
 108  1686.959
 109  1425.862
 110  1574.324
 111  2299.958
 112  2793.406
 113  2602.235
 114  2405.74
 115  1948.371
 116  1651.006
 117  1736.755
 118  2400.967
 119  2990.612
 120  2938.27
 121  2829.564
 122  2728.771
 123  2434.289
 124  1792.028
 125  1647.763
 126  1993.906
 127  1967.378
 128  2336.089
 129  2820.625
 130  2729.808
 131  2462.299
 132  2332.412
 133  2152.924
 134  2101.445
 135  2257.566
 136  2876.858
 137  2728.385
 138  2841.416
 139  2635.947
 140  2302.196
 141  1671.437
 142  1748.613
 143  2297.125
 144  2872.695
 145  3535.226
 146  3433.093
 147  2963.497
 148  2288.929
 149  1561.85
 150  1913.683
 151  2822.359
 152  3235.845
 153  3409.723
 154  3366.977
 155  2919.669
 156  2167.473
 157  2364.015
 158  2368.382
 159  2392.518
 160  2284.38
 161  2746.237
 162  3341.048
 163  3009.713
 164  2294.857
 165  2064.681
 166  1958.269
 167  2470.038
 168  2786.719
 169  2694.008
 170  2812.894
 171  2952.672
 172  3039.445
 173  2438.352
 174  2145.099
 175  1970.023
 176  1687.333
 177  1502.928
 178  2273.882
 179  2747.988
 180  2342.626
 181  1824.779
 182  1779.48
 183  1990.176
 184  1989.333
 185  2223.507
 186  2585.657
 187  3080.281
 188  2302.173
 189  1797.445
 190  1932.562
 191  2068.79
 192  2169.928
 193  2573.761
 194  2449.025
 195  2488.324
 196  2433.501
 197  2267.596
 198  2194.298
 199  2139.722
 200  2345.8
 201  2786.044
 202  2822.229
 203  2827.58
 204  3292.486
 205  2864.121
 206  2017.225
 207  1714.442
 208  1728.859
 209  2294.306
 210  2413.35
 211  2898.978
 212  3221.08
 213  2707.118
 214  2462.398
 215  2117.563
 216  1931.847
 217  2214.105
 218  2951.973
 219  3268.752
 220  3339.374
 221  3096.406
 222  2699.238
 223  1945.04
 224  1868.781
 225  1963.088
 226  2688.075
 227  2756.759
 228  2580.533
 229  2820.462
 230  2955.461
 231  2230.881
 232  1961.363
 233  2479.258
 234  2765.23
 235  2968.154
 236  3365.468
 237  3123.32
 238  2770.011
 239  2391.717
 240  2228.499
 241  2243.466
 242  1902.214
 243  1839.252
 244  2242.36
 245  2925.864
 246  3021.234
 247  2439.946
 248  2353.574
 249  2406.846
 250  2430.592
 251  2771.508
 252  3036.213
 253  3091.537
 254  3180.727
 255  2679.401
 256  2330.5
 257  2436.594
 258  2376.514
 259  2204.924
 260  2525.884
 261  2880.484
 262  2795.465
 263  2943.909
 264  2660.704
 265  2651.459
 266  2342.498
 267  2606.856
 268  2849.774
 269  2957.132
 270  2884.415
 271  2994.961
 272  2362.591
 273  2549.688
 274  2347.198
 275  2504.515
 276  2689.921
 277  2687.275
 278  2817.259
 279  3003.694
 280  3033.908
 281  2380.201
 282  2319.16
 283  2859.955
 284  3244.428
 285  3475.317
 286  3660.086
 287  3381.118
 288  2645.281
 289  2457.333
 290  2166.32
 291  2541.482
 292  2452.208
 293  2796.705
 294  3029.006
 295  2996.214
 296  2683.294
 297  2568.224
 298  2855.784
 299  2563.283
 300  2847.753
 301  2964.688
 302  3271.629
 303  3244.989
 304  2966.346
 305  2578.476
 306  2051.844
 307  1994.115
 308  2188.304
 309  2020.283
 310  2511.788
 311  2865.361
 312  3027.51
 313  2636.036
 314  2234.821
 315  2210.037
 316  2207.506
 317  2010.476
 318  2666.149
 319  3063.045
 320  3019.197
 321  2392.314
 322  2332.919
 323  2471.036
 324  2303.813
 325  1570.944
 326  1821.932
 327  3253.04
 328  3126.238
 329  2727.176
 330  2484.182
 331  2156.517
 332  2604.436
 333  2543.213
 334  3000.013
 335  3453.292
 336  3323.669
 337  3338.7
 338  2831.699
 339  2146.47
 340  2290.215
 341  2440.293
 342  2291.143
 343  2762.735
 344  3060.535
 345  2994.01
 346  2545.424
 347  2656.714
 348  2258.665
 349  2407.863
 350  2625.397
 351  3107.681
 352  3092.942
 353  2541.283
 354  2598.028
 355  2418.231
 356  2032.407
 357  2306.839
 358  2198.83
 359  2586.458
 360  2770.953
 361  2551.77
 362  2451.521
 363  2211.557
 364  1830.635
 365  2166.761
 366  2822.231
 367  2908.71
 368  2730.305
 369  2857.927
 370  2642.882
 371  2141.169
 372  1976.747
 373  2261.893
 374  2209.189
 375  2340.455
 376  2742.449
 377  3071.5
 378  2912.456
 379  2902.143
 380  2338.671
 381  2114.645
 382  2325.027
 383  2635.369
 384  2845.892
 385  2785.786
 386  3199.917
 387  2848.225
 388  2166.161
 389  2131.176
 390  1707.744
 391  1525.495
 392  1828.555
 393  2507.082
 394  3389.773
 395  2770.308
 396  2693.328
 397  2287.617
 398  2318.963
 399  2618.588
 400  2490.115
 401  2772.44
 402  3352.752
 403  3015.479
 404  2516.188
 405  2221.183
 406  2354.34
 407  2300.126
 408  2400.662
 409  2403.702
 410  2790.446
 411  2971.595
 412  2803.199
 413  2566.654
 414  2379.91
 415  2725.241
 416  2674.45
 417  2767.061
 418  3213.347
 419  3043.789
 420  2765.322
 421  2718.654
 422  2552.059
 423  2416.7
 424  2024.949
 425  2281.965
 426  2967.761
 427  2867.609
 428  2270.47
 429  2111.146
 430  2314.876
 431  2526.119
 432  2424.239
 433  2965.122
 434  3076.129
 435  2916.001
 436  2363.059
 437  2395.213
 438  1865.257
 439  1688.663
 440  1806.451
 441  2284.182
 442  2598.089
 443  2513.983
 444  2678.314
 445  2225.34
 446  1607.611
 447  1647.482
 448  2358.562
 449  2563.52
 450  2758.413
 451  3072.88
 452  2994.384
 453  2722.008
 454  2100.332
 455  2201.991
 456  1875.606
 457  1769.719
 458  2557.23
 459  3412.678
 460  3185.006
 461  2717.619
 462  2402.377
 463  2326.573
 464  2067.873
 465  2042.823
 466  2682.328
 467  2586.005
 468  2976.582
 469  2943.171
 470  2925.253
 471  2625.329
 472  2475.828
 473  1898.488
 474  1998.635
 475  2652.087
 476  2768.219
 477  2731.172
 478  2527.297
 479  1897.405
 480  2073.032
 481  1962.912
 482  2203.336
 483  2572.682
 484  3191.001
 485  2952.46
 486  2526.87
 487  2467.753
 488  2064.856
 489  1755.54
 490  2104.093
 491  2171.702
 492  2636.34
 493  2815.795
 494  2389.214
 495  1972.349
 496  1891.477
 497  1746.398
 498  2230.98
 499  2359.219
 500  3073.496
 501  3488.082
 502  2842.073
 503  2375.318
 504  2641.682
 505  2603.876
 506  2471.309
 507  2120.92
 508  2234.5
 509  2944.883
 510  2606.967
 511  2130.084
