# Input file       =  1179202078.094115_cleaned.dat
# Candidate        =  PSR_0332+5434
# Telescope        =  AR
# Epoch_topo       =  57892.172420070776
# Epoch_bary       =  N/A
# T_sample         =  0.002
# Data Folded      =  7208960
# Data Avg         =  0.0337080062573132
# Data StdDev      =  1.00003556689963 
# Profile Bins     =  512
# Profile Avg      =  474.553069572922 
# Profile StdDev   =  118.663396132526 
# Reduced chi-sqr  =  1.070
# Prob(Noise)      <  0.132   (~1.1 sigma)
# P_topo (ms)      =  714.529206383536  +/- 6.33e-05
# P'_topo (s/s)    =  -0                +/- 3.4e-11
# P''_topo (s/s^2) =  0                 +/- 1.53e-14
# P_bary (ms)      =  N/A
# P'_bary (s/s)    =  N/A
# P''_bary (s/s^2) =  N/A
# P_orb (s)        =  N/A
# asin(i)/c (s)    =  N/A
# eccentricity     =  N/A
# w (rad)          =  N/A
# T_peri           =  N/A
######################################################
   0  928.5483
   1  925.1569
   2  777.8138
   3  659.1447
   4  491.0639
   5  527.3009
   6  536.5635
   7  383.3976
   8  520.2833
   9  506.1915
  10  541.7076
  11  532.4974
  12  480.7946
  13  531.7027
  14  488.5242
  15  553.0998
  16  427.2259
  17  515.4977
  18  519.0552
  19  452.0455
  20  419.4223
  21  447.5238
  22  466.0665
  23  391.2649
  24  417.3141
  25  371.206
  26  420.3944
  27  392.0977
  28  455.2781
  29  262.633
  30  408.8839
  31  527.2183
  32  445.5401
  33  344.9333
  34  256.8143
  35  350.7897
  36  346.351
  37  316.7122
  38  344.4033
  39  342.0909
  40  487.33
  41  478.5487
  42  417.6038
  43  491.238
  44  382.9049
  45  315.3476
  46  322.9347
  47  366.1647
  48  437.9976
  49  526.0721
  50  552.9362
  51  387.2524
  52  327.5101
  53  380.2772
  54  424.9374
  55  371.9572
  56  393.8737
  57  543.0303
  58  438.418
  59  471.1299
  60  520.2405
  61  567.0196
  62  462.621
  63  406.0623
  64  452.817
  65  515.935
  66  458.5889
  67  417.1908
  68  497.374
  69  513.3616
  70  412.0587
  71  422.3809
  72  532.492
  73  578.2748
  74  584.7344
  75  625.9767
  76  504.6191
  77  445.1194
  78  532.8486
  79  520.1628
  80  419.2911
  81  465.9925
  82  536.0323
  83  460.7705
  84  484.5046
  85  460.2851
  86  377.0404
  87  451.3273
  88  430.5727
  89  483.0053
  90  552.1943
  91  494.7018
  92  519.517
  93  509.8475
  94  559.9546
  95  601.6099
  96  544.2823
  97  493.7827
  98  477.765
  99  568.2983
 100  625.1831
 101  544.6265
 102  488.8328
 103  536.4637
 104  520.0572
 105  502.2167
 106  606.2471
 107  609.4821
 108  608.8329
 109  575.6498
 110  495.7143
 111  501.1207
 112  506.1097
 113  443.8203
 114  439.7043
 115  524.0507
 116  515.163
 117  521.8694
 118  434.0259
 119  360.6445
 120  383.8853
 121  481.8697
 122  445.2086
 123  525.4729
 124  476.1086
 125  495.0339
 126  399.4555
 127  306.9308
 128  425.6229
 129  490.5859
 130  545.5326
 131  412.6817
 132  404.407
 133  456.9956
 134  383.1027
 135  399.8279
 136  442.7266
 137  425.7422
 138  452.5029
 139  534.3159
 140  564.0413
 141  513.7377
 142  465.197
 143  387.0685
 144  421.884
 145  477.7576
 146  490.9311
 147  453.1648
 148  465.8327
 149  399.1415
 150  536.194
 151  448.4609
 152  438.6875
 153  331.6279
 154  384.6761
 155  427.1236
 156  492.7142
 157  662.749
 158  528.2596
 159  525.2696
 160  553.795
 161  485.5166
 162  459.6382
 163  539.8627
 164  552.0992
 165  461.2486
 166  429.5673
 167  474.8437
 168  505.585
 169  376.5902
 170  325.7589
 171  463.073
 172  600.3685
 173  611.0064
 174  643.8159
 175  556.0455
 176  459.785
 177  410.4979
 178  322.8367
 179  340.3284
 180  480.2776
 181  564.341
 182  458.0458
 183  410.5569
 184  431.3977
 185  470.8146
 186  405.0081
 187  328.9257
 188  498.286
 189  546.9576
 190  513.4631
 191  399.1321
 192  504.101
 193  451.4056
 194  361.0891
 195  358.7776
 196  389.4678
 197  500.2246
 198  487.0273
 199  468.8927
 200  407.4549
 201  440.0414
 202  298.9802
 203  364.2632
 204  506.4354
 205  546.6071
 206  573.4878
 207  605.7048
 208  429.1541
 209  325.2012
 210  360.7435
 211  441.4117
 212  371.7697
 213  380.0811
 214  468.8079
 215  465.6282
 216  488.6654
 217  458.0864
 218  394.8161
 219  338.8651
 220  369.8873
 221  473.693
 222  484.6265
 223  476.4217
 224  494.1388
 225  497.8802
 226  482.8797
 227  541.6299
 228  504.9484
 229  508.9904
 230  465.3857
 231  454.0743
 232  493.5746
 233  574.5161
 234  424.2216
 235  472.633
 236  395.4561
 237  433.9547
 238  509.7577
 239  576.0719
 240  562.4559
 241  574.7104
 242  525.5665
 243  549.6588
 244  587.7408
 245  555.7986
 246  544.0673
 247  417.5913
 248  429.7249
 249  472.6541
 250  391.2361
 251  314.3648
 252  284.4044
 253  369.7228
 254  469.032
 255  470.7086
 256  328.6712
 257  326.0461
 258  431.4127
 259  444.2027
 260  417.2351
 261  411.6335
 262  414.9882
 263  505.2157
 264  480.6842
 265  387.4053
 266  323.6643
 267  385.06
 268  400.4426
 269  410.6057
 270  379.7857
 271  382.0022
 272  387.49
 273  444.1069
 274  397.3979
 275  281.8983
 276  366.8146
 277  464.8187
 278  437.4476
 279  325.8386
 280  383.8765
 281  421.9216
 282  360.5143
 283  372.7891
 284  517.1381
 285  465.8357
 286  471.9147
 287  450.8145
 288  556.1966
 289  444.8657
 290  412.147
 291  454.6948
 292  415.4135
 293  366.4307
 294  258.7623
 295  316.0177
 296  397.6586
 297  445.4156
 298  510.8853
 299  539.5406
 300  496.2996
 301  422.9923
 302  319.1265
 303  258.2021
 304  388.4803
 305  436.7192
 306  434.1564
 307  460.8925
 308  424.5743
 309  364.6854
 310  348.1703
 311  425.6165
 312  397.0143
 313  540.7207
 314  510.8501
 315  523.7985
 316  415.4678
 317  370.8832
 318  511.2633
 319  428.1366
 320  486.7413
 321  557.0607
 322  539.2175
 323  508.8634
 324  581.8483
 325  554.7971
 326  482.7099
 327  523.6031
 328  421.2186
 329  461.762
 330  474.7993
 331  511.9194
 332  516.4321
 333  435.2928
 334  360.9718
 335  360.4399
 336  451.9196
 337  569.6066
 338  596.3613
 339  608.844
 340  611.7797
 341  543.3065
 342  445.1039
 343  382.3348
 344  388.8271
 345  452.9815
 346  484.1169
 347  458.1899
 348  447.1794
 349  455.514
 350  429.7763
 351  449.491
 352  562.1606
 353  480.6702
 354  594.9546
 355  568.4545
 356  481.5131
 357  492.3592
 358  544.2062
 359  473.2776
 360  457.0587
 361  558.5414
 362  567.7361
 363  520.3074
 364  489.6023
 365  522.4164
 366  438.9076
 367  576.9516
 368  603.8925
 369  486.0816
 370  475.2244
 371  587.1993
 372  539.8065
 373  489.2067
 374  581.3964
 375  520.2665
 376  402.5836
 377  427.9567
 378  565.9946
 379  544.0029
 380  579.3138
 381  559.0669
 382  501.4787
 383  463.4194
 384  418.4981
 385  434.0976
 386  446.655
 387  477.0498
 388  549.4078
 389  589.5275
 390  563.1284
 391  414.1439
 392  354.5848
 393  478.3866
 394  492.9448
 395  537.6346
 396  575.8531
 397  582.1058
 398  506.8661
 399  453.4014
 400  466.6934
 401  408.2732
 402  451.7254
 403  451.0902
 404  511.7551
 405  573.0552
 406  576.8708
 407  477.4867
 408  458.8723
 409  452.8197
 410  476.0355
 411  482.6463
 412  522.9349
 413  468.6026
 414  471.2026
 415  495.4764
 416  379.3122
 417  438.5998
 418  380.8015
 419  442.2327
 420  489.3669
 421  498.4951
 422  419.0042
 423  400.8463
 424  367.9284
 425  338.2409
 426  400.2582
 427  579.4903
 428  586.0646
 429  507.6027
 430  541.9379
 431  542.4109
 432  418.8187
 433  408.0642
 434  529.2376
 435  552.6118
 436  574.4107
 437  600.8074
 438  620.3138
 439  622.0344
 440  527.405
 441  494.6329
 442  569.3049
 443  536.5226
 444  526.7285
 445  482.7796
 446  478.547
 447  481.8725
 448  449.7513
 449  473.1281
 450  463.5263
 451  470.0538
 452  431.6447
 453  522.9446
 454  593.2234
 455  598.8796
 456  552.8816
 457  467.2822
 458  441.25
 459  443.0969
 460  494.9854
 461  488.4532
 462  454.7939
 463  470.399
 464  472.7887
 465  404.2273
 466  491.5154
 467  388.0842
 468  489.5929
 469  620.6783
 470  538.9406
 471  587.5691
 472  651.8189
 473  562.5806
 474  427.0833
 475  482.1116
 476  442.5698
 477  527.1056
 478  527.3936
 479  591.6556
 480  533.0802
 481  498.6965
 482  441.569
 483  428.3319
 484  333.9797
 485  351.706
 486  463.3388
 487  553.6284
 488  533.2661
 489  530.4014
 490  498.5667
 491  371.0581
 492  365.5255
 493  410.4855
 494  487.3251
 495  498.2004
 496  437.2749
 497  296.1215
 498  351.1479
 499  371.9243
 500  477.3405
 501  512.7661
 502  511.0305
 503  519.354
 504  512.7478
 505  583.1002
 506  606.8273
 507  667.316
 508  513.7311
 509  739.2623
 510  929.967
 511  992.9612
