# Input file       =  1179475185.131431-PSRB0329-2ms-sampling-dd.dat
# Candidate        =  PSR_0332+5434
# Telescope        =  AR
# Epoch_topo       =  57895.333381150820
# Epoch_bary       =  N/A
# T_sample         =  0.002
# Data Folded      =  7340032
# Data Avg         =  -2.69131264332789e-10
# Data StdDev      =  3.72013963763471 
# Profile Bins     =  512
# Profile Avg      =  0.0151900923683262
# Profile StdDev   =  445.423614559566 
# Reduced chi-sqr  =  0.689
# Prob(Noise)      <  1   (~0.0 sigma)
# P_topo (ms)      =  714.52611442139   +/- 0.000964
# P'_topo (s/s)    =  -0                +/- 5.08e-10
# P''_topo (s/s^2) =  0                 +/- 2.24e-13
# P_bary (ms)      =  N/A
# P'_bary (s/s)    =  N/A
# P''_bary (s/s^2) =  N/A
# P_orb (s)        =  N/A
# asin(i)/c (s)    =  N/A
# eccentricity     =  N/A
# w (rad)          =  N/A
# T_peri           =  N/A
######################################################
   0  -527.8577
   1  -199.381
   2  -51.97151
   3  -231.0318
   4  -360.4642
   5  -91.59845
   6  -83.73547
   7  -348.9512
   8  -288.5265
   9  -231.7679
  10  -194.5565
  11  -286.5507
  12  -9.009663
  13  -58.37543
  14  -211.0945
  15  17.40081
  16  9.268881
  17  -455.2041
  18  -532.8873
  19  -525.5574
  20  -524.9704
  21  -374.6706
  22  -184.6641
  23  -39.31644
  24  3.614587
  25  -304.7061
  26  -359.0476
  27  -434.556
  28  -660.0832
  29  -403.1791
  30  6.653095
  31  291.6348
  32  111.4626
  33  -246.1569
  34  -318.0239
  35  -377.0626
  36  -219.4052
  37  -82.61726
  38  21.43167
  39  -377.9868
  40  -109.338
  41  -1.369468
  42  41.00886
  43  -57.78976
  44  20.5215
  45  -204.3262
  46  -191.7982
  47  227.7008
  48  62.41265
  49  37.22892
  50  44.89626
  51  196.232
  52  262.0742
  53  317.7044
  54  546.5026
  55  478.5738
  56  669.2074
  57  402.9645
  58  -279.877
  59  -144.0304
  60  427.2362
  61  852.3751
  62  1009.646
  63  964.4073
  64  729.5812
  65  213.7429
  66  45.56807
  67  -98.66656
  68  -318.718
  69  -369.2926
  70  -135.0134
  71  -186.5443
  72  -269.9884
  73  -248.3622
  74  -12.404
  75  6.468349
  76  -387.3534
  77  -478.5009
  78  -284.1634
  79  -135.3508
  80  -245.9251
  81  -538.3359
  82  -356.6643
  83  -289.9401
  84  -501.0403
  85  -479.6824
  86  -526.0728
  87  -274.003
  88  78.5647
  89  -105.1624
  90  -173.2142
  91  -106.28
  92  94.6979
  93  -117.5829
  94  -276.9617
  95  -27.58782
  96  39.11985
  97  -111.3011
  98  -165.9401
  99  244.4723
 100  269.8241
 101  107.8314
 102  -228.3744
 103  -207.9762
 104  147.2281
 105  482.3312
 106  345.8354
 107  102.9068
 108  275.3522
 109  119.1725
 110  266.7685
 111  12.50761
 112  49.53828
 113  291.5347
 114  195.3268
 115  228.0511
 116  112.0994
 117  108.3961
 118  301.4284
 119  99.68069
 120  74.95807
 121  244.0385
 122  81.78368
 123  64.84896
 124  326.206
 125  421.6288
 126  -66.61491
 127  -335.646
 128  -184.2767
 129  55.59716
 130  254.2798
 131  -152.4169
 132  -113.3417
 133  15.2091
 134  226.2449
 135  0.55214
 136  -73.91435
 137  307.4592
 138  259.2728
 139  240.7863
 140  323.6615
 141  -34.68203
 142  -316.6061
 143  -416.4568
 144  -19.62122
 145  -90.02134
 146  -77.8039
 147  541.7242
 148  462.0675
 149  202.1511
 150  208.1715
 151  244.5833
 152  247.3575
 153  192.6122
 154  289.8054
 155  244.5357
 156  189.7746
 157  358.526
 158  325.4149
 159  263.3819
 160  -164.5888
 161  -333.172
 162  36.19914
 163  130.494
 164  26.01145
 165  -246.5354
 166  -267.3938
 167  -339.4351
 168  -106.2538
 169  -46.24754
 170  143.8499
 171  246.539
 172  139.3217
 173  11.55961
 174  204.1223
 175  205.8245
 176  -78.554
 177  3.628248
 178  111.4736
 179  188.7092
 180  414.3492
 181  495.2907
 182  210.4194
 183  139.5699
 184  102.146
 185  179.247
 186  243.2908
 187  -109.3685
 188  -159.7914
 189  -174.9972
 190  -77.15623
 191  272.4066
 192  72.75178
 193  -206.308
 194  -614.0025
 195  -307.2756
 196  11.66338
 197  199.7554
 198  248.7797
 199  183.7069
 200  -39.98808
 201  147.0686
 202  233.4845
 203  187.4015
 204  265.39
 205  101.6324
 206  -3.352645
 207  -75.46485
 208  -183.4078
 209  -158.6996
 210  -324.8258
 211  -296.3343
 212  -30.726
 213  -141.0277
 214  -111.0789
 215  137.4667
 216  -28.96803
 217  -56.69389
 218  31.72897
 219  -8.095506
 220  30.16642
 221  129.9635
 222  38.76549
 223  -264.3443
 224  -137.559
 225  -251.1698
 226  -354.334
 227  -168.3735
 228  118.8313
 229  -233.0351
 230  -80.48628
 231  65.29218
 232  12.28867
 233  -105.0834
 234  -147.2053
 235  -174.712
 236  181.5368
 237  84.15614
 238  -239.3803
 239  -273.0654
 240  -301.338
 241  -136.935
 242  -138.4533
 243  -301.5837
 244  -282.4317
 245  -335.1924
 246  -144.2635
 247  -148.2758
 248  155.4256
 249  317.1979
 250  36.93998
 251  6.859236
 252  46.79487
 253  -439.2546
 254  -453.8016
 255  -573.0491
 256  -394.2346
 257  -81.271
 258  -204.0459
 259  -97.36222
 260  128.3437
 261  -16.73759
 262  -63.72773
 263  -379.0769
 264  -301.3698
 265  -394.5608
 266  -106.9944
 267  208.0438
 268  -25.46973
 269  -142.008
 270  -34.33452
 271  27.47357
 272  45.44158
 273  -72.38401
 274  -18.66828
 275  -73.02231
 276  -157.3839
 277  -311.8993
 278  -478.8449
 279  -235.8846
 280  353.9802
 281  164.0783
 282  -109.6174
 283  -395.3735
 284  -64.62618
 285  38.8346
 286  12.66823
 287  -248.9041
 288  -349.4679
 289  -111.6175
 290  245.4199
 291  18.19524
 292  -183.3363
 293  -251.8437
 294  -299.0616
 295  -317.9512
 296  -345.0431
 297  -477.5084
 298  98.6076
 299  216.5317
 300  218.3384
 301  6.785028
 302  18.20791
 303  151.3095
 304  181.9233
 305  244.7412
 306  215.4451
 307  206.798
 308  243.8218
 309  293.6919
 310  92.73473
 311  -112.5153
 312  -176.2515
 313  -10.40799
 314  85.98136
 315  92.15434
 316  -31.15524
 317  439.2002
 318  20.31861
 319  -235.8355
 320  254.0911
 321  266.4504
 322  60.55859
 323  -367.4276
 324  -325.2114
 325  8.956599
 326  62.38771
 327  137.4468
 328  240.8882
 329  334.498
 330  264.9383
 331  184.3703
 332  280.982
 333  -63.29977
 334  -204.5638
 335  -55.31715
 336  74.21707
 337  -230.9268
 338  -107.2027
 339  -237.8581
 340  -109.1898
 341  -180.0524
 342  55.05391
 343  128.1673
 344  218.5521
 345  -64.55148
 346  -243.8962
 347  49.01361
 348  -45.31472
 349  27.8596
 350  -39.4607
 351  309.2944
 352  152.01
 353  -306.373
 354  -326.6845
 355  -151.0807
 356  361.114
 357  481.5427
 358  148.0172
 359  -144.0055
 360  -306.153
 361  -193.698
 362  244.4675
 363  261.8664
 364  -130.1942
 365  -342.045
 366  -300.461
 367  -157.2179
 368  -272.1013
 369  -459.162
 370  -40.27867
 371  285.2879
 372  270.7444
 373  62.30984
 374  136.7338
 375  -138.7226
 376  116.8567
 377  176.5721
 378  130.9905
 379  -36.31499
 380  37.44577
 381  152.4805
 382  388.5831
 383  832.6603
 384  914.667
 385  1139.556
 386  1174.262
 387  939.1207
 388  543.6522
 389  212.1998
 390  117.4683
 391  76.0676
 392  151.0856
 393  32.36899
 394  23.67901
 395  -35.14016
 396  295.2232
 397  103.24
 398  263.1845
 399  324.5347
 400  337.4512
 401  85.11367
 402  13.45545
 403  -64.48759
 404  28.4048
 405  -17.94172
 406  311.6181
 407  588.4619
 408  296.9383
 409  390.972
 410  322.6768
 411  164.3833
 412  -167.8506
 413  -237.9303
 414  13.97059
 415  33.20712
 416  -145.7317
 417  -93.75475
 418  21.17992
 419  201.2922
 420  143.1059
 421  -83.51521
 422  -554.2507
 423  -311.9792
 424  -396.3091
 425  -229.2726
 426  274.2823
 427  119.7165
 428  69.79313
 429  -119.8363
 430  -51.68861
 431  -257.866
 432  -25.17342
 433  295.4065
 434  214.0782
 435  169.5266
 436  -150.7786
 437  -148.8601
 438  -464.6478
 439  -224.578
 440  -51.63045
 441  -96.90856
 442  -110.7727
 443  -56.62262
 444  120.6026
 445  -127.8484
 446  -77.1955
 447  -143.1109
 448  -73.40045
 449  -171.2494
 450  -303.6051
 451  -270.5508
 452  -180.0047
 453  141.2315
 454  167.7762
 455  194.4972
 456  -42.29353
 457  4.956064
 458  35.09652
 459  115.6062
 460  67.0868
 461  146.0957
 462  188.2974
 463  491.778
 464  223.6136
 465  272.3151
 466  303.7166
 467  172.1174
 468  93.0604
 469  171.6694
 470  260.8642
 471  256.736
 472  512.671
 473  383.2935
 474  259.865
 475  -8.222839
 476  162.1922
 477  -17.92222
 478  -223.0766
 479  81.43195
 480  140.6284
 481  -276.6684
 482  -242.2343
 483  3.726742
 484  258.1961
 485  -384.7215
 486  -116.9252
 487  163.2406
 488  -155.9997
 489  -159.6796
 490  -285.9366
 491  -292.5392
 492  -31.1346
 493  86.03031
 494  17.22789
 495  -190.6602
 496  -140.3744
 497  -38.33745
 498  -137.4623
 499  -70.55518
 500  -67.55099
 501  116.3128
 502  262.1599
 503  200.9128
 504  158.9908
 505  324.8734
 506  -35.32501
 507  -284.7763
 508  -475.0732
 509  -282.8402
 510  -241.6575
 511  -399.8443
