# Input file       =  1179403935.110874-PSRB0329-2ms-sampling-dd.dat
# Candidate        =  PSR_0332+5434
# Telescope        =  AR
# Epoch_topo       =  57894.508728135115
# Epoch_bary       =  N/A
# T_sample         =  0.002
# Data Folded      =  7340032
# Data Avg         =  -2.16756100292851e-11
# Data StdDev      =  5.52342483268069 
# Profile Bins     =  512
# Profile Avg      =  0.192906886598502
# Profile StdDev   =  661.33642641569  
# Reduced chi-sqr  =  0.674
# Prob(Noise)      <  1   (~0.0 sigma)
# P_topo (ms)      =  714.527260046169  +/- 0.000345
# P'_topo (s/s)    =  -0                +/- 1.82e-10
# P''_topo (s/s^2) =  0                 +/- 8.04e-14
# P_bary (ms)      =  N/A
# P'_bary (s/s)    =  N/A
# P''_bary (s/s^2) =  N/A
# P_orb (s)        =  N/A
# asin(i)/c (s)    =  N/A
# eccentricity     =  N/A
# w (rad)          =  N/A
# T_peri           =  N/A
######################################################
   0  -347.0514
   1  36.98004
   2  205.7125
   3  57.60115
   4  -178.6596
   5  -109.2601
   6  138.9542
   7  205.0152
   8  -43.28693
   9  416.261
  10  169.6947
  11  -174.4174
  12  -148.5533
  13  -210.8578
  14  -145.7993
  15  -167.5359
  16  86.90057
  17  321.7268
  18  33.36766
  19  142.5247
  20  266.4702
  21  172.9795
  22  -154.4355
  23  -227.2229
  24  232.3863
  25  107.3334
  26  -152.237
  27  -305.3047
  28  -163.7996
  29  233.8583
  30  442.2559
  31  144.2677
  32  -298.6573
  33  -253.8907
  34  -317.3901
  35  -522.715
  36  -861.7322
  37  -709.166
  38  -519.8315
  39  -131.4453
  40  -53.65439
  41  -315.7349
  42  189.6003
  43  3.943601
  44  -132.5397
  45  -127.8162
  46  -75.92712
  47  221.5565
  48  -7.094163
  49  -172.372
  50  -19.50321
  51  -24.84661
  52  7.313304
  53  -199.5398
  54  247.3929
  55  340.7594
  56  -5.954977
  57  148.2862
  58  1223.636
  59  1638.63
  60  1925.63
  61  1992.567
  62  1909.586
  63  1358.476
  64  688.1227
  65  779.6306
  66  872.157
  67  422.4304
  68  57.67593
  69  82.49384
  70  427.7707
  71  440.8087
  72  165.7057
  73  322.6917
  74  550.4958
  75  324.5382
  76  345.0933
  77  506.0515
  78  6.340441
  79  462.6971
  80  120.0786
  81  294.1709
  82  -36.03452
  83  355.0458
  84  270.0221
  85  -225.4798
  86  -288.1483
  87  -213.9246
  88  -560.5162
  89  -566.9495
  90  -303.0211
  91  -73.15489
  92  390.5164
  93  101.4218
  94  196.9389
  95  194.4669
  96  -0.4843812
  97  97.03482
  98  161.4202
  99  188.8102
 100  11.80236
 101  -259.322
 102  -506.1219
 103  -484.46
 104  -497.3661
 105  -212.7043
 106  -29.12547
 107  -139.7209
 108  -383.8836
 109  -237.0557
 110  -265.3121
 111  95.58126
 112  150.2477
 113  -1.488071
 114  169.9832
 115  -50.78551
 116  21.58815
 117  15.29023
 118  -8.627845
 119  -112.9247
 120  -108.5708
 121  -155.1434
 122  -405.5056
 123  -44.12824
 124  -318.1057
 125  -193.6099
 126  -413.1335
 127  -645.6678
 128  -368.2299
 129  -154.2654
 130  -180.7088
 131  -449.3562
 132  -144.7385
 133  -192.4235
 134  -194.9993
 135  -181.0769
 136  19.64243
 137  -25.64761
 138  -23.11837
 139  282.9453
 140  228.6687
 141  139.7949
 142  -345.9895
 143  198.3994
 144  274.29
 145  434.6592
 146  491.2632
 147  -68.28033
 148  -1.61788
 149  151.9521
 150  119.275
 151  -70.18349
 152  -43.41077
 153  -310.07
 154  -440.543
 155  -491.6613
 156  -328.7769
 157  -84.04856
 158  -76.47891
 159  -109.2128
 160  191.9879
 161  -73.40698
 162  -202.6968
 163  -256.7683
 164  -181.0723
 165  -69.07477
 166  115.0648
 167  9.56069
 168  -176.2741
 169  -189.348
 170  36.99853
 171  299.9757
 172  346.0097
 173  582.2325
 174  14.7019
 175  -525.4773
 176  -519.0651
 177  -288.6969
 178  154.0336
 179  -235.6659
 180  58.59004
 181  -31.28127
 182  -232.6991
 183  -517.7921
 184  -443.5755
 185  -585.0729
 186  -362.0764
 187  -79.71397
 188  -52.83189
 189  -303.8796
 190  -292.9573
 191  -562.8096
 192  -79.04937
 193  28.69873
 194  -44.83881
 195  -38.04005
 196  -315.2729
 197  41.23896
 198  357.9125
 199  -225.2005
 200  -646.7883
 201  -471.4674
 202  667.2202
 203  301.5685
 204  -10.70801
 205  -181.6029
 206  -32.18491
 207  -177.7824
 208  -269.646
 209  138.4597
 210  324.8009
 211  317.0994
 212  -74.23859
 213  243.7844
 214  -30.26429
 215  33.80109
 216  -43.45976
 217  214.3533
 218  267.5161
 219  393.5911
 220  337.2806
 221  599.7732
 222  122.3602
 223  502.7893
 224  267.5476
 225  -26.63007
 226  -177.06
 227  130.39
 228  664.8008
 229  285.7684
 230  -40.85489
 231  186.67
 232  213.5609
 233  24.42857
 234  7.979371
 235  -80.59634
 236  -240.8389
 237  -372.3076
 238  291.7078
 239  424.1771
 240  -70.48245
 241  98.51783
 242  468.6898
 243  391.7751
 244  -101.6964
 245  -58.88633
 246  106.8094
 247  452.6866
 248  374.2763
 249  531.8199
 250  64.77775
 251  172.0898
 252  804.6774
 253  621.1964
 254  760.2874
 255  670.4658
 256  361.364
 257  324.6679
 258  223.7234
 259  -117.7148
 260  -28.96502
 261  476.248
 262  411.8131
 263  -32.08801
 264  -146.3707
 265  -147.1026
 266  -82.70113
 267  -69.51354
 268  -61.62726
 269  287.667
 270  555.1772
 271  749.6789
 272  292.0537
 273  294.3602
 274  -314.5888
 275  -248.9744
 276  -167.6053
 277  -198.6413
 278  2.732149
 279  -0.2148493
 280  -224.2829
 281  -568.0096
 282  -631.536
 283  -524.0815
 284  -184.2005
 285  -369.6709
 286  -228.7731
 287  109.6861
 288  226.9267
 289  -84.35115
 290  -278.1489
 291  -71.20689
 292  -500.3257
 293  -610.5989
 294  -422.3194
 295  -209.475
 296  -581.4057
 297  -249.5376
 298  -354.3777
 299  -104.9622
 300  184.9527
 301  81.75912
 302  -0.8327829
 303  167.5047
 304  168.6306
 305  -7.783696
 306  169.301
 307  281.854
 308  -106.6257
 309  212.1304
 310  172.0484
 311  32.69396
 312  -363.5053
 313  -312.8937
 314  -129.5956
 315  -32.92969
 316  -19.3774
 317  -457.1521
 318  13.52232
 319  145.2386
 320  369.2951
 321  390.9455
 322  307.4117
 323  440.0238
 324  436.2991
 325  407.1226
 326  227.4353
 327  325.2476
 328  -45.44725
 329  -383.3854
 330  -454.8094
 331  82.74836
 332  671.3002
 333  562.1914
 334  362.862
 335  440.9592
 336  275.6761
 337  583.188
 338  991.891
 339  452.1529
 340  524.6633
 341  851.0888
 342  1081.073
 343  916.9653
 344  848.8188
 345  763.4766
 346  405.3015
 347  -5.875916
 348  15.84343
 349  41.45291
 350  -470.8326
 351  -309.4418
 352  307.4624
 353  481.4963
 354  321.4179
 355  505.0733
 356  433.2837
 357  43.86861
 358  -125.4857
 359  -137.9124
 360  34.23789
 361  78.72997
 362  2.645503
 363  137.2655
 364  426.2599
 365  -73.00539
 366  -317.7321
 367  131.3309
 368  -45.98763
 369  -437.9554
 370  -532.4199
 371  -102.8403
 372  321.1861
 373  825.465
 374  1020.926
 375  114.1857
 376  -20.21628
 377  143.9395
 378  157.2798
 379  -42.47829
 380  476.6647
 381  429.896
 382  402.416
 383  486.1102
 384  158.3727
 385  -56.74499
 386  -288.5741
 387  -354.222
 388  -185.3422
 389  501.6074
 390  409.6931
 391  296.9689
 392  136.0577
 393  -142.8055
 394  -528.273
 395  -484.2086
 396  -384.8159
 397  -271.5055
 398  -123.9748
 399  -276.1816
 400  -320.4283
 401  -270.983
 402  -434.5813
 403  -626.5401
 404  -435.1754
 405  -52.20452
 406  89.79911
 407  378.4637
 408  9.994052
 409  -525.7922
 410  -740.6175
 411  -352.3665
 412  -125.2625
 413  -178.7743
 414  127.1817
 415  377.1965
 416  -195.5984
 417  -244.6228
 418  353.191
 419  104.7435
 420  212.1953
 421  469.302
 422  567.2371
 423  266.2532
 424  -215.2739
 425  -462.2206
 426  -102.4687
 427  -195.0903
 428  -421.4885
 429  -611.2579
 430  -613.0967
 431  -712.6172
 432  -830.739
 433  -411.1735
 434  -502.447
 435  -459.787
 436  -689.6646
 437  -456.1664
 438  71.33922
 439  318.2771
 440  659.2808
 441  122.5546
 442  -89.30038
 443  129.6856
 444  -87.0866
 445  -159.583
 446  -224.4537
 447  84.60941
 448  179.0762
 449  -633.5132
 450  -521.0902
 451  -432.8195
 452  -830.3314
 453  -549.4385
 454  -397.4413
 455  -243.5672
 456  94.52253
 457  -279.5822
 458  -407.4502
 459  -207.6618
 460  -141.5167
 461  31.8618
 462  -247.4105
 463  -524.7374
 464  -71.05061
 465  -104.9775
 466  -298.9968
 467  -348.1182
 468  -571.0024
 469  -489.7224
 470  -349.8824
 471  -173.3963
 472  -373.3684
 473  -568.7306
 474  -330.8143
 475  -152.8267
 476  60.81097
 477  -99.85056
 478  -182.2786
 479  124.8766
 480  185.9365
 481  389.1118
 482  11.70255
 483  -475.0581
 484  -370.048
 485  47.11403
 486  -569.9445
 487  -341.3344
 488  30.3751
 489  566.9595
 490  260.1457
 491  1.421081
 492  251.447
 493  -320.8621
 494  -528.6733
 495  -495.5339
 496  -771.0859
 497  -862.4616
 498  -555.3845
 499  -413.4967
 500  -1042.408
 501  -850.9977
 502  -685.1144
 503  -169.6997
 504  -56.08405
 505  -256.0952
 506  285.2953
 507  0.4121003
 508  83.22974
 509  151.9906
 510  -246.9192
 511  -40.15649
