# Input file       =  1179546704.108974_cleaned.dat
# Candidate        =  PSR_0332+5434
# Telescope        =  AR
# Epoch_topo       =  57896.161147094608
# Epoch_bary       =  N/A
# T_sample         =  0.002
# Data Folded      =  7208960
# Data Avg         =  0.283444274229591
# Data StdDev      =  6.99698342335579 
# Profile Bins     =  512
# Profile Avg      =  3991.10308837926 
# Profile StdDev   =  830.256286056395 
# Reduced chi-sqr  =  0.864
# Prob(Noise)      <  0.988   (~0.0 sigma)
# P_topo (ms)      =  714.52528690436   +/- 3.78e-05
# P'_topo (s/s)    =  -0                +/- 2.03e-11
# P''_topo (s/s^2) =  0                 +/- 9.12e-15
# P_bary (ms)      =  N/A
# P'_bary (s/s)    =  N/A
# P''_bary (s/s^2) =  N/A
# P_orb (s)        =  N/A
# asin(i)/c (s)    =  N/A
# eccentricity     =  N/A
# w (rad)          =  N/A
# T_peri           =  N/A
######################################################
   0  3742.246
   1  4901.001
   2  4962.023
   3  3845.474
   4  3288.985
   5  3399.209
   6  4148.798
   7  3706.995
   8  3530.731
   9  3953.559
  10  4214.717
  11  3799.43
  12  3010.422
  13  3572.624
  14  4296.488
  15  4308.731
  16  4124.465
  17  4657.938
  18  4961.671
  19  4284.715
  20  3964.485
  21  3283.526
  22  3439.222
  23  4116.099
  24  3805.83
  25  3737.103
  26  3677.404
  27  3980.096
  28  3586.614
  29  3500.228
  30  3921.512
  31  4363.116
  32  4371.305
  33  4634.289
  34  4940.978
  35  4320.105
  36  3638.23
  37  3311.166
  38  3731.008
  39  4065.825
  40  4018.545
  41  3805.446
  42  4293.331
  43  4297.492
  44  3496.991
  45  2954.136
  46  3052.872
  47  3555.36
  48  3998.746
  49  4171.558
  50  5248.117
  51  5516.282
  52  4900.579
  53  3266.164
  54  2963.387
  55  3118.733
  56  3015.513
  57  3465.629
  58  3977.173
  59  4874.586
  60  4624.325
  61  3679.674
  62  3560.062
  63  3906.893
  64  3778.721
  65  4065.124
  66  4864.474
  67  4860.087
  68  5350.882
  69  4599.203
  70  3627.52
  71  3573.519
  72  3996.839
  73  3752.751
  74  3126.679
  75  4212.597
  76  4100.698
  77  3897.851
  78  3511.989
  79  3883.378
  80  4371.577
  81  4009.09
  82  4213.504
  83  4707.262
  84  5255.719
  85  4876.585
  86  4034.906
  87  3485.734
  88  3383.777
  89  3603.12
  90  3690.049
  91  3678.464
  92  4146.212
  93  3829.912
  94  3135.09
  95  3254.693
  96  4092.29
  97  4118.146
  98  3981.92
  99  4350.651
 100  4471.079
 101  4548.326
 102  4263.333
 103  3331.471
 104  3324.928
 105  3852.626
 106  3466.618
 107  3512.494
 108  3771.655
 109  4242.707
 110  3524.235
 111  3216.45
 112  3502.646
 113  3827.029
 114  4191.424
 115  3807.371
 116  4709.228
 117  5205.037
 118  4639.616
 119  3779.264
 120  3431.354
 121  3488.362
 122  4058.378
 123  3857.346
 124  4453.15
 125  4708.641
 126  3966.539
 127  3350.817
 128  3258.774
 129  3300.729
 130  3822.534
 131  4170.087
 132  4600.206
 133  5342.266
 134  5118.596
 135  4542.406
 136  3616.676
 137  3210.909
 138  3933.775
 139  3466.233
 140  3192.015
 141  3394.283
 142  4429.125
 143  3997.868
 144  3506.037
 145  3262.359
 146  4015.04
 147  4121.821
 148  3688.512
 149  5034.662
 150  5227.795
 151  5240.933
 152  3988.823
 153  3756.308
 154  3796.252
 155  3865.414
 156  3835.051
 157  3640.318
 158  4367.457
 159  4312.678
 160  3872.439
 161  4054.089
 162  4338.273
 163  4462.99
 164  4048.569
 165  4352.932
 166  4849.85
 167  5105.08
 168  4680.675
 169  4069.218
 170  3928.417
 171  3927.996
 172  3541.171
 173  3418.349
 174  3590.638
 175  4056.678
 176  4295.052
 177  3602.611
 178  3818.676
 179  4205.446
 180  4038.746
 181  4267.577
 182  4062.8
 183  4909.777
 184  4475.726
 185  3829.799
 186  3243.659
 187  3480.426
 188  3905.173
 189  3722.013
 190  4022.715
 191  4422.082
 192  4399.865
 193  3985.469
 194  3449.808
 195  3846.98
 196  4666.486
 197  4736.086
 198  4903.553
 199  5167.659
 200  5007.793
 201  4237.22
 202  3585.984
 203  3693.713
 204  3628.27
 205  3827.43
 206  3643.9
 207  4275.978
 208  4588.495
 209  4214.136
 210  3343.441
 211  3231.066
 212  4171.242
 213  4300.673
 214  4065.125
 215  4651.268
 216  5071.709
 217  4303.377
 218  3317.222
 219  2964.865
 220  3634.575
 221  3866.167
 222  3640.649
 223  4319.247
 224  4289.812
 225  4391.497
 226  3766.526
 227  3554.205
 228  3607.377
 229  3846.026
 230  4463.395
 231  4473.436
 232  5241.356
 233  5300.635
 234  4745.878
 235  3957.523
 236  3444.768
 237  4278.686
 238  4189.277
 239  4082.591
 240  4322.763
 241  4829.217
 242  4598.338
 243  4220.785
 244  4277.386
 245  4553.665
 246  4119.907
 247  4178.062
 248  4789.496
 249  4790.443
 250  4780.813
 251  4159.48
 252  4181.561
 253  4455.585
 254  4289.954
 255  3808.382
 256  3412.764
 257  4213.617
 258  4330.89
 259  3990.876
 260  4008.537
 261  3913.662
 262  4272.161
 263  4014.83
 264  4215.267
 265  4339.398
 266  4715.414
 267  4534.027
 268  3245.367
 269  3470.87
 270  3569.05
 271  3887.582
 272  4168.893
 273  3640.264
 274  4567.071
 275  4046.308
 276  3628.335
 277  3926.196
 278  4231.971
 279  4796.082
 280  4286.902
 281  4526.988
 282  5322.854
 283  5005.733
 284  3792.406
 285  3381.913
 286  4075.832
 287  4601.184
 288  3936.258
 289  3591.125
 290  4694.851
 291  4199.564
 292  3822.243
 293  3677.964
 294  4148.226
 295  4439.497
 296  4717.786
 297  5027.03
 298  5144.32
 299  5389.95
 300  4185.786
 301  3602.058
 302  3141.998
 303  3002.891
 304  4408.2
 305  3651.821
 306  4283.342
 307  4394.905
 308  3936.465
 309  3547.387
 310  3049.692
 311  3347.851
 312  3949.292
 313  4382.031
 314  4605.697
 315  5070.595
 316  5002.922
 317  4173.514
 318  3830.994
 319  3794.968
 320  3675.414
 321  3325.376
 322  3190.693
 323  4468.992
 324  5157.605
 325  4187.547
 326  4041.641
 327  4590.845
 328  5563.871
 329  5297.083
 330  5091.71
 331  5857.827
 332  5069.454
 333  4302.917
 334  3697.192
 335  3479.167
 336  3942.087
 337  4054.662
 338  4046.011
 339  3835.935
 340  3937.989
 341  3794.867
 342  3379.052
 343  3555.724
 344  4304.953
 345  4339.592
 346  4073.191
 347  4034.329
 348  4531.94
 349  4653.77
 350  3818.597
 351  3512.737
 352  3341.54
 353  3760.708
 354  3191.08
 355  3441.789
 356  3904.28
 357  3895.619
 358  3792.308
 359  3092.159
 360  3603.264
 361  4126.83
 362  3833.661
 363  4243.088
 364  4357.296
 365  4325.253
 366  4051.42
 367  3173.032
 368  3314.248
 369  3474.291
 370  3396.745
 371  3411.54
 372  3359.483
 373  3472.651
 374  3376.28
 375  3033.689
 376  3502.786
 377  3713.034
 378  3986.718
 379  4285.165
 380  4274.251
 381  4579.355
 382  4656.648
 383  3825.044
 384  3556.15
 385  3692.764
 386  3471.194
 387  3758.493
 388  3610.393
 389  4155.612
 390  4554.841
 391  3407.349
 392  2722.917
 393  3411.071
 394  3570.461
 395  3480.449
 396  4013.896
 397  4535.068
 398  5130.297
 399  4129.64
 400  3702.508
 401  3304.665
 402  3450.599
 403  3696.683
 404  3341.322
 405  3518.163
 406  4194.067
 407  4312.823
 408  3564.505
 409  3157.532
 410  3693.381
 411  3874.95
 412  3985.361
 413  4084.572
 414  4714.195
 415  4850.381
 416  3951.227
 417  3331.291
 418  3102.833
 419  3836.202
 420  3409.29
 421  3191.096
 422  3825.68
 423  4505.959
 424  3650.32
 425  2884.514
 426  3205.185
 427  4057.958
 428  3982.535
 429  3972.156
 430  4863.895
 431  4890.993
 432  4259.965
 433  3292.129
 434  3496.437
 435  3712.583
 436  3522.009
 437  3303.85
 438  2995.611
 439  3621.223
 440  3481.369
 441  3414.241
 442  3691.288
 443  4038.865
 444  3850.338
 445  3468.003
 446  4132.516
 447  4174.267
 448  4072.794
 449  3621.967
 450  3113.174
 451  3514.726
 452  3990.779
 453  3708.234
 454  3994.903
 455  4011.925
 456  4047.614
 457  3440.293
 458  3282.657
 459  4120.854
 460  4242.863
 461  4490.78
 462  4314.955
 463  4802.6
 464  4318.766
 465  3607.571
 466  3447.654
 467  3343.194
 468  3459.182
 469  3644.697
 470  3964.238
 471  4186.01
 472  4365.243
 473  3918.218
 474  3396.554
 475  3065.701
 476  3445.703
 477  4205.93
 478  4321.984
 479  4689.512
 480  4612.144
 481  4667.604
 482  3588.356
 483  2595.859
 484  2998.008
 485  3175.332
 486  3694.183
 487  3527.197
 488  4270.794
 489  4380.262
 490  3831.481
 491  3023.826
 492  3158.941
 493  3508.472
 494  3432.489
 495  4221.673
 496  4534.126
 497  5220.356
 498  4830.821
 499  4049.569
 500  3454.105
 501  3280.06
 502  3766.975
 503  3328.154
 504  3606.128
 505  4068.504
 506  4329.257
 507  3552.17
 508  3404.135
 509  3757.182
 510  3952.694
 511  3651.077
