# Input file       =  1179632897.101483_cleaned.dat
# Candidate        =  PSR_0332+5434
# Telescope        =  AR
# Epoch_topo       =  57897.158751174575
# Epoch_bary       =  N/A
# T_sample         =  0.002
# Data Folded      =  7208960
# Data Avg         =  0.180922722267199
# Data StdDev      =  4.19578736629965 
# Profile Bins     =  512
# Profile Avg      =  2547.41923252883 
# Profile StdDev   =  497.868670690025 
# Reduced chi-sqr  =  0.676
# Prob(Noise)      <  1   (~0.0 sigma)
# P_topo (ms)      =  714.524301053137  +/- 0.000159
# P'_topo (s/s)    =  -0                +/- 8.52e-11
# P''_topo (s/s^2) =  0                 +/- 3.83e-14
# P_bary (ms)      =  N/A
# P'_bary (s/s)    =  N/A
# P''_bary (s/s^2) =  N/A
# P_orb (s)        =  N/A
# asin(i)/c (s)    =  N/A
# eccentricity     =  N/A
# w (rad)          =  N/A
# T_peri           =  N/A
######################################################
   0  2711.751
   1  2893.965
   2  2906.305
   3  2952.398
   4  2803.983
   5  3092.686
   6  2598.969
   7  3147.324
   8  2891.397
   9  2301.27
  10  2435.304
  11  2465.276
  12  2487.017
  13  2468.173
  14  2491.093
  15  2493.421
  16  2430.839
  17  2359.86
  18  2424.596
  19  2382.422
  20  2619.259
  21  2746.804
  22  2534.383
  23  2834.471
  24  3055.759
  25  3002.763
  26  2899.534
  27  3017.621
  28  3122.41
  29  2950.237
  30  2519.855
  31  2573.516
  32  2538.479
  33  2367.733
  34  2416.304
  35  2208.639
  36  2453.039
  37  2357.24
  38  2158.1
  39  2085.592
  40  2268.571
  41  2777.98
  42  2425.275
  43  2441.897
  44  2186.529
  45  2321.629
  46  2308.837
  47  2416.604
  48  2889.439
  49  3266.921
  50  3320.729
  51  2876.944
  52  2994.6
  53  3174.065
  54  3333.073
  55  3712.881
  56  3914.173
  57  3860.581
  58  3466.671
  59  2919.4
  60  2581.295
  61  2682.128
  62  2453.607
  63  2589.125
  64  2720.707
  65  2570.088
  66  3188.205
  67  3341.301
  68  2961.823
  69  2726.016
  70  2819.708
  71  2920.176
  72  2999.829
  73  2900.786
  74  2939.073
  75  2487.573
  76  2700.957
  77  2854.504
  78  2405.352
  79  2416.468
  80  2549.606
  81  2700.478
  82  2592.318
  83  2737.553
  84  2663.21
  85  2676.893
  86  2444.722
  87  2423.151
  88  2657.942
  89  2464.765
  90  2864.781
  91  2889.378
  92  2732.437
  93  2791.656
  94  2837.675
  95  2514.278
  96  2162.025
  97  2432.278
  98  2203.03
  99  2099.249
 100  2043.192
 101  2216.145
 102  2534.695
 103  2766.191
 104  2397.047
 105  2216.595
 106  2338.826
 107  2240.345
 108  2468.072
 109  2204.218
 110  2490.348
 111  2587.249
 112  3074.671
 113  2878.344
 114  2524.697
 115  2344.809
 116  2482.896
 117  2566.536
 118  2466.653
 119  2267.338
 120  2314.243
 121  2359.593
 122  2546.237
 123  2729.75
 124  2823.491
 125  2487.764
 126  2325.028
 127  2402.971
 128  2149.25
 129  2164.204
 130  2367.398
 131  2326.406
 132  2502.25
 133  2938.636
 134  2579.605
 135  2377.623
 136  2480.47
 137  2512.702
 138  2588.405
 139  2552.06
 140  2760.542
 141  2737.729
 142  2602.353
 143  2268.122
 144  2365.538
 145  2154.861
 146  2068.649
 147  2464.692
 148  2838.836
 149  2596.984
 150  2301.408
 151  2272.043
 152  2239.21
 153  2436.808
 154  2353.727
 155  2421.161
 156  2221.528
 157  2559.109
 158  2626.345
 159  2769.104
 160  2715.873
 161  2608.13
 162  2381.897
 163  2454.777
 164  2555.743
 165  2600.555
 166  2691.357
 167  2354.63
 168  2495.046
 169  2393.207
 170  2487.674
 171  2552.23
 172  2602.765
 173  2824.609
 174  2719.428
 175  2683.324
 176  2418.47
 177  2298.189
 178  2268.959
 179  2467.593
 180  2502.883
 181  2349.276
 182  2571.428
 183  2456.865
 184  2788.235
 185  2825.826
 186  2903.79
 187  2657.036
 188  2532.473
 189  2519.773
 190  2324.376
 191  2450.025
 192  2380.521
 193  2607.926
 194  2432.45
 195  2141.998
 196  2186.258
 197  2148.792
 198  2317.731
 199  2462.149
 200  2412.277
 201  2395.467
 202  1837.824
 203  2159.417
 204  2123.245
 205  2081.931
 206  2496.308
 207  2413.047
 208  2146.748
 209  2399.508
 210  2497.862
 211  2401.481
 212  2420.476
 213  2734.619
 214  2813.4
 215  2312.287
 216  2217.077
 217  2364.233
 218  2176.407
 219  2372.824
 220  2695.854
 221  3115.402
 222  3137.301
 223  2801.109
 224  2466.073
 225  2159.094
 226  2184.057
 227  2447.549
 228  2498.984
 229  2634.547
 230  3016.497
 231  2897.737
 232  2684.358
 233  2485.026
 234  2525.406
 235  2391.132
 236  2354.058
 237  2573.663
 238  2594.204
 239  2730.093
 240  2602.266
 241  2461.37
 242  2352.891
 243  2423.014
 244  2608.827
 245  2307.58
 246  2069.16
 247  2189.715
 248  2309.207
 249  2375.123
 250  2154.408
 251  2388.536
 252  2595.458
 253  2289.188
 254  2456.693
 255  2309.807
 256  2529.674
 257  2374.086
 258  2411.827
 259  2295.935
 260  2325.517
 261  2457.692
 262  2258.211
 263  2766.119
 264  2877.148
 265  2320.222
 266  2535.664
 267  2685.667
 268  2551.82
 269  2440.173
 270  2784.788
 271  2714.127
 272  2908.409
 273  2916.958
 274  3169.241
 275  2899.688
 276  2564.464
 277  2568.956
 278  2218.85
 279  2660.426
 280  2329.952
 281  2478.581
 282  3025.658
 283  3414.439
 284  3231.331
 285  2939.887
 286  2691.474
 287  2616.758
 288  3072.383
 289  2870.724
 290  2814.952
 291  3062.287
 292  2751.428
 293  2900.922
 294  2725.463
 295  2525.778
 296  2286.318
 297  2443.811
 298  2630.868
 299  2543.933
 300  2691.067
 301  2570.71
 302  2440.934
 303  2510.134
 304  2771.391
 305  3091.222
 306  2669.873
 307  2866.141
 308  2700.392
 309  2511.846
 310  2793.766
 311  2629.012
 312  2520.775
 313  2584.448
 314  2857.824
 315  2716.943
 316  2577.089
 317  2781.97
 318  2466.133
 319  2239.873
 320  2459.907
 321  2661.384
 322  2732.91
 323  3084.247
 324  2842.42
 325  2706.156
 326  2730.344
 327  2587.066
 328  2290.999
 329  2653.454
 330  3128.613
 331  2781.339
 332  2665.724
 333  2620.542
 334  2562.333
 335  2771.768
 336  2430.127
 337  2507.205
 338  2571.802
 339  2636.025
 340  2364.61
 341  2657.945
 342  2786.656
 343  2121.939
 344  2159.342
 345  2229.715
 346  2480.27
 347  2635.353
 348  2547.073
 349  2394.008
 350  2845.744
 351  2926.448
 352  2225.734
 353  2500.984
 354  2649.617
 355  2691.517
 356  2474.785
 357  2720.562
 358  2216.688
 359  2260.657
 360  2230.11
 361  2256.583
 362  2213.402
 363  2215.793
 364  2293.937
 365  1680.795
 366  1831.159
 367  2185.992
 368  2165.521
 369  2236.864
 370  1998.167
 371  2664.729
 372  2476.678
 373  2169.688
 374  2177.927
 375  2231.785
 376  2059.179
 377  2047.579
 378  2422.468
 379  2425.52
 380  2629.809
 381  2474.915
 382  2092.914
 383  2252.398
 384  2251.934
 385  2060.821
 386  2022.218
 387  2471.362
 388  2603.59
 389  2657.461
 390  2243.788
 391  2306.398
 392  2671.171
 393  2636.709
 394  2588.862
 395  2410.34
 396  2541.796
 397  2459.088
 398  2161.298
 399  2383.756
 400  2608.288
 401  2877.635
 402  2631.657
 403  2699.351
 404  3006.114
 405  2469.618
 406  2545.309
 407  2493.69
 408  2394.254
 409  2495.472
 410  2581.162
 411  2628.54
 412  2764.938
 413  3175.969
 414  3199.485
 415  2281.683
 416  2567.397
 417  2604.613
 418  2831.84
 419  2712.276
 420  3153.445
 421  3410.045
 422  2819.153
 423  2423.683
 424  2633.045
 425  2403.215
 426  2437.795
 427  2209.508
 428  2324.701
 429  2422.919
 430  2079.837
 431  2280.342
 432  2368.821
 433  2545.749
 434  2714.345
 435  2344.14
 436  2056.582
 437  2351.919
 438  2957.952
 439  2720.272
 440  2126.702
 441  2286.875
 442  2453.883
 443  2514.654
 444  2366.981
 445  2736.195
 446  2356.458
 447  2083.972
 448  2247.596
 449  2338.377
 450  2280.646
 451  2340.992
 452  2509.266
 453  2724.608
 454  2474.789
 455  2675.719
 456  2608.531
 457  2157.514
 458  1862.829
 459  2033.892
 460  2214.637
 461  2328.46
 462  3057.808
 463  3371.376
 464  2688.982
 465  2692.642
 466  2851.389
 467  2362.211
 468  2359.172
 469  2691.549
 470  2883.967
 471  2771.85
 472  2350.417
 473  2320.797
 474  2579.528
 475  2423.641
 476  2603.976
 477  2509.284
 478  2435.132
 479  2508.849
 480  2629.324
 481  2234.661
 482  1986.827
 483  2266.532
 484  2352.344
 485  2669.995
 486  2913.196
 487  3046.464
 488  2569.317
 489  2433.54
 490  2280.954
 491  2318.991
 492  2261.377
 493  2237.015
 494  2399.708
 495  2675.521
 496  2666.137
 497  2494.67
 498  2182.835
 499  2193.518
 500  2514.004
 501  2633.69
 502  2282.513
 503  2690.17
 504  2918.721
 505  2779.862
 506  2405.051
 507  2622.265
 508  2416.848
 509  2292.106
 510  2583.089
 511  2447.304
