# Input file       =  1179921519.105297_cleaned.dat
# Candidate        =  PSR_0332+5434
# Telescope        =  AR
# Epoch_topo       =  57900.499283626123
# Epoch_bary       =  N/A
# T_sample         =  0.002
# Data Folded      =  7340032
# Data Avg         =  0.11997098228416 
# Data StdDev      =  3.45091600922329 
# Profile Bins     =  512
# Profile Avg      =  1720.09984864648 
# Profile StdDev   =  413.188652065497 
# Reduced chi-sqr  =  0.960
# Prob(Noise)      <  0.736   (~0.0 sigma)
# P_topo (ms)      =  714.521357919358  +/- 0.000225
# P'_topo (s/s)    =  -0                +/- 1.19e-10
# P''_topo (s/s^2) =  0                 +/- 5.25e-14
# P_bary (ms)      =  N/A
# P'_bary (s/s)    =  N/A
# P''_bary (s/s^2) =  N/A
# P_orb (s)        =  N/A
# asin(i)/c (s)    =  N/A
# eccentricity     =  N/A
# w (rad)          =  N/A
# T_peri           =  N/A
######################################################
   0  1354.729
   1  1698.669
   2  1892.596
   3  2005.12
   4  2009.251
   5  1650.891
   6  1842.522
   7  1724.686
   8  1280.823
   9  1468.235
  10  1672.13
  11  1575.639
  12  1201.758
  13  1222.675
  14  1250.824
  15  1362.53
  16  1246.758
  17  1151.337
  18  1113.886
  19  1077.662
  20  1140.885
  21  1110.249
  22  1448.785
  23  1438.509
  24  1225.914
  25  1459.875
  26  1536.864
  27  1824.139
  28  1678.446
  29  1945.973
  30  1846.366
  31  1549.137
  32  1608.63
  33  1839.004
  34  2135.419
  35  1779.532
  36  1905.58
  37  1842.217
  38  1872.572
  39  1955.988
  40  1729.164
  41  1845.641
  42  2178.468
  43  1877.251
  44  1904.915
  45  1853.136
  46  1717.68
  47  1775.907
  48  1716.906
  49  1541.834
  50  1423.992
  51  1693.366
  52  1767.199
  53  1519.974
  54  1849.023
  55  1745.746
  56  1485.697
  57  1312.154
  58  1225.815
  59  1602.214
  60  1348.962
  61  1490.297
  62  1231.792
  63  1134.356
  64  1618.075
  65  1565.723
  66  1388.75
  67  1403.57
  68  1583.3
  69  1873.399
  70  1713.742
  71  1611.492
  72  1814.551
  73  1836.664
  74  1881.686
  75  1754.296
  76  1566.753
  77  1374.692
  78  1416.533
  79  2097.756
  80  2208.831
  81  2031.04
  82  1767.281
  83  2141.185
  84  1915.208
  85  1774.41
  86  1991.421
  87  1869.663
  88  2165.976
  89  2245.797
  90  2059.487
  91  1937.015
  92  1835.479
  93  1811.166
  94  1689.825
  95  1731.138
  96  2044.944
  97  1919.032
  98  1689.681
  99  1584.886
 100  1887.913
 101  1899.563
 102  1826.001
 103  1650.709
 104  1711.729
 105  1987.348
 106  1551.527
 107  1726.348
 108  1735.718
 109  1512.07
 110  1314.23
 111  1342.756
 112  1643.9
 113  2037.325
 114  1809.021
 115  1781.602
 116  1744.899
 117  1917.788
 118  1805.407
 119  1847.755
 120  1529.728
 121  1681.641
 122  1857.887
 123  2008.758
 124  2251.617
 125  2331.688
 126  1970.176
 127  1548.481
 128  1987.177
 129  1951.001
 130  2192.462
 131  2208.508
 132  2200.052
 133  1821.435
 134  1984.196
 135  2146.573
 136  1910.558
 137  2069.987
 138  1816.268
 139  1608.549
 140  2055.418
 141  2091.094
 142  1923.614
 143  1868.417
 144  2203.54
 145  1855.865
 146  1877.99
 147  1806.198
 148  1850.798
 149  1921.707
 150  1467.175
 151  1793.538
 152  1596.642
 153  1707.964
 154  1661.562
 155  1822.923
 156  1700.835
 157  1339.026
 158  1404.885
 159  1797.5
 160  1855.306
 161  1716.597
 162  1700.694
 163  1513.594
 164  1414.604
 165  1369.689
 166  1882.011
 167  2025.504
 168  2007.248
 169  1993.114
 170  1729.421
 171  1899.745
 172  2301.357
 173  2524.502
 174  2368.754
 175  2335.889
 176  2152.743
 177  1903.974
 178  2018.92
 179  2083.829
 180  2084.48
 181  2009.989
 182  1865.249
 183  1936.373
 184  2050.492
 185  2257.546
 186  2062.482
 187  2157.941
 188  2111.427
 189  1985.931
 190  2253.797
 191  1921.678
 192  1807.89
 193  2009.489
 194  2140.555
 195  2106.274
 196  1634.195
 197  1402.326
 198  1239.671
 199  1330.761
 200  1574.653
 201  1634.101
 202  1337.389
 203  1512.814
 204  1450.984
 205  1670.386
 206  1662.256
 207  1343.72
 208  1514.536
 209  1339.347
 210  1648.103
 211  1688.399
 212  1597.662
 213  1799.305
 214  1668.073
 215  1676.497
 216  1820.736
 217  1853.244
 218  1965.424
 219  1784.615
 220  1796.333
 221  1835.29
 222  1347.664
 223  1308.823
 224  1468.507
 225  1611.547
 226  1420.417
 227  1459.926
 228  1634.672
 229  1593.356
 230  1916.302
 231  2102.91
 232  2426.567
 233  2855.28
 234  2539.533
 235  2458.374
 236  2068.562
 237  2061.095
 238  1712.026
 239  1653.919
 240  1686.617
 241  1491.417
 242  1280.892
 243  1614.898
 244  1902.684
 245  1897.026
 246  1868.59
 247  1799.783
 248  1472.918
 249  1856.199
 250  2084.652
 251  2051.848
 252  2214.552
 253  2127.562
 254  1771.868
 255  1857.741
 256  1893.511
 257  1729.694
 258  1915.922
 259  1967.45
 260  1744.667
 261  1650.335
 262  2435.507
 263  2174.472
 264  2225.298
 265  1959.019
 266  1660.78
 267  1514.75
 268  1624.376
 269  2031.506
 270  2031.774
 271  1996.804
 272  1453.202
 273  1830.313
 274  1995.316
 275  1789.442
 276  1638.596
 277  1600.325
 278  1612.499
 279  1901.131
 280  1902.859
 281  2019.758
 282  2323.687
 283  2347.49
 284  2225.601
 285  1838.909
 286  2149.197
 287  2190.244
 288  1669.34
 289  1653.421
 290  1912.833
 291  1847.473
 292  1930.624
 293  1895.69
 294  1781.121
 295  1737.459
 296  1406.7
 297  1776.635
 298  1613.548
 299  1823.84
 300  1672.636
 301  1828.723
 302  1765.692
 303  1898.069
 304  1956.269
 305  1717.069
 306  1707.516
 307  1398.513
 308  1359.341
 309  1545.531
 310  1747.753
 311  1759.856
 312  1450.606
 313  1391.864
 314  1203.875
 315  1211.196
 316  1356.421
 317  1198.113
 318  1320.042
 319  1346.538
 320  1374.627
 321  955.6716
 322  1047.179
 323  1354.352
 324  1613.29
 325  1448.905
 326  1037.568
 327  1003.452
 328  1154.493
 329  1081.994
 330  1260.387
 331  1322.976
 332  1145.681
 333  1221.763
 334  1422.988
 335  1303.942
 336  1269.362
 337  1472.655
 338  1304.337
 339  1556.763
 340  1707.53
 341  1755.136
 342  1545.496
 343  1589.632
 344  1988.284
 345  1689.63
 346  2135.667
 347  2095.111
 348  1993.567
 349  1655.543
 350  1387.846
 351  1619.848
 352  1407.808
 353  1760.861
 354  1487.902
 355  1371.175
 356  1645.593
 357  1591.077
 358  1433.007
 359  1586.687
 360  1471.259
 361  1366.115
 362  1351.013
 363  1055.64
 364  1350.366
 365  1282.199
 366  1371.569
 367  1305.328
 368  1256.728
 369  1682.44
 370  1707.668
 371  1415.806
 372  1292.753
 373  1608.289
 374  1558.468
 375  1736.788
 376  2054.799
 377  1725.338
 378  1758.958
 379  1570.941
 380  1755.886
 381  2102.138
 382  1672.326
 383  1848.578
 384  1827.891
 385  1514.195
 386  1659.554
 387  1697.609
 388  1701.831
 389  2069.519
 390  1979.299
 391  2215.268
 392  1845.098
 393  1605.647
 394  1356.17
 395  1507.487
 396  2107.037
 397  1961.657
 398  1614.838
 399  1586.1
 400  1700.163
 401  1709.903
 402  1670.862
 403  1630.294
 404  1384.138
 405  1414.183
 406  1930.97
 407  1862.97
 408  1719.107
 409  1774.477
 410  1819.125
 411  1953.267
 412  1570.485
 413  1915.038
 414  2088.915
 415  1722.645
 416  1777.578
 417  1790.554
 418  1624.716
 419  1699.739
 420  1671.746
 421  1958.95
 422  2149.504
 423  2313.733
 424  2155.343
 425  1991.288
 426  1857.783
 427  1978.178
 428  2162.2
 429  2123.281
 430  2220.832
 431  2161.617
 432  2093.361
 433  1917.078
 434  1669.815
 435  1357.542
 436  1739.364
 437  1620.108
 438  1590.368
 439  1510.161
 440  1376.823
 441  1739.98
 442  1825.265
 443  1794.069
 444  1869.982
 445  1651.51
 446  1299.819
 447  1093.162
 448  1341.589
 449  1705.616
 450  1480.21
 451  1311.378
 452  1491.282
 453  1378.058
 454  1435.298
 455  1450.807
 456  1560.524
 457  1673.431
 458  1496.256
 459  1313.021
 460  1305.365
 461  1503.271
 462  1575.716
 463  1530.266
 464  1633.554
 465  1782.716
 466  1597.809
 467  1412.057
 468  1707.162
 469  1894.422
 470  1892.469
 471  1885.78
 472  1452.039
 473  1440.004
 474  1628.133
 475  1411.055
 476  1614.682
 477  1954.105
 478  1808.137
 479  1864.691
 480  2178.091
 481  2215.601
 482  2023.56
 483  1802.742
 484  1601.985
 485  1669.983
 486  1685.477
 487  1491.799
 488  1542.57
 489  1539.61
 490  1600.687
 491  2040.851
 492  1910.765
 493  1761.133
 494  2066.096
 495  1823.283
 496  1816.216
 497  1783.419
 498  1851.054
 499  1904.791
 500  1600.407
 501  1572.582
 502  1334.338
 503  1424.45
 504  1546.916
 505  1601.307
 506  1490.189
 507  1477.06
 508  1518.892
 509  1631.662
 510  1507.277
 511  1535.908
