# Input file       =  1179145456.098846-PSRB0329-2ms-sampling-dd.dat
# Candidate        =  PSR_0332+5434
# Telescope        =  AR
# Epoch_topo       =  57891.517072903313
# Epoch_bary       =  N/A
# T_sample         =  0.002
# Data Folded      =  7340032
# Data Avg         =  -2.477764076382e-10
# Data StdDev      =  5.82613071539094 
# Profile Bins     =  512
# Profile Avg      =  -0.00377858495005877
# Profile StdDev   =  697.580320881698 
# Reduced chi-sqr  =  0.918
# Prob(Noise)      <  0.907   (~0.0 sigma)
# P_topo (ms)      =  714.530192462141  +/- 0.00021
# P'_topo (s/s)    =  -0                +/- 1.11e-10
# P''_topo (s/s^2) =  0                 +/- 4.89e-14
# P_bary (ms)      =  N/A
# P'_bary (s/s)    =  N/A
# P''_bary (s/s^2) =  N/A
# P_orb (s)        =  N/A
# asin(i)/c (s)    =  N/A
# eccentricity     =  N/A
# w (rad)          =  N/A
# T_peri           =  N/A
######################################################
   0  -374.1479
   1  -248.8948
   2  -390.0623
   3  7.574415
   4  23.30524
   5  162.3529
   6  324.1984
   7  -24.44252
   8  -53.40712
   9  -602.1727
  10  -593.1464
  11  64.53352
  12  -34.48852
  13  -31.94229
  14  -16.21197
  15  -181.4974
  16  252.2073
  17  -223.8234
  18  70.30971
  19  -195.254
  20  -378.9338
  21  -1081.531
  22  -1503.135
  23  -1231.529
  24  -578.6845
  25  -935.1683
  26  -961.1006
  27  -826.8479
  28  -609.5699
  29  -767.0554
  30  -518.0667
  31  -747.9214
  32  -751.7807
  33  -946.0598
  34  -759.0109
  35  -288.2823
  36  -568.4186
  37  -758.9534
  38  -783.7379
  39  -547.9689
  40  -341.7112
  41  -690.0634
  42  -1052.043
  43  -1152.755
  44  -793.1082
  45  -495.5282
  46  -553.2408
  47  -402.418
  48  -294.3633
  49  -234.184
  50  -162.1936
  51  -568.7712
  52  -626.6959
  53  -121.9894
  54  -167.8619
  55  -185.4643
  56  -123.1677
  57  -422.6376
  58  -21.75988
  59  -27.86714
  60  82.78482
  61  -130.685
  62  68.95674
  63  397.9832
  64  76.70509
  65  283.4367
  66  13.93369
  67  -370.3161
  68  -33.01233
  69  147.9702
  70  -6.474096
  71  -42.56353
  72  -76.57253
  73  -268.4067
  74  -368.6847
  75  -700.6843
  76  -581.5537
  77  -286.0789
  78  -231.8235
  79  -173.9765
  80  -636.3239
  81  -240.6573
  82  -545.8112
  83  -322.4252
  84  -312.9866
  85  -241.8551
  86  66.02821
  87  -2.190795
  88  -241.4915
  89  -556.1422
  90  -293.6343
  91  -503.0644
  92  -748.9771
  93  -254.5886
  94  217.5334
  95  -147.6373
  96  -595.1639
  97  332.8323
  98  119.7416
  99  -627.3943
 100  -319.1786
 101  -283.2633
 102  -132.2226
 103  -334.1254
 104  -274.8247
 105  -172.3294
 106  -394.8973
 107  -538.0143
 108  -151.6326
 109  287.801
 110  353.3423
 111  516.5546
 112  186.4776
 113  100.0332
 114  -73.89513
 115  -72.81081
 116  -193.9482
 117  -301.3471
 118  -25.32159
 119  206.1223
 120  -79.9182
 121  366.8188
 122  508.076
 123  306.1649
 124  -590.4388
 125  -192.9994
 126  513.922
 127  451.0971
 128  37.18916
 129  474.7964
 130  276.109
 131  321.3375
 132  269.8063
 133  53.92498
 134  -248.3123
 135  -694.43
 136  -400.9115
 137  -193.8055
 138  -245.6814
 139  151.1019
 140  300.183
 141  144.2014
 142  -248.4956
 143  115.6702
 144  910.8715
 145  1210.096
 146  657.322
 147  649.7239
 148  789.4863
 149  -1.830643
 150  51.84441
 151  1217.224
 152  1366.887
 153  1506.755
 154  1144.468
 155  421.6519
 156  -368.0814
 157  -612.2194
 158  -347.7767
 159  131.9525
 160  477.5912
 161  509.8592
 162  78.01873
 163  -544.5188
 164  -344.0652
 165  -660.1815
 166  -854.7697
 167  -242.2718
 168  -1.730478
 169  -81.11263
 170  -596.564
 171  -650.6884
 172  -622.7142
 173  -299.7018
 174  -7.816351
 175  42.74999
 176  204.1765
 177  -241.4604
 178  -397.6641
 179  -126.738
 180  179.6963
 181  160.0578
 182  311.2631
 183  517.0779
 184  17.44189
 185  70.09573
 186  -78.24816
 187  33.23396
 188  295.9087
 189  543.7785
 190  304.6281
 191  -362.6611
 192  -259.222
 193  -2.792572
 194  -165.0049
 195  54.91127
 196  -296.3586
 197  -191.39
 198  -758.8798
 199  -579.4486
 200  -502.0445
 201  -195.7959
 202  -79.92426
 203  170.6546
 204  -84.78986
 205  -786.6043
 206  -490.8167
 207  -104.6608
 208  363.2821
 209  72.65875
 210  665.2729
 211  700.6017
 212  56.14867
 213  180.5253
 214  942.8858
 215  1121.842
 216  1039.544
 217  1709.23
 218  1584.454
 219  709.2113
 220  -37.91438
 221  385.6404
 222  722.7549
 223  1326.297
 224  1645.863
 225  1084.151
 226  899.0761
 227  270.693
 228  56.50407
 229  8.170093
 230  -278.1444
 231  -0.2811517
 232  -187.0022
 233  -172.983
 234  -182.7956
 235  -153.1696
 236  -279.7974
 237  393.1439
 238  404.2894
 239  191.2078
 240  -16.53512
 241  14.71553
 242  151.1637
 243  -190.0679
 244  -112.7098
 245  -82.42095
 246  -207.7303
 247  18.66864
 248  248.7199
 249  131.755
 250  195.0184
 251  426.6247
 252  4.072763
 253  -304.2585
 254  -344.466
 255  153.5715
 256  493.4971
 257  287.4501
 258  238.4181
 259  108.432
 260  83.68273
 261  69.12279
 262  -158.6166
 263  215.9041
 264  396.9709
 265  45.78876
 266  -117.7261
 267  38.0608
 268  -458.7919
 269  -378.0505
 270  -424.3656
 271  -69.54483
 272  -195.2991
 273  -463.1293
 274  -122.3098
 275  -592.4272
 276  36.43576
 277  158.334
 278  746.3371
 279  1126.795
 280  1391.367
 281  897.2458
 282  956.4148
 283  1097.552
 284  838.2772
 285  536.2483
 286  448.0346
 287  719.8356
 288  528.9158
 289  832.4425
 290  622.3124
 291  -7.961131
 292  -12.90252
 293  231.0634
 294  -180.7307
 295  -242.9085
 296  111.1036
 297  -28.05953
 298  81.65974
 299  445.9413
 300  504.4186
 301  435.3381
 302  -202.4733
 303  73.51889
 304  38.49914
 305  365.439
 306  181.7299
 307  58.5876
 308  477.5801
 309  338.5795
 310  478.7547
 311  596.6225
 312  653.2692
 313  381.3705
 314  652.8201
 315  763.421
 316  494.9862
 317  485.8282
 318  384.2388
 319  296.3666
 320  389.9718
 321  532.1622
 322  430.2573
 323  -359.5418
 324  -313.1291
 325  -248.373
 326  -344.9
 327  18.41017
 328  -41.05407
 329  18.0945
 330  84.29082
 331  147.3501
 332  738.86
 333  478.6947
 334  144.9149
 335  -190.2939
 336  -407.7369
 337  -171.9222
 338  413.321
 339  508.9319
 340  564.0286
 341  880.7705
 342  693.4913
 343  732.1862
 344  798.5713
 345  1533.903
 346  1772.184
 347  1769.649
 348  1725.193
 349  1097.699
 350  615.6379
 351  -77.03612
 352  410.801
 353  419.4989
 354  437.5574
 355  351.1197
 356  46.06443
 357  -204.0015
 358  -389.6839
 359  -447.3255
 360  -237.6096
 361  -47.0301
 362  -62.70826
 363  -193.999
 364  -165.5867
 365  132.2944
 366  277.0678
 367  25.39336
 368  -347.9135
 369  -398.9386
 370  -26.38412
 371  108.793
 372  -21.09331
 373  102.4317
 374  -26.44213
 375  469.8477
 376  383.108
 377  55.47419
 378  30.00483
 379  135.5876
 380  67.09836
 381  -95.43301
 382  -67.56218
 383  9.152556
 384  345.0505
 385  387.0848
 386  202.8825
 387  333.1525
 388  76.93597
 389  5.741743
 390  -159.2694
 391  -212.7623
 392  -102.2968
 393  -128.3186
 394  201.2247
 395  165.8679
 396  317.677
 397  153.7646
 398  81.91198
 399  121.49
 400  56.78685
 401  -422.2069
 402  -701.1973
 403  -349.2392
 404  -604.8429
 405  -239.3314
 406  -441.3441
 407  -171.9267
 408  -123.6395
 409  -53.58123
 410  17.09839
 411  128.4824
 412  332.4749
 413  -141.6223
 414  -184.8134
 415  -96.166
 416  167.5793
 417  74.39453
 418  -143.9371
 419  -171.8249
 420  -420.6651
 421  -87.14216
 422  31.27685
 423  -13.33719
 424  406.4484
 425  -237.6168
 426  -316.511
 427  -352.9464
 428  396.6458
 429  278.6552
 430  -574.6429
 431  -623.5381
 432  59.80954
 433  60.65763
 434  -181.2659
 435  -26.57061
 436  -131.0552
 437  -81.68585
 438  -609.634
 439  -636.599
 440  -625.3204
 441  -648.696
 442  -175.5084
 443  73.64007
 444  573.3312
 445  623.1912
 446  469.0355
 447  276.5991
 448  -142.4213
 449  154.659
 450  574.2827
 451  731.8788
 452  943.9438
 453  277.9579
 454  5.387241
 455  -346.2342
 456  -312.0126
 457  -70.14394
 458  153.9434
 459  369.0203
 460  72.14859
 461  225.8518
 462  45.27346
 463  -356.065
 464  -351.7645
 465  -450.9161
 466  -221.8472
 467  -404.4797
 468  -395.7498
 469  -315.1049
 470  -574.8102
 471  -871.0679
 472  -1358.774
 473  -763.3199
 474  -526.2935
 475  -253.9998
 476  -59.30132
 477  -174.2808
 478  -227.3439
 479  -104.2629
 480  -222.1538
 481  -265.183
 482  -558.3162
 483  -505.1294
 484  -255.8157
 485  26.87915
 486  368.7085
 487  -254.635
 488  -423.6872
 489  -396.7075
 490  -168.5183
 491  335.8541
 492  -296.1585
 493  -65.74354
 494  -43.71316
 495  38.45773
 496  215.2947
 497  -52.99467
 498  -295.8043
 499  -640.9673
 500  -264.0807
 501  -409.443
 502  -251.7508
 503  -123.4424
 504  -551.4739
 505  -516.8484
 506  -308.3401
 507  -583.9526
 508  -345.438
 509  -374.2991
 510  -91.82499
 511  -91.00782
