# Input file       =  1179546704.108974_cleaned.dat
# Candidate        =  PSR_0332+5434
# Telescope        =  AR
# Epoch_topo       =  57896.161147094608
# Epoch_bary       =  N/A
# T_sample         =  0.002
# Data Folded      =  7208960
# Data Avg         =  0.0352519464352191
# Data StdDev      =  1.00011349861462 
# Profile Bins     =  512
# Profile Avg      =  496.431887391126 
# Profile StdDev   =  118.672643445595 
# Reduced chi-sqr  =  1.133
# Prob(Noise)      <  0.0199   (~2.1 sigma)
# P_topo (ms)      =  714.525286297949  +/- 0.000153
# P'_topo (s/s)    =  -0                +/- 8.24e-11
# P''_topo (s/s^2) =  0                 +/- 3.7e-14
# P_bary (ms)      =  N/A
# P'_bary (s/s)    =  N/A
# P''_bary (s/s^2) =  N/A
# P_orb (s)        =  N/A
# asin(i)/c (s)    =  N/A
# eccentricity     =  N/A
# w (rad)          =  N/A
# T_peri           =  N/A
######################################################
   0  888.1136
   1  892.464
   2  838.7439
   3  600.246
   4  486.3786
   5  488.8997
   6  494.5916
   7  516.4785
   8  542.4666
   9  501.3721
  10  460.0948
  11  456.7617
  12  426.7119
  13  425.6352
  14  527.0296
  15  583.3064
  16  577.015
  17  493.5008
  18  412.8528
  19  396.4908
  20  460.2491
  21  507.0054
  22  430.9989
  23  385.6878
  24  348.7675
  25  308.4379
  26  448.6572
  27  465.8257
  28  419.0845
  29  463.4338
  30  345.7522
  31  437.5652
  32  458.7752
  33  459.6639
  34  537.5167
  35  504.7528
  36  437.2512
  37  440.0812
  38  306.8853
  39  421.3979
  40  368.7002
  41  320.2858
  42  404.1842
  43  379.4464
  44  357.4308
  45  367.5145
  46  454.8511
  47  516.1954
  48  455.9609
  49  437.0797
  50  541.7195
  51  455.4178
  52  548.0342
  53  527.525
  54  476.5268
  55  497.4847
  56  472.1858
  57  430.6297
  58  504.2414
  59  545.0992
  60  618.776
  61  532.4982
  62  350.8303
  63  342.5431
  64  441.83
  65  357.9326
  66  380.3636
  67  419.2288
  68  573.796
  69  589.3761
  70  474.8402
  71  503.4417
  72  419.0234
  73  433.3837
  74  464.7567
  75  466.2594
  76  503.9735
  77  570.8812
  78  496.5485
  79  442.0281
  80  398.7386
  81  393.3666
  82  464.4082
  83  462.8271
  84  488.8343
  85  487.9768
  86  537.4417
  87  488.8627
  88  424.8338
  89  423.4189
  90  429.4093
  91  384.1169
  92  363.7827
  93  448.7633
  94  501.0641
  95  412.5123
  96  329.8272
  97  413.3073
  98  439.6239
  99  443.3738
 100  459.5523
 101  521.8549
 102  549.8077
 103  457.2846
 104  348.7924
 105  451.1247
 106  398.6364
 107  380.0499
 108  303.7892
 109  308.1489
 110  455.0045
 111  365.1605
 112  410.2684
 113  485.5304
 114  452.0211
 115  305.1737
 116  319.7867
 117  398.3965
 118  406.4327
 119  322.1349
 120  363.1303
 121  384.7056
 122  454.7567
 123  492.3802
 124  505.604
 125  557.3624
 126  583.7759
 127  486.1789
 128  470.0856
 129  533.5731
 130  522.0068
 131  493.4627
 132  583.8178
 133  544.1452
 134  505.0545
 135  383.4089
 136  404.165
 137  497.7218
 138  429.2645
 139  406.7523
 140  412.29
 141  538.2436
 142  547.4
 143  510.5914
 144  500.1988
 145  555.7285
 146  516.8094
 147  489.0752
 148  506.2235
 149  556.6684
 150  433.9052
 151  404.7329
 152  416.4825
 153  428.6476
 154  323.8034
 155  366.1935
 156  398.8976
 157  496.0357
 158  463.5714
 159  486.4919
 160  491.11
 161  435.9174
 162  289.4617
 163  351.7192
 164  396.6848
 165  463.0883
 166  454.8473
 167  498.4453
 168  491.7749
 169  513.9782
 170  460.2368
 171  487.0665
 172  460.1581
 173  469.6713
 174  422.2448
 175  412.18
 176  374.9902
 177  447.8014
 178  440.0374
 179  442.0094
 180  403.1352
 181  377.6909
 182  305.0373
 183  419.8458
 184  617.963
 185  606.2772
 186  396.2896
 187  399.0647
 188  357.1861
 189  396.6469
 190  408.9864
 191  462.8975
 192  489.8217
 193  553.3966
 194  485.8782
 195  391.4463
 196  390.6572
 197  478.1484
 198  549.7745
 199  514.5358
 200  519.0131
 201  593.5537
 202  544.9791
 203  436.5345
 204  334.139
 205  438.1754
 206  594.8084
 207  535.4387
 208  381.1124
 209  464.1861
 210  480.1276
 211  571.8557
 212  551.3572
 213  498.214
 214  531.0977
 215  523.669
 216  633.9357
 217  541.1376
 218  466.9828
 219  530.3364
 220  629.6365
 221  514.8984
 222  434.6707
 223  447.7977
 224  430.0659
 225  583.0072
 226  466.1032
 227  431.3905
 228  399.4489
 229  417.2597
 230  463.1859
 231  548.0255
 232  541.7068
 233  655.8412
 234  682.4084
 235  435.8369
 236  305.9989
 237  396.9947
 238  420.646
 239  380.5079
 240  462.8693
 241  558.0888
 242  598.1845
 243  563.15
 244  460.0557
 245  509.4563
 246  471.5923
 247  488.7203
 248  521.8531
 249  615.9554
 250  649.5691
 251  649.4553
 252  524.5178
 253  401.9756
 254  428.6218
 255  533.2765
 256  420.3985
 257  450.4342
 258  573.4446
 259  461.7004
 260  453.173
 261  416.1873
 262  475.8591
 263  597.5656
 264  562.5398
 265  577.2629
 266  608.9522
 267  652.3832
 268  582.7017
 269  459.4372
 270  314.6096
 271  324.5516
 272  347.9636
 273  450.4314
 274  464.6317
 275  384.6381
 276  370.7084
 277  379.8087
 278  382.0386
 279  476.676
 280  376.0956
 281  433.465
 282  492.7372
 283  441.221
 284  500.5424
 285  517.1389
 286  400.9804
 287  407.6373
 288  439.8287
 289  387.8858
 290  496.4834
 291  591.7845
 292  580.114
 293  445.4951
 294  438.1516
 295  436.312
 296  416.7371
 297  450.9636
 298  471.4789
 299  502.3115
 300  586.1526
 301  519.71
 302  485.3376
 303  563.1786
 304  559.4762
 305  436.9123
 306  479.0912
 307  562.4858
 308  540.3742
 309  474.381
 310  449.6182
 311  551.7957
 312  433.2165
 313  498.8392
 314  529.8163
 315  551.3568
 316  664.8733
 317  572.3775
 318  540.5413
 319  412.8473
 320  464.8795
 321  520.264
 322  316.632
 323  358.3129
 324  435.8275
 325  515.2975
 326  489.5285
 327  442.4434
 328  411.0625
 329  532.2981
 330  521.5562
 331  485.5479
 332  588.4673
 333  643.2121
 334  648.2931
 335  564.5757
 336  567.9618
 337  437.7791
 338  516.7253
 339  450.2697
 340  448.0057
 341  514.2365
 342  552.5334
 343  591.7748
 344  599.9104
 345  596.4603
 346  545.9657
 347  500.1346
 348  529.105
 349  653.9378
 350  670.7797
 351  561.4634
 352  525.4151
 353  540.9216
 354  474.6553
 355  441.195
 356  468.6399
 357  491.088
 358  572.8679
 359  629.3811
 360  566.0551
 361  450.7667
 362  451.6548
 363  422.357
 364  442.5575
 365  412.3461
 366  505.6587
 367  517.3445
 368  444.7888
 369  365.9328
 370  467.1353
 371  456.5108
 372  459.4851
 373  539.8849
 374  547.4452
 375  587.6691
 376  541.7276
 377  527.7106
 378  599.6086
 379  655.8396
 380  687.853
 381  604.6984
 382  710.7193
 383  545.1065
 384  536.0405
 385  555.6365
 386  589.9892
 387  473.2655
 388  469.5953
 389  508.0052
 390  521.3622
 391  545.4353
 392  598.1148
 393  519.0154
 394  490.9384
 395  611.6547
 396  520.2246
 397  526.0822
 398  599.1749
 399  508.3018
 400  416.7874
 401  384.5379
 402  467.9478
 403  558.5291
 404  501.2542
 405  549.2848
 406  569.0319
 407  515.2279
 408  541.4598
 409  598.4414
 410  585.8371
 411  498.905
 412  589.5525
 413  618.0261
 414  561.8551
 415  526.0446
 416  516.585
 417  536.1656
 418  534.2944
 419  605.5184
 420  671.3727
 421  594.6602
 422  594.9724
 423  654.4847
 424  692.8734
 425  659.5911
 426  643.5607
 427  655.5383
 428  602.6375
 429  513.6227
 430  623.4241
 431  636.5504
 432  501.8952
 433  554.8948
 434  587.4142
 435  607.6976
 436  527.2844
 437  524.2997
 438  490.1912
 439  518.8479
 440  615.7291
 441  574.3978
 442  552.6271
 443  534.0552
 444  484.2138
 445  542.6066
 446  559.2259
 447  465.4872
 448  367.6399
 449  504.9536
 450  426.8826
 451  442.8116
 452  480.6646
 453  426.3809
 454  536.1843
 455  499.8199
 456  463.0884
 457  538.796
 458  556.4474
 459  615.6532
 460  634.6437
 461  512.382
 462  564.0693
 463  537.0282
 464  527.8427
 465  719.2335
 466  598.1591
 467  539.2864
 468  554.0823
 469  649.6428
 470  637.9346
 471  457.5503
 472  506.3341
 473  587.3481
 474  439.9881
 475  506.9088
 476  620.071
 477  621.5406
 478  578.071
 479  681.756
 480  578.4115
 481  571.8979
 482  553.4325
 483  494.1358
 484  491.6209
 485  366.4071
 486  380.0979
 487  549.7372
 488  463.2837
 489  590.2474
 490  469.06
 491  430.9693
 492  464.1119
 493  386.3423
 494  501.6558
 495  505.7472
 496  546.4497
 497  540.9766
 498  574.4763
 499  568.2722
 500  516.923
 501  596.5367
 502  573.6624
 503  492.496
 504  413.7825
 505  479.1668
 506  646.3612
 507  639.1138
 508  577.6108
 509  618.4408
 510  842.6498
 511  995.3927
