# Input file       =  1179029680.096024_cleaned.dat
# Candidate        =  PSR_0332+5434
# Telescope        =  AR
# Epoch_topo       =  57890.177072870647
# Epoch_bary       =  N/A
# T_sample         =  0.002
# Data Folded      =  7208960
# Data Avg         =  0.0359044276610271
# Data StdDev      =  1.00002765926845 
# Profile Bins     =  512
# Profile Avg      =  505.614984528779 
# Profile StdDev   =  118.662457819528 
# Reduced chi-sqr  =  0.900
# Prob(Noise)      <  0.949   (~0.0 sigma)
# P_topo (ms)      =  714.531152844598  +/- 0.000114
# P'_topo (s/s)    =  -0                +/- 6.11e-11
# P''_topo (s/s^2) =  0                 +/- 2.75e-14
# P_bary (ms)      =  N/A
# P'_bary (s/s)    =  N/A
# P''_bary (s/s^2) =  N/A
# P_orb (s)        =  N/A
# asin(i)/c (s)    =  N/A
# eccentricity     =  N/A
# w (rad)          =  N/A
# T_peri           =  N/A
######################################################
   0  854.342
   1  856.3198
   2  799.9289
   3  662.3539
   4  641.2614
   5  564.0297
   6  563.4883
   7  492.3724
   8  516.8196
   9  499.1541
  10  596.813
  11  643.7893
  12  608.3859
  13  623.3443
  14  532.1929
  15  541.5514
  16  524.6102
  17  556.3583
  18  531.0941
  19  506.8999
  20  550.1273
  21  597.8934
  22  523.4827
  23  477.8785
  24  540.7123
  25  538.3678
  26  422.8733
  27  449.2591
  28  521.7977
  29  597.1456
  30  645.734
  31  580.55
  32  541.109
  33  453.8853
  34  414.7682
  35  431.7954
  36  475.6776
  37  581.6042
  38  453.5249
  39  529.3732
  40  536.9792
  41  497.4658
  42  630.4322
  43  629.8228
  44  538.002
  45  474.5815
  46  485.0049
  47  548.855
  48  456.2614
  49  520.4603
  50  587.7645
  51  626.7153
  52  506.8858
  53  578.4484
  54  562.4007
  55  477.0824
  56  524.2961
  57  660.176
  58  650.2913
  59  612.9708
  60  509.8728
  61  549.3649
  62  517.488
  63  506.9138
  64  557.8911
  65  546.7794
  66  518.126
  67  507.5981
  68  582.9658
  69  558.7678
  70  531.1811
  71  382.1691
  72  328.3718
  73  448.1499
  74  397.3931
  75  466.3503
  76  447.714
  77  569.5618
  78  667.382
  79  534.4242
  80  434.9063
  81  379.7699
  82  454.1146
  83  555.2456
  84  403.5221
  85  484.1905
  86  480.6414
  87  545.3378
  88  500.7406
  89  485.7115
  90  512.8106
  91  559.5188
  92  567.442
  93  542.0759
  94  520.267
  95  454.1523
  96  510.6553
  97  565.3267
  98  466.5242
  99  445.4855
 100  424.3554
 101  466.1706
 102  626.885
 103  553.3252
 104  494.5219
 105  427.1187
 106  537.3062
 107  558.7989
 108  552.074
 109  478.7939
 110  449.8281
 111  409.2697
 112  460.6965
 113  547.1425
 114  499.9747
 115  473.8247
 116  446.6107
 117  384.9936
 118  333.8854
 119  520.0257
 120  527.2805
 121  398.534
 122  325.2925
 123  451.0525
 124  491.0088
 125  516.976
 126  610.3466
 127  620.5284
 128  486.9067
 129  480.6308
 130  487.3087
 131  466.2504
 132  478.7033
 133  551.8655
 134  528.3705
 135  479.2115
 136  560.9069
 137  463.5129
 138  415.3528
 139  457.5228
 140  611.3101
 141  624.9668
 142  495.9666
 143  623.0329
 144  587.3183
 145  427.537
 146  450.9153
 147  434.1803
 148  547.8636
 149  601.6269
 150  618.0559
 151  636.0027
 152  568.9357
 153  479.336
 154  467.325
 155  466.4822
 156  606.0301
 157  577.7863
 158  451.3763
 159  522.5734
 160  482.5763
 161  546.2817
 162  544.6853
 163  496.5602
 164  421.3394
 165  488.89
 166  471.0397
 167  495.4542
 168  387.0328
 169  380.1886
 170  474.7008
 171  451.8375
 172  460.5881
 173  336.398
 174  493.2154
 175  487.3782
 176  503.6247
 177  521.1227
 178  434.9088
 179  461.9586
 180  445.6389
 181  470.7307
 182  448.1187
 183  443.1909
 184  527.6846
 185  608.3719
 186  511.8002
 187  488.437
 188  448.6085
 189  543.8945
 190  567.7197
 191  437.5509
 192  477.9835
 193  544.7402
 194  556.0409
 195  489.6734
 196  449.6008
 197  507.0024
 198  555.2935
 199  431.7474
 200  387.9138
 201  503.065
 202  510.347
 203  418.5824
 204  367.6667
 205  450.5577
 206  396.8973
 207  482.3073
 208  511.3384
 209  531.9496
 210  539.9285
 211  555.0496
 212  489.2104
 213  574.9793
 214  523.1211
 215  509.7296
 216  536.5253
 217  461.2038
 218  543.792
 219  618.131
 220  545.018
 221  479.2158
 222  583.6105
 223  578.3868
 224  523.5827
 225  508.3444
 226  549.2867
 227  644.7673
 228  527.6141
 229  439.7855
 230  403.5276
 231  360.5866
 232  496.3755
 233  502.1102
 234  549.3314
 235  478.6725
 236  457.6986
 237  380.8557
 238  280.7891
 239  361.0511
 240  532.9147
 241  612.1442
 242  508.6071
 243  490.4325
 244  408.4074
 245  403.0106
 246  626.5068
 247  678.0834
 248  590.8274
 249  516.0656
 250  558.0229
 251  551.6457
 252  557.0494
 253  537.3749
 254  376.0224
 255  446.3267
 256  483.3926
 257  487.6151
 258  480.2558
 259  480.3969
 260  507.2432
 261  448.3022
 262  340.3939
 263  447.5725
 264  461.9092
 265  390.2248
 266  404.2023
 267  485.7958
 268  497.4845
 269  525.4574
 270  516.3334
 271  500.5291
 272  469.0744
 273  448.7358
 274  568.2067
 275  570.3577
 276  502.0724
 277  482.3466
 278  564.4977
 279  599.0104
 280  530.4001
 281  464.7637
 282  481.0952
 283  536.6727
 284  534.0544
 285  543.1796
 286  427.6064
 287  382.1302
 288  457.0085
 289  571.3966
 290  568.1684
 291  504.3233
 292  562.3829
 293  643.1498
 294  619.6392
 295  524.4945
 296  406.7417
 297  362.7311
 298  401.1524
 299  493.0251
 300  479.2158
 301  508.1534
 302  514.5883
 303  508.1859
 304  486.1406
 305  457.9879
 306  457.7197
 307  414.6009
 308  449.6654
 309  478.1718
 310  447.466
 311  468.7912
 312  598.081
 313  547.4919
 314  412.8366
 315  464.8481
 316  388.5051
 317  485.3769
 318  474.1411
 319  394.9192
 320  419.3505
 321  432.5726
 322  597.8392
 323  650.4642
 324  519.9428
 325  509.1995
 326  579.5793
 327  410.9571
 328  329.4691
 329  356.7291
 330  596.8201
 331  500.6563
 332  453.7848
 333  482.5977
 334  432.078
 335  380.2401
 336  400.5308
 337  459.3587
 338  528.1674
 339  502.0506
 340  522.3731
 341  582.0192
 342  570.3417
 343  431.8688
 344  424.912
 345  444.2005
 346  341.235
 347  493.0568
 348  565.6088
 349  575.1627
 350  506.763
 351  528.2213
 352  458.8042
 353  406.657
 354  450.5602
 355  500.7122
 356  521.5361
 357  590.0836
 358  573.099
 359  568.9281
 360  491.787
 361  416.213
 362  464.7097
 363  376.9871
 364  402.9219
 365  536.2565
 366  570.0861
 367  549.145
 368  675.1353
 369  586.2075
 370  456.3077
 371  459.3078
 372  498.5227
 373  559.9154
 374  438.4811
 375  530.7545
 376  472.5574
 377  452.455
 378  428.2196
 379  468.1878
 380  488.0346
 381  486.8686
 382  473.1799
 383  402.6143
 384  499.2076
 385  528.2932
 386  492.3806
 387  561.5606
 388  528.8985
 389  475.2787
 390  468.2799
 391  596.0753
 392  548.5939
 393  485.2489
 394  303.3208
 395  417.3788
 396  496.2113
 397  440.7104
 398  428.2769
 399  429.2166
 400  479.2772
 401  515.6779
 402  536.0417
 403  463.4454
 404  483.0104
 405  447.7675
 406  439.7064
 407  580.2691
 408  481.3645
 409  464.3873
 410  402.5201
 411  425.8365
 412  516.9952
 413  494.3798
 414  463.8873
 415  376.9706
 416  390.5099
 417  453.7238
 418  435.5492
 419  483.2111
 420  585.5812
 421  485.0994
 422  491.5245
 423  544.4923
 424  500.6125
 425  440.6564
 426  531.2639
 427  503.2755
 428  357.7426
 429  400.6346
 430  448.7278
 431  490.8739
 432  514.7293
 433  525.4576
 434  533.3955
 435  496.6802
 436  467.7762
 437  550.5604
 438  541.5541
 439  443.9999
 440  631.1835
 441  682.3949
 442  674.1552
 443  506.6958
 444  354.3952
 445  424.7643
 446  390.9062
 447  435.2894
 448  437.5576
 449  613.4673
 450  599.2586
 451  411.9359
 452  396.8989
 453  462.7283
 454  532.3911
 455  610.8785
 456  496.4655
 457  397.8397
 458  548.327
 459  653.536
 460  591.4271
 461  730.9973
 462  631.6742
 463  466.3561
 464  471.4692
 465  462.0036
 466  436.7611
 467  497.2612
 468  542.0261
 469  434.8472
 470  534.2779
 471  495.5779
 472  467.2083
 473  405.8368
 474  477.4406
 475  538.4261
 476  476.8719
 477  476.4954
 478  543.8095
 479  602.371
 480  463.7584
 481  432.138
 482  436.0107
 483  478.0061
 484  464.2025
 485  507.4825
 486  432.7503
 487  443.3669
 488  520.6426
 489  403.9642
 490  561.0059
 491  633.2348
 492  400.8987
 493  376.714
 494  505.3336
 495  628.134
 496  522.393
 497  516.4977
 498  536.1016
 499  596.5999
 500  638.2831
 501  579.0696
 502  543.5595
 503  477.0941
 504  654.474
 505  702.1496
 506  723.2123
 507  660.7625
 508  711.4841
 509  827.1752
 510  807.2523
 511  826.8021
