# Input file       =  1179891925.097309-PSRB0329-2ms-sampling-dd.dat
# Candidate        =  PSR_0332+5434
# Telescope        =  AR
# Epoch_topo       =  57900.156760385522
# Epoch_bary       =  N/A
# T_sample         =  0.002
# Data Folded      =  7208960
# Data Avg         =  -1.5265662412655e-10
# Data StdDev      =  7.90032656859582 
# Profile Bins     =  512
# Profile Avg      =  -0.932862077224003
# Profile StdDev   =  937.446239129311 
# Reduced chi-sqr  =  0.382
# Prob(Noise)      <  1   (~0.0 sigma)
# P_topo (ms)      =  714.521329234712  +/- 0.000175
# P'_topo (s/s)    =  -0                +/- 9.38e-11
# P''_topo (s/s^2) =  0                 +/- 4.22e-14
# P_bary (ms)      =  N/A
# P'_bary (s/s)    =  N/A
# P''_bary (s/s^2) =  N/A
# P_orb (s)        =  N/A
# asin(i)/c (s)    =  N/A
# eccentricity     =  N/A
# w (rad)          =  N/A
# T_peri           =  N/A
######################################################
   0  158.6609
   1  409.7229
   2  297.6942
   3  908.702
   4  886.5219
   5  580.4088
   6  298.6096
   7  94.85253
   8  40.87903
   9  -99.52156
  10  -42.71638
  11  -231.812
  12  -413.4356
  13  -341.3902
  14  -56.04665
  15  -219.5772
  16  -230.4881
  17  -301.2054
  18  -167.0305
  19  32.63651
  20  -239.5693
  21  -629.0171
  22  -648.0635
  23  -373.0193
  24  -751.5705
  25  -681.8361
  26  -585.2214
  27  -247.833
  28  -479.4934
  29  -767.9651
  30  -297.9122
  31  111.5705
  32  -79.84588
  33  -187.7282
  34  -21.16042
  35  313.4427
  36  316.8386
  37  106.8919
  38  -110.8848
  39  -125.2485
  40  -91.02065
  41  -78.94189
  42  -90.29735
  43  4.733751
  44  35.37461
  45  -85.06096
  46  -153.4055
  47  35.69044
  48  82.38339
  49  -37.01562
  50  -99.90289
  51  -475.6668
  52  -193.6876
  53  60.84409
  54  -244.4989
  55  -97.65958
  56  117.7711
  57  -354.1116
  58  -662.599
  59  -269.9943
  60  -16.26907
  61  -176.975
  62  -245.0316
  63  338.6591
  64  335.3936
  65  59.74078
  66  307.0188
  67  218.8942
  68  -451.6139
  69  -255.2002
  70  5.233943
  71  14.48975
  72  -180.6927
  73  695.779
  74  1065.818
  75  391.6705
  76  6.953947
  77  143.1281
  78  110.4643
  79  388.2431
  80  718.6594
  81  863.4117
  82  98.74925
  83  -83.1101
  84  -54.78156
  85  256.6156
  86  257.7214
  87  584.7228
  88  655.5378
  89  483.8431
  90  510.8342
  91  351.7928
  92  393.5661
  93  583.8884
  94  358.087
  95  701.1215
  96  1277.559
  97  469.4492
  98  -165.0953
  99  85.68805
 100  -69.34815
 101  249.1221
 102  677.0879
 103  966.7027
 104  569.5269
 105  126.468
 106  366.0948
 107  138.231
 108  -99.01607
 109  190.7826
 110  551.2552
 111  205.7661
 112  559.1438
 113  590.4701
 114  411.0892
 115  157.4211
 116  -59.83821
 117  -68.50063
 118  79.5734
 119  204.9192
 120  495.6663
 121  404.3912
 122  449.195
 123  -151.9354
 124  -335.4065
 125  -352.2771
 126  -305.5969
 127  -168.0365
 128  185.8209
 129  126.4392
 130  317.3721
 131  392.6349
 132  97.87492
 133  -185.5063
 134  -256.5358
 135  -251.4208
 136  18.05673
 137  276.9142
 138  175.9727
 139  -261.5781
 140  -357.5617
 141  -446.1021
 142  -190.887
 143  11.67567
 144  -234.9657
 145  -7.984087
 146  -273.8876
 147  309.1505
 148  805.2739
 149  855.9532
 150  349.7086
 151  54.28557
 152  241.108
 153  77.75525
 154  59.83448
 155  162.647
 156  92.20924
 157  -397.0828
 158  -188.8802
 159  -225.1519
 160  352.7589
 161  312.7791
 162  469.6417
 163  885.1382
 164  477.0282
 165  -324.7452
 166  -894.2735
 167  -673.7998
 168  -998.1702
 169  -522.8788
 170  123.3514
 171  675.4418
 172  256.2978
 173  -186.8572
 174  -686.4328
 175  -239.9635
 176  -75.01619
 177  -166.883
 178  200.5729
 179  161.078
 180  198.3738
 181  -22.68907
 182  209.3016
 183  -752.2197
 184  -570.174
 185  -67.332
 186  -54.19782
 187  -296.266
 188  165.8122
 189  33.08368
 190  -520.0173
 191  -852.0823
 192  -269.884
 193  -380.5569
 194  -82.03502
 195  197.9809
 196  191.532
 197  -286.5881
 198  -138.0069
 199  19.64898
 200  -50.71822
 201  -284.3302
 202  -167.6231
 203  49.66773
 204  -47.6125
 205  639.5718
 206  679.3558
 207  758.2215
 208  694.3748
 209  687.5449
 210  1242.733
 211  968.1663
 212  1297.792
 213  954.9602
 214  742.1047
 215  264.8557
 216  -170.0894
 217  -29.98329
 218  -441.1679
 219  -291.0327
 220  -284.7601
 221  228.6707
 222  329.9143
 223  133.2338
 224  -105.9598
 225  -134.4348
 226  94.70232
 227  415.7941
 228  666.9799
 229  859.1495
 230  1050.244
 231  686.0283
 232  602.5411
 233  3.067957
 234  -128.0133
 235  454.6956
 236  634.6226
 237  176.3882
 238  -37.07725
 239  124.3872
 240  -107.6509
 241  54.10619
 242  452.4019
 243  350.3829
 244  -546.8903
 245  73.26675
 246  789.2004
 247  1223.053
 248  616.3188
 249  87.50683
 250  -479.6992
 251  -908.2232
 252  -1072.485
 253  -350.5705
 254  -83.68686
 255  94.2578
 256  -369.4648
 257  -475.6174
 258  -517.2719
 259  -413.6964
 260  -832.7572
 261  -769.5272
 262  -383.5323
 263  177.0831
 264  180.6257
 265  163.8958
 266  0.7398933
 267  -607.5361
 268  -291.028
 269  -815.2719
 270  -787.6333
 271  -490.7033
 272  102.5812
 273  63.77496
 274  -129.4853
 275  -348.0577
 276  -658.3159
 277  -443.33
 278  163.889
 279  601.3444
 280  708.2166
 281  226.6399
 282  -55.65701
 283  -218.631
 284  -258.8258
 285  -187.8518
 286  120.4696
 287  513.6808
 288  727.7535
 289  269.2195
 290  -90.38346
 291  -171.8516
 292  -279.83
 293  -179.3083
 294  -253.0345
 295  -186.7825
 296  401.7688
 297  -426.8377
 298  -324.2718
 299  -22.19409
 300  659.6055
 301  588.5069
 302  478.4843
 303  97.57066
 304  -47.62965
 305  -170.469
 306  68.77496
 307  40.00908
 308  -80.495
 309  35.04491
 310  467.0765
 311  398.8781
 312  153.5606
 313  -150.4724
 314  207.9296
 315  -274.4159
 316  -302.2313
 317  49.77489
 318  192.9827
 319  57.87193
 320  35.68558
 321  560.6481
 322  -216.2456
 323  -281.4551
 324  -162.5314
 325  -22.00893
 326  -185.8357
 327  -386.4728
 328  -216.6183
 329  -389.9353
 330  -275.9582
 331  -168.9293
 332  -100.6152
 333  -519.644
 334  -1050.057
 335  -964.8747
 336  -567.7302
 337  -134.2929
 338  -353.1083
 339  134.6809
 340  11.16922
 341  -219.3105
 342  -532.4601
 343  -479.9232
 344  -259.0993
 345  600.5881
 346  873.343
 347  562.4124
 348  53.09354
 349  -608.7424
 350  -570.4136
 351  -439.4301
 352  -317.627
 353  116.0907
 354  262.0959
 355  -455.4471
 356  -373.9362
 357  -108.1882
 358  -207.9855
 359  -401.4909
 360  -2.12479
 361  583.8076
 362  282.1572
 363  71.61417
 364  -343.107
 365  -436.2184
 366  59.80836
 367  80.76051
 368  -329.9429
 369  -771.686
 370  201.5548
 371  320.9844
 372  437.7876
 373  243.0678
 374  714.699
 375  404.5105
 376  -117.5828
 377  95.91908
 378  635.5681
 379  964.6346
 380  818.0251
 381  179.9032
 382  125.5726
 383  -45.62101
 384  -165.9133
 385  -305.8439
 386  445.586
 387  656.8434
 388  438.8837
 389  136.7494
 390  8.169537
 391  -142.9556
 392  -358.0413
 393  -449.745
 394  -406.9811
 395  180.5774
 396  449.5208
 397  309.7094
 398  -482.002
 399  -647.5901
 400  -541.7637
 401  -540.1193
 402  -163.8383
 403  -172.7188
 404  -309.1292
 405  -278.4811
 406  -397.5833
 407  -192.1534
 408  -43.70636
 409  -39.09237
 410  -357.2639
 411  -164.1267
 412  -75.26684
 413  -113.7898
 414  -252.2063
 415  -384.1537
 416  -466.5408
 417  -724.254
 418  -82.44041
 419  -225.0489
 420  -308.2089
 421  -271.4731
 422  63.42796
 423  -71.34772
 424  -364.4105
 425  31.23212
 426  -277.1361
 427  -235.0345
 428  -184.2944
 429  -206.296
 430  -195.5098
 431  446.6416
 432  509.9912
 433  -205.3967
 434  -853.0939
 435  -253.2242
 436  -355.0865
 437  -464.4492
 438  -832.6274
 439  -148.8801
 440  -70.8014
 441  -102.6897
 442  16.45709
 443  164.2072
 444  630.7207
 445  -43.17299
 446  362.2515
 447  436.6975
 448  490.5148
 449  403.812
 450  410.9826
 451  115.8939
 452  460.1938
 453  940.1772
 454  925.249
 455  128.3162
 456  309.3183
 457  23.92224
 458  -144.9238
 459  200.6703
 460  505.8282
 461  819.5187
 462  -147.9452
 463  -640.6309
 464  -552.5963
 465  -435.7772
 466  -497.8799
 467  -894.6133
 468  -323.4347
 469  -398.1775
 470  -548.8536
 471  -314.7777
 472  72.1188
 473  -133.5484
 474  -646.2624
 475  -783.5757
 476  -302.2901
 477  -114.5814
 478  209.4343
 479  537.0877
 480  240.0769
 481  10.02102
 482  233.8731
 483  40.66675
 484  -443.5033
 485  -477.2548
 486  80.65177
 487  -268.0233
 488  -166.6269
 489  41.02117
 490  44.20509
 491  -255.8572
 492  -688.2436
 493  -289.2685
 494  -14.09561
 495  -91.65978
 496  133.7013
 497  149.9659
 498  -542.6141
 499  -837.2536
 500  -616.5125
 501  -606.3434
 502  -577.6769
 503  -178.6424
 504  -274.2554
 505  -38.32994
 506  -227.9637
 507  -17.42465
 508  209.3055
 509  146.4085
 510  -187.9317
 511  462.281
