# Input file       =  1179059303.106471-PSRB0329-2ms-sampling-dd.dat
# Candidate        =  PSR_0332+5434
# Telescope        =  AR
# Epoch_topo       =  57890.519931787858
# Epoch_bary       =  N/A
# T_sample         =  0.002
# Data Folded      =  7340032
# Data Avg         =  3.67401310074845e-11
# Data StdDev      =  5.79714381116707 
# Profile Bins     =  512
# Profile Avg      =  0.03920186748242 
# Profile StdDev   =  694.109630823812 
# Reduced chi-sqr  =  0.500
# Prob(Noise)      <  1   (~0.0 sigma)
# P_topo (ms)      =  714.531164607857  +/- 0.000672
# P'_topo (s/s)    =  -0                +/- 3.54e-10
# P''_topo (s/s^2) =  0                 +/- 1.56e-13
# P_bary (ms)      =  N/A
# P'_bary (s/s)    =  N/A
# P''_bary (s/s^2) =  N/A
# P_orb (s)        =  N/A
# asin(i)/c (s)    =  N/A
# eccentricity     =  N/A
# w (rad)          =  N/A
# T_peri           =  N/A
######################################################
   0  -373.1157
   1  -345.4134
   2  -422.8042
   3  -456.0243
   4  -537.0583
   5  -366.3032
   6  186.101
   7  -335.9609
   8  51.05325
   9  -49.06549
  10  -294.1635
  11  -203.7055
  12  281.8401
  13  43.91235
  14  -373.2126
  15  -174.3453
  16  -69.52608
  17  -272.6766
  18  78.39613
  19  -17.27212
  20  -360.6566
  21  318.2789
  22  121.9776
  23  155.3196
  24  205.7316
  25  178.0902
  26  31.29814
  27  -6.825499
  28  -117.5966
  29  -465.4405
  30  -79.82574
  31  240.5067
  32  166.2648
  33  -97.66085
  34  77.62205
  35  -87.85487
  36  -379.3979
  37  -211.3115
  38  -230.4768
  39  -386.8309
  40  -242.821
  41  -235.1168
  42  16.66449
  43  -496.9864
  44  -366.963
  45  -422.4767
  46  -287.7352
  47  -181.4938
  48  -319.2673
  49  -535.4149
  50  209.8097
  51  91.63972
  52  -69.11077
  53  -365.8585
  54  131.1313
  55  170.9324
  56  -335.91
  57  -417.1995
  58  -307.72
  59  -436.914
  60  -433.1098
  61  -460.4861
  62  -168.4343
  63  -373.7526
  64  -655.0158
  65  -399.2101
  66  -769.8083
  67  -678.0258
  68  -281.8985
  69  -108.3097
  70  -463.5403
  71  -596.822
  72  -366.1362
  73  -621.2151
  74  -394.514
  75  -302.6576
  76  -118.9328
  77  -444.1564
  78  -316.7475
  79  -254.8898
  80  -363.6214
  81  -387.0764
  82  -229.6717
  83  -360.26
  84  -392.7996
  85  -279.5969
  86  -90.22337
  87  -252.9684
  88  -255.0766
  89  -249.1625
  90  -439.1362
  91  -734.3384
  92  -354.0441
  93  -262.5999
  94  -184.7604
  95  -64.336
  96  37.43719
  97  237.4319
  98  -87.93143
  99  -282.5939
 100  -600.9274
 101  -904.7004
 102  -605.5278
 103  -536.4531
 104  -276.0429
 105  -265.398
 106  -513.2443
 107  -219.8976
 108  -363.8896
 109  -694.7593
 110  -410.1683
 111  174.103
 112  14.16982
 113  -152.8511
 114  -61.50299
 115  95.50527
 116  37.92349
 117  -183.3997
 118  -29.12347
 119  54.12918
 120  536.4082
 121  171.5947
 122  304.8423
 123  124.1775
 124  -80.95573
 125  -526.9841
 126  -556.6133
 127  -28.28678
 128  -385.1971
 129  -123.1375
 130  -54.33345
 131  -87.82302
 132  -596.1177
 133  -230.1479
 134  58.16531
 135  -1.606442
 136  -224.3583
 137  -403.2003
 138  -298.5326
 139  -388.4521
 140  -130.0221
 141  -71.53036
 142  -282.2123
 143  -538.3676
 144  -293.1665
 145  -313.4703
 146  -260.8877
 147  -70.87703
 148  -202.2339
 149  87.15791
 150  -15.81261
 151  -291.222
 152  -144.2082
 153  -263.2426
 154  -454.5794
 155  -755.2516
 156  -182.7354
 157  -120.5605
 158  -243.0068
 159  -99.96397
 160  416.2671
 161  277.5839
 162  -548.6777
 163  -776.7956
 164  -367.5841
 165  -238.8668
 166  -301.5038
 167  -286.1091
 168  100.1386
 169  216.0131
 170  -157.1415
 171  386.6499
 172  34.20529
 173  -184.1867
 174  225.2013
 175  353.0737
 176  287.9217
 177  35.21989
 178  157.612
 179  44.6646
 180  -297.1744
 181  87.97339
 182  -76.25233
 183  431.3047
 184  138.7968
 185  163.107
 186  147.598
 187  -89.54338
 188  -120.9766
 189  213.8318
 190  16.2196
 191  -455.4558
 192  -78.72212
 193  416.8374
 194  27.64668
 195  -122.8255
 196  -13.73116
 197  -189.5384
 198  -22.32116
 199  -221.4088
 200  149.9476
 201  462.4456
 202  304.6036
 203  232.2061
 204  131.1244
 205  723.2465
 206  309.0956
 207  135.258
 208  344.1248
 209  546.0537
 210  606.7863
 211  595.0113
 212  452.2924
 213  151.838
 214  -26.77118
 215  1.973848
 216  386.1953
 217  735.5846
 218  455.8892
 219  512.2864
 220  142.4372
 221  -96.32951
 222  25.68665
 223  213.4819
 224  -95.97729
 225  -149.3338
 226  -356.2449
 227  -174.1195
 228  45.82182
 229  269.2153
 230  42.61312
 231  -247.9059
 232  -438.6922
 233  -351.2816
 234  147.8479
 235  412.8323
 236  120.3482
 237  324.2617
 238  243.1163
 239  419.4427
 240  443.5427
 241  480.9496
 242  267.2231
 243  131.612
 244  163.0716
 245  180.5582
 246  -356.9481
 247  56.3499
 248  285.3595
 249  69.06121
 250  -174.3544
 251  -384.558
 252  116.5251
 253  -319.3289
 254  -758.5626
 255  -435.0143
 256  -238.3518
 257  -124.3312
 258  -116.0329
 259  -99.79908
 260  163.0142
 261  673.1867
 262  347.8795
 263  258.6423
 264  380.2646
 265  728.067
 266  921.7494
 267  1361.533
 268  1264.609
 269  897.0209
 270  474.0302
 271  -138.8256
 272  73.27798
 273  -152.2638
 274  439.8926
 275  341.2592
 276  -229.6662
 277  -72.85905
 278  -98.29382
 279  100.6383
 280  243.8238
 281  124.4545
 282  -128.8766
 283  -467.8896
 284  -414.2644
 285  -329.5421
 286  -65.9883
 287  -170.7667
 288  -498.6687
 289  40.86574
 290  216.3999
 291  60.25639
 292  139.2329
 293  762.2022
 294  327.8955
 295  -65.75697
 296  186.1293
 297  -4.200413
 298  -401.2662
 299  -8.58834
 300  162.6577
 301  169.1058
 302  -127.7437
 303  -229.6618
 304  -93.13199
 305  335.0487
 306  16.54845
 307  133.6777
 308  485.917
 309  259.9484
 310  -19.20962
 311  2.499228
 312  -325.9171
 313  -502.1636
 314  -546.9028
 315  -178.5287
 316  59.11863
 317  -116.2676
 318  -559.8397
 319  -90.38159
 320  -248.4895
 321  -418.1092
 322  -535.4504
 323  -354.8563
 324  -180.0987
 325  -269.112
 326  -344.3582
 327  -611.1876
 328  -272.9987
 329  236.6671
 330  252.5378
 331  63.8098
 332  286.23
 333  706.1146
 334  780.9972
 335  615.5809
 336  745.8558
 337  760.3533
 338  505.5593
 339  256.9835
 340  174.8237
 341  -562.9444
 342  -152.6486
 343  450.8478
 344  121.8535
 345  -169.867
 346  -118.813
 347  -37.19409
 348  -89.07999
 349  71.5089
 350  584.2888
 351  555.6524
 352  356.514
 353  4.354169
 354  -89.67717
 355  96.31369
 356  325.9572
 357  135.8849
 358  532.6172
 359  349.6371
 360  495.2266
 361  423.1913
 362  -0.3950454
 363  3.516368
 364  -156.2691
 365  -138.7237
 366  42.35746
 367  500.824
 368  256.73
 369  548.3599
 370  516.2756
 371  272.3871
 372  192.1044
 373  249.4215
 374  362.4295
 375  365.9894
 376  476.4942
 377  499.4834
 378  742.1216
 379  390.3555
 380  357.8952
 381  314.4723
 382  224.1927
 383  282.2505
 384  409.6073
 385  201.2114
 386  -14.97533
 387  418.3114
 388  841.8257
 389  258.1515
 390  74.48492
 391  257.3097
 392  476.2747
 393  498.2617
 394  321.0017
 395  932.8557
 396  758.5081
 397  646.8918
 398  541.1739
 399  512.3149
 400  346.5213
 401  603.8913
 402  1032.749
 403  819.0863
 404  365.8579
 405  355.315
 406  192.0936
 407  -198.9541
 408  144.2688
 409  269.5239
 410  773.7794
 411  449.3475
 412  326.0145
 413  758.2804
 414  673.7128
 415  864.7723
 416  353.5781
 417  72.15492
 418  341.8917
 419  131.3075
 420  280.2642
 421  -174.9161
 422  -272.2563
 423  -143.8091
 424  463.7133
 425  410.8968
 426  206.4403
 427  192.9776
 428  -31.76695
 429  -278.5602
 430  -391.7538
 431  131.8792
 432  283.5342
 433  202.0115
 434  97.22185
 435  34.59759
 436  180.2369
 437  213.2032
 438  332.5538
 439  646.5962
 440  130.2549
 441  -224.7068
 442  -222.3637
 443  -128.5316
 444  -145.4673
 445  -210.6931
 446  -104.4091
 447  -425.6685
 448  -572.6252
 449  -307.9807
 450  34.24043
 451  442.6656
 452  504.5972
 453  -235.6344
 454  -188.5287
 455  -403.5584
 456  -247.8959
 457  -185.7831
 458  51.06429
 459  -20.73914
 460  -166.325
 461  -283.6905
 462  -144.2375
 463  296.1884
 464  486.6139
 465  164.8936
 466  -21.03156
 467  -37.51879
 468  -251.573
 469  -29.34296
 470  52.78091
 471  -100.9233
 472  51.75
 473  451.593
 474  -19.75435
 475  -432.2751
 476  -257.9802
 477  -426.0093
 478  -270.4108
 479  -182.8884
 480  121.9671
 481  -434.2052
 482  -636.582
 483  -293.7167
 484  -173.0965
 485  -141.1907
 486  -140.3806
 487  -212.0843
 488  -504.6799
 489  -551.6774
 490  -574.1718
 491  -195.0397
 492  23.43052
 493  -663.8
 494  -399.7054
 495  -332.2173
 496  38.65217
 497  -46.88369
 498  186.3874
 499  64.17714
 500  117.9252
 501  181.0036
 502  171.0328
 503  228.6208
 504  95.20729
 505  491.9299
 506  -64.60523
 507  18.14443
 508  114.3604
 509  90.46831
 510  -165.8672
 511  -314.718
