# Input file       =  1179460511.106845_cleaned.dat
# Candidate        =  PSR_0332+5434
# Telescope        =  AR
# Epoch_topo       =  57895.163542903298
# Epoch_bary       =  N/A
# T_sample         =  0.002
# Data Folded      =  7208960
# Data Avg         =  0.136459023553074
# Data StdDev      =  4.17651657350645 
# Profile Bins     =  256
# Profile Avg      =  3842.69174208285 
# Profile StdDev   =  700.858805891656 
# Reduced chi-sqr  =  0.840
# Prob(Noise)      <  0.97   (~0.0 sigma)
# P_topo (ms)      =  714.526271245189  +/- 5.7e-05
# P'_topo (s/s)    =  -0                +/- 3.06e-11
# P''_topo (s/s^2) =  0                 +/- 1.38e-14
# P_bary (ms)      =  N/A
# P'_bary (s/s)    =  N/A
# P''_bary (s/s^2) =  N/A
# P_orb (s)        =  N/A
# asin(i)/c (s)    =  N/A
# eccentricity     =  N/A
# w (rad)          =  N/A
# T_peri           =  N/A
######################################################
   0  3407.297
   1  4240.786
   2  4494.903
   3  3907.636
   4  3281.49
   5  3119.23
   6  3987.362
   7  4693.816
   8  3291.494
   9  3556.626
  10  4689.335
  11  5159.072
  12  3650.24
  13  3501.263
  14  3741.608
  15  4475.975
  16  3931.434
  17  3984.945
  18  3934.536
  19  4812.834
  20  3929.313
  21  3240.122
  22  3310.836
  23  4399.367
  24  3773.727
  25  3569.068
  26  3538.987
  27  4182.618
  28  3851.365
  29  3103.248
  30  3536.71
  31  3327.737
  32  3579.716
  33  3061.839
  34  3770.143
  35  3825.318
  36  3853.237
  37  3331.987
  38  3178.737
  39  3476.058
  40  4345.226
  41  2516.194
  42  3275.723
  43  4362.652
  44  4754.027
  45  3486.452
  46  3377.16
  47  3613.345
  48  3763.32
  49  3141.408
  50  3898.691
  51  3865.629
  52  4573.333
  53  4586.57
  54  3643.517
  55  4098.696
  56  3831.411
  57  3242.61
  58  2887.89
  59  4138.946
  60  4117.16
  61  3696.454
  62  3280.458
  63  2580.553
  64  3958.65
  65  4487.969
  66  2896.491
  67  3017.416
  68  3470.806
  69  4135.213
  70  2909.22
  71  3336.298
  72  3073.139
  73  3830.778
  74  2968.219
  75  3777.908
  76  3319.936
  77  4256.863
  78  4083.967
  79  4074.624
  80  4266.7
  81  4589.728
  82  3864.587
  83  4197.884
  84  4319.142
  85  4704.395
  86  4343.672
  87  3489.5
  88  4515.159
  89  4236.386
  90  4161.417
  91  3581.519
  92  3998.929
  93  4020.177
  94  3775.181
  95  3125.543
  96  3705.107
  97  3939.186
  98  4021.104
  99  3579.382
 100  4353.179
 101  4785.679
 102  5437.136
 103  4161.343
 104  3882.249
 105  4712.781
 106  5022.94
 107  4126.304
 108  4219.617
 109  4440.279
 110  4776.647
 111  3261.015
 112  3739.723
 113  4060.477
 114  3598.644
 115  3304.787
 116  3586.141
 117  3284.589
 118  3552.98
 119  4456.364
 120  3950.872
 121  3234.779
 122  2853.648
 123  3352.977
 124  3281.647
 125  3537.521
 126  3464.874
 127  4205.799
 128  4172.896
 129  3402.831
 130  3849.778
 131  4283.016
 132  2593.962
 133  3483.428
 134  4061.265
 135  4437.799
 136  3770.721
 137  3539.866
 138  3403.966
 139  3500.271
 140  3129.409
 141  3445.292
 142  2902.645
 143  4251.733
 144  3942.208
 145  3661.587
 146  2994.338
 147  3665.168
 148  2891.395
 149  3344.493
 150  3979.179
 151  4259.43
 152  3625.912
 153  4135.581
 154  3752.37
 155  3712.12
 156  3546.279
 157  3174.846
 158  3445.322
 159  3368.229
 160  3994.671
 161  4007.104
 162  4389.096
 163  5200.876
 164  6689.358
 165  5757.474
 166  5135.018
 167  3708.821
 168  3959.398
 169  3941.64
 170  3714.276
 171  3935.775
 172  4265.328
 173  3633.897
 174  3763.766
 175  3924.781
 176  4408.529
 177  3606.75
 178  3772.077
 179  2990.346
 180  4471.573
 181  3245.237
 182  4072.563
 183  4100.171
 184  4593.369
 185  4250.427
 186  3490.805
 187  3216.011
 188  3786.181
 189  4077.67
 190  3555.153
 191  3190.279
 192  3365.715
 193  4215.688
 194  4001.357
 195  3108.776
 196  3557.28
 197  4169.925
 198  3560.069
 199  3923.326
 200  3881.371
 201  4515.153
 202  3913.983
 203  4473.608
 204  4394.762
 205  4472.199
 206  3746.773
 207  3594.663
 208  3686.131
 209  4177.524
 210  3711.106
 211  4074.163
 212  3839.618
 213  4041.089
 214  3468.759
 215  3469.398
 216  3820.8
 217  4977.975
 218  4185.79
 219  3471.213
 220  3710.454
 221  4108.156
 222  4015.765
 223  2794.052
 224  3290.602
 225  4041.773
 226  4088.822
 227  3175.889
 228  3468.661
 229  3598.947
 230  4092.046
 231  3078.981
 232  3548.094
 233  3844.493
 234  4318.414
 235  3714.626
 236  3949.817
 237  3831.314
 238  4776.118
 239  3691.52
 240  4198.516
 241  3853.928
 242  4160.23
 243  3743.912
 244  3624.818
 245  3873.656
 246  4579.353
 247  3355.328
 248  3326.086
 249  3573.646
 250  4764.577
 251  4436.725
 252  3383.915
 253  4345.889
 254  3812.337
 255  3707.027
