# Input file       =  1179992187.103937_cleaned.dat
# Candidate        =  PSR_0332+5434
# Telescope        =  AR
# Epoch_topo       =  57901.317200277044
# Epoch_bary       =  N/A
# T_sample         =  0.002
# Data Folded      =  7340032
# Data Avg         =  0.0285519780756388
# Data StdDev      =  0.999972165362486
# Profile Bins     =  512
# Profile Avg      =  409.339664688028 
# Profile StdDev   =  119.7297036511   
# Reduced chi-sqr  =  1.290
# Prob(Noise)      <  9.6e-06   (~4.3 sigma)
# P_topo (ms)      =  714.520200475189  +/- 0.000297
# P'_topo (s/s)    =  -0                +/- 1.56e-10
# P''_topo (s/s^2) =  0                 +/- 6.91e-14
# P_bary (ms)      =  N/A
# P'_bary (s/s)    =  N/A
# P''_bary (s/s^2) =  N/A
# P_orb (s)        =  N/A
# asin(i)/c (s)    =  N/A
# eccentricity     =  N/A
# w (rad)          =  N/A
# T_peri           =  N/A
######################################################
   0  1005.597
   1  980.7459
   2  694.3556
   3  384.4892
   4  438.9198
   5  391.8027
   6  310.3663
   7  290.1646
   8  342.3699
   9  290.951
  10  290.7315
  11  350.6527
  12  300.8368
  13  301.5964
  14  389.1159
  15  426.5885
  16  492.139
  17  385.3217
  18  396.9968
  19  334.0702
  20  348.7619
  21  312.4959
  22  409.2354
  23  366.5831
  24  398.16
  25  413.9274
  26  377.0364
  27  446.5078
  28  430.4367
  29  372.6949
  30  288.9599
  31  347.6986
  32  434.3329
  33  427.0749
  34  431.4609
  35  526.4886
  36  413.6418
  37  472.3482
  38  527.5963
  39  496.1674
  40  333.6902
  41  436.0007
  42  513.853
  43  528.3397
  44  456.6146
  45  475.3562
  46  493.3384
  47  604.6094
  48  472.4955
  49  383.4359
  50  381.63
  51  439.8985
  52  425.5673
  53  369.6196
  54  311.6224
  55  339.1703
  56  252.5285
  57  329.4102
  58  391.6563
  59  298.9863
  60  397.4302
  61  438.5592
  62  391.0523
  63  418.5634
  64  370.2309
  65  303.9094
  66  277.1877
  67  446.4151
  68  403.1609
  69  320.3068
  70  365.7461
  71  376.2259
  72  429.569
  73  379.0078
  74  304.525
  75  303.2082
  76  297.3986
  77  256.059
  78  338.2226
  79  399.485
  80  333.9903
  81  463.786
  82  398.2749
  83  389.9356
  84  290.2844
  85  203.3515
  86  247.1258
  87  341.8569
  88  257.7768
  89  284.9476
  90  321.2135
  91  282.3575
  92  295.6639
  93  258.8066
  94  176.2343
  95  327.4703
  96  302.2551
  97  296.6682
  98  368.4917
  99  294.1352
 100  351.308
 101  427.0342
 102  444.1385
 103  463.663
 104  403.6551
 105  401.272
 106  410.3184
 107  324.4368
 108  263.606
 109  362.7923
 110  462.2201
 111  427.5914
 112  437.3588
 113  381.7568
 114  272.0912
 115  284.7861
 116  326.3914
 117  324.208
 118  363.5816
 119  222.6788
 120  208.6322
 121  247.0459
 122  289.2435
 123  373.7092
 124  262.1743
 125  338.5746
 126  270.1905
 127  279.8754
 128  313.2633
 129  336.5747
 130  454.1405
 131  328.8607
 132  366.1091
 133  315.8051
 134  321.4317
 135  352.257
 136  306.6367
 137  348.2075
 138  330.841
 139  372.6028
 140  376.628
 141  349.7065
 142  345.1979
 143  339.6613
 144  368.6033
 145  267.2368
 146  256.0315
 147  298.6935
 148  335.9582
 149  338.9229
 150  449.778
 151  428.6156
 152  394.2024
 153  384.8326
 154  381.56
 155  388.8697
 156  453.4821
 157  534.5118
 158  488.3616
 159  520.6926
 160  359.3218
 161  392.676
 162  412.3315
 163  410.2236
 164  432.2074
 165  371.419
 166  350.3685
 167  366.3109
 168  402.7007
 169  416.7317
 170  418.377
 171  440.9521
 172  386.4972
 173  376.5166
 174  414.4738
 175  433.7176
 176  541.9811
 177  500.7972
 178  510.3289
 179  548.8269
 180  367.9953
 181  357.1534
 182  450.5993
 183  477.9152
 184  589.9008
 185  569.3213
 186  517.6381
 187  490.8488
 188  483.1567
 189  398.2008
 190  325.5538
 191  498.4502
 192  439.9656
 193  346.7983
 194  507.3314
 195  525.6019
 196  500.0901
 197  344.2475
 198  425.36
 199  515.4268
 200  465.385
 201  567.6335
 202  495.381
 203  511.9036
 204  412.0337
 205  322.5978
 206  504.3452
 207  544.0315
 208  569.5226
 209  470.5475
 210  346.5487
 211  300.11
 212  294.1506
 213  300.728
 214  238.7709
 215  404.6115
 216  334.3771
 217  401.806
 218  408.7132
 219  369.0894
 220  408.7548
 221  395.7711
 222  528.961
 223  422.0612
 224  339.4544
 225  355.8217
 226  393.0825
 227  297.159
 228  423.8851
 229  456.1571
 230  316.286
 231  338.7411
 232  409.3312
 233  434.7588
 234  404.2523
 235  443.2592
 236  433.2388
 237  433.5756
 238  528.981
 239  423.0866
 240  377.9375
 241  468.2112
 242  311.9171
 243  324.3054
 244  370.6855
 245  374.8758
 246  293.5005
 247  270.4946
 248  309.0876
 249  258.0967
 250  396.2251
 251  390.9829
 252  273.7889
 253  336.1233
 254  380.5675
 255  340.2684
 256  254.5879
 257  341.3207
 258  394.4474
 259  340.365
 260  432.2978
 261  417.0701
 262  349.0301
 263  312.644
 264  357.1946
 265  332.06
 266  355.1524
 267  197.5918
 268  306.4913
 269  399.675
 270  411.1388
 271  294.1989
 272  214.4418
 273  381.7664
 274  420.4428
 275  362.8636
 276  370.8705
 277  390.9806
 278  322.1574
 279  477.9613
 280  441.4872
 281  228.3588
 282  345.7726
 283  357.1754
 284  374.9435
 285  370.8075
 286  419.207
 287  477.3319
 288  388.6016
 289  468.1019
 290  471.0006
 291  403.9654
 292  527.5103
 293  502.7829
 294  406.5283
 295  494.6293
 296  423.3297
 297  409.5583
 298  279.8028
 299  478.7828
 300  461.5426
 301  421.1364
 302  491.0387
 303  442.9845
 304  386.8635
 305  410.2632
 306  486.5172
 307  458.156
 308  374.9196
 309  406.2294
 310  394.7724
 311  420.7031
 312  457.3698
 313  419.7055
 314  420.3953
 315  484.2812
 316  347.5363
 317  328.2628
 318  387.8892
 319  468.8145
 320  428.9053
 321  369.3953
 322  409.9278
 323  446.3709
 324  468.1981
 325  464.1877
 326  465.2581
 327  538.1567
 328  504.8659
 329  520.3065
 330  413.8239
 331  436.042
 332  389.6989
 333  429.2415
 334  398.5249
 335  415.0417
 336  306.4393
 337  348.344
 338  312.3262
 339  419.7756
 340  413.7022
 341  421.0944
 342  320.791
 343  362.3838
 344  512.5548
 345  363.9055
 346  284.0529
 347  308.3829
 348  373.4751
 349  446.5281
 350  383.2203
 351  472.4947
 352  542.9207
 353  425.0302
 354  391.3594
 355  379.8197
 356  373.2882
 357  402.4786
 358  460.0669
 359  482.9711
 360  429.4232
 361  433.741
 362  478.188
 363  422.4076
 364  421.2397
 365  433.5082
 366  417.9999
 367  380.2155
 368  420.6049
 369  372.1027
 370  455.8363
 371  515.2388
 372  472.3444
 373  525.9069
 374  344.9992
 375  400.6
 376  554.8917
 377  506.7628
 378  563.9805
 379  488.9824
 380  458.1715
 381  351.4942
 382  431.6878
 383  580.1848
 384  534.8719
 385  474.7617
 386  532.1831
 387  492.4556
 388  509.4669
 389  552.5901
 390  559.8957
 391  541.7186
 392  457.1035
 393  433.6736
 394  504.99
 395  408.6025
 396  305.0015
 397  342.0221
 398  354.1342
 399  291.529
 400  460.491
 401  432.3906
 402  451.2878
 403  575.6362
 404  355.7655
 405  352.4362
 406  436.2659
 407  583.4791
 408  486.6258
 409  493.256
 410  566.0869
 411  502.7261
 412  362.8089
 413  391.0939
 414  473.5684
 415  440.3193
 416  399.6954
 417  442.4176
 418  545.9825
 419  547.726
 420  395.1444
 421  503.1353
 422  567.0959
 423  417.038
 424  433.3673
 425  417.4817
 426  391.6015
 427  427.4073
 428  473.8261
 429  304.2406
 430  240.4932
 431  340.4368
 432  215.7012
 433  214.0719
 434  387.2976
 435  482.2681
 436  309.3493
 437  375.9288
 438  441.1625
 439  368.0154
 440  346.8804
 441  315.6564
 442  373.4639
 443  384.7208
 444  478.4671
 445  518.8382
 446  422.5433
 447  292.2173
 448  426.4916
 449  382.9749
 450  370.7172
 451  544.2096
 452  522.7792
 453  383.748
 454  326.2102
 455  433.8123
 456  422.6439
 457  464.6764
 458  482.7475
 459  421.573
 460  405.6232
 461  586.4854
 462  484.6735
 463  526.8693
 464  429.3824
 465  344.0175
 466  457.4495
 467  388.9964
 468  432.8619
 469  489.6873
 470  541.9243
 471  450.2726
 472  317.8264
 473  463.0134
 474  566.9495
 475  525.9482
 476  365.2938
 477  383.7222
 478  405.1065
 479  409.5678
 480  428.1967
 481  319.1858
 482  408.742
 483  390.5031
 484  422.6691
 485  371.8294
 486  424.8505
 487  357.2498
 488  531.2574
 489  439.9451
 490  398.8335
 491  350.2307
 492  429.5719
 493  484.9655
 494  424.2844
 495  410.4546
 496  412.9125
 497  475.7816
 498  397.6461
 499  343.9296
 500  427.3041
 501  492.0686
 502  362.6941
 503  467.4157
 504  628.44
 505  545.1286
 506  554.6523
 507  595.386
 508  641.1453
 509  723.1259
 510  971.6813
 511  1071.96
