# Input file       =  1179561381.09626_cleaned.dat
# Candidate        =  PSR_0332+5434
# Telescope        =  AR
# Epoch_topo       =  57896.331019632642
# Epoch_bary       =  N/A
# T_sample         =  0.002
# Data Folded      =  7340032
# Data Avg         =  0.0283310710027847
# Data StdDev      =  1.00002850291826 
# Profile Bins     =  512
# Profile Avg      =  406.118769666816 
# Profile StdDev   =  119.736449117715 
# Reduced chi-sqr  =  0.939
# Prob(Noise)      <  0.834   (~0.0 sigma)
# P_topo (ms)      =  714.525129874726  +/- 0.000457
# P'_topo (s/s)    =  -0                +/- 2.41e-10
# P''_topo (s/s^2) =  0                 +/- 1.06e-13
# P_bary (ms)      =  N/A
# P'_bary (s/s)    =  N/A
# P''_bary (s/s^2) =  N/A
# P_orb (s)        =  N/A
# asin(i)/c (s)    =  N/A
# eccentricity     =  N/A
# w (rad)          =  N/A
# T_peri           =  N/A
######################################################
   0  929.6927
   1  826.5176
   2  664.2506
   3  576.841
   4  421.7253
   5  435.1671
   6  490.6665
   7  384.1712
   8  322.3343
   9  427.4173
  10  416.6238
  11  455.1348
  12  416.9243
  13  424.8655
  14  384.6503
  15  477.2033
  16  510.1213
  17  463.7572
  18  509.3517
  19  525.6461
  20  428.8063
  21  423.9421
  22  483.9758
  23  418.0108
  24  395.1537
  25  401.8688
  26  354.4847
  27  390.8649
  28  348.9942
  29  266.8139
  30  283.1102
  31  395.6998
  32  426.0343
  33  445.6761
  34  503.3596
  35  381.1277
  36  410.1222
  37  348.8377
  38  358.013
  39  394.3445
  40  457.8615
  41  524.8325
  42  466.4037
  43  319.9988
  44  431.8707
  45  453.8858
  46  464.9133
  47  544.1379
  48  447.8151
  49  440.6793
  50  373.62
  51  411.9398
  52  507.6686
  53  518.9688
  54  403.8918
  55  402.6189
  56  360.5233
  57  350.7986
  58  372.1223
  59  415.9877
  60  346.402
  61  416.8805
  62  319.4528
  63  289.1678
  64  317.3495
  65  408.3656
  66  447.1664
  67  494.9524
  68  457.0413
  69  440.8809
  70  422.3804
  71  450.9003
  72  399.2411
  73  348.1609
  74  494.42
  75  407.5975
  76  461.6841
  77  485.741
  78  471.6873
  79  508.739
  80  407.1446
  81  362.2719
  82  407.5373
  83  496.4562
  84  460.6967
  85  463.8153
  86  549.4637
  87  417.8498
  88  384.9261
  89  387.5068
  90  410.7285
  91  380.685
  92  351.1087
  93  351.749
  94  441.8858
  95  456.172
  96  419.2448
  97  545.5663
  98  532.3373
  99  466.3127
 100  389.4641
 101  396.1955
 102  422.5801
 103  336.9011
 104  429.4304
 105  355.5658
 106  347.2927
 107  455.8851
 108  528.9704
 109  506.0003
 110  474.506
 111  476.9897
 112  471.7385
 113  391.1282
 114  394.0769
 115  373.8575
 116  333.372
 117  317.6682
 118  232.698
 119  282.2248
 120  299.1175
 121  349.614
 122  344.3634
 123  420.6464
 124  433.5179
 125  271.9041
 126  336.2911
 127  329.7464
 128  382.1418
 129  384.2548
 130  435.9166
 131  574.5754
 132  471.7318
 133  386.7852
 134  404.3976
 135  451.8208
 136  304.2618
 137  266.8795
 138  385.2033
 139  455.9133
 140  344.6667
 141  341.3166
 142  415.1818
 143  401.9448
 144  299.0319
 145  304.54
 146  352.555
 147  378.6306
 148  391.8269
 149  429.597
 150  369.032
 151  289.8066
 152  294.3681
 153  441.0559
 154  477.2667
 155  439.2359
 156  368.3646
 157  398.5201
 158  392.5583
 159  333.5803
 160  440.591
 161  365.5684
 162  384.8351
 163  402.1637
 164  447.3466
 165  381.9861
 166  361.0045
 167  410.3022
 168  374.4861
 169  422.1502
 170  477.3349
 171  407.7279
 172  353.2354
 173  446.1859
 174  509.0178
 175  522.0163
 176  488.6109
 177  420.0424
 178  282.7306
 179  384.4509
 180  440.7366
 181  440.8638
 182  424.2849
 183  421.1178
 184  449.6099
 185  418.8159
 186  376.8647
 187  362.9944
 188  339.8452
 189  394.6331
 190  460.638
 191  358.4825
 192  402.7437
 193  539.8955
 194  477.7782
 195  409.4682
 196  409.7765
 197  432.5151
 198  343.6268
 199  348.8504
 200  325.8553
 201  199.6286
 202  378.7794
 203  511.8635
 204  339.2874
 205  223.599
 206  300.6666
 207  372.2535
 208  379.9873
 209  427.6723
 210  393.7245
 211  387.7875
 212  394.214
 213  379.5892
 214  437.2903
 215  347.6201
 216  336.2794
 217  379.2719
 218  260.0301
 219  247.7836
 220  345.3252
 221  430.2888
 222  461.1722
 223  378.7897
 224  417.083
 225  465.0118
 226  476.7684
 227  653.2402
 228  507.2491
 229  398.6829
 230  411.0721
 231  394.3622
 232  353.1077
 233  394.2926
 234  378.9967
 235  432.2564
 236  485.7488
 237  445.8984
 238  468.8546
 239  428.3528
 240  461.2416
 241  357.1858
 242  318.8619
 243  488.4405
 244  486.7294
 245  439.706
 246  379.1905
 247  439.9136
 248  473.7633
 249  504.845
 250  465.0602
 251  391.2479
 252  449.8199
 253  427.0407
 254  487.7936
 255  557.5214
 256  501.1771
 257  514.5986
 258  452.0355
 259  515.1365
 260  386.7572
 261  484.4555
 262  633.1756
 263  353.3158
 264  391.36
 265  535.6665
 266  527.9511
 267  450.8287
 268  388.9196
 269  349.8981
 270  469.9763
 271  400.2098
 272  416.2296
 273  505.0979
 274  459.8788
 275  374.3257
 276  498.1618
 277  441.5905
 278  489.5698
 279  466.363
 280  353.6728
 281  317.7607
 282  326.0184
 283  400.0728
 284  332.2563
 285  340.361
 286  383.3074
 287  483.8137
 288  474.8728
 289  513.0326
 290  476.9803
 291  387.2153
 292  339.2522
 293  426.1256
 294  537.0312
 295  477.5242
 296  522.6211
 297  414.8846
 298  429.5703
 299  428.8435
 300  468.826
 301  460.3815
 302  409.6241
 303  375.5254
 304  464.0928
 305  473.66
 306  473.5173
 307  380.9445
 308  371.5868
 309  371.6294
 310  416.5935
 311  499.9789
 312  442.226
 313  346.4998
 314  372.1231
 315  507.6324
 316  416.1546
 317  422.3738
 318  496.4515
 319  542.5536
 320  564.645
 321  358.3166
 322  284.5232
 323  343.9421
 324  360.6318
 325  367.9891
 326  391.1825
 327  359.5589
 328  351.0804
 329  336.7772
 330  402.7881
 331  422.4919
 332  274.9456
 333  379.2889
 334  419.5295
 335  422.7436
 336  436.7247
 337  396.7148
 338  298.5058
 339  400.9914
 340  320.5166
 341  314.9332
 342  420.0131
 343  444.1776
 344  430.8578
 345  502.6565
 346  515.4803
 347  470.4695
 348  282.7627
 349  347.4326
 350  424.5731
 351  469.6342
 352  380.7037
 353  336.4318
 354  218.1983
 355  237.9385
 356  356.5753
 357  309.9193
 358  342.2375
 359  368.0985
 360  363.8645
 361  251.9522
 362  204.8022
 363  196.1768
 364  376.1017
 365  327.5299
 366  349.773
 367  324.8697
 368  322.9482
 369  456.782
 370  356.1783
 371  352.8021
 372  372.5612
 373  375.4503
 374  440.1912
 375  480.5528
 376  353.9366
 377  291.736
 378  308.2052
 379  333.6512
 380  397.9986
 381  356.1669
 382  367.1153
 383  314.9525
 384  388.2064
 385  494.2244
 386  500.9589
 387  436.867
 388  474.0071
 389  466.1129
 390  576.2162
 391  542.205
 392  514.3895
 393  515.0029
 394  439.3056
 395  410.4202
 396  424.2275
 397  468.4222
 398  434.4022
 399  372.1879
 400  368.4292
 401  312.6742
 402  299.8039
 403  353.1916
 404  358.5765
 405  223.9622
 406  263.4333
 407  403.7784
 408  376.1076
 409  418.0746
 410  352.338
 411  270.1724
 412  343.069
 413  409.0662
 414  354.2015
 415  349.0053
 416  290.634
 417  280.6489
 418  289.3171
 419  457.1639
 420  430.3635
 421  262.671
 422  290.4308
 423  392.2555
 424  379.8031
 425  336.7194
 426  301.0194
 427  222.3133
 428  366.6111
 429  430.9393
 430  402.4024
 431  373.8152
 432  429.3185
 433  377.0547
 434  363.4525
 435  368.9119
 436  435.6833
 437  365.7839
 438  335.0977
 439  416.2705
 440  442.7083
 441  354.5734
 442  378.6245
 443  439.0482
 444  352.9065
 445  398.8981
 446  352.0454
 447  306.2199
 448  380.2729
 449  439.088
 450  421.147
 451  432.2616
 452  376.4666
 453  362.1038
 454  314.3949
 455  422.3114
 456  513.3781
 457  462.3546
 458  454.5134
 459  457.0492
 460  433.9718
 461  433.8557
 462  437.4256
 463  327.6285
 464  322.0083
 465  380.5457
 466  335.1081
 467  405.4397
 468  425.2163
 469  412.0126
 470  380.1919
 471  316.804
 472  306.8015
 473  312.0064
 474  380.1507
 475  323.2899
 476  305.5225
 477  400.8862
 478  411.6359
 479  263.2364
 480  170.4236
 481  298.0533
 482  333.5627
 483  370.4592
 484  276.0771
 485  323.1435
 486  329.3147
 487  434.5785
 488  422.3611
 489  464.7002
 490  448.2061
 491  295.1336
 492  309.9937
 493  444.1989
 494  321.4864
 495  315.5071
 496  367.4908
 497  475.887
 498  421.2425
 499  230.9305
 500  337.6786
 501  421.4591
 502  452.4078
 503  417.666
 504  520.9041
 505  445.4309
 506  453.5865
 507  439.8822
 508  626.9728
 509  698.6605
 510  745.6
 511  849.7924
