# Input file       =  1179115899.100237-PSRB0329-2ms-sampling-dd.dat
# Candidate        =  PSR_0332+5434
# Telescope        =  AR
# Epoch_topo       =  57891.174978012001
# Epoch_bary       =  N/A
# T_sample         =  0.002
# Data Folded      =  7208960
# Data Avg         =  -8.65621923205119e-10
# Data StdDev      =  7.53781753469563 
# Profile Bins     =  512
# Profile Avg      =  -0.0181965898301297
# Profile StdDev   =  894.431215949007 
# Reduced chi-sqr  =  1.506
# Prob(Noise)      <  9e-13   (~7.0 sigma)
# P_topo (ms)      =  714.53018109575   +/- 1.94e-05
# P'_topo (s/s)    =  -0                +/- 1.04e-11
# P''_topo (s/s^2) =  0                 +/- 4.68e-15
# P_bary (ms)      =  N/A
# P'_bary (s/s)    =  N/A
# P''_bary (s/s^2) =  N/A
# P_orb (s)        =  N/A
# asin(i)/c (s)    =  N/A
# eccentricity     =  N/A
# w (rad)          =  N/A
# T_peri           =  N/A
######################################################
   0  565.9025
   1  648.0554
   2  -85.3961
   3  -754.5768
   4  -865.3746
   5  -1259.649
   6  -1137.544
   7  -552.9468
   8  418.197
   9  270.384
  10  -252.498
  11  -726.8681
  12  -886.4386
  13  -699.6677
  14  -722.8646
  15  -554.742
  16  447.824
  17  1068.004
  18  355.2411
  19  -559.4291
  20  -1162.411
  21  -1371.434
  22  -1414.028
  23  -823.0486
  24  627.4948
  25  1150.093
  26  951.5228
  27  -187.8003
  28  -661.741
  29  -239.302
  30  -21.60487
  31  266.8244
  32  530.472
  33  1275.429
  34  684.7955
  35  -704.9744
  36  -1212.346
  37  -1463.945
  38  -1066.241
  39  -545.9818
  40  38.9967
  41  1067.319
  42  1201.133
  43  860.3262
  44  -224.9316
  45  -620.1775
  46  -360.3468
  47  -652.6642
  48  -129.6891
  49  363.337
  50  831.0804
  51  155.3879
  52  -333.6736
  53  -417.0033
  54  -922.7864
  55  -389.0013
  56  -610.6005
  57  255.6688
  58  967.6601
  59  1098.534
  60  414.128
  61  -12.83599
  62  -74.51402
  63  -279.128
  64  -109.7731
  65  214.7087
  66  1327.957
  67  881.1923
  68  291.8907
  69  -156.3764
  70  -68.55847
  71  -425.1602
  72  -374.1724
  73  391.7005
  74  705.443
  75  1159.756
  76  757.478
  77  -106.2159
  78  -176.7975
  79  -321.9384
  80  -230.1336
  81  -323.449
  82  1282.667
  83  1466.651
  84  362.5805
  85  -285.735
  86  -693.8757
  87  -604.8232
  88  -1057.023
  89  -615.6818
  90  109.2181
  91  962.5018
  92  1349.237
  93  -3.499885
  94  -120.3593
  95  39.36667
  96  -273.7178
  97  -685.6236
  98  196.2362
  99  1029.389
 100  1160.104
 101  343.4628
 102  -566.4888
 103  -555.2972
 104  -777.6007
 105  -573.1656
 106  -22.89425
 107  1322.21
 108  1434.96
 109  741.5289
 110  -10.64711
 111  -641.2383
 112  -451.4864
 113  -784.4336
 114  -685.6525
 115  497.6796
 116  835.2988
 117  596.2648
 118  -816.3313
 119  -1412.649
 120  -1328.897
 121  -1308.946
 122  -442.1757
 123  160.0399
 124  1595.618
 125  1498.526
 126  629.446
 127  -60.19844
 128  -214.9147
 129  -616.7386
 130  -609.7359
 131  324.2774
 132  704.9011
 133  813.7455
 134  -53.6516
 135  -625.659
 136  -926.5912
 137  -966.3641
 138  -1210.898
 139  -355.6269
 140  783.0551
 141  1229.846
 142  639.8574
 143  -182.153
 144  -322.3621
 145  -465.2379
 146  -450.2697
 147  -229.9917
 148  700.4973
 149  1109.152
 150  609.1272
 151  10.05223
 152  -921.6987
 153  -1439.037
 154  -1378.406
 155  -767.3405
 156  442.637
 157  1436.24
 158  1661.537
 159  1124.283
 160  -155.4105
 161  -140.8262
 162  -561.4106
 163  132.9111
 164  1098.535
 165  2583.981
 166  2992.643
 167  1413.721
 168  621.2185
 169  -138.2388
 170  -571.9784
 171  -742.5191
 172  -406.2698
 173  812.3041
 174  970.2664
 175  673.416
 176  7.80183
 177  -165.569
 178  -320.763
 179  -557.3682
 180  -213.8949
 181  899.3176
 182  1164.694
 183  833.1912
 184  76.76942
 185  -541.9586
 186  -818.3248
 187  -770.9677
 188  -713.5884
 189  394.3286
 190  942.2866
 191  1066.376
 192  683.7504
 193  268.8292
 194  230.1076
 195  46.08191
 196  -201.8781
 197  178.8027
 198  1034.35
 199  1081.271
 200  311.7511
 201  -560.1001
 202  -595.1563
 203  -781.935
 204  -854.8881
 205  -246.6604
 206  813.9229
 207  1396.667
 208  912.1506
 209  146.5767
 210  -458.5484
 211  -364.936
 212  -435.225
 213  -149.1715
 214  682.0952
 215  1088.108
 216  557.1925
 217  -709.53
 218  -1196.664
 219  -996.615
 220  -1058.219
 221  -722.3206
 222  276.6954
 223  938.485
 224  1197.725
 225  392.5075
 226  -146.5292
 227  -650.5194
 228  -593.252
 229  -853.2504
 230  -151.283
 231  901.8466
 232  808.4211
 233  123.0468
 234  -951.6012
 235  -892.834
 236  -1447.969
 237  -1709.315
 238  -1484.174
 239  41.28368
 240  674.4817
 241  519.2076
 242  -142.8371
 243  -695.3779
 244  -712.8224
 245  -1002.673
 246  -340.4997
 247  782.6155
 248  1215.716
 249  430.034
 250  -464.6661
 251  -1063.577
 252  -1249.142
 253  -971.3896
 254  -272.4572
 255  810.3978
 256  1249.658
 257  1137.332
 258  75.82165
 259  -364.8266
 260  -421.9495
 261  -843.8742
 262  -1092.469
 263  -51.50528
 264  1225.227
 265  915.5884
 266  314.0443
 267  -626.0615
 268  -1066.197
 269  -1006.476
 270  -894.5973
 271  -231.6331
 272  825.6857
 273  1739.882
 274  1239.362
 275  193.2846
 276  -198.7419
 277  -407.0883
 278  -88.17874
 279  -380.5705
 280  492.3303
 281  1591.616
 282  883.3911
 283  -519.55
 284  -605.8149
 285  -166.3492
 286  -829.2757
 287  -878.4544
 288  542.2466
 289  1340.711
 290  1407.932
 291  831.2451
 292  -29.42482
 293  -454.8399
 294  -262.8411
 295  -284.9615
 296  -345.9245
 297  635.4205
 298  973.0648
 299  538.3833
 300  -308.5614
 301  -729.7969
 302  -1145.79
 303  -1466.912
 304  -639.9571
 305  632.9825
 306  1155.612
 307  780.3694
 308  52.00016
 309  -382.0118
 310  -530.3461
 311  -421.8046
 312  -480.8458
 313  558.1002
 314  1247.557
 315  474.5163
 316  -693.1288
 317  -946.8512
 318  -1106.66
 319  -1325.29
 320  -858.7701
 321  97.61876
 322  1418.558
 323  1077.938
 324  482.2914
 325  -226.1112
 326  -263.2508
 327  -487.8315
 328  -433.5011
 329  832.4346
 330  1082.214
 331  871.2803
 332  99.80219
 333  -632.0927
 334  -1118.15
 335  -690.7441
 336  -635.7084
 337  -598.9443
 338  927.9323
 339  1610.784
 340  1018.548
 341  117.2444
 342  -312.3306
 343  -169.3381
 344  -650.8952
 345  -324.7975
 346  713.0057
 347  1848.566
 348  1599.426
 349  403.2336
 350  -493.0006
 351  -942.5381
 352  -570.165
 353  -666.7812
 354  299.2197
 355  1092.024
 356  1527.447
 357  1132.204
 358  97.27026
 359  -150.7002
 360  -324.8723
 361  -72.61826
 362  282.3597
 363  1039.713
 364  1349.065
 365  248.97
 366  -474.5997
 367  -926.1756
 368  -930.6484
 369  -956.4675
 370  -676.0608
 371  383.8137
 372  1415.841
 373  1227.216
 374  469.3386
 375  1.509857
 376  -319.6892
 377  -189.4841
 378  -221.4676
 379  340.7592
 380  1336.71
 381  1173.961
 382  746.9344
 383  -182.8186
 384  -813.1219
 385  -1428.017
 386  -1510.868
 387  -172.8761
 388  1199.236
 389  885.7607
 390  528.8932
 391  177.7844
 392  -493.7203
 393  -1007.696
 394  -990.8311
 395  -581.8949
 396  380.0193
 397  248.425
 398  -322.4828
 399  -835.6724
 400  -1228.973
 401  -931.0637
 402  -912.2303
 403  -519.0472
 404  420.3089
 405  1127.449
 406  818.543
 407  -77.03266
 408  -166.2494
 409  113.8005
 410  266.1349
 411  -29.82929
 412  394.8635
 413  1296.655
 414  1086.447
 415  -9.014623
 416  -747.0013
 417  -407.9017
 418  -595.3531
 419  -726.0621
 420  -23.59212
 421  681.4685
 422  1096.964
 423  847.4445
 424  487.51
 425  93.57211
 426  -147.4064
 427  -516.9392
 428  54.67903
 429  799.2007
 430  1230.719
 431  491.7469
 432  -660.7812
 433  -1077.719
 434  -1164.5
 435  -1047.507
 436  -881.3433
 437  440.4271
 438  1220.319
 439  247.1375
 440  -529.5721
 441  -820.0937
 442  -707.7697
 443  -490.5274
 444  -220.4234
 445  358.0607
 446  1012.693
 447  1147.757
 448  -262.5134
 449  -930.1379
 450  -1313.97
 451  -1580.761
 452  -1302.525
 453  -532.4932
 454  499.53
 455  816.0137
 456  209.8446
 457  -613.6048
 458  -761.511
 459  -1247.42
 460  -1309.295
 461  -215.196
 462  746.5237
 463  1118.612
 464  577.4526
 465  -615.1808
 466  -1111.992
 467  -1343.72
 468  -1089.665
 469  -1113.675
 470  208.5746
 471  1314.61
 472  1016.114
 473  371.853
 474  -140.4889
 475  -377.323
 476  -692.2943
 477  -367.4328
 478  272.9615
 479  1290.185
 480  1225.023
 481  -25.7316
 482  -393.1706
 483  -448.3926
 484  -374.3867
 485  -988.6215
 486  -441.6162
 487  652.144
 488  1071.285
 489  583.1554
 490  -256.1043
 491  -23.50282
 492  -158.1016
 493  -272.1211
 494  -371.1749
 495  271.3337
 496  449.2462
 497  157.0472
 498  -412.9816
 499  -847.1692
 500  -707.4576
 501  -758.6124
 502  -622.1039
 503  76.43954
 504  269.6838
 505  446.903
 506  183.4632
 507  136.3453
 508  -170.0324
 509  -466.3893
 510  -626.7237
 511  305.5307
