# Input file       =  1179403935.110874_cleaned.dat
# Candidate        =  PSR_0332+5434
# Telescope        =  AR
# Epoch_topo       =  57894.508728135115
# Epoch_bary       =  N/A
# T_sample         =  0.002
# Data Folded      =  7340032
# Data Avg         =  0.0201220400870177
# Data StdDev      =  1.00008273384745 
# Profile Bins     =  512
# Profile Avg      =  288.504972739549 
# Profile StdDev   =  119.742942351532 
# Reduced chi-sqr  =  1.307
# Prob(Noise)      <  3.31e-06   (~4.5 sigma)
# P_topo (ms)      =  714.527260046169  +/- 0.000251
# P'_topo (s/s)    =  -0                +/- 1.33e-10
# P''_topo (s/s^2) =  0                 +/- 5.85e-14
# P_bary (ms)      =  N/A
# P'_bary (s/s)    =  N/A
# P''_bary (s/s^2) =  N/A
# P_orb (s)        =  N/A
# asin(i)/c (s)    =  N/A
# eccentricity     =  N/A
# w (rad)          =  N/A
# T_peri           =  N/A
######################################################
   0  241.4947
   1  246.5536
   2  329.3199
   3  339.4876
   4  359.8474
   5  364.6477
   6  442.2033
   7  429.9629
   8  342.8467
   9  386.6596
  10  280.0831
  11  244.9131
  12  253.0711
  13  247.6731
  14  188.0418
  15  234.2115
  16  277.9757
  17  320.588
  18  241.6621
  19  332.3698
  20  400.6202
  21  310.2332
  22  180.2156
  23  193.2571
  24  402.1998
  25  328.2195
  26  168.9839
  27  264.5803
  28  241.4023
  29  388.822
  30  493.9657
  31  363.579
  32  281.9488
  33  303.7064
  34  271.6722
  35  165.5666
  36  143.2766
  37  156.4991
  38  227.0818
  39  312.5381
  40  290.8941
  41  274.165
  42  407.6612
  43  405.9774
  44  373.1033
  45  376.4737
  46  357.2415
  47  389.0895
  48  405.853
  49  310.5903
  50  316.586
  51  251.397
  52  298.5105
  53  274.8015
  54  413.2196
  55  394.1324
  56  297.7308
  57  380.5148
  58  640.6543
  59  766.3808
  60  855.8094
  61  880.5519
  62  803.399
  63  555.2292
  64  386.8393
  65  474.0955
  66  479.1581
  67  326.4082
  68  275.835
  69  202.6349
  70  339.0141
  71  472.7535
  72  341.1613
  73  412.9569
  74  420.3387
  75  398.2546
  76  317.9997
  77  329.7843
  78  254.676
  79  420.2674
  80  422.2906
  81  423.2555
  82  377.8864
  83  481.3467
  84  365.1294
  85  312.3696
  86  365.1865
  87  402.3446
  88  223.9123
  89  211.9506
  90  251.8282
  91  248.7119
  92  361.4891
  93  358.1208
  94  434.2807
  95  393.5909
  96  366.4852
  97  428.9588
  98  403.3075
  99  341.8692
 100  319.0139
 101  274.4487
 102  160.8862
 103  209.6985
 104  146.5035
 105  155.0936
 106  289.8932
 107  267.1446
 108  187.2506
 109  184.7299
 110  218.5936
 111  366.8435
 112  394.7729
 113  315.0564
 114  336.7856
 115  333.6919
 116  319.0992
 117  381.2432
 118  404.0062
 119  438.4439
 120  378.0963
 121  341.9491
 122  245.7319
 123  293.5922
 124  304.813
 125  340.2064
 126  248.9976
 127  196.4
 128  267.2773
 129  290.6925
 130  297.8664
 131  248.1636
 132  320.5657
 133  344.477
 134  338.5365
 135  310.8163
 136  358.4399
 137  298.1182
 138  307.868
 139  389.2008
 140  381.5794
 141  309.6002
 142  146.2927
 143  259.1342
 144  265.5461
 145  365.5091
 146  378.4842
 147  325.6309
 148  231.3126
 149  285.5179
 150  295.8083
 151  241.9609
 152  325.059
 153  218.2057
 154  246.5851
 155  221.2158
 156  258.5811
 157  288.4904
 158  303.7412
 159  322.8126
 160  414.3931
 161  316.2382
 162  259.2163
 163  290.9455
 164  281.3433
 165  287.4571
 166  333.5394
 167  248.7224
 168  272.3426
 169  236.7463
 170  309.3313
 171  304.5901
 172  342.8755
 173  394.5865
 174  252.9583
 175  134.816
 176  150.9733
 177  213.6951
 178  260.7752
 179  127.9855
 180  165.8823
 181  188.8263
 182  130.5176
 183  151.9985
 184  242.1411
 185  103.2574
 186  142.3857
 187  105.6459
 188  144.4577
 189  113.2955
 190  153.294
 191  103.0193
 192  268.4566
 193  219.423
 194  43.0512
 195  24.36567
 196  72.50728
 197  276.7006
 198  430.2505
 199  249.7194
 200  153.2423
 201  147.218
 202  391.1949
 203  257.6726
 204  164.9895
 205  169.7076
 206  212.679
 207  223.2841
 208  187.1084
 209  270.9642
 210  329.77
 211  301.9883
 212  126.055
 213  254.6945
 214  258.317
 215  276.0143
 216  213.3306
 217  254.0555
 218  333.0076
 219  281.795
 220  225.6184
 221  366.6513
 222  218.6534
 223  280.2945
 224  210.0734
 225  240.9108
 226  204.6966
 227  262.0688
 228  418.0457
 229  278.3268
 230  229.4578
 231  261.4065
 232  271.1115
 233  306.8373
 234  308.3761
 235  278.1464
 236  193.5423
 237  177.098
 238  292.0615
 239  353.1825
 240  245.4128
 241  280.7253
 242  445.3304
 243  410.4485
 244  213.134
 245  155.2125
 246  212.7119
 247  324.6137
 248  341.3011
 249  342.5193
 250  288.6425
 251  346.1549
 252  490.2872
 253  413.3066
 254  414.8168
 255  417.43
 256  321.1884
 257  340.2201
 258  345.438
 259  236.6237
 260  215.2611
 261  325.8186
 262  295.4853
 263  197.5705
 264  221.3628
 265  225.2757
 266  312.1232
 267  341.9214
 268  290.6854
 269  292.4308
 270  355.3877
 271  423.323
 272  336.3992
 273  305.8028
 274  171.4209
 275  191.4371
 276  309.2838
 277  310.1553
 278  302.5994
 279  308.2956
 280  306.9131
 281  179.1313
 282  151.7589
 283  237.206
 284  338.9157
 285  221.5733
 286  298.6782
 287  427.5779
 288  422.0256
 289  317.352
 290  241.2072
 291  240.728
 292  205.2622
 293  197.0422
 294  325.5058
 295  332.1545
 296  239.9949
 297  275.639
 298  223.7635
 299  311.8656
 300  407.9429
 301  384.3915
 302  305.2252
 303  347.898
 304  336.2412
 305  237.3776
 306  233.3679
 307  282.2932
 308  287.9497
 309  327.8336
 310  315.1716
 311  230.7442
 312  139.752
 313  167.7589
 314  274.5699
 315  282.092
 316  372.7266
 317  198.3359
 318  270.1457
 319  361.9923
 320  365.4453
 321  353.5593
 322  375.8751
 323  404.8611
 324  350.68
 325  353.8502
 326  300.0278
 327  294.6692
 328  314.4987
 329  244.0692
 330  222.7542
 331  269.1008
 332  430.0262
 333  424.0263
 334  314.0616
 335  255.521
 336  275.2277
 337  314.5699
 338  382.2203
 339  261.6371
 340  287.3792
 341  292.2957
 342  369.6815
 343  385.8407
 344  383.4185
 345  394.7854
 346  426.8554
 347  347.2871
 348  279.7469
 349  320.1459
 350  124.1807
 351  216.1722
 352  310.8134
 353  350.6868
 354  300.916
 355  357.7595
 356  228.2888
 357  159.954
 358  196.501
 359  188.8757
 360  236.0898
 361  293.1685
 362  295.7898
 363  333.6951
 364  395.8421
 365  267.7721
 366  274.5889
 367  354.3835
 368  340.3271
 369  236.0329
 370  162.4621
 371  159.1566
 372  238.4555
 373  378.3715
 374  385.3557
 375  179.2973
 376  121.1932
 377  259.7523
 378  284.4025
 379  280.4314
 380  416.0113
 381  365.8353
 382  257.6504
 383  354.7056
 384  221.314
 385  216.0721
 386  193.0802
 387  200.3098
 388  217.1685
 389  341.4356
 390  276.5629
 391  218.5351
 392  267.921
 393  235.6548
 394  181.2156
 395  245.7879
 396  241.9869
 397  178.8357
 398  246.6824
 399  245.4358
 400  237.4109
 401  256.7209
 402  256.5691
 403  192.8231
 404  202.2002
 405  289.2354
 406  275.4497
 407  328.3059
 408  259.5859
 409  96.63541
 410  89.69481
 411  150.9414
 412  209.1216
 413  197.9271
 414  238.4382
 415  296.7083
 416  163.8811
 417  231.2408
 418  342.1044
 419  280.6794
 420  316.605
 421  283.5407
 422  305.3307
 423  288.0089
 424  224.2266
 425  161.5011
 426  196.5307
 427  235.0335
 428  154.799
 429  98.44984
 430  119.6146
 431  184.3873
 432  153.1949
 433  231.3528
 434  153.5491
 435  247.0916
 436  198.3476
 437  265.8271
 438  264.9179
 439  316.1452
 440  421.6059
 441  150.4816
 442  207.2113
 443  371.3831
 444  352.7377
 445  320.2602
 446  281.8569
 447  353.6148
 448  295.5804
 449  45.88322
 450  148.842
 451  233.956
 452  82.98347
 453  232.6263
 454  247.8013
 455  192.4519
 456  241.5081
 457  227.5577
 458  159.8659
 459  222.31
 460  308.0913
 461  365.8282
 462  241.0542
 463  149.9721
 464  302.7839
 465  347.9179
 466  312.9745
 467  276.3828
 468  224.9639
 469  224.6797
 470  328.6142
 471  289.4204
 472  270.7415
 473  255.1067
 474  329.9459
 475  331.4184
 476  350.2403
 477  351.8711
 478  315.5929
 479  387.3607
 480  354.1002
 481  373.9844
 482  355.1022
 483  165.2289
 484  205.9818
 485  420.2525
 486  294.9365
 487  280.1858
 488  381.9792
 489  506.4003
 490  369.5232
 491  355.7427
 492  459.6728
 493  347.0688
 494  349.4327
 495  333.336
 496  127.5756
 497  118.2807
 498  210.6817
 499  213.0371
 500  74.94109
 501  160.1188
 502  215.2316
 503  341.6017
 504  339.3954
 505  255.0461
 506  341.9468
 507  265.1539
 508  284.6221
 509  361.9194
 510  269.5838
 511  339.2921
