# Input file       =  1179317779.097507_cleaned.dat
# Candidate        =  PSR_0332+5434
# Telescope        =  AR
# Epoch_topo       =  57893.511552054479
# Epoch_bary       =  N/A
# T_sample         =  0.002
# Data Folded      =  7340032
# Data Avg         =  0.0168626974199818
# Data StdDev      =  1.00006760652002 
# Profile Bins     =  512
# Profile Avg      =  241.730798149563 
# Profile StdDev   =  119.741131110687 
# Reduced chi-sqr  =  1.117
# Prob(Noise)      <  0.034   (~1.8 sigma)
# P_topo (ms)      =  714.528239546576  +/- 0.000244
# P'_topo (s/s)    =  -0                +/- 1.29e-10
# P''_topo (s/s^2) =  0                 +/- 5.69e-14
# P_bary (ms)      =  N/A
# P'_bary (s/s)    =  N/A
# P''_bary (s/s^2) =  N/A
# P_orb (s)        =  N/A
# asin(i)/c (s)    =  N/A
# eccentricity     =  N/A
# w (rad)          =  N/A
# T_peri           =  N/A
######################################################
   0  633.5147
   1  676.746
   2  531.9947
   3  345.9397
   4  188.3895
   5  252.0775
   6  173.2151
   7  157.0047
   8  322.0454
   9  276.1992
  10  206.3234
  11  314.0927
  12  325.9382
  13  319.2555
  14  372.6349
  15  356.8177
  16  496.8701
  17  444.142
  18  337.5306
  19  231.8278
  20  258.375
  21  284.4283
  22  321.1058
  23  265.3948
  24  349.395
  25  193.8808
  26  261.5837
  27  308.059
  28  450.7936
  29  287.9542
  30  199.5954
  31  277.0445
  32  304.8273
  33  186.7049
  34  4.354505
  35  126.0876
  36  176.3972
  37  119.5343
  38  68.10795
  39  189.6689
  40  293.6059
  41  206.7106
  42  101.2611
  43  237.3813
  44  292.6576
  45  140.7211
  46  129.3071
  47  135.3908
  48  174.0507
  49  331.9613
  50  313.258
  51  206.8292
  52  326.4705
  53  248.0547
  54  87.18654
  55  55.07914
  56  133.1811
  57  135.721
  58  213.5697
  59  172.9991
  60  110.9397
  61  174.7975
  62  211.912
  63  151.264
  64  166.0711
  65  146.4338
  66  227.827
  67  226.4368
  68  370.9395
  69  200.6117
  70  164.4524
  71  220.0454
  72  192.107
  73  200.4265
  74  255.6669
  75  194.8524
  76  130.655
  77  313.7549
  78  233.0523
  79  246.1273
  80  293.6221
  81  219.1066
  82  260.4662
  83  282.1224
  84  266.9561
  85  170.243
  86  202.1282
  87  395.9621
  88  293.2104
  89  296.238
  90  341.2374
  91  248.9742
  92  175.1629
  93  198.039
  94  238.0251
  95  195.4597
  96  268.6992
  97  241.9074
  98  226.0747
  99  193.5069
 100  186.7465
 101  146.9889
 102  35.37681
 103  226.7274
 104  285.0405
 105  214.3904
 106  249.3131
 107  422.9975
 108  328.1926
 109  263.3562
 110  257.7524
 111  271.7754
 112  254.0852
 113  237.311
 114  325.6631
 115  296.3645
 116  259.3354
 117  308.1126
 118  137.1935
 119  252.6256
 120  290.1891
 121  300.0982
 122  195.0732
 123  197.8053
 124  295.2193
 125  288.019
 126  276.7198
 127  310.0656
 128  204.7894
 129  191.2963
 130  260.8166
 131  165.8399
 132  59.61624
 133  81.15032
 134  151.5279
 135  131.8891
 136  71.60106
 137  158.2203
 138  230.316
 139  271.8568
 140  249.4952
 141  356.4968
 142  375.9352
 143  409.5525
 144  489.5814
 145  228.6566
 146  108.5285
 147  203.3067
 148  261.5374
 149  429.0246
 150  340.3305
 151  231.8024
 152  250.4888
 153  242.0264
 154  233.5749
 155  196.4915
 156  227.2422
 157  161.4626
 158  155.8956
 159  258.6893
 160  240.0713
 161  249.9397
 162  181.0081
 163  195.5489
 164  297.0875
 165  208.6667
 166  184.0089
 167  123.5705
 168  122.3013
 169  161.6098
 170  111.1334
 171  167.231
 172  169.3863
 173  67.81127
 174  170.6576
 175  264.4733
 176  337.3835
 177  239.3617
 178  236.8671
 179  387.9916
 180  287.6602
 181  229.0621
 182  251.9895
 183  190.496
 184  347.3609
 185  312.5507
 186  238.3853
 187  258.3975
 188  290.5669
 189  242.9272
 190  281.5474
 191  181.8887
 192  223.5191
 193  253.3406
 194  176.7166
 195  157.8282
 196  68.15128
 197  166.6651
 198  278.3889
 199  217.612
 200  199.0252
 201  207.8432
 202  187.7327
 203  197.5311
 204  180.1787
 205  323.385
 206  162.1913
 207  199.6531
 208  178.9539
 209  174.6731
 210  59.56501
 211  65.99089
 212  283.3518
 213  238.2306
 214  160.5867
 215  191.511
 216  175.8435
 217  356.2579
 218  294.434
 219  165.8417
 220  191.6047
 221  235.4377
 222  221.8707
 223  296.7822
 224  237.6762
 225  265.2781
 226  197.0325
 227  230.7111
 228  167.8997
 229  45.31409
 230  60.29116
 231  131.3506
 232  202.9839
 233  159.1586
 234  253.3298
 235  262.7239
 236  308.9509
 237  184.357
 238  111.9604
 239  218.6504
 240  191.4984
 241  284.8325
 242  201.4505
 243  364.0448
 244  352.8481
 245  272.1437
 246  248.2201
 247  350.3823
 248  302.377
 249  110.8751
 250  219.5748
 251  270.8104
 252  201.3138
 253  120.9748
 254  230.026
 255  153.4025
 256  64.84797
 257  126.4553
 258  176.0418
 259  314.0183
 260  337.8666
 261  263.935
 262  225.3142
 263  166.6549
 264  126.9866
 265  172.1628
 266  251.953
 267  240.9319
 268  289.4039
 269  297.3693
 270  260.8467
 271  172.4333
 272  127.0312
 273  90.44494
 274  78.57948
 275  132.7023
 276  -12.11028
 277  110.5687
 278  202.8499
 279  87.50925
 280  146.141
 281  92.05695
 282  149.0255
 283  137.087
 284  227.9215
 285  246.2499
 286  252.3243
 287  274.2493
 288  204.0807
 289  161.0854
 290  221.5344
 291  247.749
 292  227.3845
 293  243.6864
 294  10.71959
 295  18.45754
 296  260.717
 297  253.6839
 298  257.7022
 299  187.3618
 300  76.08914
 301  249.237
 302  158.6629
 303  173.3318
 304  208.0755
 305  217.4268
 306  220.1099
 307  281.3735
 308  232.1944
 309  155.3253
 310  112.6781
 311  176.0821
 312  171.4937
 313  162.854
 314  263.5231
 315  159.2272
 316  196.5235
 317  205.367
 318  151.1871
 319  297.3149
 320  366.6839
 321  441.7692
 322  292.9672
 323  217.1647
 324  159.205
 325  115.8372
 326  238.8835
 327  271.1777
 328  292.3547
 329  165.1633
 330  218.4314
 331  247.4739
 332  353.9673
 333  302.6134
 334  162.062
 335  227.7816
 336  273.3959
 337  304.4714
 338  250.6108
 339  139.8797
 340  168.1848
 341  286.8224
 342  232.512
 343  209.7486
 344  129.9982
 345  222.0408
 346  230.0589
 347  228.8038
 348  291.9599
 349  224.1538
 350  256.6236
 351  186.2021
 352  164.2614
 353  258.3977
 354  274.299
 355  284.6517
 356  401.6895
 357  390.595
 358  292.0316
 359  264.7913
 360  364.3567
 361  463.9676
 362  318.1379
 363  350.1252
 364  344.8505
 365  225.4953
 366  256.4932
 367  267.8277
 368  260.9171
 369  124.6502
 370  182.1742
 371  337.5829
 372  387.6358
 373  253.2194
 374  315.4924
 375  419.5575
 376  246.4028
 377  222.1944
 378  330.8107
 379  307.6477
 380  242.1917
 381  148.9553
 382  282.4605
 383  289.9785
 384  206.118
 385  246.2122
 386  322.8901
 387  294.0727
 388  171.5802
 389  257.2541
 390  346.5615
 391  382.4549
 392  232.1625
 393  236.6105
 394  189.0347
 395  297.9232
 396  341.7694
 397  243.3347
 398  315.1573
 399  443.3521
 400  369.4466
 401  186.2942
 402  200.1442
 403  312.1807
 404  366.4391
 405  297.2181
 406  369.5382
 407  365.2762
 408  192.0291
 409  173.5132
 410  303.494
 411  190.5403
 412  172.8012
 413  168.2119
 414  146.374
 415  312.8082
 416  387.0368
 417  301.5988
 418  309.4689
 419  338.2892
 420  290.1756
 421  327.6144
 422  262.5282
 423  156.4687
 424  279.5911
 425  228.3908
 426  236.0606
 427  249.3011
 428  123.3732
 429  197.694
 430  259.9147
 431  232.7348
 432  236.2242
 433  295.7194
 434  161.9091
 435  248.9077
 436  264.823
 437  282.3678
 438  173.4844
 439  165.45
 440  290.8925
 441  297.361
 442  322.7372
 443  227.9815
 444  167.3402
 445  271.863
 446  341.6989
 447  287.1379
 448  251.1583
 449  215.2809
 450  332.1937
 451  500.5692
 452  451.5369
 453  411.8232
 454  371.6819
 455  297.8543
 456  160.3336
 457  279.5598
 458  272.0461
 459  260.8553
 460  190.2862
 461  127.0386
 462  261.0113
 463  262.4793
 464  270.938
 465  175.0122
 466  123.3195
 467  311.8279
 468  320.1733
 469  257.3896
 470  197.7259
 471  298.3222
 472  212.9708
 473  248.9398
 474  244.4
 475  202.5317
 476  168.6604
 477  233.3336
 478  178.8443
 479  264.27
 480  268.3792
 481  187.9695
 482  191.8281
 483  202.9802
 484  138.6604
 485  220.7514
 486  303.5386
 487  331.6117
 488  333.6093
 489  193.9839
 490  257.5104
 491  259.6436
 492  387.8747
 493  271.767
 494  344.5893
 495  323.0567
 496  177.8516
 497  354.4248
 498  277.3725
 499  282.8177
 500  338.8627
 501  276.6443
 502  256.0474
 503  245.0121
 504  392.5995
 505  369.7159
 506  188.6015
 507  236.1024
 508  374.3463
 509  465.2046
 510  624.3329
 511  679.8144
