# Input file       =  1180494576.107471-PSRB0329-2ms-sampling-dd.dat
# Candidate        =  PSR_0332+5434
# Telescope        =  AR
# Epoch_topo       =  57907.131887817952
# Epoch_bary       =  N/A
# T_sample         =  0.002
# Data Folded      =  7208960
# Data Avg         =  1.32812788723043e-09
# Data StdDev      =  8.05556079882718 
# Profile Bins     =  512
# Profile Avg      =  0.225155009103031
# Profile StdDev   =  955.866204943508 
# Reduced chi-sqr  =  0.522
# Prob(Noise)      <  1   (~0.0 sigma)
# P_topo (ms)      =  714.514494640224  +/- 0.00064
# P'_topo (s/s)    =  -0                +/- 3.44e-10
# P''_topo (s/s^2) =  0                 +/- 1.55e-13
# P_bary (ms)      =  N/A
# P'_bary (s/s)    =  N/A
# P''_bary (s/s^2) =  N/A
# P_orb (s)        =  N/A
# asin(i)/c (s)    =  N/A
# eccentricity     =  N/A
# w (rad)          =  N/A
# T_peri           =  N/A
######################################################
   0  -104.1773
   1  -52.60155
   2  -410.3448
   3  -205.6084
   4  -199.0181
   5  -76.57968
   6  -313.1449
   7  56.54491
   8  84.44458
   9  756.7451
  10  684.175
  11  635.9604
  12  724.7961
  13  -356.4232
  14  165.0451
  15  28.08581
  16  200.7837
  17  331.2762
  18  556.3098
  19  390.4273
  20  55.73661
  21  230.4037
  22  -2.943443
  23  -130.655
  24  -728.8206
  25  -541.3113
  26  -199.2006
  27  120.3052
  28  -68.99254
  29  -695.6631
  30  -479.0338
  31  -356.588
  32  -420.6061
  33  -389.3047
  34  41.0919
  35  80.23264
  36  -87.92111
  37  -375.2063
  38  -130.8385
  39  318.4606
  40  1456.042
  41  1861.893
  42  1731.909
  43  726.4999
  44  45.16465
  45  366.813
  46  1852.864
  47  1931.078
  48  1532.846
  49  1010.026
  50  -77.45871
  51  77.74845
  52  -348.025
  53  -220.8446
  54  -20.51044
  55  195.2813
  56  23.8675
  57  -763.6385
  58  -632.0765
  59  -401.3949
  60  -206.7133
  61  -99.12865
  62  301.3425
  63  216.6414
  64  -670.4873
  65  -326.3014
  66  -461.0744
  67  -817.5549
  68  -602.8009
  69  -440.6227
  70  -155.7447
  71  84.47485
  72  -139.1542
  73  -1.73855
  74  120.8566
  75  263.0318
  76  7.258377
  77  -19.47585
  78  -1260.546
  79  -178.1404
  80  299.9503
  81  611.043
  82  513.7878
  83  159.8586
  84  10.6571
  85  -700.1646
  86  -704.4335
  87  -475.4699
  88  -169.3429
  89  -206.0798
  90  -368.5389
  91  -233.2065
  92  -7.685835
  93  248.5188
  94  403.4987
  95  209.6205
  96  96.47466
  97  343.0258
  98  554.2328
  99  324.7494
 100  475.6909
 101  143.6043
 102  305.3174
 103  437.4099
 104  553.3608
 105  905.7032
 106  334.0003
 107  883.1219
 108  1136.314
 109  855.8582
 110  329.3086
 111  273.6042
 112  909.8903
 113  1157.129
 114  1005.222
 115  406.2715
 116  -11.66229
 117  -176.0891
 118  -311.5283
 119  -398.9768
 120  -445.3698
 121  -7.183359
 122  230.4801
 123  -176.2517
 124  -830.1188
 125  -474.1333
 126  -145.7185
 127  691.8027
 128  466.0875
 129  397.2611
 130  416.3955
 131  -355.6807
 132  -255.9301
 133  -606.6514
 134  -577.856
 135  -153.2094
 136  528.6985
 137  409.2348
 138  -175.6678
 139  -783.2601
 140  -1290.322
 141  -909.0471
 142  -663.7227
 143  -631.1428
 144  -627.1065
 145  -482.7556
 146  -165.7412
 147  -497.4025
 148  -464.7662
 149  -237.5702
 150  -406.7976
 151  -600.5792
 152  -810.1049
 153  -689.1368
 154  9.219331
 155  -125.8583
 156  -310.4054
 157  -202.7936
 158  -284.5819
 159  -40.51345
 160  -205.3927
 161  80.70858
 162  141.6817
 163  -325.3894
 164  -669.6221
 165  94.0975
 166  175.1886
 167  95.2841
 168  -39.42099
 169  53.52213
 170  480.9514
 171  272.1504
 172  206.9844
 173  -496.5459
 174  37.73603
 175  480.48
 176  374.5144
 177  -181.3156
 178  83.4259
 179  119.452
 180  121.182
 181  70.44431
 182  -268.4948
 183  -293.511
 184  -337.8649
 185  -103.0052
 186  94.30357
 187  -350.2172
 188  94.6536
 189  231.4996
 190  -93.55765
 191  -181.8485
 192  19.14567
 193  153.4913
 194  102.2725
 195  293.6183
 196  -200.9308
 197  -46.21499
 198  -177.2395
 199  304.5034
 200  137.1763
 201  117.5363
 202  482.0127
 203  462.6399
 204  24.64051
 205  -402.3645
 206  -303.7099
 207  -608.1524
 208  -286.5341
 209  -433.174
 210  -381.5352
 211  -427.4109
 212  -40.29951
 213  202.7656
 214  -323.7633
 215  -165.4386
 216  47.07917
 217  50.66354
 218  547.1727
 219  1163.271
 220  1086.97
 221  469.4564
 222  6.534428
 223  331.0977
 224  434.4575
 225  -35.85138
 226  -212.7914
 227  172.8507
 228  187.2555
 229  -145.4791
 230  -562.3987
 231  -838.2261
 232  -394.495
 233  -359.075
 234  62.97202
 235  -326.1486
 236  -390.7946
 237  -237.8312
 238  -511.5916
 239  -989.0387
 240  -732.6451
 241  -519.2417
 242  -213.8851
 243  74.7852
 244  -116.2927
 245  267.9079
 246  -22.75031
 247  183.0305
 248  84.0758
 249  -23.26707
 250  -90.90223
 251  -213.4281
 252  176.5494
 253  163.0979
 254  536.1328
 255  361.3311
 256  612.0976
 257  573.794
 258  602.7263
 259  317.6252
 260  249.4861
 261  315.6715
 262  411.4607
 263  287.5745
 264  391.7882
 265  370.541
 266  438.1711
 267  454.7832
 268  68.91995
 269  177.456
 270  -244.0435
 271  218.5642
 272  123.7495
 273  45.16837
 274  500.2039
 275  762.7615
 276  918.6167
 277  950.7606
 278  483.9021
 279  495.1068
 280  448.0697
 281  -141.3083
 282  -482.0778
 283  -756.712
 284  -481.8952
 285  -159.5252
 286  -260.0937
 287  -592.2468
 288  -257.0822
 289  129.7566
 290  205.7303
 291  311.0339
 292  132.168
 293  -35.43461
 294  192.2932
 295  -137.3154
 296  -432.4222
 297  -950.918
 298  -855.2464
 299  -479.3934
 300  -620.6636
 301  -335.7286
 302  -730.4491
 303  -658.7306
 304  -756.3928
 305  -1117.735
 306  -864.48
 307  -764.8524
 308  -696.3375
 309  -274.1619
 310  -96.63067
 311  -965.3865
 312  -763.7183
 313  -588.603
 314  -590.2021
 315  -434.6716
 316  -116.2818
 317  93.55193
 318  -129.902
 319  -243.2065
 320  84.66637
 321  -220.2124
 322  -447.9849
 323  -111.8119
 324  423.7527
 325  -48.08307
 326  -49.38838
 327  500.474
 328  962.1259
 329  288.6351
 330  220.8357
 331  225.9701
 332  138.6344
 333  548.6701
 334  652.2437
 335  922.5188
 336  625.7245
 337  598.9209
 338  272.0789
 339  -16.44378
 340  -353.7135
 341  29.56067
 342  719.8895
 343  889.4219
 344  387.3909
 345  -36.93815
 346  -339.3259
 347  -175.5538
 348  29.91444
 349  -81.7271
 350  -275.3309
 351  -29.87134
 352  189.3363
 353  251.3477
 354  102.2123
 355  189.952
 356  293.123
 357  354.201
 358  -100.4687
 359  -653.0513
 360  -509.7521
 361  365.465
 362  434.7661
 363  647.8444
 364  523.8987
 365  330.0949
 366  300.7307
 367  427.1655
 368  203.1568
 369  -257.8913
 370  -584.8952
 371  -43.41469
 372  384.6761
 373  154.054
 374  103.6671
 375  -118.5133
 376  -373.5196
 377  -681.1463
 378  -750.8173
 379  -423.8396
 380  -282.4198
 381  -180.1286
 382  -607.3947
 383  -325.529
 384  -595.2881
 385  -284.749
 386  -722.6384
 387  -841.735
 388  -793.8107
 389  -616.5493
 390  22.53192
 391  -573.8399
 392  -421.001
 393  -194.06
 394  -460.3208
 395  -328.4255
 396  -306.1665
 397  -488.4988
 398  -870.4322
 399  -579.3197
 400  -257.5669
 401  -484.3452
 402  -486.9175
 403  -376.3587
 404  -219.7663
 405  -520.6548
 406  -269.3434
 407  -554.6597
 408  -468.8911
 409  24.0431
 410  111.5048
 411  0.2959252
 412  -683.8536
 413  -299.5767
 414  -311.7631
 415  -77.24604
 416  18.05041
 417  183.0941
 418  -161.7359
 419  -240.1471
 420  -493.9883
 421  -445.052
 422  -619.6443
 423  -387.3863
 424  -203.36
 425  -659.2736
 426  -454.2715
 427  -284.5286
 428  -415.545
 429  -735.4741
 430  -968.5204
 431  -1555.301
 432  -936.4541
 433  -450.118
 434  -25.59749
 435  144.23
 436  -118.2791
 437  -318.4156
 438  136.1992
 439  414.6201
 440  298.1143
 441  106.6726
 442  196.517
 443  261.1249
 444  -95.38445
 445  -71.62434
 446  64.97269
 447  -110.1668
 448  470.2392
 449  664.434
 450  546.759
 451  219.4164
 452  -16.69332
 453  7.846449
 454  -386.9911
 455  -505.8129
 456  -223.6413
 457  64.48006
 458  145.5441
 459  655.6859
 460  846.3882
 461  209.8026
 462  297.1804
 463  -139.9846
 464  1039.748
 465  640.7825
 466  606.9972
 467  905.1354
 468  572.1838
 469  628.7935
 470  832.0325
 471  955.9358
 472  227.0598
 473  90.14622
 474  51.29946
 475  420.3901
 476  1205.016
 477  1528.922
 478  1536.519
 479  628.205
 480  140.2979
 481  98.06157
 482  894.4881
 483  1281.746
 484  831.1288
 485  446.3311
 486  146.2891
 487  -166.7543
 488  -186.494
 489  50.49295
 490  -154.4578
 491  -161.0112
 492  314.1369
 493  -210.6718
 494  -589.8013
 495  -573.7448
 496  -198.1415
 497  -75.24052
 498  -310.3556
 499  -203.629
 500  396.537
 501  449.5466
 502  -373.7851
 503  -73.68245
 504  -122.7845
 505  462.8002
 506  373.8109
 507  -78.85946
 508  623.4234
 509  560.5983
 510  700.1591
 511  309.9008
