# Input file       =  1180179408.10232_cleaned.dat
# Candidate        =  PSR_0332+5434
# Telescope        =  AR
# Epoch_topo       =  57903.484109980556
# Epoch_bary       =  N/A
# T_sample         =  0.002
# Data Folded      =  7340032
# Data Avg         =  0.0264257160507861
# Data StdDev      =  1.00004798596625 
# Profile Bins     =  512
# Profile Avg      =  378.812525418943 
# Profile StdDev   =  119.738781882208 
# Reduced chi-sqr  =  1.278
# Prob(Noise)      <  1.94e-05   (~4.1 sigma)
# P_topo (ms)      =  714.518401132372  +/- 0.000277
# P'_topo (s/s)    =  -0                +/- 1.46e-10
# P''_topo (s/s^2) =  0                 +/- 6.45e-14
# P_bary (ms)      =  N/A
# P'_bary (s/s)    =  N/A
# P''_bary (s/s^2) =  N/A
# P_orb (s)        =  N/A
# asin(i)/c (s)    =  N/A
# eccentricity     =  N/A
# w (rad)          =  N/A
# T_peri           =  N/A
######################################################
   0  462.139
   1  377.5544
   2  456.7324
   3  478.0696
   4  398.0422
   5  388.558
   6  327.1501
   7  278.0289
   8  304.4475
   9  358.6723
  10  326.9963
  11  388.7903
  12  421.3989
  13  444.9227
  14  609.8602
  15  469.3124
  16  398.2939
  17  506.8361
  18  516.7754
  19  468.9102
  20  352.4244
  21  284.0954
  22  208.5267
  23  245.6974
  24  452.6498
  25  542.2068
  26  420.225
  27  437.3175
  28  345.9327
  29  431.3656
  30  446.8867
  31  322.0946
  32  291.9319
  33  344.6
  34  428.1746
  35  356.6067
  36  310.5088
  37  367.3398
  38  386.0504
  39  265.0711
  40  406.7331
  41  381.5542
  42  378.9262
  43  362.3706
  44  317.6828
  45  416.3887
  46  329.8645
  47  357.3915
  48  234.344
  49  259.8091
  50  387.8399
  51  401.2509
  52  461.0829
  53  587.9559
  54  457.4697
  55  415.4344
  56  417.9131
  57  409.8822
  58  328.459
  59  354.5506
  60  507.8972
  61  480.193
  62  476.4911
  63  439.7144
  64  505.3243
  65  552.3278
  66  504.2245
  67  436.1154
  68  416.9904
  69  329.5932
  70  404.6711
  71  571.3987
  72  612.4935
  73  462.3807
  74  453.5967
  75  501.4864
  76  472.0204
  77  488.2231
  78  470.8763
  79  511.7134
  80  463.5664
  81  601.0139
  82  664.2968
  83  721.3755
  84  865.7449
  85  939.9296
  86  750.9847
  87  400.6572
  88  357.4539
  89  485.4023
  90  392.9244
  91  360.0028
  92  474.2425
  93  463.4783
  94  431.1477
  95  461.4106
  96  504.1312
  97  479.8348
  98  461.326
  99  409.729
 100  289.6304
 101  409.4321
 102  523.9581
 103  483.5235
 104  406.4244
 105  476.471
 106  442.4228
 107  448.7144
 108  574.4073
 109  572.6956
 110  391.659
 111  413.6563
 112  391.7403
 113  452.1023
 114  490.5842
 115  369.8279
 116  480.6305
 117  499.9247
 118  448.9537
 119  386.1892
 120  280.4897
 121  323.1782
 122  362.9864
 123  337.9243
 124  293.1088
 125  306.5478
 126  327.1677
 127  293.1659
 128  383.9603
 129  375.7292
 130  326.2159
 131  262.5636
 132  345.3445
 133  300.515
 134  398.8589
 135  397.0262
 136  292.1092
 137  285.7061
 138  407.1923
 139  481.5852
 140  265.6407
 141  392.993
 142  519.8967
 143  398.0915
 144  441.5561
 145  470.4401
 146  480.3034
 147  572.7728
 148  516.2957
 149  432.5576
 150  398.449
 151  365.4281
 152  388.4912
 153  377.0961
 154  394.4558
 155  303.6519
 156  254.0102
 157  369.905
 158  557.2792
 159  505.4539
 160  390.7925
 161  307.0077
 162  313.1127
 163  338.1138
 164  364.5387
 165  439.8436
 166  411.1028
 167  355.3036
 168  309.7218
 169  309.7403
 170  334.0407
 171  297.4778
 172  340.8262
 173  387.1121
 174  499.4651
 175  530.4828
 176  372.0382
 177  479.2954
 178  419.1697
 179  382.1701
 180  463.2722
 181  571.7283
 182  561.9585
 183  485.6209
 184  455.1229
 185  440.7212
 186  373.4353
 187  389.1297
 188  434.3506
 189  357.1759
 190  373.0716
 191  330.0274
 192  358.62
 193  387.629
 194  420.8117
 195  501.7078
 196  384.9855
 197  395.7478
 198  286.5076
 199  337.9016
 200  318.3217
 201  211.8389
 202  178.9138
 203  95.90356
 204  156.4187
 205  311.9912
 206  292.6726
 207  327.5788
 208  371.4877
 209  314.5815
 210  343.8928
 211  324.8488
 212  290.8753
 213  319.7688
 214  323.2434
 215  317.2762
 216  320.0476
 217  426.9269
 218  351.2976
 219  243.2044
 220  325.2481
 221  452.9049
 222  376.2896
 223  378.2933
 224  443.1281
 225  431.5068
 226  388.5131
 227  461.8309
 228  375.4351
 229  432.6833
 230  414.0772
 231  378.0865
 232  470.5539
 233  396.0052
 234  354.2155
 235  286.4699
 236  385.0307
 237  416.1828
 238  427.4316
 239  482.8195
 240  490.6404
 241  351.6783
 242  308.042
 243  347.4182
 244  262.341
 245  192.3416
 246  250.3723
 247  347.0153
 248  464.5878
 249  343.7725
 250  347.6665
 251  359.0108
 252  416.3109
 253  314.2838
 254  342.1973
 255  324.6097
 256  197.0054
 257  320.222
 258  350.0642
 259  369.9844
 260  372.4073
 261  311.6816
 262  153.705
 263  240.859
 264  385.8676
 265  285.0569
 266  393.5422
 267  316.2909
 268  334.9268
 269  408.773
 270  376.6931
 271  427.6721
 272  372.2007
 273  413.87
 274  350.6479
 275  332.2205
 276  371.7542
 277  426.6074
 278  411.9951
 279  356.3011
 280  389.9809
 281  344.8367
 282  386.8002
 283  407.3919
 284  459.6407
 285  509.673
 286  470.5396
 287  421.8536
 288  476.8127
 289  375.7881
 290  312.4364
 291  317.2097
 292  333.5753
 293  371.2387
 294  231.8983
 295  256.7296
 296  199.0401
 297  195.4828
 298  228.7622
 299  297.4794
 300  310.0625
 301  203.7307
 302  220.122
 303  422.3545
 304  325.7015
 305  272.6084
 306  428.9153
 307  439.8541
 308  361.9309
 309  263.1419
 310  366.7893
 311  408.5302
 312  463.2649
 313  383.6568
 314  282.6807
 315  344.7673
 316  350.718
 317  386.9663
 318  405.0012
 319  336.5473
 320  298.9598
 321  242.2262
 322  214.5612
 323  241.7501
 324  395.7061
 325  417.3915
 326  264.1443
 327  374.9717
 328  334.2535
 329  295.193
 330  337.5887
 331  451.7971
 332  280.6219
 333  172.7215
 334  229.3973
 335  226.4014
 336  293.0464
 337  73.41505
 338  176.2211
 339  283.282
 340  359.1347
 341  317.4175
 342  132.8491
 343  266.117
 344  257.9226
 345  266.1555
 346  156.4174
 347  190.9665
 348  263.6945
 349  254.3396
 350  267.6305
 351  187.4067
 352  365.7338
 353  333.5201
 354  244.038
 355  284.796
 356  203.0246
 357  316.639
 358  246.9519
 359  263.2454
 360  282.0294
 361  362.3477
 362  320.7083
 363  302.7793
 364  319.2509
 365  323.6197
 366  351.9766
 367  383.3244
 368  271.2636
 369  338.9003
 370  300.3371
 371  317.3533
 372  348.5177
 373  314.3753
 374  303.0813
 375  462.7927
 376  395.3783
 377  263.7941
 378  313.5413
 379  266.9852
 380  262.5969
 381  374.8907
 382  361.9929
 383  359.916
 384  418.1252
 385  460.7352
 386  390.4717
 387  332.0858
 388  268.3794
 389  352.436
 390  352.0606
 391  338.6514
 392  270.839
 393  320.4183
 394  389.0433
 395  412.6291
 396  348.0351
 397  266.5583
 398  253.4691
 399  354.0594
 400  283.0407
 401  218.6184
 402  265.3196
 403  293.5958
 404  295.7177
 405  386.6433
 406  340.3824
 407  370.8317
 408  372.3574
 409  397.8678
 410  354.1449
 411  313.8561
 412  314.608
 413  323.6302
 414  185.8485
 415  210.5285
 416  390.4739
 417  493.5667
 418  450.6621
 419  347.1028
 420  361.5688
 421  392.8395
 422  385.2334
 423  341.2808
 424  408.2728
 425  436.3126
 426  327.4233
 427  357.2086
 428  510.639
 429  484.4412
 430  468.8039
 431  428.8633
 432  394.4853
 433  428.9045
 434  482.0739
 435  409.4522
 436  396.5638
 437  313.698
 438  284.0014
 439  393.4396
 440  523.58
 441  614.8633
 442  571.7526
 443  530.5222
 444  510.9313
 445  552.4519
 446  369.9721
 447  402.6334
 448  425.3682
 449  381.8846
 450  467.8343
 451  404.861
 452  458.5412
 453  424.4743
 454  468.5142
 455  510.363
 456  510.8605
 457  407.6001
 458  435.518
 459  544.4723
 460  409.6702
 461  382.3415
 462  416.4869
 463  400.5008
 464  436.9865
 465  485.3274
 466  481.2743
 467  430.4218
 468  364.7832
 469  303.6569
 470  248.4264
 471  268.7499
 472  291.3195
 473  217.6975
 474  253.0676
 475  272.9504
 476  338.9274
 477  331.0687
 478  354.9504
 479  432.7175
 480  384.3746
 481  374.0526
 482  355.4285
 483  389.2845
 484  362.776
 485  319.4977
 486  242.2019
 487  438.6971
 488  394.0754
 489  382.3463
 490  414.3653
 491  485.061
 492  426.9507
 493  405.243
 494  493.1393
 495  409.2311
 496  399.3866
 497  385.6736
 498  360.897
 499  485.484
 500  481.0022
 501  417.3272
 502  347.0734
 503  333.1857
 504  362.1032
 505  459.2165
 506  465.2997
 507  495.3576
 508  480.8337
 509  557.3676
 510  534.5814
 511  417.0707
