# Input file       =  1180580777.110533-PSRB0329-2ms-sampling-dd.dat
# Candidate        =  PSR_0332+5434
# Telescope        =  AR
# Epoch_topo       =  57908.129584612652
# Epoch_bary       =  N/A
# T_sample         =  0.002
# Data Folded      =  7208960
# Data Avg         =  -3.58535227436579e-10
# Data StdDev      =  7.00784249045838 
# Profile Bins     =  512
# Profile Avg      =  -0.580614693345586
# Profile StdDev   =  831.544814008674 
# Reduced chi-sqr  =  0.695
# Prob(Noise)      <  1   (~0.0 sigma)
# P_topo (ms)      =  714.513527594891  +/- 0.000297
# P'_topo (s/s)    =  -0                +/- 1.6e-10
# P''_topo (s/s^2) =  0                 +/- 7.17e-14
# P_bary (ms)      =  N/A
# P'_bary (s/s)    =  N/A
# P''_bary (s/s^2) =  N/A
# P_orb (s)        =  N/A
# asin(i)/c (s)    =  N/A
# eccentricity     =  N/A
# w (rad)          =  N/A
# T_peri           =  N/A
######################################################
   0  -440.938
   1  -96.17213
   2  333.8739
   3  -42.68813
   4  221.6393
   5  -215.9116
   6  -454.1059
   7  -616.3121
   8  -440.8802
   9  99.80793
  10  91.26631
  11  -321.6949
  12  -504.595
  13  -510.4045
  14  -140.3925
  15  -82.35038
  16  -283.2551
  17  -668.4054
  18  -565.1364
  19  -663.5222
  20  -829.3185
  21  -1156.144
  22  -975.8936
  23  -797.3116
  24  -243.72
  25  -670.2264
  26  -659.8671
  27  -1281.139
  28  -912.5278
  29  -875.7618
  30  -1120.682
  31  -1071.518
  32  -626.1401
  33  -189.661
  34  -298.2197
  35  -721.9411
  36  -650.6064
  37  -459.9225
  38  -797.9402
  39  -821.9214
  40  -678.6097
  41  -575.7988
  42  -578.3454
  43  -313.3782
  44  -341.23
  45  -314.4886
  46  -95.36079
  47  -81.78587
  48  362.4426
  49  172.1861
  50  142.3058
  51  36.95761
  52  -78.38721
  53  151.3651
  54  -69.17902
  55  175.9419
  56  -66.92876
  57  207.2406
  58  274.0111
  59  363.6745
  60  518.0616
  61  736.4495
  62  1041.91
  63  742.9907
  64  305.5174
  65  434.6072
  66  722.8814
  67  1376.983
  68  1908.263
  69  1626.857
  70  1394.375
  71  -15.75151
  72  -265.4698
  73  -217.9258
  74  -457.2379
  75  -309.3322
  76  -119.7815
  77  -124.631
  78  204.5218
  79  -174.1081
  80  -664.147
  81  -422.4192
  82  -85.64293
  83  -98.51782
  84  -605.439
  85  -269.2982
  86  -39.82787
  87  -296.7989
  88  -380.0896
  89  22.71253
  90  -262.6347
  91  -394.2824
  92  -426.4878
  93  -868.4014
  94  -806.975
  95  -501.6713
  96  -281.4209
  97  -110.74
  98  -119.5672
  99  -52.08989
 100  -446.5008
 101  -601.4851
 102  -847.936
 103  -836.6573
 104  -484.3825
 105  -296.2039
 106  -19.45714
 107  192.6577
 108  7.632854
 109  -286.4543
 110  -343.836
 111  -445.1152
 112  -422.3169
 113  -51.01825
 114  -138.0536
 115  -200.9653
 116  -382.685
 117  -173.727
 118  -27.4213
 119  420.5561
 120  534.6703
 121  27.65356
 122  -187.8059
 123  -611.4027
 124  28.38078
 125  226.5004
 126  366.7452
 127  249.9723
 128  -204.8554
 129  38.72847
 130  -144.0969
 131  725.0721
 132  685.6666
 133  354.0267
 134  556.5931
 135  -135.9687
 136  -700.6151
 137  -139.7139
 138  894.3599
 139  1461.63
 140  1763.479
 141  1236.863
 142  476.5005
 143  -45.19018
 144  9.643981
 145  375.2635
 146  284.3349
 147  464.0213
 148  456.432
 149  607.26
 150  235.6494
 151  -131.7026
 152  218.5253
 153  349.6148
 154  556.4413
 155  117.3545
 156  424.3267
 157  97.05669
 158  -314.4351
 159  -144.412
 160  -371.4148
 161  -297.6317
 162  -587.8802
 163  130.6443
 164  121.8161
 165  -350.8768
 166  -212.2974
 167  -294.3776
 168  -439.123
 169  -693.413
 170  -716.4281
 171  -670.7025
 172  -379.0264
 173  -293.4637
 174  -32.66477
 175  465.0038
 176  58.89237
 177  -254.0082
 178  -187.2699
 179  -396.2706
 180  -476.0444
 181  -75.99159
 182  -138.035
 183  -458.8914
 184  -250.1777
 185  -424.4886
 186  -422.9521
 187  -431.6987
 188  -401.5342
 189  -284.6724
 190  -398.6841
 191  -173.9829
 192  -389.322
 193  -299.4899
 194  -333.9193
 195  -409.4485
 196  -263.5
 197  -252.0378
 198  -290.6144
 199  -317.0989
 200  -375.9861
 201  -600.619
 202  -670.9599
 203  -401.5458
 204  -304.0978
 205  296.2695
 206  759.8917
 207  479.7545
 208  255.7811
 209  -134.5038
 210  43.91474
 211  143.4073
 212  59.77845
 213  -0.8455412
 214  239.5982
 215  460.9996
 216  3.781284
 217  -342.2506
 218  -801.5774
 219  -438.7892
 220  -602.998
 221  -576.6541
 222  -4.795205
 223  162.2689
 224  -201.8262
 225  -476.856
 226  -428.9058
 227  -384.438
 228  -319.704
 229  -124.3931
 230  361.2696
 231  509.0374
 232  459.1975
 233  420.6139
 234  476.2805
 235  5.340423
 236  -545.2664
 237  -59.53867
 238  324.2626
 239  863.6121
 240  685.5607
 241  224.0895
 242  -241.1585
 243  -369.2151
 244  -348.4579
 245  -421.5836
 246  217.7172
 247  -78.60768
 248  -93.73179
 249  -123.5399
 250  -250.5115
 251  -437.6425
 252  -343.7525
 253  -156.3336
 254  -220.4718
 255  -120.3079
 256  -129.0079
 257  -290.6815
 258  122.9555
 259  181.014
 260  -439.1022
 261  -670.6558
 262  -748.2549
 263  -194.1998
 264  236.5321
 265  -69.74514
 266  -567.7099
 267  93.51987
 268  110.6244
 269  174.2076
 270  -289.4713
 271  -258.9835
 272  173.897
 273  229.4716
 274  96.12825
 275  107.1495
 276  239.4662
 277  566.8123
 278  566.0578
 279  400.9037
 280  442.3778
 281  299.218
 282  247.9188
 283  137.0706
 284  -338.8708
 285  -220.4164
 286  -26.19257
 287  81.46907
 288  88.20644
 289  -75.22204
 290  -233.6959
 291  -339.2973
 292  20.88259
 293  287.2126
 294  -227.5188
 295  -300.6426
 296  -248.9852
 297  45.99827
 298  99.12033
 299  176.0214
 300  437.0346
 301  -57.51709
 302  8.140058
 303  -514.0614
 304  -412.7484
 305  -357.3961
 306  306.2809
 307  149.3802
 308  297.9611
 309  180.0328
 310  -101.8856
 311  -91.17453
 312  -160.13
 313  204.2805
 314  124.7243
 315  227.222
 316  167.5933
 317  -262.7552
 318  -745.8912
 319  -497.866
 320  209.334
 321  552.3214
 322  389.3367
 323  -72.26474
 324  -254.2175
 325  332.9678
 326  699.386
 327  394.1221
 328  137.8584
 329  335.1762
 330  282.4469
 331  -164.4081
 332  -440.1946
 333  -357.3616
 334  -84.27425
 335  -94.10593
 336  31.64081
 337  -328.1274
 338  -141.105
 339  -283.4987
 340  -113.4323
 341  174.1396
 342  200.2845
 343  95.7729
 344  -185.8135
 345  198.2333
 346  380.4002
 347  576.1749
 348  313.2101
 349  -210.9828
 350  -0.6911848
 351  315.8038
 352  501.1562
 353  403.7619
 354  671.2243
 355  224.7867
 356  -102.61
 357  -399.4131
 358  -203.7172
 359  -274.3823
 360  -247.6276
 361  -287.1949
 362  -282.7405
 363  -260.8126
 364  -348.4586
 365  -623.2764
 366  -411.5164
 367  26.81752
 368  146.7683
 369  154.7604
 370  18.00937
 371  -24.61113
 372  123.2558
 373  419.5709
 374  279.4929
 375  35.02827
 376  175.2099
 377  -191.9834
 378  254.1976
 379  319.1113
 380  677.861
 381  773.1281
 382  964.7657
 383  1546.396
 384  1236.974
 385  628.3108
 386  604.1384
 387  457.3454
 388  281.558
 389  100.6353
 390  -72.95412
 391  -444.7156
 392  -216.8377
 393  -139.4761
 394  -507.0231
 395  -119.5614
 396  524.3804
 397  -5.330778
 398  -624.5868
 399  -517.7034
 400  -186.9228
 401  -371.5026
 402  -26.85172
 403  -215.8014
 404  -36.07244
 405  -307.6023
 406  -553.8567
 407  -241.4063
 408  -81.82122
 409  -409.5839
 410  -568.2439
 411  -322.5866
 412  -127.9343
 413  166.9969
 414  -130.9584
 415  -236.5979
 416  -185.336
 417  -7.721714
 418  -200.4398
 419  -101.9698
 420  255.1167
 421  309.6551
 422  339.4532
 423  480.5685
 424  668.114
 425  36.09927
 426  -116.9823
 427  -218.3152
 428  48.94377
 429  292.4941
 430  432.2306
 431  366.654
 432  -17.19096
 433  -525.1724
 434  -454.7079
 435  599.2509
 436  1050.202
 437  1241.678
 438  1127.214
 439  283.4648
 440  981.6693
 441  1203.268
 442  1627.122
 443  1629.887
 444  1646.537
 445  1907.229
 446  242.6398
 447  305.1283
 448  417.1047
 449  169.7445
 450  214.4818
 451  84.48834
 452  -332.7414
 453  412.7056
 454  796.9141
 455  671.491
 456  383.9184
 457  -221.6452
 458  -526.2676
 459  -359.7479
 460  -207.2284
 461  -28.51255
 462  27.1557
 463  -335.047
 464  -214.562
 465  -458.7714
 466  -639.1843
 467  -833.5315
 468  -687.649
 469  -236.9812
 470  -30.68292
 471  4.914009
 472  108.1328
 473  272.5436
 474  -464.9805
 475  -603.2229
 476  -493.0395
 477  33.48804
 478  177.4391
 479  -48.19271
 480  -38.64298
 481  -144.6066
 482  219.0125
 483  239.9763
 484  266.5979
 485  -199.6109
 486  -310.0593
 487  100.0939
 488  462.7625
 489  474.7008
 490  362.3211
 491  531.5234
 492  531.5456
 493  1137.161
 494  998.0993
 495  756.5167
 496  1182.695
 497  1907.405
 498  1761.953
 499  1251.507
 500  558.0417
 501  596.5593
 502  743.791
 503  841.5898
 504  650.4133
 505  -95.28465
 506  32.83271
 507  192.93
 508  -166.2976
 509  -374.4948
 510  -589.8017
 511  -548.2448
