# Input file       =  1180494576.107471_cleaned.dat
# Candidate        =  PSR_0332+5434
# Telescope        =  AR
# Epoch_topo       =  57907.131887817952
# Epoch_bary       =  N/A
# T_sample         =  0.002
# Data Folded      =  7208960
# Data Avg         =  0.141518184288659
# Data StdDev      =  5.37919792454353 
# Profile Bins     =  512
# Profile Avg      =  1992.46160180886 
# Profile StdDev   =  638.291192156606 
# Reduced chi-sqr  =  0.486
# Prob(Noise)      <  1   (~0.0 sigma)
# P_topo (ms)      =  714.514494640224  +/- 0.000149
# P'_topo (s/s)    =  -0                +/- 7.98e-11
# P''_topo (s/s^2) =  0                 +/- 3.59e-14
# P_bary (ms)      =  N/A
# P'_bary (s/s)    =  N/A
# P''_bary (s/s^2) =  N/A
# P_orb (s)        =  N/A
# asin(i)/c (s)    =  N/A
# eccentricity     =  N/A
# w (rad)          =  N/A
# T_peri           =  N/A
######################################################
   0  2034.235
   1  2043.803
   2  1877.718
   3  1995.203
   4  2051.186
   5  2362.417
   6  2045.94
   7  2305.2
   8  1903.309
   9  2095.81
  10  2018.317
  11  1927.413
  12  2273.109
  13  2212.868
  14  2445.859
  15  1862.109
  16  1801.348
  17  1841.977
  18  2479.606
  19  2678.609
  20  2541.701
  21  2267.924
  22  2341.067
  23  2335.943
  24  1994.428
  25  2092.813
  26  2251.691
  27  2624.825
  28  2489.415
  29  1804.716
  30  2127.448
  31  2160.296
  32  1973.841
  33  1904.376
  34  2468.77
  35  2626.255
  36  2341.065
  37  2155.372
  38  1763.996
  39  1721.442
  40  1692.189
  41  2028.614
  42  1937.208
  43  1946.801
  44  2114.549
  45  1935.216
  46  2296.771
  47  2321.675
  48  2215.396
  49  2136.982
  50  1826.569
  51  1998.799
  52  1775.089
  53  1960.118
  54  1816.991
  55  1963.242
  56  1860.135
  57  1215.705
  58  1029.881
  59  1687.267
  60  1621.458
  61  1694.371
  62  1916.647
  63  1894.42
  64  1368.565
  65  1795.706
  66  1857.169
  67  1467.185
  68  1404.384
  69  1815.887
  70  2245.552
  71  2331.561
  72  2217.739
  73  2189.263
  74  1912.16
  75  1531.509
  76  1801.675
  77  2186.89
  78  1391.892
  79  1804.24
  80  2132.668
  81  2316.106
  82  2215.219
  83  2197.222
  84  2046.325
  85  1686.768
  86  2128.294
  87  2084.41
  88  2150.189
  89  1826.742
  90  1806.903
  91  2049.391
  92  2220.408
  93  2387.062
  94  2384.116
  95  2251.852
  96  2121.702
  97  2445.282
  98  2568.139
  99  2183.927
 100  2260.017
 101  2020.694
 102  2398.467
 103  2104.475
 104  1972.277
 105  2128.964
 106  1824.698
 107  1779.354
 108  1884.582
 109  2176.14
 110  2024.205
 111  1825.74
 112  1753.68
 113  1871.529
 114  1891.018
 115  1733.927
 116  2101.817
 117  1771.263
 118  2075.035
 119  1987.949
 120  1739.77
 121  1728.552
 122  1892.827
 123  1748.729
 124  1481.386
 125  2339.368
 126  2350.764
 127  2647.336
 128  2067.014
 129  1949.588
 130  2462.067
 131  2028.184
 132  1976.47
 133  1874.696
 134  1675.985
 135  1804.428
 136  2117.117
 137  2017.729
 138  1902.518
 139  1758.107
 140  1198.791
 141  1774.658
 142  1886.392
 143  1962.228
 144  1703.74
 145  1827.735
 146  1957.262
 147  1679.15
 148  1804.24
 149  1755.882
 150  1631.294
 151  1293.331
 152  1354.314
 153  1664.575
 154  2171.21
 155  1849.264
 156  1382.832
 157  1735.606
 158  1345.745
 159  1564.021
 160  1306.18
 161  1467.668
 162  1651.112
 163  1779.472
 164  1352.215
 165  1726.165
 166  1877.589
 167  1594.627
 168  1426.427
 169  1591.292
 170  2325.818
 171  2253.582
 172  2329.917
 173  1818.775
 174  1639.71
 175  1746.209
 176  1768.897
 177  1642.238
 178  1954.342
 179  2228.74
 180  2230.778
 181  2026.071
 182  1838.579
 183  1677.729
 184  1849.878
 185  1950.528
 186  2053.113
 187  1939.624
 188  1868.976
 189  1661.151
 190  1477.052
 191  1642.642
 192  1965.612
 193  1918.141
 194  1877.8
 195  2136.037
 196  1786.121
 197  1510.105
 198  1716.722
 199  2209.317
 200  2119.923
 201  1881.012
 202  2104.803
 203  1628.06
 204  1501.212
 205  1423.549
 206  1597.649
 207  1389.405
 208  1742.473
 209  1701.103
 210  1560.752
 211  1845.672
 212  2087
 213  2055.055
 214  1531.742
 215  2009.804
 216  1803.806
 217  1706.812
 218  2034.925
 219  2466.469
 220  2567.624
 221  2451.404
 222  1928.173
 223  1843.02
 224  2047.696
 225  1588.145
 226  1513.443
 227  1992.465
 228  1898.204
 229  1893.648
 230  1343.854
 231  1227.783
 232  1399.524
 233  1618.625
 234  1970.053
 235  1567.831
 236  1828.152
 237  1819.824
 238  1756.115
 239  1272.346
 240  1592.741
 241  1791.67
 242  1908.794
 243  2135.502
 244  1767.884
 245  2451.765
 246  2161.867
 247  2444.703
 248  2283.672
 249  2032.969
 250  2105.932
 251  1905.697
 252  2376.547
 253  2312.615
 254  2661.927
 255  2196.613
 256  2360.968
 257  2430.421
 258  2701.669
 259  2387.544
 260  2328.163
 261  2432.042
 262  2529.971
 263  2291.933
 264  2361.161
 265  2297.262
 266  2404.39
 267  2292.43
 268  2107.379
 269  2021.423
 270  1895.303
 271  2009.014
 272  2180.572
 273  2026.327
 274  2607.303
 275  2734.084
 276  2843.562
 277  3064.658
 278  2853.1
 279  2672.839
 280  2511.816
 281  1993.651
 282  1793.294
 283  1630.851
 284  1860.121
 285  2275.704
 286  2179.25
 287  1787.672
 288  1778.042
 289  1939.906
 290  2205.415
 291  2373.795
 292  2330.888
 293  2006.716
 294  2094.988
 295  2123.5
 296  1948.047
 297  1664.08
 298  1624.623
 299  1889.495
 300  1429.815
 301  1867.593
 302  1582.07
 303  1857.6
 304  1697.277
 305  1396.61
 306  1250.013
 307  1317.343
 308  1454.068
 309  1884.95
 310  2211.897
 311  1611.11
 312  1629.695
 313  1615.447
 314  1595.903
 315  1633.392
 316  1744.278
 317  2149.612
 318  1947.683
 319  2377.029
 320  2353.94
 321  1858.024
 322  1393.869
 323  1570.363
 324  2523.298
 325  2118.814
 326  1798.087
 327  2303.209
 328  2727.541
 329  2268.514
 330  1769.623
 331  1903.448
 332  1797.195
 333  2336.447
 334  2039.736
 335  2292.936
 336  2286.167
 337  2474.545
 338  2226.397
 339  1974.227
 340  1748.748
 341  1886.914
 342  2403.931
 343  2305.01
 344  2239.137
 345  2125.048
 346  1826.054
 347  1920.433
 348  1861.13
 349  1944.099
 350  1771.754
 351  2035.431
 352  2471.004
 353  2423.222
 354  1912.604
 355  1769.598
 356  2068.732
 357  2010.769
 358  1890.501
 359  1861.698
 360  2059.249
 361  2243.385
 362  2150.707
 363  2402.748
 364  2390.11
 365  2278.472
 366  2475.28
 367  2357.172
 368  2017.678
 369  2000.588
 370  1877.423
 371  2230.816
 372  2439.821
 373  2141.459
 374  2317.243
 375  2239.453
 376  2155.803
 377  1953.616
 378  1848.152
 379  2204.068
 380  2147.813
 381  2316.019
 382  1738.084
 383  2068.16
 384  1702.704
 385  2079.151
 386  2027.453
 387  1725.321
 388  1616.196
 389  1550.371
 390  2092.589
 391  1643.231
 392  1866.825
 393  2234.916
 394  1859.5
 395  1939.682
 396  1948.134
 397  1607.328
 398  1200.407
 399  1864.889
 400  2195.512
 401  1869.013
 402  1648.201
 403  1693.809
 404  1710.026
 405  1633.262
 406  2095.561
 407  1898.937
 408  1692.293
 409  1997.874
 410  1981.229
 411  2071.628
 412  1309.352
 413  1826.905
 414  2079.06
 415  2199.46
 416  2113.083
 417  2185.43
 418  2106.463
 419  2034.915
 420  1970.515
 421  1887.685
 422  1831.726
 423  2011.593
 424  2172.157
 425  1815.534
 426  2072.56
 427  2390.324
 428  2441.456
 429  1939.678
 430  1881.746
 431  1480.477
 432  1818.848
 433  1879.332
 434  2175.711
 435  2194.381
 436  1697.813
 437  1887.038
 438  2207.862
 439  1991.859
 440  1934.735
 441  1850.027
 442  2156.229
 443  2248.447
 444  2166.921
 445  2094.853
 446  2346.159
 447  2293.605
 448  2904.998
 449  2954.473
 450  2708.113
 451  2421.172
 452  2279.691
 453  2190.401
 454  1868.839
 455  1788.595
 456  2005.242
 457  1994.888
 458  1936.605
 459  2222.953
 460  2578.135
 461  1578.176
 462  1668.204
 463  1466.909
 464  1845.899
 465  1844.066
 466  1930.659
 467  2201.422
 468  1999.435
 469  2510.572
 470  2298.352
 471  2416.973
 472  1943.807
 473  2028.509
 474  1995.116
 475  1926.497
 476  2484.689
 477  2530.688
 478  2348.373
 479  2260.647
 480  2046.482
 481  2067.858
 482  2215.929
 483  2292.62
 484  1763.351
 485  1945.661
 486  1598.965
 487  1628.793
 488  1927.373
 489  2279.096
 490  1909.156
 491  1677.569
 492  2401.032
 493  2117.26
 494  1820.281
 495  1839.607
 496  2035.978
 497  1998.97
 498  1756.731
 499  1876.478
 500  2399.773
 501  2635.697
 502  1788.83
 503  1604.054
 504  1686.104
 505  2284.558
 506  2289.739
 507  1847.318
 508  2302.355
 509  2518.686
 510  2596.591
 511  2058.735
