# Input file       =  1180580777.110533_cleaned.dat
# Candidate        =  PSR_0332+5434
# Telescope        =  AR
# Epoch_topo       =  57908.129584612652
# Epoch_bary       =  N/A
# T_sample         =  0.002
# Data Folded      =  7143424
# Data Avg         =  0.133648568323232
# Data StdDev      =  4.68215762705501 
# Profile Bins     =  256
# Profile Avg      =  3729.27201408702 
# Profile StdDev   =  782.130571991802 
# Reduced chi-sqr  =  0.633
# Prob(Noise)      <  1   (~0.0 sigma)
# P_topo (ms)      =  714.513527562147  +/- 0.00174
# P'_topo (s/s)    =  -0                +/- 9.41e-10
# P''_topo (s/s^2) =  0                 +/- 4.27e-13
# P_bary (ms)      =  N/A
# P'_bary (s/s)    =  N/A
# P''_bary (s/s^2) =  N/A
# P_orb (s)        =  N/A
# asin(i)/c (s)    =  N/A
# eccentricity     =  N/A
# w (rad)          =  N/A
# T_peri           =  N/A
######################################################
   0  4203.48
   1  4508.988
   2  4183.83
   3  4450.773
   4  4792.062
   5  4524.201
   6  4561.998
   7  4077.654
   8  3666.724
   9  3460.234
  10  4076.67
  11  4295.687
  12  3440.437
  13  4493.907
  14  3464.625
  15  4205.582
  16  4013.16
  17  3874.365
  18  3440.688
  19  3277.867
  20  4150.923
  21  4029.842
  22  3935.999
  23  3150.549
  24  3349.343
  25  3756.496
  26  4060.195
  27  4008.119
  28  3363.85
  29  3723.824
  30  3332.909
  31  3784.781
  32  3798.382
  33  3055.423
  34  3383.704
  35  3150.667
  36  2998.935
  37  4028.409
  38  3997.125
  39  3558.725
  40  3063.529
  41  3731.92
  42  3543.862
  43  3468.211
  44  4288.408
  45  4082.396
  46  4147.108
  47  4691.558
  48  4280.708
  49  3586.164
  50  3678.557
  51  3612.972
  52  3925.945
  53  3913.634
  54  3864.783
  55  2882.908
  56  3406.625
  57  3281.375
  58  3087.673
  59  3754.907
  60  4187.948
  61  3754.797
  62  3758.569
  63  3726.128
  64  3863.605
  65  3203.088
  66  3126.335
  67  3386.859
  68  3959.504
  69  3702.246
  70  3712.009
  71  3553.573
  72  3339.472
  73  3265.693
  74  3401.935
  75  3854.546
  76  3602.503
  77  3628.971
  78  3316.957
  79  3504.506
  80  3810.625
  81  3059.312
  82  3043.33
  83  3490.242
  84  3063.698
  85  3336.158
  86  3894.685
  87  4472.593
  88  3565.547
  89  3603.419
  90  2845.569
  91  3724.014
  92  3998.022
  93  3192.638
  94  3305.13
  95  4163.883
  96  3644.159
  97  3337.834
  98  3518.724
  99  3334.2
 100  3559.825
 101  4440.959
 102  3257.628
 103  3012.187
 104  4137.42
 105  2929.357
 106  3928.886
 107  3368.519
 108  3910.548
 109  3879.688
 110  4278.221
 111  4154.355
 112  4044.428
 113  3612.876
 114  3359.321
 115  3523.431
 116  2967.078
 117  3136.403
 118  3767.369
 119  2914.532
 120  3514.66
 121  3368.064
 122  3778.403
 123  3192.3
 124  2660.159
 125  3287.663
 126  3116.7
 127  3263.481
 128  3946.63
 129  3502.351
 130  3535.857
 131  2860.024
 132  3811.384
 133  3223.642
 134  3047.213
 135  4260.318
 136  3865.702
 137  3941.048
 138  3499.252
 139  3626.744
 140  3397.791
 141  3090.352
 142  3279.794
 143  2931.116
 144  3313.124
 145  4407.435
 146  3381.648
 147  3307.724
 148  3393.308
 149  3649.19
 150  3326.072
 151  3642.525
 152  3475.584
 153  3852.784
 154  3786.682
 155  3622.527
 156  3704.209
 157  3590.897
 158  3820.216
 159  3942.208
 160  3865.067
 161  3885.934
 162  4791.695
 163  5522.58
 164  5866.09
 165  4836.733
 166  4389.479
 167  3926.894
 168  3268.263
 169  3063.167
 170  4537.601
 171  3226.171
 172  3832.579
 173  4250.641
 174  4067.535
 175  3356.657
 176  3754.176
 177  3441.771
 178  3808.207
 179  3441.383
 180  3657.261
 181  4183.438
 182  4677.259
 183  4337.261
 184  4886.151
 185  3535.526
 186  4464.042
 187  4609.525
 188  3781.054
 189  3004.78
 190  4251.401
 191  3447.416
 192  4897.76
 193  4245.459
 194  5095.736
 195  4227.52
 196  4086.314
 197  4194.578
 198  4065.614
 199  4201.253
 200  3568.369
 201  3125.116
 202  4085.05
 203  4010.631
 204  3448.817
 205  3060.17
 206  2995.224
 207  3694.608
 208  4478.643
 209  3792.268
 210  3674.768
 211  4116.607
 212  3547.246
 213  4252.881
 214  4435.55
 215  3491.412
 216  4915.892
 217  4400.013
 218  4554.891
 219  5066.212
 220  4644.778
 221  4109.307
 222  3206.835
 223  4618.362
 224  3970.577
 225  3889.6
 226  3570.852
 227  3293.491
 228  3788.672
 229  4660.955
 230  4419.686
 231  3414.605
 232  3378.211
 233  4113.674
 234  3225.83
 235  4165.44
 236  3645.302
 237  3451.532
 238  2783.632
 239  2541.284
 240  3273.033
 241  2335.208
 242  2622.111
 243  2530.189
 244  3752.84
 245  3917.085
 246  3381.702
 247  3166.841
 248  2864.757
 249  3016.029
 250  3723.876
 251  3644.472
 252  3976.901
 253  4038.953
 254  4010.216
 255  3273.238
