# Input file       =  1180322240.108938_cleaned.dat
# Candidate        =  PSR_0332+5434
# Telescope        =  AR
# Epoch_topo       =  57905.137258205301
# Epoch_bary       =  N/A
# T_sample         =  0.002
# Data Folded      =  7143424
# Data Avg         =  0.0318421812299051
# Data StdDev      =  0.999900452066597
# Profile Bins     =  512
# Profile Avg      =  444.221785588615 
# Profile StdDev   =  118.106826020886 
# Reduced chi-sqr  =  1.098
# Prob(Noise)      <  0.0618   (~1.5 sigma)
# P_topo (ms)      =  714.516437160133  +/- 0.000163
# P'_topo (s/s)    =  -0                +/- 8.85e-11
# P''_topo (s/s^2) =  0                 +/- 4.01e-14
# P_bary (ms)      =  N/A
# P'_bary (s/s)    =  N/A
# P''_bary (s/s^2) =  N/A
# P_orb (s)        =  N/A
# asin(i)/c (s)    =  N/A
# eccentricity     =  N/A
# w (rad)          =  N/A
# T_peri           =  N/A
######################################################
   0  409.4203
   1  481.9128
   2  511.499
   3  454.7822
   4  376.1718
   5  348.0461
   6  373.8929
   7  371.8971
   8  418.3053
   9  426.5671
  10  403.2794
  11  391.7662
  12  368.996
  13  373.3221
  14  315.1115
  15  373.1317
  16  448.0064
  17  469.67
  18  388.8437
  19  423.0823
  20  459.7161
  21  515.8698
  22  532.8516
  23  495.3999
  24  538.2539
  25  484.463
  26  497.9781
  27  519.2607
  28  435.2004
  29  480.4292
  30  479.6549
  31  491.0408
  32  515.4467
  33  488.5749
  34  413.0135
  35  478.3627
  36  521.416
  37  369.3973
  38  394.918
  39  466.3375
  40  452.7786
  41  471.4565
  42  458.0396
  43  298.0609
  44  317.0103
  45  400.8567
  46  361.7397
  47  371.4797
  48  418.2419
  49  388.6315
  50  372.2426
  51  298.0107
  52  271.6518
  53  341.5868
  54  440.8208
  55  353.9397
  56  478.5241
  57  507.3685
  58  385.5401
  59  308.4559
  60  376.6959
  61  281.5252
  62  234.929
  63  356.1892
  64  487.9095
  65  370.705
  66  449.0119
  67  321.189
  68  275.8874
  69  328.2685
  70  465.0124
  71  479.0035
  72  360.9633
  73  409.3441
  74  487.4197
  75  407.8967
  76  346.0533
  77  418.1364
  78  328.0098
  79  346.2526
  80  383.2169
  81  469.6284
  82  443.6866
  83  389.1698
  84  345.2564
  85  435.9869
  86  454.7712
  87  308.0976
  88  325.6622
  89  435.1639
  90  380.2749
  91  356.2268
  92  367.8132
  93  435.119
  94  473.953
  95  399.912
  96  410.7206
  97  404.0159
  98  407.8249
  99  409.2627
 100  395.1264
 101  338.6327
 102  369.6451
 103  391.0364
 104  428.7198
 105  479.5503
 106  512.1901
 107  487.4962
 108  471.0171
 109  407.1832
 110  474.689
 111  449.4363
 112  383.6939
 113  378.7441
 114  408.3344
 115  418.7314
 116  449.3798
 117  528.2875
 118  515.1181
 119  430.1935
 120  493.9378
 121  568.6769
 122  608.017
 123  549.285
 124  540.7742
 125  620.3984
 126  653.0439
 127  686.8731
 128  875.7633
 129  909.1431
 130  943.1871
 131  774.066
 132  688.7275
 133  580.8851
 134  519.5342
 135  455.4377
 136  406.0374
 137  450.4496
 138  498.2781
 139  520.1436
 140  451.8913
 141  428.4283
 142  544.2013
 143  539.0065
 144  573.8337
 145  523.5963
 146  573.2621
 147  542.5715
 148  456.1313
 149  381.1669
 150  367.5282
 151  399.7664
 152  435.8909
 153  459.4685
 154  351.7617
 155  389.9606
 156  442.596
 157  462.4397
 158  470.9521
 159  434.1284
 160  374.7608
 161  349.7251
 162  425.373
 163  413.5528
 164  471.1379
 165  474.7055
 166  292.601
 167  294.4816
 168  407.1365
 169  414.1665
 170  467.8189
 171  478.3438
 172  516.1945
 173  421.6868
 174  330.9502
 175  359.788
 176  324.4714
 177  322.131
 178  314.0802
 179  315.717
 180  341.4067
 181  358.9719
 182  405.1235
 183  487.4134
 184  490.3917
 185  454.8975
 186  304.2842
 187  335.1843
 188  458.2616
 189  548.3027
 190  479.0334
 191  443.2898
 192  420.4971
 193  338.1891
 194  392.2242
 195  399.2093
 196  364.5562
 197  463.8025
 198  485.1784
 199  434.7975
 200  512.5063
 201  536.7394
 202  451.7879
 203  477.9693
 204  578.2753
 205  523.1751
 206  478.9173
 207  439.3368
 208  398.3371
 209  362.9407
 210  470.8164
 211  508.8617
 212  341.5528
 213  413.5263
 214  464.2142
 215  317.9393
 216  324.1158
 217  421.2632
 218  463.4964
 219  422.8636
 220  313.1468
 221  407.5364
 222  452.6556
 223  531.9439
 224  466.0215
 225  441.6603
 226  397.6867
 227  333.9271
 228  419.7765
 229  408.1983
 230  408.5927
 231  500.102
 232  446.9015
 233  374.9415
 234  304.191
 235  288.6004
 236  326.0163
 237  411.0654
 238  461.122
 239  415.5131
 240  474.9674
 241  344.3689
 242  420.848
 243  546.8571
 244  417.4506
 245  411.7625
 246  404.9337
 247  434.6111
 248  374.883
 249  231.7299
 250  361.2443
 251  401.5398
 252  496.1144
 253  499.371
 254  476.2642
 255  445.0473
 256  414.0927
 257  431.5974
 258  508.7142
 259  485.9785
 260  439.654
 261  387.4061
 262  328.1273
 263  429.0661
 264  439.6525
 265  365.6692
 266  379.1814
 267  390.2705
 268  404.7542
 269  370.7925
 270  403.4716
 271  426.3071
 272  453.8777
 273  479.5927
 274  405.7693
 275  328.1717
 276  288.918
 277  362.7817
 278  385.9588
 279  447.9135
 280  359.5689
 281  299.6311
 282  430.168
 283  432.9203
 284  481.6647
 285  602.2824
 286  600.7226
 287  545.6716
 288  574.3777
 289  520.9949
 290  455.6804
 291  418.6835
 292  507.5904
 293  476.4634
 294  467.8612
 295  615.7273
 296  452.7365
 297  464.3561
 298  381.5423
 299  308.5475
 300  462.517
 301  383.9109
 302  413.948
 303  541.0424
 304  625.9734
 305  533.0872
 306  567.5103
 307  587.9471
 308  452.486
 309  309.3821
 310  439.6802
 311  507.0293
 312  471.9069
 313  527.0457
 314  525.4316
 315  380.0162
 316  361.1817
 317  441.7812
 318  486.3551
 319  506.6299
 320  583.9512
 321  488.0998
 322  398.5358
 323  361.9586
 324  472.4247
 325  510.2841
 326  402.8124
 327  508.6845
 328  582.6195
 329  638.2255
 330  728.9106
 331  627.5355
 332  557.7005
 333  591.9057
 334  547.7554
 335  462.6111
 336  561.9158
 337  596.5484
 338  615.5352
 339  469.1274
 340  351.1035
 341  349.9443
 342  374.9001
 343  510.8363
 344  517.297
 345  475.0121
 346  490.5731
 347  500.2253
 348  466.3035
 349  388.1268
 350  372.7491
 351  405.6007
 352  438.31
 353  435.1369
 354  460.0938
 355  442.4109
 356  520.4261
 357  493.5092
 358  416.0915
 359  511.1821
 360  463.5379
 361  480.1625
 362  542.8782
 363  524.5558
 364  555.2776
 365  584.6559
 366  455.687
 367  437.3818
 368  501.7991
 369  449.4711
 370  460.677
 371  628.6183
 372  650.8345
 373  470.5173
 374  282.4108
 375  348.408
 376  284.3689
 377  315.2131
 378  421.4455
 379  456.792
 380  354.8503
 381  284.0864
 382  435.54
 383  388.6567
 384  428.3345
 385  338.0217
 386  475.5776
 387  432.4772
 388  402.2919
 389  325.2128
 390  320.0899
 391  420.1323
 392  461.5131
 393  435.841
 394  473.057
 395  443.9319
 396  480.2194
 397  451.5602
 398  475.6081
 399  510.6405
 400  533.1044
 401  516.2048
 402  403.5199
 403  473.7182
 404  603.5959
 405  513.2603
 406  384.6395
 407  497.0792
 408  546.9021
 409  448.7778
 410  417.272
 411  344.0959
 412  418.6213
 413  442.4471
 414  416.866
 415  377.5775
 416  485.1865
 417  472.7704
 418  369.6661
 419  480.7202
 420  498.7151
 421  392.9459
 422  421.0428
 423  466.2812
 424  362.7294
 425  390.0002
 426  448.5073
 427  361.5429
 428  395.0522
 429  415.9987
 430  374.5081
 431  325.5094
 432  382.9417
 433  405.0252
 434  253.9859
 435  433.1186
 436  421.3183
 437  301.8586
 438  431.6805
 439  458.7888
 440  414.7044
 441  422.5898
 442  484.8217
 443  430.7815
 444  391.3861
 445  388.6252
 446  309.717
 447  325.5333
 448  357.7004
 449  397.6276
 450  366.1033
 451  412.9857
 452  398.624
 453  440.6896
 454  427.512
 455  435.4035
 456  435.246
 457  464.7751
 458  603.5031
 459  519.0184
 460  543.7751
 461  562.8018
 462  610.0839
 463  459.8916
 464  465.2506
 465  485.3493
 466  378.4107
 467  367.6446
 468  363.2697
 469  443.5624
 470  364.5842
 471  424.1031
 472  476.7916
 473  387.5738
 474  405.3855
 475  327.313
 476  368.1972
 477  451.8899
 478  409.1898
 479  480.9225
 480  421.0612
 481  458.5039
 482  497.94
 483  503.4917
 484  531.9547
 485  524.0417
 486  501.873
 487  443.0319
 488  491.1126
 489  467.28
 490  465.3352
 491  356.4183
 492  261.4734
 493  381.4428
 494  570.8026
 495  643.8964
 496  531.3376
 497  539.3145
 498  504.9433
 499  494.0591
 500  558.1552
 501  652.0366
 502  643.175
 503  502.1339
 504  598.8098
 505  573.1552
 506  459.6585
 507  389.8672
 508  400.3203
 509  644.5857
 510  559.1034
 511  430.8443
