# Input file       =  1180753068.109029_cleaned.dat
# Candidate        =  PSR_0332+5434
# Telescope        =  AR
# Epoch_topo       =  57910.123693391542
# Epoch_bary       =  N/A
# T_sample         =  0.002
# Data Folded      =  7143424
# Data Avg         =  0.164592731493064
# Data StdDev      =  4.83285800919957 
# Profile Bins     =  256
# Profile Avg      =  4592.74150085878 
# Profile StdDev   =  807.304302881388 
# Reduced chi-sqr  =  0.568
# Prob(Noise)      <  1   (~0.0 sigma)
# P_topo (ms)      =  714.511606298292  +/- 7.64e-05
# P'_topo (s/s)    =  -0                +/- 4.14e-11
# P''_topo (s/s^2) =  0                 +/- 1.88e-14
# P_bary (ms)      =  N/A
# P'_bary (s/s)    =  N/A
# P''_bary (s/s^2) =  N/A
# P_orb (s)        =  N/A
# asin(i)/c (s)    =  N/A
# eccentricity     =  N/A
# w (rad)          =  N/A
# T_peri           =  N/A
######################################################
   0  4952.504
   1  4381.661
   2  4137.414
   3  4502.901
   4  5222.223
   5  4450.062
   6  4078.376
   7  4557.003
   8  5422.649
   9  4884.944
  10  3971.979
  11  4447.602
  12  5599.802
  13  5479.372
  14  3774.106
  15  4869.125
  16  4438.08
  17  4444.433
  18  4285.54
  19  4333.742
  20  4122.953
  21  4405.024
  22  4083.99
  23  4411.111
  24  3899.369
  25  4547.258
  26  4537.983
  27  4333.057
  28  3828.27
  29  4593.313
  30  4050.234
  31  4523.62
  32  4539.472
  33  4795.522
  34  5030.736
  35  4931.57
  36  4734.561
  37  4985.083
  38  4582.741
  39  4929.772
  40  4785.899
  41  4660.905
  42  4483.079
  43  4638.931
  44  4844.388
  45  5349.261
  46  4411.94
  47  4302.264
  48  4104.894
  49  4577.226
  50  5102.932
  51  4417.342
  52  3692.558
  53  4240.198
  54  4945.382
  55  3902.934
  56  4305.006
  57  4617.44
  58  5474.175
  59  4420.028
  60  4479.81
  61  4004.383
  62  5119.113
  63  5076.992
  64  4215.78
  65  4080.512
  66  4520.981
  67  4991.162
  68  4095.236
  69  4309.607
  70  4845.448
  71  4852.087
  72  4649.321
  73  4565.644
  74  5250.379
  75  4689.591
  76  4769.624
  77  4696.945
  78  5058.481
  79  5019.32
  80  4949.883
  81  4660.703
  82  4881.383
  83  5004.933
  84  4259.334
  85  4357.561
  86  4728.958
  87  4837.759
  88  3159.426
  89  4173.747
  90  4245.129
  91  4587.524
  92  4006.198
  93  4139.389
  94  4288.014
  95  4817.792
  96  4789.714
  97  3812.944
  98  4259.957
  99  4799.232
 100  4818.562
 101  3728.921
 102  4831.904
 103  5212.206
 104  5318.087
 105  4921.564
 106  4273.722
 107  4762.144
 108  4926.672
 109  4849.539
 110  4207.33
 111  4732.558
 112  5219.218
 113  4851.375
 114  5335.628
 115  4264.063
 116  4862.04
 117  4700.179
 118  4397.367
 119  4828.255
 120  4500.866
 121  4732.098
 122  4961.399
 123  3973.319
 124  4321.832
 125  3356.506
 126  3672.723
 127  3968.568
 128  5127.738
 129  4347.771
 130  3609.446
 131  3632.95
 132  4972.387
 133  5374.54
 134  3717.064
 135  3996.912
 136  4087.967
 137  4929.456
 138  3797.489
 139  3971.103
 140  3948.718
 141  4957.101
 142  3953.127
 143  4115.923
 144  4966.584
 145  4684.342
 146  3981.216
 147  3755.167
 148  4235.765
 149  5090.434
 150  4307.125
 151  4349.291
 152  3936.855
 153  4582.271
 154  5035.676
 155  4659.188
 156  4617.396
 157  5017.622
 158  5078.518
 159  4481.484
 160  4524.064
 161  5847.479
 162  5316.679
 163  6076.039
 164  7154.509
 165  6947.944
 166  4426.349
 167  3908.534
 168  4584.999
 169  4644.421
 170  4419.295
 171  4186.309
 172  4106.956
 173  3843.279
 174  4284.588
 175  3891.642
 176  4321.809
 177  4681.355
 178  4065.59
 179  4875.203
 180  4023.199
 181  4822.625
 182  4935.891
 183  4849.889
 184  4114.864
 185  4607.675
 186  5518.65
 187  4585.188
 188  4265.565
 189  5291.512
 190  5404.387
 191  4665.584
 192  4659.286
 193  4652.657
 194  5097.102
 195  4069.719
 196  4636.462
 197  4728.471
 198  4724.063
 199  5525.854
 200  4777.514
 201  4078.386
 202  5048.282
 203  4966.423
 204  4184.767
 205  4861.153
 206  4510.503
 207  4365.893
 208  3568.778
 209  4117.619
 210  4613.104
 211  3998.002
 212  3431.879
 213  4331.111
 214  4395.298
 215  5087.441
 216  4025.608
 217  4617.771
 218  4718.082
 219  4324.754
 220  4233.815
 221  4677.132
 222  4575.608
 223  5735.888
 224  5269.533
 225  4641.062
 226  5021.563
 227  5216.956
 228  5117.02
 229  4443.044
 230  4568.452
 231  5015.376
 232  5786.637
 233  4720.143
 234  4783.789
 235  4927.616
 236  4989.101
 237  4604.505
 238  4751.538
 239  4909.744
 240  4791.098
 241  3894.79
 242  4461.145
 243  4550.001
 244  5211.742
 245  5107.079
 246  4979.451
 247  4427.714
 248  5539.741
 249  4443.981
 250  3983.973
 251  4410.314
 252  4789.851
 253  4319.52
 254  4096.52
 255  4165.124
