# Input file       =  1180939997.108558-PSRB0329-2ms-sampling-dd.dat
# Candidate        =  PSR_0332+5434
# Telescope        =  AR
# Epoch_topo       =  57912.287223478677
# Epoch_bary       =  N/A
# T_sample         =  0.002
# Data Folded      =  7340032
# Data Avg         =  7.04263568206652e-10
# Data StdDev      =  3.19074907849453 
# Profile Bins     =  512
# Profile Avg      =  0.074158616989119
# Profile StdDev   =  382.038075484519 
# Reduced chi-sqr  =  0.895
# Prob(Noise)      <  0.957   (~0.0 sigma)
# P_topo (ms)      =  714.509549034787  +/- 0.000427
# P'_topo (s/s)    =  -0                +/- 2.25e-10
# P''_topo (s/s^2) =  0                 +/- 9.94e-14
# P_bary (ms)      =  N/A
# P'_bary (s/s)    =  N/A
# P''_bary (s/s^2) =  N/A
# P_orb (s)        =  N/A
# asin(i)/c (s)    =  N/A
# eccentricity     =  N/A
# w (rad)          =  N/A
# T_peri           =  N/A
######################################################
   0  -176.8632
   1  -73.21548
   2  -84.72533
   3  49.20068
   4  48.49454
   5  81.14013
   6  98.69905
   7  -86.23495
   8  -5.048685
   9  -163.029
  10  5.684897
  11  328.474
  12  331.4119
  13  56.84995
  14  236.0045
  15  237.9227
  16  -2.814068
  17  -272.4814
  18  -169.361
  19  -201.8681
  20  -288.0787
  21  -83.11817
  22  57.42132
  23  125.0457
  24  368.5618
  25  63.42588
  26  -121.5088
  27  -416.4184
  28  -326.1675
  29  -133.2443
  30  -120.6037
  31  144.6907
  32  -178.1631
  33  -70.92085
  34  -61.50132
  35  -114.8259
  36  -222.6809
  37  -166.8983
  38  -4.668345
  39  120.3438
  40  72.73546
  41  86.71683
  42  43.62691
  43  92.55843
  44  141.651
  45  224.864
  46  431.808
  47  269.6022
  48  202.2733
  49  101.3814
  50  65.57255
  51  -211.1497
  52  -277.8258
  53  57.75167
  54  123.911
  55  39.02401
  56  97.2868
  57  119.3505
  58  178.4703
  59  14.39091
  60  -205.7251
  61  -159.824
  62  -180.7119
  63  -57.10552
  64  51.89137
  65  109.7784
  66  -92.66185
  67  -164.0731
  68  -192.9761
  69  -556.2326
  70  -528.1605
  71  -365.2496
  72  116.4369
  73  -51.44017
  74  -264.9299
  75  -267.8654
  76  -351.0593
  77  -261.505
  78  -49.15727
  79  226.3405
  80  306.3216
  81  235.7708
  82  -146.5313
  83  -103.9344
  84  -354.3067
  85  -218.5434
  86  -210.1441
  87  -8.033177
  88  -75.42529
  89  -294.5757
  90  -21.30976
  91  -128.1612
  92  -39.00357
  93  80.98923
  94  45.27935
  95  155.531
  96  93.93427
  97  -60.53941
  98  -60.81886
  99  -88.45923
 100  21.58539
 101  -76.48634
 102  -106.8739
 103  -136.4263
 104  -11.88087
 105  -163.7228
 106  -254.7996
 107  -319.5612
 108  -325.5402
 109  -391.7307
 110  -334.5678
 111  -338.7725
 112  -346.2511
 113  -315.3324
 114  -342.4255
 115  -376.8403
 116  -98.76253
 117  -83.56304
 118  -16.35795
 119  -164.5187
 120  -176.9615
 121  -75.10963
 122  -181.9431
 123  16.98976
 124  84.19143
 125  -434.0437
 126  -235.1563
 127  -114.2078
 128  -158.7735
 129  -172.0534
 130  -158.2455
 131  62.95958
 132  34.73073
 133  -228.0449
 134  -240.1503
 135  -361.8214
 136  -377.8536
 137  -140.5152
 138  -149.7436
 139  -2.254265
 140  -38.90844
 141  -51.59685
 142  -51.66618
 143  -471.2819
 144  -388.8341
 145  -202.5607
 146  -195.5091
 147  -343.564
 148  -531.127
 149  -575.2092
 150  -598.882
 151  -651.5106
 152  -500.6745
 153  -598.3948
 154  -652.9311
 155  -469.5125
 156  -295.1849
 157  -323.2051
 158  -638.3613
 159  -382.5199
 160  -155.92
 161  -433.8217
 162  -249.0855
 163  -303.2531
 164  -254.6328
 165  -630.8651
 166  -526.496
 167  -210.8441
 168  -298.7505
 169  -351.8865
 170  -831.4496
 171  -607.2488
 172  -345.4687
 173  -468.007
 174  -459.1728
 175  -230.1609
 176  -342.6622
 177  -490.0646
 178  -257.689
 179  116.4488
 180  -283.911
 181  -336.9083
 182  -234.7633
 183  -84.62053
 184  -75.91545
 185  -247.6967
 186  -522.5276
 187  -66.40701
 188  -95.53191
 189  -240.2288
 190  27.92203
 191  214.4918
 192  177.9592
 193  -155.1082
 194  -106.7298
 195  -143.5417
 196  -184.2577
 197  -91.69503
 198  -162.4933
 199  -155.9648
 200  -35.50075
 201  -71.01221
 202  -240.3475
 203  -227.7728
 204  80.09956
 205  422.0336
 206  241.2108
 207  114.2202
 208  254.2991
 209  513.5056
 210  255.8532
 211  465.6015
 212  401.2867
 213  446.4342
 214  333.2977
 215  371.4525
 216  132.2895
 217  242.8121
 218  169.6909
 219  -134.6785
 220  171.516
 221  303.0009
 222  275.8223
 223  202.7062
 224  60.75826
 225  151.3313
 226  -78.48335
 227  -179.1393
 228  -179.9918
 229  88.46437
 230  297.1194
 231  85.47681
 232  -26.99439
 233  19.44648
 234  77.77222
 235  55.7728
 236  338.1012
 237  422.4429
 238  113.7968
 239  8.748455
 240  -34.49732
 241  -26.05299
 242  6.578318
 243  -144.6693
 244  75.64626
 245  268.2214
 246  217.7641
 247  227.3618
 248  91.02596
 249  195.4005
 250  176.4918
 251  108.4813
 252  354.0642
 253  246.9851
 254  92.73645
 255  204.9817
 256  48.56546
 257  -31.06143
 258  -164.8118
 259  -103.2749
 260  262.5189
 261  126.0522
 262  -69.99508
 263  228.5469
 264  28.43931
 265  -1.024638
 266  -78.83402
 267  213.3846
 268  51.6864
 269  -119.7419
 270  243.0563
 271  362.5835
 272  306.3066
 273  351.9213
 274  414.3171
 275  109.3822
 276  165.2482
 277  395.6957
 278  279.5927
 279  -94.03619
 280  -21.88293
 281  186.1824
 282  98.92725
 283  151.239
 284  207.1052
 285  -54.81307
 286  -31.52844
 287  -28.88123
 288  78.38729
 289  -54.64175
 290  66.4026
 291  23.20964
 292  -42.48758
 293  -57.59434
 294  -69.34068
 295  40.51334
 296  26.51538
 297  91.41355
 298  45.70255
 299  -139.9099
 300  -351.9411
 301  -228.0957
 302  -334.5533
 303  -361.3295
 304  -97.1896
 305  -153.2437
 306  105.9813
 307  139.4348
 308  4.662253
 309  3.420264
 310  8.404612
 311  8.388556
 312  -170.9452
 313  -108.2253
 314  7.887457
 315  -1.969229
 316  -181.7323
 317  2.920444
 318  200.3255
 319  124.4264
 320  -248.7673
 321  -528.2268
 322  13.57128
 323  159.021
 324  50.00774
 325  -18.40541
 326  -225.6968
 327  -253.119
 328  -439.9892
 329  -425.8284
 330  -227.353
 331  -81.77634
 332  -53.79531
 333  -126.2505
 334  -247.0805
 335  -371.4063
 336  -172.9556
 337  -339.4255
 338  -208.3026
 339  -160.49
 340  -9.331649
 341  -59.17474
 342  -498.2625
 343  -290.4108
 344  3.064239
 345  41.55229
 346  264.1728
 347  352.3892
 348  27.24563
 349  77.11384
 350  373.0534
 351  492.569
 352  423.4965
 353  -56.40997
 354  -56.65288
 355  137.5725
 356  295.0073
 357  215.5177
 358  49.92025
 359  104.0005
 360  226.5775
 361  136.1588
 362  68.04777
 363  -77.54955
 364  47.15841
 365  -75.63527
 366  -202.4295
 367  -269.0959
 368  -121.7622
 369  -16.15184
 370  5.861475
 371  67.78297
 372  270.6064
 373  194.7496
 374  -20.79009
 375  -169.105
 376  -148.6199
 377  -61.64247
 378  -79.16576
 379  -39.56039
 380  241.2795
 381  -55.32848
 382  -127.6696
 383  -58.7179
 384  113.4297
 385  145.377
 386  88.18736
 387  133.8019
 388  181.8433
 389  41.25272
 390  -117.499
 391  -237.2755
 392  54.52225
 393  65.34628
 394  132.9631
 395  -111.5945
 396  -149.9126
 397  -60.31771
 398  0.9566754
 399  268.1616
 400  68.83759
 401  120.7654
 402  -10.62792
 403  -46.77627
 404  163.0713
 405  149.0446
 406  -64.91035
 407  24.85626
 408  82.03903
 409  -16.63966
 410  85.96304
 411  -65.3427
 412  -25.7281
 413  70.06226
 414  -75.13746
 415  345.4727
 416  187.2044
 417  200.9083
 418  8.601783
 419  -22.15106
 420  316.0034
 421  467.2995
 422  451.9324
 423  422.0446
 424  207.8619
 425  206.3774
 426  99.02672
 427  170.7779
 428  270.273
 429  110.7557
 430  121.6748
 431  101.4831
 432  186.5526
 433  -1.284473
 434  -98.13246
 435  138.5492
 436  177.0842
 437  72.26084
 438  -134.9086
 439  283.2464
 440  272.4708
 441  254.1259
 442  490.7561
 443  242.6581
 444  193.4661
 445  234.9654
 446  145.8567
 447  124.4878
 448  221.5981
 449  -54.87634
 450  19.54813
 451  -73.81398
 452  -252.9301
 453  -18.02159
 454  261.2666
 455  63.40361
 456  24.50696
 457  57.29393
 458  79.83296
 459  399.977
 460  863.6321
 461  1383.531
 462  1266.182
 463  1269.712
 464  1364.397
 465  881.0325
 466  377.0287
 467  431.0068
 468  375.0889
 469  -55.69695
 470  304.076
 471  133.0444
 472  34.51622
 473  0.2515434
 474  135.2348
 475  405.6583
 476  184.6332
 477  107.2716
 478  -28.05211
 479  162.3837
 480  452.6325
 481  77.20315
 482  -145.9367
 483  -59.96698
 484  108.2978
 485  39.55959
 486  -35.78642
 487  114.6842
 488  161.8616
 489  214.2605
 490  67.83976
 491  -111.1563
 492  -83.6032
 493  -18.9114
 494  -137.7494
 495  -163.4881
 496  67.47641
 497  464.3066
 498  382.6552
 499  63.67681
 500  1.737349
 501  140.4435
 502  197.4661
 503  21.33983
 504  84.10635
 505  195.9253
 506  209.1868
 507  44.03613
 508  193.1748
 509  336.5035
 510  236.0422
 511  271.7123
