# Input file       =  1180954929.103668_cleaned.dat
# Candidate        =  PSR_0332+5434
# Telescope        =  AR
# Epoch_topo       =  57912.460047496155
# Epoch_bary       =  N/A
# T_sample         =  0.002
# Data Folded      =  7340032
# Data Avg         =  0.0289668082117958
# Data StdDev      =  1.00010698300856 
# Profile Bins     =  512
# Profile Avg      =  415.277841292907 
# Profile StdDev   =  119.745845777222 
# Reduced chi-sqr  =  1.546
# Prob(Noise)      <  2.64e-14   (~7.5 sigma)
# P_topo (ms)      =  714.509719118825  +/- 0.000159
# P'_topo (s/s)    =  -0                +/- 8.37e-11
# P''_topo (s/s^2) =  0                 +/- 3.69e-14
# P_bary (ms)      =  N/A
# P'_bary (s/s)    =  N/A
# P''_bary (s/s^2) =  N/A
# P_orb (s)        =  N/A
# asin(i)/c (s)    =  N/A
# eccentricity     =  N/A
# w (rad)          =  N/A
# T_peri           =  N/A
######################################################
   0  429.3748
   1  398.3555
   2  285.6103
   3  337.6696
   4  333.0854
   5  327.9673
   6  383.1559
   7  436.351
   8  360.6069
   9  281.4629
  10  381.3528
  11  366.8233
  12  292.3394
  13  352.0964
  14  241.6611
  15  215.6089
  16  273.0927
  17  332.0893
  18  266.5027
  19  227.4613
  20  227.8347
  21  167.1246
  22  291.9827
  23  296.2397
  24  197.1757
  25  311.5617
  26  420.7891
  27  295.0018
  28  387.5712
  29  367.6435
  30  480.4137
  31  465.545
  32  452.7951
  33  538.6039
  34  545.9167
  35  460.6676
  36  483.3365
  37  558.1682
  38  502.4338
  39  592.6446
  40  570.7461
  41  558.1696
  42  534.1718
  43  542.6329
  44  492.213
  45  603.6648
  46  555.0666
  47  495.8612
  48  468.0155
  49  466.6675
  50  400.0359
  51  494.8307
  52  432.2762
  53  284.9634
  54  255.7639
  55  193.5721
  56  242.5541
  57  412.4437
  58  349.9301
  59  359.7837
  60  381.2291
  61  479.9015
  62  366.177
  63  249.1979
  64  383.1138
  65  384.6596
  66  391.6649
  67  377.1678
  68  446.7735
  69  363.6223
  70  375.8039
  71  475.3378
  72  464.8734
  73  392.7468
  74  430.4501
  75  510.443
  76  397.2931
  77  404.628
  78  420.4323
  79  445.5677
  80  469.1255
  81  451.5042
  82  385.1366
  83  468.0496
  84  445.993
  85  471.9841
  86  436.2314
  87  452.0687
  88  485.8078
  89  351.9917
  90  384.622
  91  491.0617
  92  439.6923
  93  429.3031
  94  442.695
  95  477.5719
  96  404.0162
  97  476.3964
  98  402.1033
  99  481.8051
 100  418.7254
 101  398.4688
 102  368.5265
 103  443.3252
 104  425.0381
 105  505.3883
 106  548.3694
 107  571.5715
 108  458.8311
 109  415.6542
 110  441.0524
 111  366.6718
 112  459.3508
 113  458.2848
 114  418.5652
 115  459.1561
 116  421.5081
 117  352.3151
 118  417.2739
 119  532.8169
 120  554.4579
 121  548.6014
 122  451.6903
 123  390.5787
 124  383.9394
 125  477.7546
 126  548.5697
 127  552.3926
 128  449.8687
 129  465.1589
 130  570.1855
 131  499.1174
 132  537.6461
 133  512.8901
 134  570.9621
 135  471.0845
 136  387.8893
 137  375.0977
 138  363.7102
 139  385.5778
 140  415.0234
 141  366.5684
 142  294.99
 143  297.5439
 144  427.0037
 145  377.0058
 146  355.707
 147  329.2527
 148  351.8557
 149  395.1857
 150  334.5358
 151  505.4007
 152  484.895
 153  423.4016
 154  451.2008
 155  530.6414
 156  647.8764
 157  633.7694
 158  500.1119
 159  498.8612
 160  517.9418
 161  473.2811
 162  547.8563
 163  658.2423
 164  619.9906
 165  585.3754
 166  549.4731
 167  478.743
 168  489.1511
 169  551.0175
 170  493.1993
 171  552.6021
 172  653.3333
 173  683.0406
 174  473.5746
 175  400.5335
 176  372.9803
 177  305.662
 178  361.8843
 179  428.7532
 180  422.183
 181  324.4782
 182  342.0291
 183  295.2068
 184  381.5629
 185  384.9708
 186  332.6512
 187  316.8287
 188  312.0858
 189  202.6221
 190  252.72
 191  297.4688
 192  419.3393
 193  347.7898
 194  302.5917
 195  380.0866
 196  355.6604
 197  414.7383
 198  444.586
 199  430.3653
 200  410.0765
 201  528.3484
 202  499.4728
 203  511.1286
 204  522.4794
 205  539.6419
 206  447.6349
 207  425.4735
 208  484.9449
 209  454.8994
 210  399.1746
 211  423.2908
 212  454.2957
 213  439.6082
 214  577.0887
 215  551.0971
 216  469.2662
 217  428.4629
 218  479.2417
 219  445.3336
 220  437.5603
 221  446.3253
 222  477.0584
 223  501.5408
 224  451.3855
 225  316.5733
 226  406.7173
 227  396.0349
 228  420.84
 229  364.66
 230  257.0119
 231  320.982
 232  318.9988
 233  373.4818
 234  420.6018
 235  456.6416
 236  424.6815
 237  362.5074
 238  405.8364
 239  293.9397
 240  305.6456
 241  323.8495
 242  458.3069
 243  408.3005
 244  348.7149
 245  450.4003
 246  417.8763
 247  461.4734
 248  478.1667
 249  385.5183
 250  372.9407
 251  338.2289
 252  392.7986
 253  418.139
 254  471.8838
 255  412.967
 256  374.1567
 257  316.3925
 258  336.195
 259  484.5855
 260  487.9004
 261  354.9438
 262  271.0624
 263  301.9528
 264  372.1411
 265  393.7769
 266  281.3138
 267  189.2444
 268  189.2809
 269  277.3245
 270  288.1546
 271  165.9833
 272  144.5064
 273  240.6484
 274  316.3499
 275  312.4966
 276  334.7896
 277  254.3275
 278  338.3166
 279  219.8233
 280  160.5441
 281  239.7871
 282  455.8087
 283  458.5452
 284  322.5409
 285  323.4388
 286  446.8401
 287  536.6472
 288  598.4561
 289  442.3573
 290  477.2528
 291  351.867
 292  441.0395
 293  478.1784
 294  523.3459
 295  481.088
 296  556.7592
 297  482.5117
 298  480.8519
 299  548.7672
 300  516.3155
 301  528.3767
 302  569.2593
 303  528.5363
 304  445.2507
 305  386.36
 306  353.6397
 307  381.3145
 308  374.029
 309  416.5233
 310  491.3311
 311  435.3719
 312  376.8971
 313  371.0787
 314  274.3353
 315  400.5806
 316  442.7398
 317  411.4637
 318  503.3227
 319  434.8127
 320  456.0029
 321  351.4396
 322  378.3729
 323  376.3904
 324  400.0201
 325  434.4689
 326  492.986
 327  446.603
 328  467.5621
 329  453.9914
 330  445.925
 331  536.9323
 332  437.816
 333  542.7632
 334  484.4572
 335  602.1475
 336  652.3391
 337  847.1571
 338  1033.464
 339  1040.973
 340  914.7736
 341  777.3101
 342  633.2252
 343  553.0846
 344  495.6428
 345  509.297
 346  433.756
 347  555.5552
 348  481.6949
 349  390.275
 350  340.8843
 351  354.2127
 352  350.4156
 353  455.5999
 354  449.3129
 355  394.2388
 356  347.4255
 357  349.0219
 358  326.2015
 359  340.0858
 360  347.616
 361  408.3694
 362  448.4126
 363  328.9422
 364  335.4363
 365  242.8507
 366  337.5693
 367  412.3298
 368  517.6861
 369  447.3225
 370  405.4517
 371  429.7216
 372  468.9045
 373  364.4284
 374  375.1907
 375  564.1893
 376  526.3189
 377  368.0101
 378  333.4545
 379  377.984
 380  468.1212
 381  525.1741
 382  578.2418
 383  417.0404
 384  505.0424
 385  307.3326
 386  286.5664
 387  429.8952
 388  342.4088
 389  423.3963
 390  394.3016
 391  339.4047
 392  351.0681
 393  365.356
 394  461.7804
 395  424.5858
 396  335.3344
 397  272.3053
 398  309.1228
 399  406.6043
 400  387.92
 401  395.6077
 402  438.1596
 403  351.7481
 404  266.1208
 405  355.8167
 406  337.477
 407  452.4104
 408  425.6625
 409  533.8058
 410  446.1099
 411  473.4945
 412  467.9876
 413  349.8278
 414  341.0322
 415  437.725
 416  458.0703
 417  396.8005
 418  215.6766
 419  244.5963
 420  431.3563
 421  305.7522
 422  371.8453
 423  489.3546
 424  476.8383
 425  440.4857
 426  458.1677
 427  516.0612
 428  532.2348
 429  390.3022
 430  384.1608
 431  308.944
 432  292.0489
 433  254.3827
 434  377.0148
 435  484.1965
 436  350.5594
 437  362.1975
 438  325.1466
 439  378.9589
 440  334.9468
 441  309.7422
 442  253.0611
 443  311.6151
 444  273.4362
 445  189.5787
 446  230.934
 447  288.0425
 448  362.2678
 449  401.9148
 450  308.799
 451  291.3345
 452  326.5553
 453  386.4864
 454  458.6313
 455  448.5784
 456  292.5727
 457  164.8226
 458  316.1132
 459  401.8652
 460  486.8185
 461  466.7654
 462  477.5146
 463  417.3619
 464  422.6188
 465  426.11
 466  540.2867
 467  562.1278
 468  436.6975
 469  461.3044
 470  415.6405
 471  511.3106
 472  523.8652
 473  457.3978
 474  445.8453
 475  563.4567
 476  657.9536
 477  496.5615
 478  314.5783
 479  494.8723
 480  317.7662
 481  130.5876
 482  316.6946
 483  323.9673
 484  423.7342
 485  388.1144
 486  239.6537
 487  205.499
 488  300.5425
 489  389.5281
 490  392.6133
 491  364.9039
 492  352.3415
 493  265.3216
 494  369.9629
 495  451.0375
 496  358.6288
 497  464.7175
 498  369.158
 499  309.9177
 500  348.4852
 501  367.1429
 502  372.5021
 503  554.145
 504  538.7397
 505  356.0698
 506  331.4307
 507  368.6654
 508  607.4755
 509  411.4546
 510  390.0087
 511  381.3051
