# Input file       =  1180782598.102683_cleaned.dat
# Candidate        =  PSR_0332+5434
# Telescope        =  AR
# Epoch_topo       =  57910.465475725498
# Epoch_bary       =  N/A
# T_sample         =  0.002
# Data Folded      =  7340032
# Data Avg         =  0.0315080292165321
# Data StdDev      =  1.00007540917911 
# Profile Bins     =  512
# Profile Avg      =  451.760816288758 
# Profile StdDev   =  119.742065346752 
# Reduced chi-sqr  =  1.394
# Prob(Noise)      <  8.18e-09   (~5.6 sigma)
# P_topo (ms)      =  714.511624490185  +/- 0.000212
# P'_topo (s/s)    =  -0                +/- 1.12e-10
# P''_topo (s/s^2) =  0                 +/- 4.94e-14
# P_bary (ms)      =  N/A
# P'_bary (s/s)    =  N/A
# P''_bary (s/s^2) =  N/A
# P_orb (s)        =  N/A
# asin(i)/c (s)    =  N/A
# eccentricity     =  N/A
# w (rad)          =  N/A
# T_peri           =  N/A
######################################################
   0  429.2456
   1  414.6664
   2  536.8926
   3  502.4878
   4  502.6158
   5  537.0265
   6  497.3147
   7  443.9919
   8  344.285
   9  467.8751
  10  476.8389
  11  397.7702
  12  490.6003
  13  581.6849
  14  561.2344
  15  523.5146
  16  554.4783
  17  462.4834
  18  435.52
  19  461.0784
  20  431.9774
  21  390.011
  22  380.4716
  23  494.4137
  24  658.4913
  25  715.8297
  26  759.3887
  27  732.674
  28  484.7868
  29  543.9319
  30  544.3148
  31  631.1793
  32  605.3941
  33  509.9656
  34  586.3599
  35  385.1236
  36  518.3215
  37  601.1136
  38  598.88
  39  577.3724
  40  573.5548
  41  549.3254
  42  530.4603
  43  537.2883
  44  423.4494
  45  420.167
  46  529.5862
  47  489.613
  48  524.0539
  49  454.0457
  50  412.624
  51  507.3261
  52  542.7611
  53  497.4773
  54  592.3568
  55  776.427
  56  868.8133
  57  988.4949
  58  1149.507
  59  1047.202
  60  783.5504
  61  807.5876
  62  741.8812
  63  541.7974
  64  399.7889
  65  473.1682
  66  488.7668
  67  494.1885
  68  551.534
  69  522.4938
  70  417.5688
  71  310.2401
  72  341.0807
  73  418.4853
  74  549.3392
  75  427.2583
  76  465.8087
  77  368.0186
  78  281.0036
  79  333.0471
  80  405.2929
  81  475.0975
  82  453.8961
  83  388.0898
  84  467.6299
  85  367.2625
  86  536.2822
  87  527.1365
  88  494.3373
  89  372.0392
  90  401.6147
  91  484.4295
  92  392.5414
  93  526.4005
  94  513.498
  95  531.2925
  96  319.7276
  97  309.7683
  98  269.8293
  99  329.8353
 100  404.6732
 101  395.5034
 102  504.0399
 103  599.2121
 104  383.2993
 105  412.3897
 106  440.5706
 107  425.1659
 108  403.2956
 109  433.8217
 110  533.9579
 111  551.2505
 112  553.7469
 113  565.7437
 114  560.8973
 115  500.9129
 116  402.8422
 117  479.4094
 118  525.758
 119  390.842
 120  269.164
 121  357.8414
 122  469.7056
 123  353.1807
 124  403.7869
 125  435.5344
 126  455.767
 127  599.7295
 128  423.5978
 129  422.5445
 130  489.242
 131  366.9536
 132  434.1024
 133  409.9669
 134  418.9824
 135  392.3201
 136  560.3267
 137  559.8251
 138  554.3303
 139  558.7153
 140  540.3682
 141  441.3296
 142  399.6782
 143  446.4702
 144  423.2966
 145  411.868
 146  513.6047
 147  555.8707
 148  572.3253
 149  439.4733
 150  448.0842
 151  431.07
 152  456.1064
 153  437.5434
 154  387.2458
 155  454.2911
 156  395.7664
 157  291.5336
 158  359.1837
 159  373.5999
 160  383.6629
 161  457.5924
 162  535.7709
 163  457.4714
 164  465.8153
 165  466.9628
 166  432.3233
 167  412.3838
 168  235.1697
 169  272.3082
 170  338.6051
 171  470.6334
 172  396.5338
 173  491.9819
 174  416.4394
 175  553.5947
 176  533.6479
 177  435.1915
 178  435.9758
 179  556.6918
 180  593.0836
 181  523.5778
 182  442.3603
 183  414.9251
 184  528.761
 185  469.7612
 186  387.3608
 187  387.3577
 188  435.5511
 189  493.2639
 190  465.718
 191  456.8284
 192  385.2918
 193  506.0622
 194  562.022
 195  541.6996
 196  460.3506
 197  418.3203
 198  435.1835
 199  505.4623
 200  541.0991
 201  587.1864
 202  641.7381
 203  574.9305
 204  643.6815
 205  714.7195
 206  575.7486
 207  527.0195
 208  557.4622
 209  537.218
 210  537.0334
 211  553.0715
 212  582.8941
 213  540.2741
 214  460.3686
 215  419.1074
 216  499.047
 217  447.0009
 218  470.3273
 219  440.2354
 220  335.335
 221  471.6172
 222  537.6154
 223  498.6639
 224  451.552
 225  490.1645
 226  392.8099
 227  487.9464
 228  462.8667
 229  503.8768
 230  514.8251
 231  484.1927
 232  432.7622
 233  534.7183
 234  517.0934
 235  504.9189
 236  340.2449
 237  367.1517
 238  434.7405
 239  408.8819
 240  451.0933
 241  446.2053
 242  584.1921
 243  505.8692
 244  453.1017
 245  585.4223
 246  434.5889
 247  267.0915
 248  258.2919
 249  428.9159
 250  487.1848
 251  498.0701
 252  447.8502
 253  496.7942
 254  437.7693
 255  526.9318
 256  414.944
 257  438.1882
 258  434.2522
 259  422.5796
 260  518.0716
 261  496.1108
 262  393.8937
 263  416.9576
 264  399.6504
 265  423.2236
 266  435.5653
 267  550.675
 268  555.5734
 269  538.6771
 270  459.7241
 271  463.4561
 272  410.469
 273  399.3432
 274  485.7226
 275  414.8134
 276  303.6686
 277  339.2678
 278  450.6599
 279  381.5439
 280  447.4552
 281  459.646
 282  459.7163
 283  337.4223
 284  457.5362
 285  508.8184
 286  530.1975
 287  463.5394
 288  413.3772
 289  326.8851
 290  461.9058
 291  389.4572
 292  269.7127
 293  357.7524
 294  428.3613
 295  319.7786
 296  334.6494
 297  377.036
 298  456.4988
 299  609.9841
 300  476.405
 301  376.2093
 302  385.0474
 303  440.0965
 304  452.8183
 305  355.2151
 306  367.9297
 307  373.8232
 308  344.2923
 309  412.0343
 310  420.7819
 311  415.9266
 312  398.4046
 313  450.4804
 314  440.1025
 315  463.3147
 316  478.8824
 317  558.5957
 318  595.8558
 319  420.4049
 320  424.6472
 321  525.3596
 322  446.7053
 323  447.2402
 324  500.7206
 325  516.415
 326  481.6114
 327  386.2997
 328  332.9007
 329  346.8135
 330  373.4193
 331  383.1749
 332  415.3871
 333  398.3463
 334  419.8789
 335  362.2021
 336  306.4706
 337  368.3919
 338  410.3041
 339  450.6024
 340  358.0744
 341  307.7807
 342  235.2222
 343  354.6819
 344  361.3924
 345  341.2608
 346  416.3187
 347  388.6512
 348  373.6501
 349  307.1397
 350  411.7266
 351  420.7313
 352  482.9055
 353  312.1102
 354  289.6323
 355  399.4319
 356  388.1178
 357  416.687
 358  524.0186
 359  594.3636
 360  436.0718
 361  366.1649
 362  514.0666
 363  502.7571
 364  409.9412
 365  510.5868
 366  542.6966
 367  392.3871
 368  530.9429
 369  389.3275
 370  429.093
 371  337.9206
 372  285.4384
 373  491.7897
 374  498.9264
 375  409.4381
 376  323.0378
 377  316.5697
 378  264.0746
 379  280.0346
 380  411.4816
 381  423.9984
 382  370.0345
 383  391.361
 384  380.7672
 385  464.4494
 386  369.4062
 387  486.4958
 388  469.9276
 389  392.6149
 390  370.966
 391  292.4475
 392  254.5726
 393  337.4844
 394  410.6323
 395  398.7987
 396  427.2977
 397  398.0569
 398  284.9038
 399  273.0275
 400  422.4084
 401  573.6107
 402  437.3131
 403  486.3616
 404  448.3181
 405  375.1528
 406  358.0275
 407  451.8119
 408  479.3969
 409  381.6874
 410  359.6902
 411  439.966
 412  433.5566
 413  355.2321
 414  348.7999
 415  429.2919
 416  426.0782
 417  382.2208
 418  332.3054
 419  470.3667
 420  578.417
 421  409.5998
 422  505.2108
 423  483.7223
 424  340.974
 425  319.9713
 426  329.2927
 427  455.4644
 428  444.5853
 429  424.5003
 430  381.8664
 431  475.7338
 432  458.6189
 433  451.2114
 434  412.6967
 435  418.356
 436  346.2322
 437  318.9748
 438  428.5451
 439  380.1053
 440  404.4578
 441  397.3828
 442  453.5733
 443  430.0296
 444  322.1031
 445  400.0778
 446  425.0196
 447  399.0772
 448  365.2576
 449  489.142
 450  549.4882
 451  527.336
 452  521.5771
 453  529.9664
 454  455.5508
 455  380.4312
 456  368.0568
 457  398.4428
 458  439.7621
 459  532.699
 460  633.3437
 461  567.8655
 462  463.8246
 463  502.3361
 464  477.3127
 465  515.5707
 466  405.9494
 467  263.0303
 468  378.73
 469  506.8828
 470  539.0471
 471  521.0836
 472  500.2213
 473  440.0153
 474  432.6524
 475  457.8952
 476  533.2122
 477  449.0741
 478  363.6875
 479  344.2703
 480  510.736
 481  520.3231
 482  490.3643
 483  470.3289
 484  495.0039
 485  516.6052
 486  407.1138
 487  286.5554
 488  292.3435
 489  512.347
 490  572.2979
 491  481.373
 492  343.999
 493  374.1719
 494  421.8206
 495  413.9005
 496  407.397
 497  395.4101
 498  401.6789
 499  234.5117
 500  245.4375
 501  345.5888
 502  287.2871
 503  351.6803
 504  395.8258
 505  538.3585
 506  423.468
 507  248.344
 508  327.3342
 509  337.3488
 510  431.0853
 511  432.6121
