# Input file       =  1180509204.106537_cleaned.dat
# Candidate        =  PSR_0332+5434
# Telescope        =  AR
# Epoch_topo       =  57907.301193362699
# Epoch_bary       =  N/A
# T_sample         =  0.002
# Data Folded      =  7340032
# Data Avg         =  0.034968895087499
# Data StdDev      =  1.00001447868693 
# Profile Bins     =  512
# Profile Avg      =  501.232114783269 
# Profile StdDev   =  119.734769953915 
# Reduced chi-sqr  =  1.144
# Prob(Noise)      <  0.0131   (~2.2 sigma)
# P_topo (ms)      =  714.514342799241  +/- 0.00071
# P'_topo (s/s)    =  -0                +/- 3.75e-10
# P''_topo (s/s^2) =  0                 +/- 1.65e-13
# P_bary (ms)      =  N/A
# P'_bary (s/s)    =  N/A
# P''_bary (s/s^2) =  N/A
# P_orb (s)        =  N/A
# asin(i)/c (s)    =  N/A
# eccentricity     =  N/A
# w (rad)          =  N/A
# T_peri           =  N/A
######################################################
   0  348.317
   1  488.8313
   2  506.143
   3  464.8866
   4  441.514
   5  391.1052
   6  473.3706
   7  452.1399
   8  515.4584
   9  406.8053
  10  451.2568
  11  429.9838
  12  515.8981
  13  495.9212
  14  460.8447
  15  481.0018
  16  502.7836
  17  432.5595
  18  456.8316
  19  442.2086
  20  488.0728
  21  440.9552
  22  471.0726
  23  467.9601
  24  425.5528
  25  462.7091
  26  572.2434
  27  500.5133
  28  438.9003
  29  426.7304
  30  459.6257
  31  451.5355
  32  450.5632
  33  382.9156
  34  403.4487
  35  439.3899
  36  517.223
  37  611.8123
  38  538.0701
  39  503.4946
  40  451.9938
  41  526.4381
  42  605.6492
  43  385.4264
  44  395.0847
  45  412.8055
  46  438.053
  47  458.7652
  48  487.5457
  49  458.6087
  50  358.8159
  51  354.9189
  52  398.4221
  53  419.2598
  54  489.558
  55  508.6464
  56  466.5038
  57  423.2529
  58  419.4898
  59  423.6118
  60  419.3911
  61  404.0265
  62  417.8752
  63  434.6048
  64  356.8118
  65  465.5619
  66  405.9575
  67  389.4721
  68  400.4388
  69  342.1222
  70  417.5067
  71  369.8004
  72  336.783
  73  350.4652
  74  404.99
  75  465.6168
  76  440.1548
  77  382.3983
  78  414.5273
  79  404.057
  80  391.901
  81  536.7794
  82  455.3979
  83  470.2306
  84  495.2686
  85  480.3941
  86  420.1404
  87  460.3818
  88  483.3539
  89  509.8195
  90  602.5284
  91  463.5919
  92  357.0407
  93  421.4556
  94  413.2701
  95  455.441
  96  406.4655
  97  467.6645
  98  445.1521
  99  336.6252
 100  458.3107
 101  502.1203
 102  521.8629
 103  434.481
 104  305.1358
 105  369.0999
 106  427.8102
 107  359.2436
 108  442.554
 109  396.8575
 110  474.3502
 111  451.6987
 112  429.968
 113  446.0488
 114  422.4082
 115  332.0112
 116  453.25
 117  395.7648
 118  392.7314
 119  432.6749
 120  447.4189
 121  361.3902
 122  420.0561
 123  435.9967
 124  444.0035
 125  571.0308
 126  559.84
 127  449.4583
 128  433.6603
 129  392.483
 130  377.8051
 131  367.6356
 132  387.223
 133  368.618
 134  367.5532
 135  421.7411
 136  374.7103
 137  482.9095
 138  562.1395
 139  496.3079
 140  394.4356
 141  387.3781
 142  596.6467
 143  592.0632
 144  517.7352
 145  505.2986
 146  448.7275
 147  518.1289
 148  478.3157
 149  371.1137
 150  418.8459
 151  577.3333
 152  594.0993
 153  597.592
 154  586.7356
 155  539.637
 156  496.0483
 157  499.571
 158  497.494
 159  482.8776
 160  546.196
 161  546.6919
 162  582.0255
 163  555.7715
 164  647.4865
 165  604.6187
 166  598.4739
 167  570.837
 168  534.3901
 169  561.6369
 170  481.7113
 171  547.0143
 172  622.1088
 173  528.6259
 174  487.6585
 175  396.6147
 176  446.1072
 177  436.4388
 178  491.9955
 179  437.5558
 180  438.0935
 181  454.7708
 182  453.5381
 183  451.6096
 184  457.7107
 185  517.7132
 186  447.0907
 187  394.4613
 188  348.9871
 189  377.3293
 190  532.5782
 191  539.5132
 192  489.1666
 193  411.5541
 194  477.9637
 195  491.7955
 196  553.5751
 197  633.2554
 198  526.01
 199  421.1641
 200  517.3184
 201  502.2735
 202  444.3293
 203  561.3629
 204  561.5396
 205  517.8181
 206  495.8397
 207  391.0579
 208  344.4518
 209  576.7385
 210  569.3655
 211  615.0988
 212  593.5352
 213  507.5701
 214  402.5688
 215  397.4262
 216  512.0369
 217  595.7684
 218  556.4282
 219  471.1041
 220  377.8732
 221  480.5868
 222  534.5455
 223  486.0481
 224  427.1187
 225  485.0548
 226  566.4451
 227  555.0809
 228  506.1223
 229  461.8184
 230  482.3413
 231  648.5266
 232  634.8965
 233  544.1876
 234  606.5515
 235  565.012
 236  375.9836
 237  439.0334
 238  622.4351
 239  566.4206
 240  535.7338
 241  547.5381
 242  539.928
 243  473.5964
 244  405.3228
 245  456.8521
 246  571.4971
 247  599.7545
 248  506.7788
 249  539.9202
 250  442.9414
 251  636.2178
 252  616.1232
 253  503.2006
 254  367.0533
 255  417.2336
 256  437.4036
 257  556.3784
 258  587.9035
 259  492.3373
 260  462.7908
 261  486.7144
 262  469.1572
 263  430.2171
 264  440.5871
 265  547.9215
 266  590.837
 267  578.7448
 268  457.619
 269  411.1387
 270  460.3947
 271  478.4982
 272  409.3039
 273  478.6023
 274  515.8752
 275  505.703
 276  514.138
 277  431.3753
 278  417.0165
 279  419.3378
 280  378.8737
 281  368.5843
 282  408.259
 283  479.0182
 284  447.5598
 285  592.1486
 286  603.5979
 287  492.44
 288  492.511
 289  476.5241
 290  498.4637
 291  584.7515
 292  570.5248
 293  660.0776
 294  506.864
 295  599.8643
 296  694.3402
 297  620.5807
 298  545.7635
 299  541.0552
 300  557.972
 301  578.2106
 302  574.7229
 303  550.5158
 304  498.6758
 305  517.6548
 306  458.7781
 307  532.2382
 308  572.0508
 309  401.5469
 310  503.0111
 311  563.8051
 312  520.9001
 313  490.5842
 314  492.2731
 315  503.9958
 316  517.8839
 317  509.1559
 318  535.2179
 319  466.4753
 320  422.1655
 321  567.5715
 322  631.7579
 323  576.527
 324  590.9779
 325  564.8214
 326  556.0089
 327  595.9023
 328  551.8145
 329  418.5734
 330  457.155
 331  478.0559
 332  491.9568
 333  490.3529
 334  619.6484
 335  524.465
 336  536.5133
 337  594.1298
 338  685.6147
 339  644.6616
 340  524.4227
 341  533.6674
 342  629.4065
 343  530.7273
 344  473.4797
 345  478.1681
 346  394.0395
 347  570.6935
 348  541.7173
 349  572.3898
 350  623.1457
 351  554.0766
 352  475.5632
 353  434.6311
 354  484.2498
 355  562.8769
 356  504.5049
 357  475.3456
 358  452.8994
 359  368.0207
 360  473.9259
 361  521.0051
 362  602.3437
 363  587.1719
 364  605.6355
 365  663.7
 366  446.4015
 367  382.9078
 368  550.5143
 369  453.0853
 370  458.0245
 371  399.1154
 372  495.8069
 373  610.3325
 374  547.1997
 375  411.6886
 376  501.8259
 377  630.9111
 378  673.7327
 379  652.1509
 380  685.7019
 381  584.0624
 382  500.4914
 383  546.1401
 384  498.7909
 385  602.1942
 386  591.1158
 387  647.574
 388  584.5436
 389  474.0414
 390  540.6963
 391  682.9213
 392  617.8305
 393  520.4716
 394  514.9578
 395  550.0803
 396  573.0532
 397  628.3825
 398  518.3649
 399  530.4448
 400  511.7739
 401  580.7105
 402  543.1224
 403  403.6824
 404  426.7577
 405  424.5675
 406  552.9915
 407  613.3051
 408  635.4055
 409  618.587
 410  614.3042
 411  513.9364
 412  590.407
 413  583.3666
 414  474.4227
 415  408.5684
 416  460.9447
 417  478.2211
 418  559.8659
 419  602.1337
 420  486.0166
 421  437.0786
 422  487.1325
 423  464.0964
 424  327.941
 425  322.4146
 426  476.027
 427  490.8321
 428  481.4955
 429  569.713
 430  612.0082
 431  577.4781
 432  491.8842
 433  331.9331
 434  409.3505
 435  467.219
 436  396.7594
 437  545.2452
 438  507.6532
 439  505.4458
 440  497.844
 441  457.2778
 442  489.9069
 443  521.7452
 444  456.3673
 445  451.818
 446  554.8992
 447  499.1335
 448  419.8725
 449  481.6677
 450  525.7844
 451  480.2958
 452  498.6974
 453  546.3079
 454  488.1782
 455  461.146
 456  608.5385
 457  720.081
 458  904.9983
 459  1038.336
 460  989.1898
 461  942.6633
 462  821.7611
 463  585.9671
 464  558.2618
 465  601.0544
 466  706.8266
 467  707.7563
 468  691.0062
 469  546.9796
 470  664.9065
 471  818.7334
 472  674.6061
 473  637.3387
 474  638.3347
 475  600.9825
 476  685.2123
 477  711.9395
 478  635.9096
 479  576.3048
 480  653.9559
 481  571.0302
 482  467.7806
 483  490.2123
 484  435.8689
 485  405.672
 486  500.5029
 487  595.1826
 488  561.3889
 489  413.619
 490  454.3193
 491  473.7899
 492  370.7683
 493  395.6092
 494  509.2567
 495  543.6936
 496  463.3596
 497  379.2665
 498  338.2844
 499  426.1542
 500  571.509
 501  473.1021
 502  523.2961
 503  535.5496
 504  546.797
 505  471.9881
 506  514.5278
 507  505.0023
 508  524.8168
 509  482.3108
 510  436.9038
 511  421.7449
