# Input file       =  1180322240.108938_cleaned.dat
# Candidate        =  PSR_0332+5434
# Telescope        =  AR
# Epoch_topo       =  57905.137258205301
# Epoch_bary       =  N/A
# T_sample         =  0.002
# Data Folded      =  7143424
# Data Avg         =  0.147488026042391
# Data StdDev      =  4.51878490415685 
# Profile Bins     =  512
# Profile Avg      =  2057.59333365912 
# Profile StdDev   =  533.752476457037 
# Reduced chi-sqr  =  0.760
# Prob(Noise)      <  1   (~0.0 sigma)
# P_topo (ms)      =  714.516437105823  +/- 5.07e-05
# P'_topo (s/s)    =  -0                +/- 2.75e-11
# P''_topo (s/s^2) =  0                 +/- 1.25e-14
# P_bary (ms)      =  N/A
# P'_bary (s/s)    =  N/A
# P''_bary (s/s^2) =  N/A
# P_orb (s)        =  N/A
# asin(i)/c (s)    =  N/A
# eccentricity     =  N/A
# w (rad)          =  N/A
# T_peri           =  N/A
######################################################
   0  2752.421
   1  2456.288
   2  2019.535
   3  1635.341
   4  2082.84
   5  2178.339
   6  2591.491
   7  2687.218
   8  2666.896
   9  2361.84
  10  1921.308
  11  2168.602
  12  2148.132
  13  1944.536
  14  2459.558
  15  2778.715
  16  2926.464
  17  3045.096
  18  2766.963
  19  2462.822
  20  2604.948
  21  2289.335
  22  2334.593
  23  2655.545
  24  2823.855
  25  2705.02
  26  2098.205
  27  1761.73
  28  1724.402
  29  1810.161
  30  2398.716
  31  2274.686
  32  2194.905
  33  2415.288
  34  2291.458
  35  1994.965
  36  1799.91
  37  1768.099
  38  1990.104
  39  2110.077
  40  2229.692
  41  2215.344
  42  2463.519
  43  2385.926
  44  2207.453
  45  2098.889
  46  2255.352
  47  2041.222
  48  2442.421
  49  2636.863
  50  2639.145
  51  2440.174
  52  2287.363
  53  2026.718
  54  1882.587
  55  2325.867
  56  2066.147
  57  2200.768
  58  2795.661
  59  2610.487
  60  2274.987
  61  1539.872
  62  1611.807
  63  1569.501
  64  1866.977
  65  2378.964
  66  2441.308
  67  1810.955
  68  1322.391
  69  1848.336
  70  1694.454
  71  2072.314
  72  1741.816
  73  2320.588
  74  2183.641
  75  1989.113
  76  1867.326
  77  1764.318
  78  2030.979
  79  1946.123
  80  2203.597
  81  2102.219
  82  2119.045
  83  2340.277
  84  2218.37
  85  2174.094
  86  2055.009
  87  2301.427
  88  2080.111
  89  1896.547
  90  2282.986
  91  2635.413
  92  2247.753
  93  1780.26
  94  2167.035
  95  2356.259
  96  2114.344
  97  2019.832
  98  1640.647
  99  2100.769
 100  1865.932
 101  1913.632
 102  1734.341
 103  1968.519
 104  1734.217
 105  1757.085
 106  2182.209
 107  2234.114
 108  1919.366
 109  1951.313
 110  1886.65
 111  1431.365
 112  1753.709
 113  1943.471
 114  1998.834
 115  2050.956
 116  2170.817
 117  1888.164
 118  1572.184
 119  1859.716
 120  1915.126
 121  1527.475
 122  2087.664
 123  1938.657
 124  1911.401
 125  2224.376
 126  2188.505
 127  1983.366
 128  1747.794
 129  2085.385
 130  2061.689
 131  2378.989
 132  2055.28
 133  1929.363
 134  1785.583
 135  1636.406
 136  1724.097
 137  1948.552
 138  2016.086
 139  2094.121
 140  2354.161
 141  2299.615
 142  2046.375
 143  1751.44
 144  2113.556
 145  2279.586
 146  2042.081
 147  2294.175
 148  2432.88
 149  2554.912
 150  2053.658
 151  1968.987
 152  2062.896
 153  1699.223
 154  2078.318
 155  1985.104
 156  2202.303
 157  1812.553
 158  2159.557
 159  2300.842
 160  1659.433
 161  1823.551
 162  1724.816
 163  2025.39
 164  2132.377
 165  2143.677
 166  2322.849
 167  1796.842
 168  1876.077
 169  2046.398
 170  2283.152
 171  2374.694
 172  2183.787
 173  2603.257
 174  2184.83
 175  2181.581
 176  2026.193
 177  2076.152
 178  1530.092
 179  1519.021
 180  2110.27
 181  2489.504
 182  2543.302
 183  2071.188
 184  2366.514
 185  2115.918
 186  2217.282
 187  2568.385
 188  2749.109
 189  2511.219
 190  2346.465
 191  2658.095
 192  2265.898
 193  1862.091
 194  1769.92
 195  1958.212
 196  2829.759
 197  2353.333
 198  2384.838
 199  2212.59
 200  2322.997
 201  2209.764
 202  2061.322
 203  2018.764
 204  1929.413
 205  2119.23
 206  2041.561
 207  1975.106
 208  1894.218
 209  1755.869
 210  1740.244
 211  1709.736
 212  1726.945
 213  1516.644
 214  1854.748
 215  2164.329
 216  2160.033
 217  1918.036
 218  2011.141
 219  2071.715
 220  2341.761
 221  2402.195
 222  2243.63
 223  2355.207
 224  2138.615
 225  2227.55
 226  2266.74
 227  1862.878
 228  2252.731
 229  2050.355
 230  2411.204
 231  2418.406
 232  2295.989
 233  2178.423
 234  2183.044
 235  2160.805
 236  1646.348
 237  1857.568
 238  2173.29
 239  2178.933
 240  2326.113
 241  2156.2
 242  1479.391
 243  1292.469
 244  1517.405
 245  1503.359
 246  1868.646
 247  2193.899
 248  2051.301
 249  1830.853
 250  1335.387
 251  1595.754
 252  1774.45
 253  2027.973
 254  1988.557
 255  2616.378
 256  2674.214
 257  1931.371
 258  1733.78
 259  1502.33
 260  1546.379
 261  1377.944
 262  2027.156
 263  2214.806
 264  2069.869
 265  2128.627
 266  1520.648
 267  1465.665
 268  1581.9
 269  1812.106
 270  1995.635
 271  1755.03
 272  2041.773
 273  2178.657
 274  1813.76
 275  1697.629
 276  1826.218
 277  1581.817
 278  1737.251
 279  2021.708
 280  2121.616
 281  1973.061
 282  1833.498
 283  1730.444
 284  1929.781
 285  1883.979
 286  1520.948
 287  1792.042
 288  2089.599
 289  1849.143
 290  1681.397
 291  1810.292
 292  1957.982
 293  1813.001
 294  1738.716
 295  1908.652
 296  1847.549
 297  2033.662
 298  2158.708
 299  1878.577
 300  1613.075
 301  1566.99
 302  1912.769
 303  2230.374
 304  2448.469
 305  2373.749
 306  2293.981
 307  2241.411
 308  1907.369
 309  2270.464
 310  1830.52
 311  1618.715
 312  1830.659
 313  2191.111
 314  2106.744
 315  2062.943
 316  2349.194
 317  2020.307
 318  1869.063
 319  2136.043
 320  2378.103
 321  2670.924
 322  2455.036
 323  2521.456
 324  2611.03
 325  2628.978
 326  2751.651
 327  3360.684
 328  3516.069
 329  3752.961
 330  3209.034
 331  2782.784
 332  2327.875
 333  2084.563
 334  2194.173
 335  1927.685
 336  2178.913
 337  2285.442
 338  2459.984
 339  2157.718
 340  2013.933
 341  2158.303
 342  2071.561
 343  2265.24
 344  2341.411
 345  2541.376
 346  2401.885
 347  1953.205
 348  1722.32
 349  1628.647
 350  1983.894
 351  1851.37
 352  1876.106
 353  1784.398
 354  2058.133
 355  2333.817
 356  2053.279
 357  1920.672
 358  1765.472
 359  1611.079
 360  1800.305
 361  2292.019
 362  2092.409
 363  2323.925
 364  2366.024
 365  1501.347
 366  1650.793
 367  1699.548
 368  1814.932
 369  2086.339
 370  2303.932
 371  2383.292
 372  1820.639
 373  1586.341
 374  1697.995
 375  1504.726
 376  1630.075
 377  1487.585
 378  1736.887
 379  1797.761
 380  1949.297
 381  1969.288
 382  1995.192
 383  1830.374
 384  1687.307
 385  1650.728
 386  1849.782
 387  2231.079
 388  2345.638
 389  2167.373
 390  2065.708
 391  1912.712
 392  1689.648
 393  1872.629
 394  1652.654
 395  1896.618
 396  2275.771
 397  2226.299
 398  2001.662
 399  2168.593
 400  2041.574
 401  1812.916
 402  1991.162
 403  2343.684
 404  2237.47
 405  2229.838
 406  2002.566
 407  1830.91
 408  1672.588
 409  1865.382
 410  2101.062
 411  1758.079
 412  2187.387
 413  2143.437
 414  1548.542
 415  1622.394
 416  1732.583
 417  1922.239
 418  1687.309
 419  1578.811
 420  2100.761
 421  2181.302
 422  2281.685
 423  1960.727
 424  1771.243
 425  1504.048
 426  1638.41
 427  2130.742
 428  2010.761
 429  2075.056
 430  2133.947
 431  1793.356
 432  1541.163
 433  1553.136
 434  1399.595
 435  1416.207
 436  1819.31
 437  2123.015
 438  2238.563
 439  1908.917
 440  1278.182
 441  1720.504
 442  2028.825
 443  1620.417
 444  1820.936
 445  2014.254
 446  2033.165
 447  1807.393
 448  1220.53
 449  1662.521
 450  1626.214
 451  1831.546
 452  2061.166
 453  2112.293
 454  2184.008
 455  2058.411
 456  2057.763
 457  2018.704
 458  1775.938
 459  1953.928
 460  1973.286
 461  1969.391
 462  2221.147
 463  2325.292
 464  1970.878
 465  1932.097
 466  1893.881
 467  1967.637
 468  1961.514
 469  1997.716
 470  2069.763
 471  2127.447
 472  1938.431
 473  1752.045
 474  1549.979
 475  1531.35
 476  1657.14
 477  1841.181
 478  2167.499
 479  1992.614
 480  1582.381
 481  1907.3
 482  1893.044
 483  2123.272
 484  2668.367
 485  2658.332
 486  2369.344
 487  2376.243
 488  2401.409
 489  2298.312
 490  2070.143
 491  2235.211
 492  1944.433
 493  2219.3
 494  2883.072
 495  2530.164
 496  2388.924
 497  1836.362
 498  1797.709
 499  2059.03
 500  1829.345
 501  2114.076
 502  2416.088
 503  2831.559
 504  2579.188
 505  2659.533
 506  2326.183
 507  1840.451
 508  1620.689
 509  2139.485
 510  2279.013
 511  2405.523
