# Input file       =  1180437945.13237_cleaned.dat
# Candidate        =  PSR_0332+5434
# Telescope        =  AR
# Epoch_topo       =  57906.476436717247
# Epoch_bary       =  N/A
# T_sample         =  0.002
# Data Folded      =  7340032
# Data Avg         =  0.025055837897649
# Data StdDev      =  1.00003373916079 
# Profile Bins     =  512
# Profile Avg      =  359.216401294507 
# Profile StdDev   =  119.737076068933 
# Reduced chi-sqr  =  1.187
# Prob(Noise)      <  0.00224   (~2.8 sigma)
# P_topo (ms)      =  714.515478097794  +/- 0.000202
# P'_topo (s/s)    =  -0                +/- 1.07e-10
# P''_topo (s/s^2) =  0                 +/- 4.72e-14
# P_bary (ms)      =  N/A
# P'_bary (s/s)    =  N/A
# P''_bary (s/s^2) =  N/A
# P_orb (s)        =  N/A
# asin(i)/c (s)    =  N/A
# eccentricity     =  N/A
# w (rad)          =  N/A
# T_peri           =  N/A
######################################################
   0  387.7848
   1  386.343
   2  481.8399
   3  620.9302
   4  503.7039
   5  452.0097
   6  489.9572
   7  493.4817
   8  475.493
   9  473.2186
  10  515.2211
  11  423.7108
  12  409.4142
  13  419.3928
  14  490.6814
  15  334.9203
  16  406.6993
  17  462.1431
  18  449.064
  19  501.5606
  20  371.4275
  21  296.1907
  22  315.542
  23  345.5909
  24  391.8827
  25  407.4684
  26  444.1896
  27  315.9239
  28  148.1324
  29  239.0484
  30  367.9556
  31  390.4902
  32  388.1599
  33  251.1254
  34  453.9727
  35  382.5012
  36  313.8371
  37  393.7536
  38  393.6616
  39  298.1917
  40  214.7534
  41  234.6416
  42  260.182
  43  252.776
  44  291.1138
  45  399.849
  46  312.1972
  47  346.8312
  48  402.5682
  49  255.651
  50  335.8636
  51  437.869
  52  389.3922
  53  463.0859
  54  366.2427
  55  354.155
  56  397.5888
  57  260.1041
  58  372.2119
  59  443.0256
  60  412.6945
  61  405.5421
  62  393.118
  63  342.3136
  64  308.0145
  65  214.7775
  66  299.6799
  67  384.9226
  68  515.7629
  69  405.9932
  70  363.3258
  71  266.8037
  72  169.6279
  73  230.515
  74  209.6603
  75  318.878
  76  327.8626
  77  135.479
  78  145.1717
  79  208.1041
  80  348.3269
  81  410.561
  82  362.7984
  83  381.8566
  84  342.595
  85  270.0101
  86  338.9647
  87  289.6371
  88  383.2947
  89  378.2321
  90  236.3078
  91  387.5411
  92  431.4962
  93  392.9106
  94  421.2172
  95  398.0754
  96  472.1365
  97  389.0855
  98  352.2459
  99  317.8521
 100  283.0619
 101  385.3221
 102  434.934
 103  432.8601
 104  324.9439
 105  258.8145
 106  286.8564
 107  390.4856
 108  301.6144
 109  338.9418
 110  370.9248
 111  392.4653
 112  279.9874
 113  234.7789
 114  297.5557
 115  301.3201
 116  369.5487
 117  415.25
 118  481.3661
 119  378.8823
 120  180.2173
 121  271.0199
 122  318.622
 123  224.6398
 124  284.4342
 125  420.7004
 126  354.3395
 127  408.0189
 128  396.2185
 129  175.889
 130  117.3309
 131  231.0112
 132  238.2923
 133  355.4181
 134  491.457
 135  550.8275
 136  395.9676
 137  380.8255
 138  436.2296
 139  242.044
 140  267.672
 141  287.7351
 142  361.6956
 143  322.9594
 144  296.7538
 145  401.7023
 146  429.6348
 147  389.1668
 148  432.8941
 149  360.7027
 150  376.6682
 151  435.6736
 152  380.4644
 153  302.2576
 154  210.0393
 155  345.4823
 156  411.7485
 157  348.5305
 158  248.7117
 159  298.8652
 160  391.3653
 161  424.322
 162  349.7775
 163  364.7507
 164  318.7329
 165  262.2947
 166  206.7147
 167  290.9633
 168  331.3738
 169  241.3525
 170  285.5666
 171  378.7813
 172  471.7177
 173  389.048
 174  289.4639
 175  407.0465
 176  486.995
 177  385.4088
 178  310.1666
 179  384.2304
 180  320.2676
 181  290.0416
 182  404.1235
 183  504.06
 184  450.347
 185  417.6827
 186  371.7048
 187  358.8952
 188  452.7808
 189  408.7318
 190  318.2076
 191  334.0258
 192  458.9371
 193  313.4303
 194  287.5535
 195  319.5115
 196  241.606
 197  375.8403
 198  174.3257
 199  216.9451
 200  215.4265
 201  234.9307
 202  370.6377
 203  254.9488
 204  288.6176
 205  216.8664
 206  129.7704
 207  186.9984
 208  278.4397
 209  336.5451
 210  412.5283
 211  392.5015
 212  325.2024
 213  378.6481
 214  478.4457
 215  525.4489
 216  592.2761
 217  531.3416
 218  534.1208
 219  572.9069
 220  505.691
 221  574.4366
 222  639.3925
 223  666.4308
 224  753.635
 225  838.3786
 226  715.9348
 227  431.1984
 228  408.9698
 229  493.2428
 230  509.3241
 231  415.522
 232  310.7609
 233  306.3278
 234  296.3329
 235  329.1287
 236  283.8943
 237  261.8524
 238  255.2102
 239  296.0666
 240  341.067
 241  360.9124
 242  383.5801
 243  399.2956
 244  297.6998
 245  344.1824
 246  304.1421
 247  193.094
 248  299.2856
 249  306.7066
 250  247.1263
 251  119.4241
 252  219.7535
 253  364.6205
 254  356.5385
 255  337.0378
 256  290.7693
 257  323.4374
 258  297.8202
 259  419.847
 260  463.1544
 261  426.1194
 262  366.8723
 263  448.5685
 264  418.2527
 265  297.4709
 266  194.5282
 267  339.374
 268  344.3919
 269  339.04
 270  322.4509
 271  241.2375
 272  297.2469
 273  425.3301
 274  426.6606
 275  319.9126
 276  308.0455
 277  381.8432
 278  340.9991
 279  296.8192
 280  257.4232
 281  214.6536
 282  348.8208
 283  481.1348
 284  456.8228
 285  373.5778
 286  290.0247
 287  234.2666
 288  341.0303
 289  423.0149
 290  379.7079
 291  277.3321
 292  274.5027
 293  275.1776
 294  334.8024
 295  212.4595
 296  313.2223
 297  339.5276
 298  316.7618
 299  158.0633
 300  234.5499
 301  291.7972
 302  290.231
 303  254.3979
 304  224.1315
 305  144.5627
 306  270.351
 307  355.4996
 308  370.7582
 309  307.0475
 310  362.6707
 311  478.239
 312  436.9437
 313  411.7162
 314  334.9718
 315  335.3384
 316  294.026
 317  289.1463
 318  416.0635
 319  394.2661
 320  322.0394
 321  376.6355
 322  341.616
 323  266.6534
 324  314.8912
 325  324.7239
 326  413.3324
 327  457.5116
 328  381.6677
 329  170.6729
 330  194.1516
 331  223.55
 332  364.6051
 333  326.1324
 334  181.5781
 335  221.8429
 336  160.1936
 337  275.4654
 338  280.6057
 339  337.3901
 340  285.8534
 341  254.3943
 342  292.9514
 343  348.0895
 344  423.1584
 345  503.2599
 346  353.5241
 347  258.72
 348  274.5975
 349  418.2868
 350  451.8822
 351  389.8603
 352  349.0221
 353  400.6933
 354  412.7467
 355  413.8446
 356  322.4679
 357  348.6846
 358  394.7797
 359  412.9588
 360  408.4525
 361  422.0543
 362  378.3076
 363  378.0963
 364  286.2263
 365  384.4834
 366  408.9893
 367  524.1436
 368  285.15
 369  322.8182
 370  452.8298
 371  502.0898
 372  457.7349
 373  394.6467
 374  292.2613
 375  220.4522
 376  340.2397
 377  380.2823
 378  294.1395
 379  261.6398
 380  321.4527
 381  420.6657
 382  303.5055
 383  257.2416
 384  254.0473
 385  303.3725
 386  311.5263
 387  394.7065
 388  503.2605
 389  474.0194
 390  439.6741
 391  286.7227
 392  345.1017
 393  405.8251
 394  508.6989
 395  498.6471
 396  430.4514
 397  420.8848
 398  426.2417
 399  499.0956
 400  556.8249
 401  409.4025
 402  443.3297
 403  446.1024
 404  397.4508
 405  388.9294
 406  310.1786
 407  386.1396
 408  359.0297
 409  481.9293
 410  510.4198
 411  467.6418
 412  342.0813
 413  304.5603
 414  440.7605
 415  365.6762
 416  344.4571
 417  294.5006
 418  395.3994
 419  351.0633
 420  334.6833
 421  346.3209
 422  326.5033
 423  398.6544
 424  335.1496
 425  366.264
 426  501.9176
 427  456.3882
 428  383.7815
 429  362.2664
 430  348.4734
 431  379.6069
 432  371.5134
 433  341.0085
 434  318.3397
 435  168.5331
 436  225.9905
 437  381.1128
 438  422.3338
 439  271.529
 440  369.6679
 441  576.4171
 442  512.0616
 443  440.0583
 444  465.3538
 445  366.0332
 446  358.8348
 447  339.1029
 448  358.0312
 449  464.2626
 450  344.3297
 451  249.3586
 452  295.3397
 453  442.7794
 454  497.3156
 455  413.9338
 456  341.202
 457  440.2877
 458  367.5929
 459  270.8737
 460  188.3424
 461  384.4684
 462  505.7948
 463  423.9898
 464  215.7309
 465  299.0724
 466  326.7426
 467  298.7605
 468  322.1921
 469  236.0288
 470  365.7109
 471  360.6726
 472  330.485
 473  293.3607
 474  307.0979
 475  337.5692
 476  319.6437
 477  326.048
 478  325.7289
 479  351.4842
 480  297.779
 481  336.2438
 482  382.3372
 483  499.6532
 484  474.1391
 485  354.0761
 486  418.5683
 487  491.9007
 488  417.9214
 489  379.736
 490  434.3381
 491  424.0704
 492  406.9572
 493  408.0676
 494  366.5037
 495  281.5363
 496  448.0599
 497  390.4373
 498  438.0221
 499  421.8758
 500  528.2833
 501  340.2516
 502  352.9533
 503  453.3459
 504  551.9431
 505  502.6623
 506  375.202
 507  476.0442
 508  291.9031
 509  217.3048
 510  324.7823
 511  394.679
