# Input file       =  1180610293.114655_cleaned.dat
# Candidate        =  PSR_0332+5434
# Telescope        =  AR
# Epoch_topo       =  57908.471205030728
# Epoch_bary       =  N/A
# T_sample         =  0.002
# Data Folded      =  7340032
# Data Avg         =  0.0194532203524593
# Data StdDev      =  1.00002437232943 
# Profile Bins     =  512
# Profile Avg      =  279.005003881642 
# Profile StdDev   =  119.735954549772 
# Reduced chi-sqr  =  1.249
# Prob(Noise)      <  0.000103   (~3.7 sigma)
# P_topo (ms)      =  714.513544684901  +/- 0.000555
# P'_topo (s/s)    =  -0                +/- 2.93e-10
# P''_topo (s/s^2) =  0                 +/- 1.29e-13
# P_bary (ms)      =  N/A
# P'_bary (s/s)    =  N/A
# P''_bary (s/s^2) =  N/A
# P_orb (s)        =  N/A
# asin(i)/c (s)    =  N/A
# eccentricity     =  N/A
# w (rad)          =  N/A
# T_peri           =  N/A
######################################################
   0  288.2376
   1  152.1904
   2  287.3405
   3  268.9096
   4  148.0466
   5  296.3692
   6  339.0435
   7  302.0499
   8  362.1277
   9  406.2599
  10  360.4129
  11  283.6521
  12  337.884
  13  299.2326
  14  243.3457
  15  253.5253
  16  268.6123
  17  362.01
  18  361.334
  19  391.4951
  20  427.6257
  21  414.2692
  22  413.6705
  23  320.794
  24  315.6031
  25  253.0903
  26  187.124
  27  283.1747
  28  320.0777
  29  243.7379
  30  354.864
  31  290.0318
  32  367.3236
  33  317.9774
  34  226.0285
  35  220.6798
  36  136.3276
  37  281.8165
  38  327.2799
  39  235.7388
  40  292.3583
  41  294.5406
  42  343.4088
  43  352.6788
  44  247.1432
  45  287.4368
  46  418.2927
  47  385.6477
  48  293.0655
  49  261.6693
  50  294.4095
  51  283.3578
  52  322.834
  53  214.5945
  54  296.7314
  55  374.9699
  56  460.0616
  57  327.3304
  58  206.127
  59  245.8903
  60  201.4538
  61  172.7161
  62  254.3622
  63  240.4285
  64  309.4614
  65  245.3977
  66  157.9793
  67  177.9957
  68  232.1724
  69  244.1289
  70  319.0214
  71  326.2664
  72  381.3348
  73  302.658
  74  393.1962
  75  286.1201
  76  291.043
  77  242.6173
  78  266.8824
  79  187.9247
  80  193.2423
  81  313.044
  82  403.5119
  83  163.7678
  84  184.27
  85  192.1857
  86  163.8692
  87  134.3641
  88  120.2252
  89  203.3357
  90  245.6936
  91  216.9297
  92  220.4256
  93  280.3555
  94  267.3613
  95  210.4234
  96  293.2805
  97  272.0074
  98  223.4088
  99  220.3652
 100  325.4846
 101  404.0315
 102  326.3216
 103  356.3239
 104  265.6764
 105  219.6498
 106  216.0992
 107  303.8861
 108  195.7429
 109  297.5772
 110  390.6628
 111  438.7789
 112  349.486
 113  361.17
 114  502.2637
 115  366.4709
 116  330.2236
 117  158.8663
 118  227.7385
 119  310.8626
 120  291.4823
 121  240.3598
 122  292.5371
 123  355.8474
 124  363.0475
 125  322.2759
 126  76.83389
 127  107.1339
 128  236.2931
 129  263.1046
 130  328.4192
 131  277.5144
 132  262.6695
 133  320.2916
 134  332.7866
 135  221.3973
 136  216.4933
 137  355.247
 138  234.7832
 139  174.7533
 140  256.3419
 141  345.6382
 142  325.5063
 143  184.4638
 144  150.8541
 145  199.6395
 146  213.6003
 147  272.1714
 148  307.9109
 149  472.7782
 150  402.0167
 151  287.7692
 152  326.6076
 153  340.0105
 154  367.5952
 155  358.2271
 156  244.953
 157  299.3535
 158  307.7225
 159  327.0268
 160  296.1832
 161  283.8286
 162  321.6495
 163  374.4092
 164  299.9367
 165  136.044
 166  203.5408
 167  254.5527
 168  312.071
 169  253.037
 170  200.4577
 171  299.2031
 172  328.7496
 173  292.0022
 174  232.8853
 175  234.9235
 176  208.1048
 177  245.0901
 178  231.2848
 179  300.0495
 180  259.9715
 181  330.1443
 182  315.2493
 183  223.3727
 184  238.3975
 185  315.1339
 186  286.9355
 187  234.891
 188  181.103
 189  201.6767
 190  120.4371
 191  232.1361
 192  351.5471
 193  382.4893
 194  343.8253
 195  246.0513
 196  217.6563
 197  262.1279
 198  284.998
 199  311.9295
 200  267.7959
 201  207.4373
 202  269.5038
 203  206.8266
 204  257.0805
 205  230.5859
 206  175.9557
 207  123.6831
 208  220.5486
 209  278.0706
 210  275.1863
 211  348.8261
 212  388.7681
 213  444.7829
 214  287.1465
 215  196.0356
 216  218.9069
 217  287.1265
 218  261.8068
 219  233.0602
 220  268.8676
 221  269.0134
 222  285.4766
 223  248.7365
 224  174.7074
 225  79.03853
 226  199.7581
 227  343.0353
 228  296.823
 229  287.289
 230  207.4652
 231  237.1096
 232  343.103
 233  287.4763
 234  211.6539
 235  225.5628
 236  274.5815
 237  235.4783
 238  255.3257
 239  411.0502
 240  351.8504
 241  336.4574
 242  316.139
 243  316.4261
 244  370.03
 245  217.1567
 246  229.856
 247  317.836
 248  407.9399
 249  349.0792
 250  283.3625
 251  385.4728
 252  407.2497
 253  430.543
 254  326.1961
 255  362.6381
 256  418.05
 257  437.577
 258  319.9513
 259  464.5994
 260  628.6803
 261  770.8492
 262  860.1965
 263  821.2194
 264  920.8289
 265  758.5454
 266  516.7761
 267  446.0488
 268  311.5959
 269  204.2809
 270  361.3565
 271  378.6414
 272  271.3801
 273  231.3212
 274  291.9222
 275  328.2819
 276  293.7426
 277  271.5756
 278  410.003
 279  421.3608
 280  380.6453
 281  446.3812
 282  306.3958
 283  253.0446
 284  263.981
 285  268.1317
 286  275.6043
 287  183.0828
 288  242.8632
 289  373.1964
 290  355.1093
 291  400.5582
 292  401.641
 293  357.9983
 294  351.3338
 295  393.8727
 296  298.2075
 297  224.4088
 298  161.8016
 299  235.5943
 300  319.6466
 301  113.8222
 302  132.5752
 303  228.0479
 304  334.2259
 305  134.0528
 306  211.5358
 307  242.4952
 308  329.9639
 309  367.1228
 310  403.2036
 311  272.0916
 312  124.7261
 313  165.3538
 314  180.2556
 315  172.4395
 316  372.545
 317  302.9901
 318  298.3111
 319  287.6725
 320  291.72
 321  297.4034
 322  316.6167
 323  312.6785
 324  378.9576
 325  365.4907
 326  245.9015
 327  209.8263
 328  299.6576
 329  247.4159
 330  245.4724
 331  156.9789
 332  206.0329
 333  297.7712
 334  271.8867
 335  346.0561
 336  230.7534
 337  242.8662
 338  342.8826
 339  231.2378
 340  254.3544
 341  207.0171
 342  204.1685
 343  176.666
 344  223.7993
 345  219.6172
 346  257.937
 347  279.7728
 348  97.0569
 349  185.5872
 350  198.7645
 351  132.5912
 352  183.1929
 353  252.1985
 354  238.5998
 355  125.3813
 356  202.8622
 357  196.6017
 358  151.9887
 359  264.6765
 360  164.5707
 361  107.6966
 362  138.7417
 363  110.1981
 364  151.3863
 365  194.9893
 366  250.8661
 367  303.7042
 368  235.7585
 369  129.8634
 370  70.04564
 371  255.2451
 372  194.3261
 373  242.4262
 374  190.172
 375  233.0688
 376  198.9328
 377  129.4277
 378  108.5398
 379  194.4186
 380  187.8579
 381  168.0645
 382  29.81997
 383  230.872
 384  258.5399
 385  220.6044
 386  273.5018
 387  160.8763
 388  158.4064
 389  265.066
 390  260.0481
 391  83.68463
 392  133.0879
 393  278.2625
 394  249.7242
 395  257.294
 396  284.196
 397  154.3554
 398  160.9057
 399  167.4231
 400  141.9374
 401  267.4914
 402  209.5759
 403  202.9026
 404  324.6301
 405  325.2099
 406  191.8835
 407  213.9485
 408  171.2527
 409  331.9646
 410  365.6096
 411  257.1484
 412  241.2634
 413  281.2469
 414  259.163
 415  283.4824
 416  365.1275
 417  225.0002
 418  149.9754
 419  306.4883
 420  357.9947
 421  212.949
 422  239.8556
 423  295.1149
 424  198.1426
 425  193.4579
 426  252.492
 427  226.9103
 428  278.6382
 429  305.2782
 430  307.572
 431  310.8975
 432  237.321
 433  289.0089
 434  350.4884
 435  334.8579
 436  208.8416
 437  155.0561
 438  193.1453
 439  297.7244
 440  329.3393
 441  248.5891
 442  299.7964
 443  305.2392
 444  201.0114
 445  234.7361
 446  296.0248
 447  320.0816
 448  299.1078
 449  214.5636
 450  305.1129
 451  297.2479
 452  270.0457
 453  161.7984
 454  261.1866
 455  321.0326
 456  268.8287
 457  292.4055
 458  369.5597
 459  359.9495
 460  298.0486
 461  185.3617
 462  188.4556
 463  206.3989
 464  191.17
 465  363.5742
 466  428.5744
 467  265.0816
 468  267.1089
 469  226.382
 470  307.2206
 471  282.4632
 472  219.8635
 473  248.8752
 474  284.2509
 475  236.9281
 476  251.0963
 477  224.2664
 478  356.3726
 479  240.6503
 480  231.5745
 481  270.5794
 482  261.3069
 483  77.10938
 484  186.5044
 485  357.1522
 486  376.9586
 487  384.1847
 488  199.506
 489  359.3727
 490  407.8238
 491  279.2763
 492  304.3366
 493  279.1967
 494  295.5825
 495  281.0279
 496  331.4294
 497  323.7905
 498  336.2823
 499  346.6503
 500  320.1507
 501  278.8971
 502  342.8726
 503  423.0148
 504  365.9212
 505  250.1138
 506  301.0545
 507  425.7928
 508  406.3696
 509  360.8839
 510  428.05
 511  390.9681
