# Input file       =  1180782598.102683-PSRB0329-2ms-sampling-dd.dat
# Candidate        =  PSR_0332+5434
# Telescope        =  AR
# Epoch_topo       =  57910.465475725498
# Epoch_bary       =  N/A
# T_sample         =  0.002
# Data Folded      =  7340032
# Data Avg         =  -3.6616305778284e-11
# Data StdDev      =  6.02589728613358 
# Profile Bins     =  512
# Profile Avg      =  0.132848712626864
# Profile StdDev   =  721.498978963289 
# Reduced chi-sqr  =  0.572
# Prob(Noise)      <  1   (~0.0 sigma)
# P_topo (ms)      =  714.511624490185  +/- 0.0001
# P'_topo (s/s)    =  -0                +/- 5.28e-11
# P''_topo (s/s^2) =  0                 +/- 2.33e-14
# P_bary (ms)      =  N/A
# P'_bary (s/s)    =  N/A
# P''_bary (s/s^2) =  N/A
# P_orb (s)        =  N/A
# asin(i)/c (s)    =  N/A
# eccentricity     =  N/A
# w (rad)          =  N/A
# T_peri           =  N/A
######################################################
   0  -426.2446
   1  -464.6185
   2  10.28492
   3  50.53836
   4  252.4488
   5  433.9264
   6  334.8442
   7  265.1408
   8  -246.6903
   9  22.04809
  10  -139.9558
  11  -242.6581
  12  -29.82083
  13  266.2817
  14  -79.05744
  15  -22.66879
  16  87.10155
  17  -491.7217
  18  -272.4852
  19  -16.23734
  20  227.7533
  21  -37.14782
  22  353.9395
  23  591.9587
  24  816.7
  25  812.9808
  26  691.239
  27  618.722
  28  109.9403
  29  388.1348
  30  597.2098
  31  850.1852
  32  806.5035
  33  390.0685
  34  612.3538
  35  93.79845
  36  276.62
  37  1111.208
  38  824.2097
  39  738.2123
  40  601.3408
  41  291.4112
  42  328.6212
  43  183.9444
  44  -89.70969
  45  -134.7807
  46  172.9448
  47  52.31975
  48  267.0587
  49  -161.5692
  50  -208.5941
  51  -100.8756
  52  405.9808
  53  281.9322
  54  297.0132
  55  887.2088
  56  908.8362
  57  1300.096
  58  1706.043
  59  1371.457
  60  876.947
  61  957.9241
  62  815.6849
  63  192.9951
  64  -142.7648
  65  -156.4548
  66  -195.7341
  67  204.6677
  68  281.2991
  69  425.1226
  70  322.7555
  71  115.8502
  72  -91.68684
  73  -147.5177
  74  226.3641
  75  -142.4889
  76  -47.18426
  77  -115.698
  78  -271.1411
  79  -116.8558
  80  169.0008
  81  206.8686
  82  145.0782
  83  85.48322
  84  420.8842
  85  284.1222
  86  559.4694
  87  595.6592
  88  344.8164
  89  171.9737
  90  -23.46195
  91  -20.89464
  92  -202.2769
  93  65.24133
  94  143.7215
  95  67.5892
  96  -581.2568
  97  -590.5426
  98  -704.256
  99  -740.1838
 100  -638.8864
 101  -487.9908
 102  -62.02628
 103  280.4005
 104  75.64731
 105  113.3349
 106  -61.5085
 107  -219.4065
 108  -403.1844
 109  -463.6856
 110  -142.446
 111  265.2833
 112  186.0987
 113  453.3073
 114  451.7047
 115  303.3022
 116  -226.4764
 117  -235.3467
 118  170.2336
 119  115.0681
 120  -109.0902
 121  181.1139
 122  335.9433
 123  -22.65307
 124  74.06773
 125  165.3887
 126  461.6296
 127  723.3527
 128  252.7431
 129  305.3173
 130  349.9281
 131  -109.0061
 132  83.53153
 133  219.7127
 134  471.7887
 135  251.4151
 136  628.6325
 137  431.9035
 138  369.8072
 139  218.3027
 140  37.50172
 141  -263.694
 142  -228.8383
 143  189.1169
 144  -51.60577
 145  146.137
 146  270.7527
 147  68.39645
 148  -46.56892
 149  -130.8918
 150  54.44187
 151  203.4115
 152  353.5634
 153  194.1608
 154  -142.6494
 155  24.50269
 156  26.66726
 157  -313.8422
 158  -111.1352
 159  46.21123
 160  -26.07377
 161  -166.1424
 162  -83.76569
 163  -171.1021
 164  -185.3185
 165  22.8249
 166  171.5891
 167  224.6041
 168  -133.817
 169  28.65848
 170  -26.03995
 171  255.1209
 172  243.0334
 173  256.8377
 174  -42.00348
 175  331.3092
 176  125.4066
 177  -43.85483
 178  3.189576
 179  261.1237
 180  335.1695
 181  12.64353
 182  -220.3732
 183  -382.3097
 184  -102.219
 185  13.52688
 186  -139.7507
 187  -108.5243
 188  -158.5991
 189  -116.4118
 190  -237.0511
 191  -419.4745
 192  -92.60703
 193  316.0368
 194  554.5391
 195  423.8004
 196  169.0017
 197  -38.23394
 198  -244.191
 199  8.149388
 200  291.5421
 201  804.6472
 202  1259.858
 203  1039.088
 204  872.4152
 205  1020.647
 206  752.9836
 207  399.9785
 208  285.7893
 209  439.4696
 210  375.2812
 211  552.7448
 212  797.3551
 213  458.4968
 214  147.2374
 215  -6.746642
 216  246.2724
 217  291.6341
 218  256.5411
 219  483.4019
 220  77.13993
 221  223.2832
 222  62.79667
 223  -287.7137
 224  -98.89362
 225  -66.07133
 226  -464.888
 227  126.2466
 228  -168.3917
 229  -166.0278
 230  -443.8378
 231  -342.0322
 232  -369.9588
 233  49.16912
 234  130.7725
 235  -106.8408
 236  -220.3098
 237  -469.5017
 238  -381.5568
 239  -161.0314
 240  13.32857
 241  209.8379
 242  505.9387
 243  297.7427
 244  49.576
 245  302.2802
 246  7.345237
 247  -444.2279
 248  -324.716
 249  102.7992
 250  161.1492
 251  144.2158
 252  293.9069
 253  452.6247
 254  584.4852
 255  438.9058
 256  79.57627
 257  248.6904
 258  -55.17381
 259  81.63037
 260  461.4172
 261  591.7712
 262  -86.50831
 263  -395.5269
 264  -519.8021
 265  -415.3526
 266  -36.43703
 267  284.1929
 268  627.1981
 269  507.4363
 270  35.89605
 271  -122.3638
 272  -417.6711
 273  -412.3817
 274  -120.711
 275  -272.0692
 276  -491.3896
 277  -422.516
 278  -306.9372
 279  -638.3926
 280  -355.8524
 281  -252.0822
 282  -88.04247
 283  -136.6924
 284  286.5874
 285  346.0623
 286  622.2815
 287  297.9381
 288  -116.2432
 289  -498.6167
 290  -369.259
 291  -265.4929
 292  -305.2058
 293  182.1335
 294  463.4524
 295  -25.18458
 296  -299.6026
 297  -654.497
 298  -185.4169
 299  190.7643
 300  -104.3204
 301  137.0743
 302  147.5079
 303  280.1093
 304  -259.2844
 305  -476.3292
 306  -287.5553
 307  -311.4122
 308  -384.8003
 309  -454.5473
 310  -19.87355
 311  136.7579
 312  29.53119
 313  -200.3092
 314  -65.38132
 315  -52.12682
 316  35.91758
 317  452.368
 318  514.6217
 319  106.6265
 320  -34.27388
 321  328.7345
 322  25.09959
 323  18.48758
 324  127.1188
 325  421.6374
 326  325.0593
 327  198.4618
 328  290.4986
 329  -425.2005
 330  -498.3984
 331  -592.7988
 332  -525.026
 333  -367.2285
 334  -16.61716
 335  330.2654
 336  -225.425
 337  -404.9601
 338  -693.9382
 339  -927.5839
 340  -921.6275
 341  -989.5416
 342  -922.2092
 343  -449.9091
 344  -138.973
 345  -442.5433
 346  -507.1984
 347  -649.0561
 348  -400.3214
 349  -478.6219
 350  -51.95346
 351  162.5222
 352  399.7924
 353  -112.1224
 354  -432.2998
 355  -191.1827
 356  -350.8414
 357  -8.904965
 358  248.1631
 359  632.7376
 360  200.8973
 361  -271.9582
 362  159.0941
 363  -59.53093
 364  -96.06654
 365  364.3811
 366  465.5676
 367  92.16586
 368  401.5527
 369  -41.19517
 370  -118.1558
 371  -431.658
 372  -696.7693
 373  -192.6093
 374  49.03487
 375  -112.3537
 376  -276.9048
 377  -278.3307
 378  -355.032
 379  -426.1792
 380  -406.8525
 381  -332.8968
 382  -315.8208
 383  -123.7363
 384  -104.8263
 385  122.3176
 386  47.55631
 387  -32.7569
 388  -303.376
 389  -393.7564
 390  -374.7791
 391  -625.5694
 392  -407.9521
 393  -72.17953
 394  -53.46767
 395  -264.4157
 396  -325.1121
 397  -455.2606
 398  -756.6731
 399  -599.3353
 400  -237.3197
 401  261.2597
 402  -74.73374
 403  -162.624
 404  -541.6071
 405  -974.8945
 406  -818.9119
 407  -323.9691
 408  -48.04249
 409  -142.6605
 410  -286.5507
 411  -98.12295
 412  -377.7685
 413  -657.3743
 414  -639.1396
 415  -45.89346
 416  321.7776
 417  368.1497
 418  320.1277
 419  542.4011
 420  942.9224
 421  97.98196
 422  204.5911
 423  -40.91887
 424  -433.3687
 425  -235.7113
 426  83.82304
 427  44.22223
 428  -138.3484
 429  -284.8277
 430  -501.7666
 431  -11.03914
 432  -66.01159
 433  58.67196
 434  -7.792264
 435  -153.3289
 436  -508.9551
 437  -780.9343
 438  -526.1259
 439  -910.6827
 440  -739.851
 441  -485.8381
 442  -349.4225
 443  -422.669
 444  -832.7292
 445  -529.6387
 446  -599.9043
 447  -439.7487
 448  -176.7441
 449  175.6385
 450  181.8972
 451  144.4197
 452  116.2186
 453  223.2825
 454  234.6638
 455  7.488828
 456  118.8035
 457  -172.1134
 458  -92.58467
 459  194.2345
 460  766.8427
 461  655.2797
 462  438.8802
 463  393.3447
 464  -14.76398
 465  138.8604
 466  -111.7481
 467  -531.0574
 468  18.64612
 469  204.44
 470  -26.49353
 471  -150.8978
 472  -365.0481
 473  -341.9915
 474  -327.815
 475  125.0967
 476  224.8291
 477  -30.70396
 478  -419.1978
 479  -705.8262
 480  -134.8357
 481  -94.17532
 482  117.2884
 483  261.0785
 484  268.043
 485  -78.61467
 486  -530.2817
 487  -715.2463
 488  -736.2562
 489  -109.9945
 490  364.0804
 491  212.7341
 492  -451.95
 493  -224.5858
 494  -418.9146
 495  -286.0429
 496  -467.0558
 497  -450.3012
 498  69.30727
 499  -645.62
 500  -448.5284
 501  -89.38593
 502  -166.4741
 503  -517.0275
 504  -474.5026
 505  36.39906
 506  -496.0033
 507  -570.4623
 508  -341.2131
 509  -385.5586
 510  -256.7514
 511  -599.3912
