# Input file       =  1180423018.099737_cleaned.dat
# Candidate        =  PSR_0332+5434
# Telescope        =  AR
# Epoch_topo       =  57906.303670135843
# Epoch_bary       =  N/A
# T_sample         =  0.002
# Data Folded      =  7340032
# Data Avg         =  0.0334628732246664
# Data StdDev      =  1.00017457220521 
# Profile Bins     =  512
# Profile Avg      =  479.80430749162  
# Profile StdDev   =  119.753938436963 
# Reduced chi-sqr  =  1.073
# Prob(Noise)      <  0.121   (~1.2 sigma)
# P_topo (ms)      =  714.515311685191  +/- 0.000167
# P'_topo (s/s)    =  -0                +/- 8.82e-11
# P''_topo (s/s^2) =  0                 +/- 3.89e-14
# P_bary (ms)      =  N/A
# P'_bary (s/s)    =  N/A
# P''_bary (s/s^2) =  N/A
# P_orb (s)        =  N/A
# asin(i)/c (s)    =  N/A
# eccentricity     =  N/A
# w (rad)          =  N/A
# T_peri           =  N/A
######################################################
   0  522.1326
   1  469.7463
   2  525.756
   3  491.6261
   4  482.2621
   5  528.7992
   6  557.7745
   7  550.6846
   8  541.4008
   9  469.5578
  10  466.3311
  11  502.1035
  12  479.1555
  13  406.9603
  14  351.4735
  15  420.613
  16  442.5543
  17  429.3172
  18  315.6826
  19  464.184
  20  576.9915
  21  423.2694
  22  415.9274
  23  501.6797
  24  451.5184
  25  367.845
  26  436.3782
  27  507.5752
  28  488.8344
  29  435.3033
  30  454.5355
  31  417.635
  32  428.2525
  33  461.4768
  34  542.3298
  35  643.0941
  36  532.4823
  37  533.8938
  38  459.001
  39  519.7532
  40  511.0675
  41  556.2007
  42  443.7282
  43  431.3652
  44  399.8011
  45  392.0849
  46  509.947
  47  483.7224
  48  471.9324
  49  377.4936
  50  391.799
  51  434.2652
  52  507.5129
  53  530.5423
  54  480.0556
  55  547.8494
  56  593.6351
  57  583.1187
  58  562.9381
  59  417.5457
  60  474.271
  61  519.8205
  62  555.1352
  63  470.0414
  64  508.4664
  65  526.5867
  66  492.9048
  67  341.1232
  68  429.2398
  69  451.435
  70  491.1177
  71  362.1264
  72  387.0839
  73  461.3212
  74  466.1091
  75  526.718
  76  413.157
  77  409.0972
  78  440.9524
  79  389.5674
  80  298.6678
  81  346.56
  82  387.3975
  83  457.1693
  84  354.3537
  85  279.3636
  86  372.0574
  87  458.7145
  88  465.6167
  89  499.8914
  90  463.7312
  91  439.7912
  92  492.2849
  93  507.6641
  94  418.6766
  95  480.9171
  96  281.7509
  97  417.4573
  98  549.7743
  99  435.0695
 100  331.3839
 101  338.362
 102  473.8098
 103  580.6215
 104  527.7239
 105  576.5966
 106  503.6269
 107  589.8542
 108  606.406
 109  557.04
 110  552.7548
 111  543.5665
 112  501.7348
 113  362.2546
 114  512.171
 115  537.1078
 116  453.8715
 117  482.8491
 118  403.6597
 119  448.3866
 120  448.5694
 121  514.5297
 122  483.8032
 123  398.9667
 124  437.7768
 125  427.5392
 126  404.9074
 127  505.6693
 128  546.3698
 129  485.6076
 130  549.8917
 131  552.4836
 132  517.7568
 133  469.2413
 134  578.2118
 135  449.7505
 136  557.3547
 137  517.3571
 138  416.0404
 139  417.6117
 140  552.8318
 141  573.2319
 142  510.4873
 143  503.8034
 144  465.8706
 145  388.4046
 146  446.418
 147  508.05
 148  405.7608
 149  416.0452
 150  424.9849
 151  448.5186
 152  491.3437
 153  480.0275
 154  408.4519
 155  410.1099
 156  486.6902
 157  438.6488
 158  303.4551
 159  264.8127
 160  357.9437
 161  448.845
 162  419.4877
 163  356.5474
 164  414.1091
 165  444.9781
 166  317.9497
 167  398.2857
 168  338.7744
 169  390.9815
 170  424.6908
 171  440.4972
 172  354.4013
 173  273.5138
 174  306.6283
 175  312.1613
 176  456.3445
 177  483.4342
 178  425.7173
 179  515.0728
 180  497.7038
 181  542.4714
 182  619.1354
 183  455.071
 184  468.1606
 185  459.1308
 186  444.7826
 187  424.8853
 188  371.2694
 189  424.253
 190  466.4016
 191  623.1886
 192  616.1945
 193  560.1126
 194  462.9519
 195  399.4953
 196  533.7382
 197  559.7272
 198  430.0684
 199  302.3276
 200  370.5046
 201  498.8114
 202  481.795
 203  496.6378
 204  525.3627
 205  455.8892
 206  458.4552
 207  442.5243
 208  529.8754
 209  517.0488
 210  470.5349
 211  457.4834
 212  537.1205
 213  518.3737
 214  421.0976
 215  370.2007
 216  406.7829
 217  401.0778
 218  329.8172
 219  391.0266
 220  342.7279
 221  369.1467
 222  457.5802
 223  404.9594
 224  331.6449
 225  356.1031
 226  424.5247
 227  474.8571
 228  509.3976
 229  470.0888
 230  515.0913
 231  539.3308
 232  561.2428
 233  519.5662
 234  418.1108
 235  498.5315
 236  492.0368
 237  389.6464
 238  371.9998
 239  490.3225
 240  461.3541
 241  436.6201
 242  405.3977
 243  433.4409
 244  387.1714
 245  352.3884
 246  393.8604
 247  353.7291
 248  451.0878
 249  478.0871
 250  383.7792
 251  400.0075
 252  413.6576
 253  421.2216
 254  461.0481
 255  371.0923
 256  225.802
 257  224.9632
 258  187.7123
 259  269.1177
 260  393.9555
 261  448.5286
 262  435.3084
 263  311.8988
 264  501.1082
 265  480.8676
 266  418.472
 267  446.096
 268  379.2025
 269  376.9561
 270  405.9454
 271  384.0197
 272  349.5834
 273  454.7066
 274  483.9651
 275  433.7912
 276  482.1573
 277  514.2724
 278  515.148
 279  549.4744
 280  453.8315
 281  466.3778
 282  505.6648
 283  617.0727
 284  598.5076
 285  685.8457
 286  684.4996
 287  706.8659
 288  876.1277
 289  969.8138
 290  1007.334
 291  835.9417
 292  710.4855
 293  589.5404
 294  616.2505
 295  626.506
 296  513.4153
 297  393.4956
 298  455.4991
 299  487.16
 300  546.8648
 301  568.8835
 302  529.1058
 303  585.9306
 304  643.4428
 305  745.3536
 306  693.9803
 307  582.1685
 308  661.913
 309  518.7725
 310  502.6808
 311  617.5845
 312  631.7171
 313  645.5521
 314  602.3902
 315  517.337
 316  535.5702
 317  657.559
 318  598.1838
 319  657.6968
 320  673.2061
 321  625.0387
 322  516.957
 323  453.4263
 324  488.9426
 325  602.2477
 326  635.1547
 327  492.4147
 328  489.5473
 329  460.4472
 330  496.1602
 331  504.1553
 332  445.2952
 333  460.2629
 334  401.6859
 335  474.8363
 336  500.0074
 337  558.7912
 338  506.4528
 339  507.3808
 340  502.9118
 341  459.3668
 342  407.7541
 343  403.905
 344  526.2205
 345  441.5201
 346  488.2363
 347  582.0642
 348  542.3494
 349  454.8619
 350  521.0092
 351  477.5972
 352  498.2925
 353  564.1218
 354  562.3419
 355  439.443
 356  368.984
 357  441.9857
 358  533.0277
 359  486.1154
 360  621.8235
 361  617.8309
 362  444.1703
 363  485.7193
 364  469.4849
 365  462.6348
 366  557.1078
 367  478.0649
 368  445.0254
 369  382.7598
 370  406.9615
 371  488.1317
 372  468.519
 373  564.1395
 374  559.4794
 375  492.9337
 376  455.5224
 377  453.345
 378  487.8791
 379  432.6931
 380  466.1414
 381  480.8893
 382  502.8232
 383  629.037
 384  547.0663
 385  448.1306
 386  411.1448
 387  449.0642
 388  526.0186
 389  532.3327
 390  423.4841
 391  441.7742
 392  462.0363
 393  489.1176
 394  461.2477
 395  506.3889
 396  457.7305
 397  352.5526
 398  486.9605
 399  519.3545
 400  518.4399
 401  574.4791
 402  424.1671
 403  355.6361
 404  407.5593
 405  475.5148
 406  401.8642
 407  409.8777
 408  384.0911
 409  423.3697
 410  437.5388
 411  427.6365
 412  413.0207
 413  439.5623
 414  569.9949
 415  543.7047
 416  497.4171
 417  460.3509
 418  561.624
 419  479.9689
 420  407.4955
 421  389.9612
 422  406.4303
 423  375.8964
 424  484.2118
 425  443.8324
 426  426.4491
 427  534.8102
 428  501.3197
 429  499.5332
 430  412.2366
 431  347.3765
 432  342.1807
 433  477.7933
 434  532.6786
 435  538.9935
 436  447.2393
 437  447.746
 438  446.3207
 439  510.9232
 440  532.1819
 441  506.5976
 442  420.6743
 443  417.3685
 444  535.3477
 445  472.8155
 446  481.3422
 447  376.268
 448  440.6434
 449  514.4487
 450  476.3614
 451  466.548
 452  398.7533
 453  587.7055
 454  503.9828
 455  424.4953
 456  448.378
 457  530.4041
 458  539.7498
 459  428.9197
 460  419.7092
 461  430.3542
 462  482.5963
 463  444.9871
 464  428.2202
 465  541.2817
 466  540.5836
 467  531.0524
 468  501.938
 469  488.7405
 470  466.1391
 471  583.5462
 472  527.5965
 473  521.2434
 474  520.082
 475  480.9588
 476  538.8182
 477  433.6171
 478  464.2035
 479  505.5891
 480  496.0662
 481  503.785
 482  473.7064
 483  478.1771
 484  435.8053
 485  564.4266
 486  674.9069
 487  536.1132
 488  565.6358
 489  587.2613
 490  646.5212
 491  546.2281
 492  610.2177
 493  549.9268
 494  513.2715
 495  498.9559
 496  490.0984
 497  503.8374
 498  428.1991
 499  567.408
 500  541.1632
 501  573.6271
 502  601.9008
 503  559.9179
 504  577.0209
 505  617.6499
 506  629.1035
 507  586.3046
 508  499.225
 509  507.113
 510  570.0814
 511  495.0945
