# Input file       =  1180164504.097987_cleaned.dat
# Candidate        =  PSR_0332+5434
# Telescope        =  AR
# Epoch_topo       =  57903.311609930402
# Epoch_bary       =  N/A
# T_sample         =  0.002
# Data Folded      =  7340032
# Data Avg         =  0.317937777703   
# Data StdDev      =  17.2714535856277 
# Profile Bins     =  256
# Profile Avg      =  9116.04755838674 
# Profile StdDev   =  2924.5421419626  
# Reduced chi-sqr  =  1.231
# Prob(Noise)      <  0.00695   (~2.5 sigma)
# P_topo (ms)      =  714.518237219965  +/- 0.000398
# P'_topo (s/s)    =  -0                +/- 2.1e-10
# P''_topo (s/s^2) =  0                 +/- 9.27e-14
# P_bary (ms)      =  N/A
# P'_bary (s/s)    =  N/A
# P''_bary (s/s^2) =  N/A
# P_orb (s)        =  N/A
# asin(i)/c (s)    =  N/A
# eccentricity     =  N/A
# w (rad)          =  N/A
# T_peri           =  N/A
######################################################
   0  7709.556
   1  8792.62
   2  9301.548
   3  7430.004
   4  5974.865
   5  9277.739
   6  12039.08
   7  13066.85
   8  13223.57
   9  13785.4
  10  12301.31
  11  10379.07
  12  9789.964
  13  9498.039
  14  9664.611
  15  7848.443
  16  7222.089
  17  6672.706
  18  6915.171
  19  10971.6
  20  12032.11
  21  13593.21
  22  13451.14
  23  12594.03
  24  14152.33
  25  15715.55
  26  13463.5
  27  14656.1
  28  13251.67
  29  11928.92
  30  9236.312
  31  9056.031
  32  8605.979
  33  9481.46
  34  10856.88
  35  11373.56
  36  13126.09
  37  12142.56
  38  10641.87
  39  10465.75
  40  10723.57
  41  11789.86
  42  11555.12
  43  9588.185
  44  9369.763
  45  10540.33
  46  10445.66
  47  9312.748
  48  13056.17
  49  12312.67
  50  11085
  51  10511.72
  52  9156.117
  53  9183.238
  54  9668.398
  55  9692.89
  56  10577.11
  57  12711.67
  58  11414.49
  59  9613.271
  60  12966.36
  61  11538.32
  62  12709.31
  63  14095.9
  64  11573.88
  65  10702.23
  66  11585.75
  67  9221.937
  68  11522.46
  69  8560.165
  70  7554.431
  71  8734.134
  72  6464.083
  73  7576.929
  74  12820.49
  75  13865.04
  76  11842.1
  77  9842.649
  78  8338.382
  79  8790.584
  80  13004.9
  81  12708.45
  82  9465.539
  83  9589.034
  84  12615.24
  85  10596.86
  86  11315.02
  87  9446.077
  88  7762.273
  89  7127.687
  90  6895.12
  91  8625.979
  92  8000.928
  93  11558.43
  94  14129.07
  95  14136.66
  96  14143.72
  97  12481.95
  98  12997.5
  99  6971.023
 100  6612.41
 101  8016.497
 102  6944.221
 103  8759.453
 104  11803.14
 105  11549.08
 106  11561.48
 107  11056.53
 108  12064.4
 109  9593.372
 110  8460.996
 111  8220.457
 112  4916.458
 113  7185.472
 114  5381.228
 115  3738.15
 116  4259.611
 117  5933.508
 118  9513.718
 119  9531.813
 120  6786.134
 121  6689.074
 122  5664.587
 123  4336.284
 124  4540.724
 125  5531.435
 126  7754.149
 127  9475.113
 128  10956.61
 129  11437.6
 130  7826.852
 131  7278.71
 132  6092.427
 133  6482.973
 134  6161.916
 135  6670.922
 136  7733.714
 137  9917.992
 138  10350.15
 139  7808.803
 140  9285.12
 141  10153.52
 142  10267.27
 143  9159.241
 144  9561.758
 145  5722.333
 146  8709.536
 147  10462.07
 148  7974.33
 149  9230.185
 150  7901.408
 151  4049.359
 152  2969.234
 153  1596.086
 154  4274.287
 155  3148.716
 156  3507.302
 157  3705.102
 158  6498.853
 159  6192.436
 160  6956.249
 161  8147.68
 162  8593.201
 163  8103.368
 164  9216.142
 165  6340.035
 166  4275.53
 167  4909.686
 168  5184.141
 169  7367.668
 170  9363.356
 171  8639.878
 172  8244.61
 173  7221.772
 174  6903.08
 175  9454.106
 176  9531.538
 177  8859.502
 178  8699.765
 179  9861.041
 180  9035.421
 181  9978.44
 182  10140.8
 183  11347.74
 184  10996.42
 185  13593.32
 186  12828.54
 187  11291.54
 188  9333.928
 189  7209.095
 190  6812.685
 191  7910.139
 192  7712.418
 193  7423.537
 194  6535.933
 195  8048.603
 196  8555.331
 197  7341.261
 198  6445.623
 199  3946.487
 200  3539.218
 201  3198.421
 202  2542.103
 203  3648.755
 204  5668.089
 205  8835.627
 206  7055.154
 207  8126.647
 208  6783.721
 209  5655.562
 210  5696.095
 211  6886.353
 212  8777.901
 213  9535.346
 214  7613.426
 215  7692.383
 216  7101.74
 217  6746.449
 218  6788.148
 219  4423.778
 220  3067.865
 221  2125.2
 222  3671.739
 223  3544.202
 224  6407.813
 225  8112.688
 226  8543.5
 227  11911.61
 228  10164.29
 229  8719.278
 230  9461.745
 231  10810.66
 232  9988.097
 233  10906.13
 234  12331.52
 235  12766.18
 236  12155.13
 237  12630.31
 238  10946.11
 239  11334.56
 240  11310.73
 241  11923.39
 242  14261.87
 243  11563.2
 244  11448.18
 245  11338.09
 246  11238.96
 247  11851.47
 248  11591.2
 249  9632.92
 250  9479.464
 251  9091.11
 252  10006.84
 253  11729.3
 254  12031.06
 255  10097.07
