# Input file       =  1180868747.104038_cleaned.dat
# Candidate        =  PSR_0332+5434
# Telescope        =  AR
# Epoch_topo       =  57911.462570648589
# Epoch_bary       =  N/A
# T_sample         =  0.002
# Data Folded      =  7340032
# Data Avg         =  0.0265537581015895
# Data StdDev      =  1.00003784339072 
# Profile Bins     =  512
# Profile Avg      =  380.447265481059 
# Profile StdDev   =  119.737567480843 
# Reduced chi-sqr  =  1.132
# Prob(Noise)      <  0.0206   (~2.0 sigma)
# P_topo (ms)      =  714.5106690594    +/- 0.000276
# P'_topo (s/s)    =  -0                +/- 1.46e-10
# P''_topo (s/s^2) =  0                 +/- 6.44e-14
# P_bary (ms)      =  N/A
# P'_bary (s/s)    =  N/A
# P''_bary (s/s^2) =  N/A
# P_orb (s)        =  N/A
# asin(i)/c (s)    =  N/A
# eccentricity     =  N/A
# w (rad)          =  N/A
# T_peri           =  N/A
######################################################
   0  815.6279
   1  811.1063
   2  532.4641
   3  436.2981
   4  328.337
   5  378.0033
   6  315.7776
   7  351.48
   8  335.1405
   9  397.6505
  10  402.7772
  11  387.0867
  12  441.3474
  13  483.5099
  14  535.5721
  15  522.7001
  16  448.567
  17  477.8566
  18  403.1581
  19  371.4865
  20  411.0621
  21  447.2529
  22  312.9796
  23  354.1324
  24  424.695
  25  445.6782
  26  459.2148
  27  446.519
  28  435.576
  29  419.4037
  30  352.0882
  31  291.8604
  32  269.4904
  33  432.2074
  34  525.7096
  35  424.0522
  36  304.1286
  37  436.4302
  38  468.2138
  39  422.5695
  40  441.3204
  41  363.123
  42  422.7071
  43  418.216
  44  412.4806
  45  393.5698
  46  404.7433
  47  341.0243
  48  371.2806
  49  407.6238
  50  361.4704
  51  299.1859
  52  294.6902
  53  438.3808
  54  439.0596
  55  426.7256
  56  377.5487
  57  300.6055
  58  365.2547
  59  452.6555
  60  410.8533
  61  489.8961
  62  461.2666
  63  417.4112
  64  309.5074
  65  352.5512
  66  393.8938
  67  457.278
  68  515.0027
  69  357.5716
  70  507.7132
  71  547.3726
  72  443.2782
  73  480.9874
  74  527.1321
  75  420.1168
  76  329.2941
  77  345.4285
  78  376.006
  79  270.4929
  80  305.4901
  81  341.4073
  82  370.4852
  83  332.726
  84  353.535
  85  234.3601
  86  191.4171
  87  223.5942
  88  307.9558
  89  319.9486
  90  377.033
  91  406.9346
  92  524.1052
  93  394.4727
  94  237.8059
  95  224.8128
  96  292.3422
  97  377.9362
  98  427.5345
  99  485.9765
 100  479.55
 101  441.2285
 102  433.7867
 103  521.7391
 104  466.0617
 105  467.7314
 106  521.4539
 107  434.2924
 108  401.9319
 109  479.5438
 110  435.2062
 111  347.3512
 112  427.1878
 113  455.035
 114  366.7282
 115  433.5893
 116  423.8116
 117  511.9984
 118  486.572
 119  444.9268
 120  472.9352
 121  433.0934
 122  479.4983
 123  382.2264
 124  433.9162
 125  541.9135
 126  430.4825
 127  197.442
 128  413.5245
 129  419.9679
 130  270.1349
 131  262.4045
 132  317.8206
 133  438.4276
 134  413.6555
 135  453.0145
 136  466.3346
 137  409.4952
 138  326.0383
 139  354.7602
 140  387.2628
 141  419.5695
 142  349.3865
 143  286.9872
 144  333.8611
 145  398.9163
 146  446.7089
 147  480.9023
 148  459.7859
 149  348.5338
 150  243.5854
 151  433.1333
 152  411.1841
 153  392.606
 154  441.5594
 155  536.6033
 156  386.7991
 157  351.6195
 158  305.8562
 159  352.9746
 160  388.7216
 161  408.0847
 162  460.2845
 163  371.3978
 164  394.0282
 165  435.9425
 166  329.8485
 167  311.4827
 168  265.5198
 169  324.8619
 170  275.7922
 171  225.8222
 172  309.9713
 173  277.0968
 174  270.3343
 175  254.0898
 176  263.9984
 177  246.0725
 178  160.1759
 179  243.0451
 180  258.7977
 181  177.5794
 182  256.5753
 183  371.8183
 184  269.8074
 185  97.23172
 186  193.9755
 187  320.4122
 188  279.0946
 189  291.4067
 190  395.6951
 191  317.7885
 192  358.1284
 193  224.3063
 194  240.2107
 195  332.3103
 196  388.0385
 197  407.1821
 198  387.5467
 199  373.3372
 200  352.0081
 201  305.7377
 202  452.2344
 203  386.111
 204  325.9684
 205  456.7672
 206  455.6293
 207  403.3264
 208  435.5244
 209  430.9034
 210  447.3824
 211  347.0306
 212  370.4007
 213  410.1005
 214  421.5831
 215  400.8589
 216  495.5587
 217  432.7946
 218  358.0432
 219  304.8393
 220  340.7083
 221  497.3244
 222  449.6498
 223  373.093
 224  279.635
 225  345.4424
 226  467.6975
 227  442.8483
 228  380.6018
 229  446.9417
 230  387.8134
 231  425.201
 232  307.5854
 233  275.8867
 234  516.8454
 235  468.8716
 236  394.7696
 237  339.132
 238  376.7577
 239  388.1016
 240  488.2892
 241  485.4808
 242  458.0083
 243  459.1337
 244  425.0592
 245  486.0831
 246  350.5846
 247  507.6462
 248  448.8094
 249  392.4664
 250  337.1771
 251  330.5646
 252  349.4116
 253  364.6537
 254  303.2407
 255  374.4375
 256  445.4035
 257  359.47
 258  340.271
 259  247.6716
 260  434.7582
 261  422.6373
 262  286.4294
 263  332.2625
 264  480.8091
 265  335.6296
 266  149.9964
 267  224.9841
 268  317.4464
 269  246.8957
 270  102.8498
 271  154.5788
 272  310.4189
 273  465.8527
 274  414.8134
 275  302.1874
 276  439.0042
 277  306.055
 278  289.4931
 279  319.5506
 280  407.1037
 281  409.5868
 282  439.9374
 283  501.9895
 284  347.6779
 285  401.5077
 286  467.2964
 287  462.6971
 288  427.9156
 289  417.5353
 290  400.9724
 291  281.2998
 292  365.3208
 293  412.0285
 294  431.1307
 295  350.0157
 296  378.8402
 297  411.7188
 298  461.0376
 299  404.9575
 300  482.8882
 301  495.2666
 302  341.5461
 303  373.841
 304  349.0018
 305  410.0976
 306  503.5836
 307  524.18
 308  486.0406
 309  462.3291
 310  508.7338
 311  571.599
 312  387.7465
 313  354.4865
 314  373.6873
 315  328.6888
 316  309.4302
 317  475.0378
 318  542.9149
 319  460.3805
 320  362.4742
 321  309.0103
 322  400.0591
 323  262.1077
 324  330.7551
 325  373.5933
 326  284.8612
 327  232.0027
 328  265.0702
 329  265.8084
 330  341.545
 331  387.4609
 332  367.3358
 333  235.9797
 334  247.6926
 335  306.5913
 336  322.137
 337  221.4761
 338  306.808
 339  303.9886
 340  264.6043
 341  316.5685
 342  353.7228
 343  363.1425
 344  213.1415
 345  324.8317
 346  332.7057
 347  302.8703
 348  310.9615
 349  259.9518
 350  329.6726
 351  370.5843
 352  455.5456
 353  396.7726
 354  499.6639
 355  468.8123
 356  412.6722
 357  442.3368
 358  366.0948
 359  354.6241
 360  408.5447
 361  301.2385
 362  277.7087
 363  343.3066
 364  375.9362
 365  319.4116
 366  433.5672
 367  546.3831
 368  437.938
 369  372.671
 370  362.5651
 371  350.0784
 372  443.3287
 373  381.2132
 374  446.1692
 375  522.1375
 376  380.3979
 377  298.1455
 378  455.4533
 379  558.1552
 380  494.5469
 381  353.1659
 382  359.8604
 383  367.4991
 384  352.3025
 385  437.375
 386  505.134
 387  494.5839
 388  421.1743
 389  394.0327
 390  368.5004
 391  419.2154
 392  511.2578
 393  398.8006
 394  440.9702
 395  435.7148
 396  367.2126
 397  437.3128
 398  390.374
 399  331.0366
 400  371.1371
 401  402.0303
 402  350.3584
 403  350.9929
 404  424.4392
 405  337.3997
 406  308.1046
 407  351.6669
 408  281.3059
 409  355.7091
 410  356.9476
 411  311.8742
 412  388.4155
 413  321.5045
 414  295.5454
 415  392.9731
 416  354.4031
 417  473.2487
 418  391.9662
 419  419.0692
 420  473.8257
 421  368.2383
 422  377.4825
 423  266.8765
 424  247.9478
 425  242.8754
 426  275.247
 427  429.4701
 428  336.7852
 429  314.9355
 430  284.7668
 431  276.6423
 432  159.7576
 433  149.7119
 434  169.4922
 435  103.3984
 436  242.9389
 437  383.9529
 438  331.6634
 439  150.898
 440  223.6318
 441  201.7268
 442  264.6545
 443  323.7348
 444  378.2632
 445  326.084
 446  384.754
 447  361.8969
 448  301.9376
 449  295.2284
 450  357.9625
 451  420.9192
 452  367.501
 453  315.9604
 454  501.5161
 455  393.3557
 456  265.2963
 457  306.9
 458  323.018
 459  417.3322
 460  405.8183
 461  421.0427
 462  474.6869
 463  420.7474
 464  349.6759
 465  320.798
 466  285.0381
 467  347.1983
 468  408.1165
 469  407.7863
 470  359.1083
 471  324.1042
 472  372.1471
 473  339.0836
 474  341.7139
 475  390.2534
 476  293.0632
 477  305.3126
 478  308.1196
 479  434.7097
 480  428.2578
 481  409.5749
 482  366.1939
 483  442.0269
 484  468.9087
 485  373.4254
 486  300.7314
 487  311.5225
 488  289.0304
 489  348.584
 490  401.9615
 491  331.4059
 492  432.8584
 493  360.2148
 494  303.078
 495  429.7389
 496  438.0171
 497  413.1346
 498  387.6985
 499  460.053
 500  386.3829
 501  425.1364
 502  406.8829
 503  463.6223
 504  431.0623
 505  563.1115
 506  601.806
 507  546.0776
 508  484.0153
 509  652.3812
 510  797.2992
 511  841.618
