# Input file       =  1180236029.103016-PSRB0329-2ms-sampling-dd.dat
# Candidate        =  PSR_0332+5434
# Telescope        =  AR
# Epoch_topo       =  57904.139445636756
# Epoch_bary       =  N/A
# T_sample         =  0.002
# Data Folded      =  7208960
# Data Avg         =  9.28789395130578e-10
# Data StdDev      =  7.60736047977759 
# Profile Bins     =  512
# Profile Avg      =  -0.836996293767056
# Profile StdDev   =  902.683124494686 
# Reduced chi-sqr  =  0.780
# Prob(Noise)      <  1   (~0.0 sigma)
# P_topo (ms)      =  714.517414025129  +/- 0.000231
# P'_topo (s/s)    =  -0                +/- 1.24e-10
# P''_topo (s/s^2) =  0                 +/- 5.57e-14
# P_bary (ms)      =  N/A
# P'_bary (s/s)    =  N/A
# P''_bary (s/s^2) =  N/A
# P_orb (s)        =  N/A
# asin(i)/c (s)    =  N/A
# eccentricity     =  N/A
# w (rad)          =  N/A
# T_peri           =  N/A
######################################################
   0  -860.4108
   1  -1035.93
   2  -1072.561
   3  -1431.526
   4  -1785.726
   5  -1323.505
   6  -792.8062
   7  -349.2423
   8  -734.2194
   9  -849.111
  10  -831.9703
  11  -974.7273
  12  -989.4013
  13  -465.2815
  14  -220.0656
  15  -114.1956
  16  -46.71964
  17  360.597
  18  126.6493
  19  -490.2047
  20  -921.9831
  21  -1490.038
  22  -1062.272
  23  -406.5325
  24  -548.5945
  25  -797.9797
  26  -598.8801
  27  -514.2338
  28  -803.7046
  29  -1041.383
  30  -496.0406
  31  -408.1949
  32  -139.2283
  33  -435.6901
  34  -184.0433
  35  -406.6682
  36  -483.5143
  37  -511.0679
  38  -616.4187
  39  -401.8403
  40  -752.8585
  41  -1188.785
  42  -925.3971
  43  -270.1578
  44  -218.8594
  45  -410.7307
  46  -204.2249
  47  120.9981
  48  294.2853
  49  303.909
  50  211.5436
  51  140.252
  52  47.95274
  53  -14.80173
  54  -235.4348
  55  -301.2344
  56  -205.2346
  57  -461.5977
  58  -330.6064
  59  -68.31952
  60  372.0735
  61  744.5491
  62  311.7548
  63  -219.9601
  64  -37.57549
  65  -316.0977
  66  -510.0146
  67  -240.4175
  68  164.6131
  69  313.7126
  70  71.28581
  71  -186.0287
  72  -137.2129
  73  -566.2606
  74  -825.1642
  75  -561.1476
  76  -384.8458
  77  -279.2257
  78  -528.731
  79  -4.476104
  80  322.1907
  81  215.622
  82  -236.4324
  83  -218.5388
  84  -282.8649
  85  -364.0508
  86  -747.3475
  87  -386.9398
  88  -91.7132
  89  109.1574
  90  -158.9382
  91  -448.7487
  92  -427.3724
  93  -161.1568
  94  -341.1832
  95  284.0375
  96  554.4451
  97  401.9443
  98  2.91868
  99  -257.7436
 100  327.6752
 101  236.3717
 102  262.5835
 103  -262.2677
 104  160.4584
 105  291.788
 106  -37.82836
 107  -0.8957043
 108  141.145
 109  41.05682
 110  750.5977
 111  819.2195
 112  548.8418
 113  1045.979
 114  988.0467
 115  676.482
 116  305.5036
 117  645.8896
 118  627.4976
 119  870.0325
 120  922.0738
 121  657.7996
 122  577.3145
 123  636.9245
 124  1118.546
 125  987.6604
 126  871.3149
 127  718.3312
 128  762.3582
 129  127.0242
 130  -84.60966
 131  -9.838755
 132  229.2087
 133  -275.3382
 134  -144.5404
 135  -82.98899
 136  -227.4301
 137  -572.609
 138  -447.7464
 139  -523.0034
 140  -594.2794
 141  -570.8738
 142  346.5396
 143  391.8509
 144  254.7051
 145  -263.4337
 146  -119.7719
 147  235.1208
 148  -364.2124
 149  -247.0934
 150  -120.8367
 151  -361.2061
 152  -347.8283
 153  119.2557
 154  9.248533
 155  -156.4084
 156  -554.0532
 157  -349.3384
 158  -488.2555
 159  -268.3589
 160  -300.9251
 161  214.7408
 162  315.3942
 163  435.9153
 164  -185.9627
 165  -164.1882
 166  49.21701
 167  589.7537
 168  467.6079
 169  -224.1028
 170  -181.1879
 171  -53.07328
 172  -32.80874
 173  -466.9177
 174  -266.8968
 175  357.8405
 176  331.2567
 177  -338.4496
 178  345.3509
 179  486.2137
 180  92.30983
 181  -66.5026
 182  -4.835184
 183  172.9369
 184  331.8628
 185  24.01068
 186  305.731
 187  306.788
 188  -14.89711
 189  -152.7676
 190  -290.637
 191  -283.9331
 192  -157.3324
 193  113.6816
 194  26.20683
 195  168.424
 196  257.2563
 197  608.5042
 198  242.0402
 199  -0.001671374
 200  76.17733
 201  -215.0774
 202  -584.9786
 203  -594.0719
 204  26.61849
 205  -164.3941
 206  -208.1019
 207  -82.82632
 208  -132.9588
 209  -346.1399
 210  -667.723
 211  -449.7411
 212  114.5949
 213  -45.18415
 214  341.797
 215  -45.93623
 216  66.77977
 217  90.70459
 218  -16.48407
 219  297.3274
 220  40.15001
 221  517.3767
 222  261.1886
 223  49.82166
 224  -218.3199
 225  513.5445
 226  545.8802
 227  201.8293
 228  493.8754
 229  502.5146
 230  255.9049
 231  164.5354
 232  -145.4964
 233  451.461
 234  115.2093
 235  151.0308
 236  309.8907
 237  580.5688
 238  942.646
 239  157.9244
 240  -231.0192
 241  -243.7268
 242  -423.0638
 243  -256.0608
 244  231.9451
 245  320.4165
 246  251.4542
 247  165.0393
 248  13.71189
 249  -548.3323
 250  -657.4833
 251  -427.6206
 252  -267.7608
 253  -428.0738
 254  -285.7297
 255  201.4921
 256  -651.1719
 257  -375.9779
 258  -548.0438
 259  -322.7278
 260  -28.73128
 261  609.2333
 262  487.771
 263  129.0145
 264  -169.9649
 265  -279.7101
 266  -229.18
 267  234.4338
 268  380.5208
 269  883.338
 270  1080.55
 271  581.6382
 272  264.4409
 273  -496.5368
 274  -56.06899
 275  127.0451
 276  545.5994
 277  253.761
 278  508.4675
 279  619.1771
 280  969.9301
 281  1463.089
 282  1576.122
 283  1187.151
 284  670.6198
 285  97.84516
 286  31.19495
 287  435.6255
 288  464.0507
 289  215.6726
 290  526.8652
 291  223.7401
 292  121.6001
 293  -70.45793
 294  604.0432
 295  1155.047
 296  1071.605
 297  517.3245
 298  -158.5844
 299  25.55379
 300  8.189565
 301  107.4627
 302  450.7546
 303  510.6492
 304  -111.3366
 305  -389.5213
 306  -591.2703
 307  -3.646357
 308  -171.8314
 309  -692.2191
 310  -404.3753
 311  -43.43087
 312  34.72887
 313  -329.3644
 314  -544.9464
 315  -367.0212
 316  -621.0712
 317  -708.2378
 318  -68.53568
 319  -182.8912
 320  561.3727
 321  746.8974
 322  635.8361
 323  294.2158
 324  481.6115
 325  339.049
 326  1008.685
 327  1311.116
 328  1249.148
 329  1359.66
 330  218.8015
 331  -159.3256
 332  -154.4825
 333  743.4357
 334  958.812
 335  629.8394
 336  191.8811
 337  132.9893
 338  443.3743
 339  172.9709
 340  20.79815
 341  292.6915
 342  -179.5417
 343  617.3085
 344  800.0167
 345  831.5504
 346  169.605
 347  31.61633
 348  -455.2739
 349  -606.7518
 350  -825.1373
 351  -722.7993
 352  82.56567
 353  497.5083
 354  903.7712
 355  52.64212
 356  -65.79649
 357  -469.7941
 358  -388.535
 359  -374.7175
 360  549.7078
 361  1143.194
 362  972.0827
 363  290.9182
 364  -165.233
 365  -129.2944
 366  -449.5093
 367  -29.85308
 368  -30.19669
 369  -126.5027
 370  26.15359
 371  -337.1742
 372  -655.765
 373  -613.9896
 374  -770.6583
 375  -800.4501
 376  -702.0392
 377  -591.558
 378  -362.711
 379  -526.2252
 380  -812.1373
 381  -822.0879
 382  -1050.87
 383  -1151.993
 384  -1178.551
 385  -463.7152
 386  -290.1507
 387  -247.4525
 388  552.419
 389  238.6609
 390  1189.534
 391  2099.075
 392  2080.354
 393  1304.585
 394  1906.152
 395  2139.001
 396  2072.788
 397  1974.535
 398  2390.329
 399  1855.886
 400  935.0339
 401  1006.727
 402  621.5031
 403  172.7899
 404  -196.0276
 405  194.0055
 406  117.7325
 407  441.9854
 408  4.233195
 409  467.3731
 410  822.6985
 411  999.9879
 412  537.8253
 413  -102.7278
 414  -630.3245
 415  -459.9745
 416  -424.9525
 417  -263.9755
 418  99.45756
 419  82.68075
 420  -324.5642
 421  -432.9623
 422  -764.7275
 423  -487.2141
 424  -445.73
 425  -382.4744
 426  83.70628
 427  458.4036
 428  119.7078
 429  34.69111
 430  -595.0745
 431  -1167.171
 432  -570.076
 433  -438.7268
 434  -578.9255
 435  -285.4668
 436  149.9137
 437  214.916
 438  -336.8625
 439  102.7044
 440  123.5511
 441  -1.611905
 442  -299.2241
 443  493.6375
 444  985.8002
 445  745.1096
 446  351.7168
 447  -44.18986
 448  -405.7792
 449  -442.2048
 450  -353.99
 451  318.8376
 452  326.8225
 453  217.5503
 454  -176.1879
 455  -56.77655
 456  -39.89854
 457  211.6872
 458  308.2548
 459  409.4693
 460  420.506
 461  171.7843
 462  -72.59199
 463  -49.31339
 464  416.5811
 465  30.69084
 466  53.43604
 467  -608.3229
 468  -822.9167
 469  -792.3238
 470  -119.2233
 471  -395.7392
 472  29.87857
 473  -650.4219
 474  -982.7936
 475  -752.3757
 476  -215.1059
 477  795.8882
 478  885.5668
 479  432.6992
 480  -23.03703
 481  -593.0524
 482  -741.1143
 483  -203.8107
 484  64.22202
 485  467.1972
 486  -257.9554
 487  -294.5777
 488  -263.8466
 489  -67.15681
 490  -271.1328
 491  -536.0941
 492  134.1429
 493  -127.553
 494  -167.9203
 495  -96.84623
 496  -219.938
 497  -16.83691
 498  299.2364
 499  -309.588
 500  -610.7126
 501  -562.1024
 502  -434.1765
 503  -858.0443
 504  -1217.981
 505  -1125.266
 506  -636.2711
 507  -938.7651
 508  -511.5716
 509  -365.2513
 510  -34.61371
 511  67.13142
