# Input file       =  1180164504.097987-PSRB0329-2ms-sampling-dd.dat
# Candidate        =  PSR_0332+5434
# Telescope        =  AR
# Epoch_topo       =  57903.311609930402
# Epoch_bary       =  N/A
# T_sample         =  0.002
# Data Folded      =  7340032
# Data Avg         =  2.16545761655422e-09
# Data StdDev      =  174.6415375729   
# Profile Bins     =  512
# Profile Avg      =  0.697909927119411
# Profile StdDev   =  20910.3615711105 
# Reduced chi-sqr  =  1.038
# Prob(Noise)      <  0.266   (~0.6 sigma)
# P_topo (ms)      =  714.518237189791  +/- 0.000636
# P'_topo (s/s)    =  -0                +/- 3.36e-10
# P''_topo (s/s^2) =  0                 +/- 1.48e-13
# P_bary (ms)      =  N/A
# P'_bary (s/s)    =  N/A
# P''_bary (s/s^2) =  N/A
# P_orb (s)        =  N/A
# asin(i)/c (s)    =  N/A
# eccentricity     =  N/A
# w (rad)          =  N/A
# T_peri           =  N/A
######################################################
   0  -22357.12
   1  -21294.96
   2  -21121.48
   3  -20678.61
   4  -19487.44
   5  -19550.89
   6  -18851.94
   7  -21105.72
   8  -21259.17
   9  -17700.05
  10  -12912.27
  11  -9420.64
  12  -6627.556
  13  -6098.746
  14  -4238.73
  15  -1780.537
  16  -2064.762
  17  790.7059
  18  2749.829
  19  362.9628
  20  9189.062
  21  13404.57
  22  12519.23
  23  23414.91
  24  22697.16
  25  21929.99
  26  9299.92
  27  5011.207
  28  4230.614
  29  247.821
  30  2299.159
  31  575.3429
  32  -1247.081
  33  -1290.489
  34  -1524.074
  35  -2189.305
  36  -866.1309
  37  1134.166
  38  4170.788
  39  6277.48
  40  6775.275
  41  8202.934
  42  10020.74
  43  10104.77
  44  11106.06
  45  13315.21
  46  9235.408
  47  10687.77
  48  12306.13
  49  13896.45
  50  14479.82
  51  15109.53
  52  16614.25
  53  17595.41
  54  17629.03
  55  17658.71
  56  17468.11
  57  16483.04
  58  14227.42
  59  15216.26
  60  14646.41
  61  14271.17
  62  11195.28
  63  8914.967
  64  7750.922
  65  7170.229
  66  6756.862
  67  6581.579
  68  7922.585
  69  9259.535
  70  10612.69
  71  11475.32
  72  15162.29
  73  19397.66
  74  22593.39
  75  25330.06
  76  30524.27
  77  33647.58
  78  35600.98
  79  37841.18
  80  40599.35
  81  41761.35
  82  42535.67
  83  43768.12
  84  43444.32
  85  41037.38
  86  40165.63
  87  39073.95
  88  37659.07
  89  36288.88
  90  31840.48
  91  30574.98
  92  28402.65
  93  26474.41
  94  24797.27
  95  25041.65
  96  23657.77
  97  21996.92
  98  21215.27
  99  19876.62
 100  18993.67
 101  18554.7
 102  17284.86
 103  13369.47
 104  13029.22
 105  13869.84
 106  13582.47
 107  12647.78
 108  11142.21
 109  7498.366
 110  6087.981
 111  7032.07
 112  11591.15
 113  13313.05
 114  14118.92
 115  14092.01
 116  12545.6
 117  15895.18
 118  21288.92
 119  24692.94
 120  25332.48
 121  27122.28
 122  27274.83
 123  20222.04
 124  18140.83
 125  14662.85
 126  10176.25
 127  6109.785
 128  5159.249
 129  4873.526
 130  4432.708
 131  5933.209
 132  6945.843
 133  7528.09
 134  8168.478
 135  9176.539
 136  9466.954
 137  10175.28
 138  11872.85
 139  11849.91
 140  9925.996
 141  9365.594
 142  8014.477
 143  6883.595
 144  6302.684
 145  5364.102
 146  4522.037
 147  4821.683
 148  5014.166
 149  10645.89
 150  12280.72
 151  15910.03
 152  15414.52
 153  14798.98
 154  15731.47
 155  15035.02
 156  13957.12
 157  13555.78
 158  11499.12
 159  11937.69
 160  12269.8
 161  11841.24
 162  11660.91
 163  10819.33
 164  9740.443
 165  9632.662
 166  9650.807
 167  7901.513
 168  7638.354
 169  9452.133
 170  8660.37
 171  3778.697
 172  2494.108
 173  657.3185
 174  -166.8142
 175  652.1031
 176  5897.479
 177  9382.167
 178  11689.98
 179  12046.87
 180  10356.03
 181  8480.015
 182  9340.629
 183  10373.47
 184  10280.48
 185  9959.039
 186  12898.46
 187  13946.5
 188  15780.29
 189  15028.72
 190  14674.57
 191  14091.75
 192  13898.21
 193  14090.89
 194  14119.19
 195  14753.15
 196  16721.89
 197  18042.67
 198  19460.51
 199  19832.3
 200  20206
 201  20119.15
 202  19753.88
 203  16903.89
 204  15463.04
 205  14889
 206  14662.99
 207  7780.375
 208  5181.854
 209  2364.295
 210  1478.766
 211  -1158.007
 212  -1543.391
 213  -4155.389
 214  -6360.071
 215  -7410.656
 216  -7305.689
 217  -7751.021
 218  -6062.737
 219  -6701.875
 220  -7221.133
 221  -1354.479
 222  2584.675
 223  6286.485
 224  469.0536
 225  262.7001
 226  1715.647
 227  3334.78
 228  4651.926
 229  6377.365
 230  6057.198
 231  6370.496
 232  7078.937
 233  2308.061
 234  1066.648
 235  120.3886
 236  531.1591
 237  712.4384
 238  503.2375
 239  889.9272
 240  1766.244
 241  2687.471
 242  3417.902
 243  3351.944
 244  2167.775
 245  -2784.618
 246  -5857.5
 247  -10151.51
 248  -9937.271
 249  -10963.35
 250  -12165.4
 251  -4756.752
 252  -4321.825
 253  -6323.287
 254  -5292.808
 255  -9018.881
 256  -10936.24
 257  -14659.78
 258  -14530.26
 259  -12549.49
 260  -12380.78
 261  -12471.09
 262  -12303.34
 263  -14464
 264  -16088.78
 265  -15094.49
 266  -14919.77
 267  -14263.87
 268  -14092.71
 269  -13475.3
 270  -14034.39
 271  -15269.51
 272  -12434.31
 273  -13465.57
 274  -16343.95
 275  -17715.19
 276  -16270.77
 277  -14547.16
 278  -13116.42
 279  -12652.44
 280  -14242.54
 281  -12983.82
 282  -12511.42
 283  -12229.25
 284  -1801.836
 285  2733.86
 286  4877.087
 287  4526.755
 288  4545.724
 289  3089.269
 290  2382.674
 291  870.2769
 292  -1765.566
 293  -3809.221
 294  -5258.75
 295  -7544.926
 296  -9207.323
 297  -9039.518
 298  -8923.019
 299  -9015.874
 300  -9238.135
 301  -10717.55
 302  -10477.1
 303  -10869.46
 304  -9685.853
 305  -7643.241
 306  -7480.12
 307  -6144.897
 308  -5538.736
 309  -5252.118
 310  -5406.484
 311  -3712.201
 312  -2839.123
 313  -3061.016
 314  -1944.838
 315  -2147.564
 316  -1339.254
 317  -1401.2
 318  -171.1028
 319  -767.7263
 320  -1322.842
 321  -1567.142
 322  -2238.112
 323  -2627.287
 324  -3789.219
 325  -3965.201
 326  -4567.039
 327  -6578.242
 328  -9302.938
 329  -9570.388
 330  -11305.4
 331  -13609.56
 332  -13700.73
 333  -14323.12
 334  -14869.53
 335  -16290.93
 336  -17797.32
 337  -19355.41
 338  -20114.82
 339  -19414.33
 340  -17012.2
 341  -13389.14
 342  -12145.88
 343  -10324.6
 344  -7713.004
 345  -4120.917
 346  -283.511
 347  2996.735
 348  6977.796
 349  11359.06
 350  20108.88
 351  24641.08
 352  26002.9
 353  26548.92
 354  22835.85
 355  17103.44
 356  13718.97
 357  6336.759
 358  3955.337
 359  -2438.334
 360  -3602.481
 361  -3673.253
 362  -5183.605
 363  -6672.173
 364  -6347.506
 365  -5455.191
 366  -5359.574
 367  -6367.585
 368  -5645.599
 369  -5530.918
 370  -3599.798
 371  1216.448
 372  7311.478
 373  12653.88
 374  13598.83
 375  17316.76
 376  19058.18
 377  18023.65
 378  18199.13
 379  16453.7
 380  15276.57
 381  14267.62
 382  12026.47
 383  8889.997
 384  7289.889
 385  5446.028
 386  1275.011
 387  1031.168
 388  -5395.966
 389  -15725.73
 390  -24999.69
 391  -26830.9
 392  -26874.59
 393  -29687.04
 394  -29649.6
 395  -31383.33
 396  -32410.88
 397  -28194.96
 398  -22663.9
 399  -20199.71
 400  -19617.95
 401  -20290.86
 402  -19637.83
 403  -14626.47
 404  -11296.61
 405  -9447.991
 406  -9111.091
 407  -8815.216
 408  -9172.116
 409  -9387.848
 410  -11126.59
 411  -13667.83
 412  -14561.9
 413  -15673.58
 414  -17530.51
 415  -18488.07
 416  -19909.4
 417  -21811
 418  -22659.33
 419  -23576.5
 420  -24430.12
 421  -25821.11
 422  -25650.96
 423  -24099.7
 424  -22527.32
 425  -20667.99
 426  -18778.27
 427  -16373.51
 428  -14234.4
 429  -11573.52
 430  -9195.963
 431  -6245.284
 432  -4689.132
 433  -2812.356
 434  -2086.112
 435  -2637.772
 436  -3829.677
 437  -4510.241
 438  -6310.902
 439  -8794.083
 440  -11001.12
 441  -11337.83
 442  -13000.68
 443  -12813.99
 444  -12931.65
 445  -11688.27
 446  -11487.27
 447  -11951.24
 448  -9189.327
 449  -5954.05
 450  -1688.259
 451  437.7316
 452  2613.064
 453  6221.7
 454  8506.614
 455  10145.5
 456  11875.55
 457  13373.5
 458  14189.33
 459  13548.99
 460  11504.26
 461  11046.76
 462  8961.84
 463  3926.947
 464  -472.1184
 465  -4641.381
 466  -10434.5
 467  -14511.32
 468  -17909.7
 469  -19928.55
 470  -23678.52
 471  -26007.21
 472  -28643.2
 473  -28083.78
 474  -28089.45
 475  -27728.02
 476  -25947.24
 477  -24874.14
 478  -24463.96
 479  -22500.36
 480  -20851.56
 481  -19863.82
 482  -18244.11
 483  -17458.68
 484  -16634.29
 485  -15239
 486  -16376.31
 487  -17738.7
 488  -21021.48
 489  -21111.23
 490  -22102.83
 491  -23480.22
 492  -24025.93
 493  -24948.15
 494  -25452.59
 495  -24124.36
 496  -22971.91
 497  -23261.04
 498  -22938.94
 499  -22887.12
 500  -23107.69
 501  -24778.51
 502  -24754.21
 503  -24779.19
 504  -25121.68
 505  -25029.57
 506  -23308.15
 507  -25079.15
 508  -24582.01
 509  -23601.77
 510  -23462.89
 511  -23145.38
