# Input file       =  1180179408.102320-PSRB0329-2ms-sampling-dd.dat
# Candidate        =  PSR_0332+5434
# Telescope        =  AR
# Epoch_topo       =  57903.484109980556
# Epoch_bary       =  N/A
# T_sample         =  0.002
# Data Folded      =  7340032
# Data Avg         =  -8.68454803256177e-10
# Data StdDev      =  4.97538052689604 
# Profile Bins     =  512
# Profile Avg      =  0.0372412657924367
# Profile StdDev   =  595.717417615097 
# Reduced chi-sqr  =  0.886
# Prob(Noise)      <  0.97   (~0.0 sigma)
# P_topo (ms)      =  714.518401132372  +/- 9.47e-05
# P'_topo (s/s)    =  -0                +/- 5e-11
# P''_topo (s/s^2) =  0                 +/- 2.21e-14
# P_bary (ms)      =  N/A
# P'_bary (s/s)    =  N/A
# P''_bary (s/s^2) =  N/A
# P_orb (s)        =  N/A
# asin(i)/c (s)    =  N/A
# eccentricity     =  N/A
# w (rad)          =  N/A
# T_peri           =  N/A
######################################################
   0  270.568
   1  137.8658
   2  352.2557
   3  216.2659
   4  -187.799
   5  314.7508
   6  78.31123
   7  253.8787
   8  184.483
   9  362.9521
  10  190.3572
  11  225.5607
  12  315.3237
  13  55.36545
  14  697.5037
  15  191.5506
  16  20.7998
  17  260.8917
  18  333.0801
  19  237.9144
  20  -156.7379
  21  -611.7454
  22  -717.5779
  23  -552.0939
  24  -94.43982
  25  261.5874
  26  195.2495
  27  452.0998
  28  144.1524
  29  249.9002
  30  -7.111022
  31  -413.9584
  32  -307.8
  33  -292.6005
  34  109.6115
  35  160.0092
  36  -36.9791
  37  -90.3848
  38  -151.5789
  39  -189.8102
  40  221.488
  41  377.0869
  42  413.2812
  43  510.733
  44  300.5955
  45  362.9482
  46  333.8863
  47  468.2075
  48  163.251
  49  179.3779
  50  373.1455
  51  448.8377
  52  530.538
  53  904.8421
  54  516.3215
  55  250.1498
  56  302.2671
  57  251.3728
  58  27.11905
  59  69.52642
  60  479.1978
  61  173.6489
  62  -95.52169
  63  -19.82237
  64  333.3497
  65  443.1202
  66  562.7407
  67  267.5613
  68  71.98571
  69  -104.375
  70  74.77224
  71  644.0906
  72  838.6801
  73  622.6249
  74  540.5052
  75  398.182
  76  355.0436
  77  213.2318
  78  342.7144
  79  741.9257
  80  596.4929
  81  1259.904
  82  1450.186
  83  1563.158
  84  1831.662
  85  1881.828
  86  1105.841
  87  52.92686
  88  220.3603
  89  573.5898
  90  505.6839
  91  235.3864
  92  573.2524
  93  688.1678
  94  325.2937
  95  58.9978
  96  63.14376
  97  -52.47253
  98  -136.0076
  99  -146.0854
 100  -157.5081
 101  211.3599
 102  252.7336
 103  145.3282
 104  -309.5794
 105  -118.9255
 106  -22.17346
 107  276.8118
 108  991.9995
 109  1000.829
 110  685.3336
 111  574.9714
 112  249.2792
 113  210.043
 114  400.0323
 115  65.39683
 116  407.3729
 117  680.5415
 118  492.0202
 119  152.1162
 120  -317.5016
 121  -300.6511
 122  -276.405
 123  -321.2808
 124  -450.5622
 125  -35.51846
 126  -68.68666
 127  -245.9519
 128  -112.9153
 129  -206.1553
 130  -409.5145
 131  -740.7032
 132  -198.3914
 133  -276.5299
 134  -66.55199
 135  42.16135
 136  -321.8509
 137  -502.0734
 138  -68.93328
 139  136.6224
 140  -150.7861
 141  207.8626
 142  425.113
 143  -89.09164
 144  -350.0233
 145  -129.7787
 146  45.24611
 147  400.8304
 148  316.9978
 149  16.84807
 150  -241.8607
 151  -540.174
 152  -273.9898
 153  -337.8818
 154  -134.883
 155  -152.1029
 156  -271.3377
 157  -142.1087
 158  227.6709
 159  222.8277
 160  -359.9915
 161  -738.7053
 162  -596.845
 163  -683.3865
 164  -555.439
 165  -407.4614
 166  -261.6611
 167  -174.9999
 168  -519.7723
 169  -483.0311
 170  -282.0977
 171  -531.3686
 172  -232.851
 173  34.93351
 174  437.7026
 175  530.3633
 176  408.8806
 177  516.1318
 178  18.49387
 179  53.50027
 180  39.09073
 181  420.0806
 182  434.4145
 183  338.9533
 184  167.4582
 185  87.81099
 186  -233.5641
 187  -645.6229
 188  -600.1296
 189  -782.8928
 190  -357.1585
 191  -288.0216
 192  186.9562
 193  209.7491
 194  64.34642
 195  -217.8425
 196  -710.017
 197  -483.5901
 198  -770.039
 199  -231.4096
 200  -7.185224
 201  -278.9092
 202  -678.7007
 203  -1173.971
 204  -911.4257
 205  -582.0931
 206  -226.2542
 207  138.4312
 208  394.4699
 209  245.5427
 210  192.963
 211  22.78411
 212  -196.8545
 213  -215.5636
 214  31.33826
 215  58.24109
 216  -7.193906
 217  380.7073
 218  204.2478
 219  -280.1281
 220  -301.583
 221  74.11526
 222  -178.4125
 223  -34.03236
 224  138.2243
 225  -12.39331
 226  -33.63306
 227  93.33169
 228  -186.1884
 229  -88.38747
 230  -343.2401
 231  -384.479
 232  74.6953
 233  -57.96524
 234  -113.8035
 235  -462.5728
 236  -295.3894
 237  -344.556
 238  -90.88397
 239  78.15244
 240  143.8978
 241  227.7238
 242  5.241824
 243  127.4488
 244  -261.663
 245  -703.3677
 246  -599.4374
 247  -580.6323
 248  180.7759
 249  -211
 250  16.50044
 251  -71.33659
 252  -152.0324
 253  -563.1772
 254  -603.088
 255  -454.2743
 256  -503.655
 257  56.16111
 258  222.2775
 259  422.5612
 260  106.1468
 261  -1.59887
 262  -554.6276
 263  -543.7698
 264  -233.9894
 265  -295.3287
 266  345.8965
 267  29.86607
 268  149.1518
 269  142.1853
 270  -126.2785
 271  -36.34288
 272  -311.1953
 273  221.0452
 274  78.22821
 275  326.5909
 276  138.9953
 277  164.1612
 278  -65.90381
 279  -489.2866
 280  -245.2213
 281  -275.1868
 282  74.41656
 283  488.8683
 284  692.5552
 285  539.9097
 286  130.1664
 287  -132.8004
 288  99.59513
 289  -229.391
 290  43.54272
 291  271.1912
 292  309.698
 293  340.2565
 294  -237.8912
 295  -90.50268
 296  -408.556
 297  -645.8802
 298  -407.7766
 299  -208.1566
 300  -169.3011
 301  -466.5281
 302  -235.6033
 303  449.8944
 304  11.02642
 305  -263.4453
 306  -57.68902
 307  195.6106
 308  51.07043
 309  -148.8612
 310  240.4599
 311  8.838325
 312  -12.34189
 313  -580.0585
 314  -497.4453
 315  38.69215
 316  -43.3112
 317  216.6407
 318  -9.648886
 319  -603.7769
 320  -871.9755
 321  -945.0526
 322  -563.123
 323  -222.9945
 324  228.2681
 325  221.9402
 326  -212.0262
 327  -83.36821
 328  -323.2941
 329  -211.7333
 330  -140.8389
 331  152.1645
 332  134.9778
 333  -185.4235
 334  -356.5313
 335  -526.243
 336  -412.6331
 337  -935.6431
 338  -864.3771
 339  -516.0754
 340  -109.4692
 341  -120.5765
 342  -188.6223
 343  14.50236
 344  -94.14631
 345  -532.5847
 346  -921.5117
 347  -916.7623
 348  -744.3272
 349  -280.0024
 350  -54.28511
 351  -10.3944
 352  171.339
 353  -119.9267
 354  -437.6973
 355  -545.5809
 356  -625.6644
 357  -151.7493
 358  -254.4583
 359  -347.4151
 360  -410.5915
 361  -379.0434
 362  -450.2505
 363  -736.9677
 364  -543.4949
 365  -546.3073
 366  -442.9654
 367  -401.4015
 368  -677.0597
 369  -270.2435
 370  -546.1745
 371  -419.9288
 372  -485.7931
 373  -394.2859
 374  -68.03023
 375  -53.57675
 376  -119.6882
 377  -469.952
 378  -719.5986
 379  -847.2108
 380  -844.4343
 381  -163.2126
 382  -110.5412
 383  151.4699
 384  419.8394
 385  235.6694
 386  -123.2368
 387  -389.195
 388  -391.1831
 389  101.635
 390  207.3134
 391  208.0857
 392  301.289
 393  17.08435
 394  -130.1543
 395  -142.8583
 396  -236.3113
 397  -217.386
 398  -59.03014
 399  97.89363
 400  -257.3828
 401  -723.2451
 402  -898.0388
 403  -893.3531
 404  -705.7889
 405  -236.8336
 406  105.7624
 407  -54.43987
 408  -221.5652
 409  -66.70995
 410  -432.6239
 411  -627.5099
 412  -566.0083
 413  -200.3295
 414  -506.0845
 415  -89.31491
 416  299.6602
 417  551.4218
 418  513.2302
 419  15.49865
 420  176.3137
 421  201.1761
 422  80.45801
 423  120.3992
 424  329.0962
 425  453.0157
 426  361.9303
 427  417.3866
 428  740.6633
 429  411.7948
 430  397.3239
 431  352.4271
 432  222.974
 433  400.2884
 434  651.0284
 435  577.9807
 436  358.3
 437  -301.1217
 438  -465.1495
 439  -119.6748
 440  483.8482
 441  583.9438
 442  425.1203
 443  652.3331
 444  238.0451
 445  137.0201
 446  -326.8617
 447  33.63621
 448  87.2241
 449  -284.7797
 450  246.11
 451  -62.10554
 452  218.0323
 453  14.11474
 454  385.1135
 455  622.7413
 456  596.6709
 457  423.9346
 458  272.7083
 459  579.3987
 460  308.041
 461  36.70009
 462  109.2139
 463  34.15752
 464  262.2603
 465  560.225
 466  474.8773
 467  211.1344
 468  165.8376
 469  -87.76137
 470  -213.6567
 471  -186.2701
 472  49.24165
 473  -54.31593
 474  -181.9868
 475  -209.5424
 476  -143.9182
 477  -111.5146
 478  -244.3462
 479  98.59863
 480  447.0214
 481  289.6558
 482  259.1326
 483  -107.1494
 484  -352.7169
 485  -268.6677
 486  -460.2899
 487  408.1252
 488  259.3195
 489  289.8317
 490  59.22129
 491  95.04202
 492  136.2921
 493  -102.8413
 494  328.699
 495  301.7527
 496  274.2513
 497  308.2889
 498  220.9722
 499  332.8011
 500  209.6425
 501  58.80021
 502  87.92385
 503  -1.586076
 504  -55.60489
 505  293.546
 506  338.1103
 507  90.00358
 508  123.0187
 509  582.5768
 510  739.4964
 511  295.4391
