# Input file       =  1180265636.121797-PSRB0329-2ms-sampling-dd.dat
# Candidate        =  PSR_0332+5434
# Telescope        =  AR
# Epoch_topo       =  57904.482119465247
# Epoch_bary       =  N/A
# T_sample         =  0.002
# Data Folded      =  7340032
# Data Avg         =  6.87013319091452e-11
# Data StdDev      =  4.8406058167937  
# Profile Bins     =  512
# Profile Avg      =  -0.403053818049055
# Profile StdDev   =  579.580432347746 
# Reduced chi-sqr  =  0.628
# Prob(Noise)      <  1   (~0.0 sigma)
# P_topo (ms)      =  714.51742464653   +/- 0.000133
# P'_topo (s/s)    =  -0                +/- 7.01e-11
# P''_topo (s/s^2) =  0                 +/- 3.09e-14
# P_bary (ms)      =  N/A
# P'_bary (s/s)    =  N/A
# P''_bary (s/s^2) =  N/A
# P_orb (s)        =  N/A
# asin(i)/c (s)    =  N/A
# eccentricity     =  N/A
# w (rad)          =  N/A
# T_peri           =  N/A
######################################################
   0  -518.2996
   1  -168.1912
   2  123.3375
   3  -145.1444
   4  -573.8237
   5  -286.52
   6  -57.71748
   7  40.71684
   8  -295.7036
   9  -103.5151
  10  -60.02127
  11  -127.9814
  12  60.07502
  13  81.74538
  14  -117.8932
  15  -415.7337
  16  -116.4637
  17  -212.7015
  18  -178.48
  19  -225.7965
  20  106.1554
  21  49.55009
  22  -243.7914
  23  -407.2445
  24  -31.20583
  25  216.0794
  26  -67.72384
  27  -76.23432
  28  -251.8554
  29  -313.6908
  30  67.14078
  31  -59.8394
  32  -14.11399
  33  -317.7827
  34  -473.4214
  35  -478.7513
  36  -222.6075
  37  -117.452
  38  28.94473
  39  -131.6029
  40  -122.1141
  41  -283.5642
  42  -224.2719
  43  57.64988
  44  99.02257
  45  84.57707
  46  5.330653
  47  216.2015
  48  611.7407
  49  290.879
  50  -51.49342
  51  67.93123
  52  341.8524
  53  13.98787
  54  262.6312
  55  250.8567
  56  87.71573
  57  492.8202
  58  68.05104
  59  -118.4995
  60  -112.44
  61  290.593
  62  601.9559
  63  -61.73303
  64  198.6698
  65  13.49255
  66  -260.7215
  67  -305.6022
  68  -44.29937
  69  146.7706
  70  55.1683
  71  -25.77887
  72  317.3897
  73  150.7897
  74  -378.4319
  75  -118.5592
  76  62.87619
  77  -139.4581
  78  -263.4629
  79  250.5521
  80  716.5464
  81  838.9659
  82  1109.828
  83  979.5253
  84  966.9183
  85  559.8241
  86  -52.12591
  87  -128.0948
  88  213.7831
  89  283.2693
  90  96.87819
  91  352.8097
  92  220.4183
  93  11.94792
  94  217.9945
  95  67.41109
  96  -58.55761
  97  354.9716
  98  535.5611
  99  256.5576
 100  -384.3067
 101  -158.1929
 102  -69.42725
 103  206.1475
 104  -55.60724
 105  71.02293
 106  491.5303
 107  253.896
 108  -85.12791
 109  -222.5609
 110  192.3502
 111  215.2547
 112  50.64452
 113  248.913
 114  105.0569
 115  -89.71688
 116  -283.0952
 117  -325.7408
 118  -223.2256
 119  -47.98622
 120  95.59356
 121  738.2606
 122  191.481
 123  151.2982
 124  -199.431
 125  -380.4536
 126  -156.2296
 127  -285.578
 128  82.87237
 129  314.1635
 130  348.0204
 131  239.457
 132  17.55549
 133  -61.30078
 134  5.603463
 135  -300.6118
 136  -129.4211
 137  107.1697
 138  -302.7327
 139  -664.9812
 140  -470.6467
 141  -425.5189
 142  165.117
 143  268.6786
 144  85.91533
 145  -148.3578
 146  266.5483
 147  1.80615
 148  -185.6055
 149  -401.7771
 150  -224.3495
 151  54.52584
 152  9.867349
 153  459.912
 154  493.639
 155  244.863
 156  346.1332
 157  446.6525
 158  10.27548
 159  8.836803
 160  346.264
 161  557.8015
 162  578.4158
 163  695.0726
 164  579.163
 165  478.6271
 166  200.0723
 167  145.3705
 168  395.0284
 169  520.3487
 170  56.89386
 171  160.5816
 172  564.4901
 173  370.4736
 174  296.0504
 175  25.21158
 176  -388.6992
 177  -457.8285
 178  6.779118
 179  309.8835
 180  342.3464
 181  187.2577
 182  191.9655
 183  -165.7604
 184  -192.0971
 185  192.8941
 186  481.1024
 187  256.4839
 188  357.1899
 189  162.2508
 190  123.4556
 191  -17.31594
 192  -128.1644
 193  90.67802
 194  3.397214
 195  120.5839
 196  539.1424
 197  661.7479
 198  273.9354
 199  591.5868
 200  345.4786
 201  240.8661
 202  48.41101
 203  320.6533
 204  220.3605
 205  366.3599
 206  180.59
 207  353.218
 208  110.538
 209  568.2529
 210  775.9803
 211  876.8721
 212  1037
 213  575.1453
 214  450.691
 215  324.0534
 216  169.9156
 217  246.4808
 218  9.170654
 219  -10.81454
 220  502.3842
 221  745.9669
 222  612.4005
 223  267.5806
 224  53.60888
 225  311.0101
 226  417.3142
 227  335.184
 228  566.3416
 229  447.7295
 230  344.2976
 231  78.39864
 232  12.63715
 233  116.8719
 234  -101.5079
 235  206.5063
 236  159.0619
 237  71.20415
 238  -68.19963
 239  -54.20303
 240  -505.9675
 241  -494.4447
 242  -188.5224
 243  -48.94689
 244  271.2384
 245  247.5341
 246  186.8604
 247  -25.3848
 248  -206.75
 249  14.58416
 250  -374.5067
 251  13.68974
 252  472.3684
 253  575.598
 254  691.5562
 255  742.9952
 256  398.399
 257  -282.8004
 258  59.34481
 259  -91.12772
 260  106.5869
 261  310.7493
 262  147.6117
 263  368.8316
 264  339.2437
 265  410.7214
 266  582.844
 267  333.7881
 268  327.5923
 269  267.9566
 270  937.5818
 271  584.199
 272  496.6933
 273  105.3366
 274  -42.75801
 275  307.5397
 276  244.0555
 277  150.8455
 278  745.0269
 279  529.2264
 280  516.6063
 281  408.9522
 282  412.6131
 283  100.4538
 284  -0.5057396
 285  221.2881
 286  102.2865
 287  -261.6431
 288  65.04528
 289  -68.75384
 290  -99.3335
 291  55.11368
 292  -417.1204
 293  219.5261
 294  325.9044
 295  282.8177
 296  -136.2648
 297  -328.7691
 298  -505.2682
 299  -41.80936
 300  85.44357
 301  -359.0075
 302  -233.2989
 303  -402.9004
 304  -481.6346
 305  -329.1993
 306  -4.191576
 307  238.054
 308  152.7825
 309  67.74329
 310  61.80765
 311  348.1809
 312  -85.33622
 313  -363.0059
 314  -150.2775
 315  -131.3977
 316  -473.3561
 317  -174.6488
 318  -72.36963
 319  -362.7915
 320  -90.53982
 321  183.4277
 322  254.652
 323  6.201092
 324  -243.8307
 325  -430.0925
 326  -324.4767
 327  -150.1677
 328  -14.86017
 329  -22.79107
 330  -190.3018
 331  -470.3
 332  -291.2505
 333  -142.5467
 334  201.9746
 335  189.1675
 336  9.345139
 337  123.3005
 338  -2.97336
 339  55.21389
 340  -242.1138
 341  -143.0602
 342  -158.8895
 343  -263.5714
 344  6.267613
 345  -150.7921
 346  -180.4837
 347  195.1442
 348  -3.174514
 349  -423.7911
 350  -367.0681
 351  -440.5527
 352  -556.1926
 353  -647.566
 354  -597.6992
 355  -148.2237
 356  160.9814
 357  207.9055
 358  202.3199
 359  -233.9743
 360  -355.5251
 361  -165.4202
 362  -353.3104
 363  24.73918
 364  331.0347
 365  432.8682
 366  -58.25776
 367  -0.03116611
 368  -147.6278
 369  -45.06773
 370  -475.9585
 371  -472.2365
 372  -453.0118
 373  -180.2252
 374  -200.1303
 375  -125.5049
 376  -160.4168
 377  -297.9807
 378  -618.7318
 379  -441.6205
 380  -148.6869
 381  170.3351
 382  151.0755
 383  82.23693
 384  332.5049
 385  -126.029
 386  -326.2669
 387  -214.9818
 388  -301.2254
 389  -162.6642
 390  242.2319
 391  637.2995
 392  281.72
 393  -272.4461
 394  -53.20078
 395  -213.3994
 396  -217.5272
 397  -107.5623
 398  204.9249
 399  187.042
 400  -331.2181
 401  -518.7614
 402  -301.5921
 403  -464.6482
 404  -558.7697
 405  -353.4115
 406  -273.2816
 407  -267.1515
 408  -408.1148
 409  -218.9249
 410  -207.4456
 411  -529.5006
 412  -339.4517
 413  -337.4613
 414  -281.2375
 415  138.4316
 416  82.03033
 417  151.0442
 418  -217.2792
 419  -68.87923
 420  -307.7736
 421  -595.2277
 422  -73.75909
 423  0.9171761
 424  -198.8388
 425  -320.2119
 426  274.8681
 427  -2.824387
 428  -363.6509
 429  -642.6181
 430  -412.8757
 431  -87.76215
 432  116.8001
 433  52.19772
 434  -171.6464
 435  189.4965
 436  -232.3109
 437  -390.8822
 438  -286.1765
 439  -91.26408
 440  -218.0727
 441  -414.4211
 442  -606.4794
 443  -563.3715
 444  -998.6577
 445  -944.3
 446  -725.0269
 447  -9.763572
 448  -133.3412
 449  -73.31939
 450  84.5288
 451  -230.1335
 452  -356.1205
 453  -623.7467
 454  -515.8611
 455  -471.0889
 456  -471.3352
 457  -156.4491
 458  -122.2624
 459  233.5358
 460  -104.7711
 461  -78.15894
 462  -220.4567
 463  -335.9526
 464  273.0932
 465  32.85391
 466  187.8168
 467  244.875
 468  -14.36913
 469  -136.5257
 470  -102.9393
 471  -118.5545
 472  -277.0789
 473  -223.5232
 474  -37.63731
 475  -295.0812
 476  -187.1318
 477  -187.1155
 478  -647.7368
 479  -824.8332
 480  -797.7237
 481  -399.6346
 482  -550.4085
 483  -203.7265
 484  200.7186
 485  108.225
 486  -498.5492
 487  -1003.485
 488  -724.1522
 489  -114.0094
 490  121.9636
 491  -266.289
 492  -150.0555
 493  417.8521
 494  -137.1575
 495  -315.1261
 496  -241.3495
 497  88.88043
 498  280.6088
 499  56.60428
 500  263.6407
 501  72.12376
 502  -108.3829
 503  -117.0753
 504  -350.941
 505  -522.9805
 506  -512.937
 507  -251.6418
 508  -12.18818
 509  32.83501
 510  297.9815
 511  -280.1319
