# Input file       =  1180179408.10232_cleaned.dat
# Candidate        =  PSR_0332+5434
# Telescope        =  AR
# Epoch_topo       =  57903.484109980556
# Epoch_bary       =  N/A
# T_sample         =  0.002
# Data Folded      =  7340032
# Data Avg         =  0.0264257160507861
# Data StdDev      =  1.00004798596625 
# Profile Bins     =  512
# Profile Avg      =  378.812527724527 
# Profile StdDev   =  119.738781882208 
# Reduced chi-sqr  =  1.279
# Prob(Noise)      <  1.93e-05   (~4.1 sigma)
# P_topo (ms)      =  714.51840050817   +/- 0.000278
# P'_topo (s/s)    =  -0                +/- 1.46e-10
# P''_topo (s/s^2) =  0                 +/- 6.47e-14
# P_bary (ms)      =  N/A
# P'_bary (s/s)    =  N/A
# P''_bary (s/s^2) =  N/A
# P_orb (s)        =  N/A
# asin(i)/c (s)    =  N/A
# eccentricity     =  N/A
# w (rad)          =  N/A
# T_peri           =  N/A
######################################################
   0  860.9893
   1  943.1669
   2  755.0218
   3  406.2925
   4  353.3858
   5  485.9172
   6  394.7015
   7  358.5949
   8  472.7656
   9  465.38
  10  431.2516
  11  460.2437
  12  503.4339
  13  481.6136
  14  460.9957
  15  411.9453
  16  288.9472
  17  407.5449
  18  521.9514
  19  485.6313
  20  406.4487
  21  475.1592
  22  444.5228
  23  446.7626
  24  573.2982
  25  573.985
  26  393.8516
  27  413.1021
  28  392.6345
  29  449.6538
  30  492.2295
  31  370.5629
  32  477.9086
  33  500.3996
  34  450.671
  35  387.2529
  36  282.5894
  37  321.2188
  38  362.4388
  39  339.0172
  40  293.6638
  41  304.9097
  42  329.4036
  43  291.6346
  44  383.0392
  45  376.9363
  46  326.305
  47  262.8388
  48  344.9944
  49  300.932
  50  396.7143
  51  397.884
  52  293.4363
  53  285.0747
  54  403.7687
  55  484.9599
  56  266.2163
  57  388.5602
  58  521.0741
  59  399.0386
  60  440.4665
  61  471.144
  62  477.8332
  63  572.4523
  64  517.8469
  65  434.9741
  66  398.306
  67  366.9591
  68  387.8287
  69  376.0661
  70  394.5529
  71  304.8214
  72  254.6617
  73  365.8077
  74  555.9389
  75  508.2869
  76  391.4151
  77  307.9221
  78  312.6393
  79  338.3246
  80  363.003
  81  441.0156
  82  411.824
  83  355.7627
  84  309.9561
  85  309.8467
  86  333.665
  87  298.3447
  88  339.0259
  89  386.869
  90  496.5179
  91  533.6345
  92  371.6154
  93  477.5921
  94  419.9617
  95  382.8753
  96  462.3351
  97  569.5569
  98  561.6196
  99  488.9515
 100  454.4392
 101  441.6714
 102  373.6508
 103  388.2873
 104  434.886
 105  356.9492
 106  374.5346
 107  329.9078
 108  357.393
 109  387.663
 110  418.6595
 111  502.3354
 112  387.4077
 113  395.1661
 114  287.8119
 115  337.0823
 116  319.6441
 117  213.5083
 118  178.6788
 119  99.49461
 120  151.3594
 121  311.6115
 122  292.4634
 123  326.9326
 124  371.6876
 125  315.1168
 126  343.0251
 127  326.1351
 128  291.196
 129  318.3949
 130  324.2416
 131  317.308
 132  318.7341
 133  425.6947
 134  354.1894
 135  244.1747
 136  321.5191
 137  452.8777
 138  377.4977
 139  377.7065
 140  441.5325
 141  433.6848
 142  387.2033
 143  461.873
 144  376.2366
 145  431.0799
 146  415.3757
 147  376.987
 148  470.5215
 149  397.8962
 150  355.4465
 151  286.5468
 152  381.8404
 153  417.5706
 154  424.9563
 155  484.5033
 156  490.5134
 157  354.7982
 158  305.8265
 159  348.7336
 160  263.8145
 161  193.4802
 162  247.8001
 163  345.9833
 164  464.4686
 165  345.0431
 166  347.3923
 167  358.0587
 168  415.6022
 169  316.1381
 170  342.257
 171  326.8733
 172  197.1494
 173  317.1048
 174  350.5496
 175  369.3835
 176  372.0977
 177  314.3611
 178  154.8895
 179  236.568
 180  387.1263
 181  284.3687
 182  393.6933
 183  317.4909
 184  332.9527
 185  409.5748
 186  375.2815
 187  427.3499
 188  372.6912
 189  414.8548
 190  351.2833
 191  331.3792
 192  371.7184
 193  426.1184
 194  413.309
 195  355.5804
 196  390.6352
 197  344.1932
 198  386.6264
 199  407.0626
 200  456.8558
 201  510.0044
 202  472.832
 203  421.3144
 204  476.5366
 205  378.7241
 206  311.7188
 207  317.6176
 208  331.6779
 209  373.2835
 210  233.5066
 211  256.314
 212  200.8746
 213  194.3085
 214  228.774
 215  295.8961
 216  310.2376
 217  206.1782
 218  217.0797
 219  419.9044
 220  328.4293
 221  271.3042
 222  426.6479
 223  441.5149
 224  364.1353
 225  262.8547
 226  364.8138
 227  408.3447
 228  462.7095
 229  387.0222
 230  281.9095
 231  344.2463
 232  350.1048
 233  387.1622
 234  404.1226
 235  338.9672
 236  299.1058
 237  243.6676
 238  213.8641
 239  241.3142
 240  391.2321
 241  421.5117
 242  263.8909
 243  373.5306
 244  335.3119
 245  295.7764
 246  334.6894
 247  452.4486
 248  283.7051
 249  173.3676
 250  228.6972
 251  224.7386
 252  294.8688
 253  76.40693
 254  172.6335
 255  281.9063
 256  357.4432
 257  321.9301
 258  132.158
 259  264.7183
 260  257.0768
 261  268.149
 262  156.9424
 263  189.6012
 264  264.7414
 265  252.4456
 266  269.6992
 267  186.519
 268  364.0986
 269  334.6862
 270  243.0688
 271  286.5405
 272  202.0115
 273  316.2061
 274  248.7343
 275  261.7266
 276  282.0273
 277  360.5899
 278  321.7565
 279  302.7793
 280  318.6983
 281  323.842
 282  350.926
 283  384.427
 284  272.6065
 285  337.2322
 286  302.2004
 287  315.7904
 288  348.959
 289  314.0673
 290  301.8006
 291  460.8208
 292  399.7627
 293  263.4898
 294  314.033
 295  267.216
 296  261.9599
 297  374.9666
 298  360.7869
 299  359.6742
 300  416.8872
 301  460.1454
 302  392.6434
 303  332.4975
 304  269.0698
 305  351.0081
 306  352.7679
 307  340.2181
 308  270.6595
 309  318.2549
 310  388.2086
 311  413.4768
 312  348.8795
 313  267.8264
 314  252.0276
 315  353.9651
 316  286.6297
 317  216.3135
 318  265.1187
 319  293.6742
 320  293.4582
 321  386.4069
 322  341.4844
 323  370.4086
 324  371.9654
 325  397.4825
 326  355.8935
 327  314.1346
 328  313.8622
 329  325.0256
 330  188.5901
 331  207.1559
 332  388.685
 333  491.5727
 334  453.0472
 335  347.9918
 336  360.1016
 337  393.0833
 338  386.4628
 339  340.7053
 340  407.191
 341  437.3086
 342  329.2012
 343  354.8138
 344  508.8861
 345  484.8545
 346  470.0738
 347  429.2945
 348  394.5405
 349  426.2202
 350  483.5471
 351  409.5089
 352  398.5089
 353  315.9721
 354  283.0039
 355  390.2099
 356  521.6797
 357  613.4214
 358  573.9371
 359  530.3956
 360  510.3911
 361  554.1154
 362  372.0546
 363  400.7617
 364  427.8012
 365  380.2692
 366  468.4683
 367  404.0363
 368  457.8195
 369  425.1778
 370  467.643
 371  508.3987
 372  512.3857
 373  408.8154
 374  433.5567
 375  545.2415
 376  413.0388
 377  379.378
 378  416.9171
 379  401.0831
 380  434.7308
 381  487.3171
 382  480.387
 383  432.8961
 384  363.7504
 385  306.5291
 386  247.565
 387  269.4951
 388  289.815
 389  219.8771
 390  250.8429
 391  273.0383
 392  338.5739
 393  331.3566
 394  354.5479
 395  430.857
 396  385.822
 397  373.7498
 398  356.1489
 399  389.9463
 400  362.3938
 401  321.3841
 402  239.7021
 403  437.1687
 404  395.5907
 405  381.7371
 406  413.8019
 407  485.1983
 408  427.7188
 409  404.5662
 410  492.182
 411  411.4238
 412  397.9976
 413  388.0777
 414  359.4349
 415  483.4367
 416  482.1529
 417  418.5596
 418  347.379
 419  334.2219
 420  359.7261
 421  458.7797
 422  464.8659
 423  495.7982
 424  479.8216
 425  555.0529
 426  537.4439
 427  418.2853
 428  461.0421
 429  378.7566
 430  454.1939
 431  479.9274
 432  399.0145
 433  388.7615
 434  328.1072
 435  277.7649
 436  304.2193
 437  358.6292
 438  326.2512
 439  388.3528
 440  421.6191
 441  442.7227
 442  607.7585
 443  473.9363
 444  397.0539
 445  505.6709
 446  517.3671
 447  470.47
 448  354.3125
 449  283.697
 450  210.1588
 451  242.4129
 452  449.5606
 453  544.4767
 454  421.0603
 455  437.207
 456  346.1769
 457  429.4332
 458  449.4224
 459  322.0931
 460  293.3908
 461  342.0298
 462  428.2214
 463  358.7451
 464  310.0695
 465  365.3346
 466  388.4008
 467  264.466
 468  403.8777
 469  383.1623
 470  378.6474
 471  364.1133
 472  317.2188
 473  415.2717
 474  332.3016
 475  356.4828
 476  236.6296
 477  257.3091
 478  385.9475
 479  402.146
 480  457.6662
 481  588.1263
 482  460.0532
 483  415.985
 484  418.1496
 485  410.0215
 486  329.1674
 487  352.7539
 488  506.0858
 489  481.3235
 490  476.8163
 491  439.7742
 492  504.7907
 493  550.509
 494  505.8575
 495  436.8341
 496  417.8609
 497  331.1673
 498  401.6026
 499  570.1033
 500  612.2475
 501  465.6523
 502  451.3139
 503  502.2793
 504  472.7592
 505  487.2102
 506  470.6255
 507  512.303
 508  463.0263
 509  598.9164
 510  661.9231
 511  721.7951
