# Input file       =  1180408342.103741_cleaned.dat
# Candidate        =  PSR_0332+5434
# Telescope        =  AR
# Epoch_topo       =  57906.133809071078
# Epoch_bary       =  N/A
# T_sample         =  0.002
# Data Folded      =  7208960
# Data Avg         =  0.226177334583323
# Data StdDev      =  6.3127514285668  
# Profile Bins     =  256
# Profile Avg      =  6368.95508077617 
# Profile StdDev   =  1059.33912873274 
# Reduced chi-sqr  =  0.520
# Prob(Noise)      <  1   (~0.0 sigma)
# P_topo (ms)      =  714.515465829635  +/- 0.000199
# P'_topo (s/s)    =  -0                +/- 1.07e-10
# P''_topo (s/s^2) =  0                 +/- 4.81e-14
# P_bary (ms)      =  N/A
# P'_bary (s/s)    =  N/A
# P''_bary (s/s^2) =  N/A
# P_orb (s)        =  N/A
# asin(i)/c (s)    =  N/A
# eccentricity     =  N/A
# w (rad)          =  N/A
# T_peri           =  N/A
######################################################
   0  6466.012
   1  6376.636
   2  6402.565
   3  6290.025
   4  6495.756
   5  6485.009
   6  6324.259
   7  6916.547
   8  6070.283
   9  5969.583
  10  6083.156
  11  7709.236
  12  6206.898
  13  5918.626
  14  5822.783
  15  6850.427
  16  7816.642
  17  7300.103
  18  6798.567
  19  5802.765
  20  5729.636
  21  5197.476
  22  4753.818
  23  6028.85
  24  6037.709
  25  6034.354
  26  6242.705
  27  6043.493
  28  5957.918
  29  6105.271
  30  5889.552
  31  6462.463
  32  6930.472
  33  7390.161
  34  6418.641
  35  6710.4
  36  7710.582
  37  7348.188
  38  6774.911
  39  6632.282
  40  6513.694
  41  7250.932
  42  6822.464
  43  4751.443
  44  5301.596
  45  5088.988
  46  5383.521
  47  5271.449
  48  6062.745
  49  5906.695
  50  5590.417
  51  5506.105
  52  6948.665
  53  6573.208
  54  5568.365
  55  5479.365
  56  5516.427
  57  5757.278
  58  5546.587
  59  5796.234
  60  5572.185
  61  6219.447
  62  6568.813
  63  6086.188
  64  6222.963
  65  6374.901
  66  5887.481
  67  5174.118
  68  6031.162
  69  5937.78
  70  6773.673
  71  5866.452
  72  5146.91
  73  6756.41
  74  7527.471
  75  6698.404
  76  5779.67
  77  6761.217
  78  6328.585
  79  5794.367
  80  5596.363
  81  6375.761
  82  7644.969
  83  6832.441
  84  7196.294
  85  7116.209
  86  6440.52
  87  4851.504
  88  6296.395
  89  6566.347
  90  5982.357
  91  6989.614
  92  6606.142
  93  5746.403
  94  5629.983
  95  5328.458
  96  5811.81
  97  6366.934
  98  6423.788
  99  5866.207
 100  6622.076
 101  6424.696
 102  6484.842
 103  6233.875
 104  6121.587
 105  6764.745
 106  6784.757
 107  6423.108
 108  6263.145
 109  5752.436
 110  5445.682
 111  6839.339
 112  6280.88
 113  6476.073
 114  6726.074
 115  6006.325
 116  6910.634
 117  7198.157
 118  8112.812
 119  6492.613
 120  6072.428
 121  6232.554
 122  6709.586
 123  7132.847
 124  6276.653
 125  6916.641
 126  6287.799
 127  7091.208
 128  6230.886
 129  6961.291
 130  5286.572
 131  5920.919
 132  5646.543
 133  5977.746
 134  6966.033
 135  6209.872
 136  5658.641
 137  5803.606
 138  7023.899
 139  7085.727
 140  6467.395
 141  6963.429
 142  6352.88
 143  7207.95
 144  6603.274
 145  5817.202
 146  6264.614
 147  7183.308
 148  7046.01
 149  7944.122
 150  7225.13
 151  6310.587
 152  6692.563
 153  6237.198
 154  6634.651
 155  6311.591
 156  6192.936
 157  5759.759
 158  6780.067
 159  7170.906
 160  6600.228
 161  6399.525
 162  6081.304
 163  8573.5
 164  9182.744
 165  7631.115
 166  6794.329
 167  6333.214
 168  6487.51
 169  5650.906
 170  6815.903
 171  6407.036
 172  6205.084
 173  6058.727
 174  6327.274
 175  6896.861
 176  6430.307
 177  6215.948
 178  5958.483
 179  6170.919
 180  6794.577
 181  6587.37
 182  7410.575
 183  6707.594
 184  6963.522
 185  6994.015
 186  6651.953
 187  6706.93
 188  7157.192
 189  7065.014
 190  7050.365
 191  7168.155
 192  6428.479
 193  6824.624
 194  6053.095
 195  6366.994
 196  7242.961
 197  7793.388
 198  6512.926
 199  4939.931
 200  6077.897
 201  5818.532
 202  6109.827
 203  6129.222
 204  7401.915
 205  5267.462
 206  5472.439
 207  5912.755
 208  6673.906
 209  5969.88
 210  5029.239
 211  5517.573
 212  5645.963
 213  6498.387
 214  5795.894
 215  6502.705
 216  4854.654
 217  5308.718
 218  5745.878
 219  5139.961
 220  5671.73
 221  6329.576
 222  6326.622
 223  5912.306
 224  6786.13
 225  7300.484
 226  6918.934
 227  6328.329
 228  5908.595
 229  6288.722
 230  7047.818
 231  6162.079
 232  6321.529
 233  6215.495
 234  6443.266
 235  6121.716
 236  7009.275
 237  6113.591
 238  6919.397
 239  7237.46
 240  6822.633
 241  5892.412
 242  5950.73
 243  6328.663
 244  6996.523
 245  6460.515
 246  6793.417
 247  6699.274
 248  5650.433
 249  6675.821
 250  6631.954
 251  5826.345
 252  6281.019
 253  6347.881
 254  6866.71
 255  6013.217
