# Input file       =  1180853821.116358_cleaned.dat
# Candidate        =  PSR_0332+5434
# Telescope        =  AR
# Epoch_topo       =  57911.289816161552
# Epoch_bary       =  N/A
# T_sample         =  0.002
# Data Folded      =  7340032
# Data Avg         =  0.0365716886715573
# Data StdDev      =  1.0000584909576  
# Profile Bins     =  512
# Profile Avg      =  524.304993129233 
# Profile StdDev   =  119.74003967672  
# Reduced chi-sqr  =  0.962
# Prob(Noise)      <  0.723   (~0.0 sigma)
# P_topo (ms)      =  714.510500080189  +/- 0.00036
# P'_topo (s/s)    =  -0                +/- 1.9e-10
# P''_topo (s/s^2) =  0                 +/- 8.39e-14
# P_bary (ms)      =  N/A
# P'_bary (s/s)    =  N/A
# P''_bary (s/s^2) =  N/A
# P_orb (s)        =  N/A
# asin(i)/c (s)    =  N/A
# eccentricity     =  N/A
# w (rad)          =  N/A
# T_peri           =  N/A
######################################################
   0  992.355
   1  1032.626
   2  892.5665
   3  534.4457
   4  471.9438
   5  566.3649
   6  461.6232
   7  382.7148
   8  428.4697
   9  499.2325
  10  464.314
  11  540.4582
  12  566.9941
  13  570.7734
  14  512.1969
  15  491.9897
  16  589.882
  17  576.2845
  18  499.1622
  19  464.7292
  20  543.6131
  21  439.458
  22  467.2878
  23  481.3351
  24  392.695
  25  366.8758
  26  466.4209
  27  471.6417
  28  389.0281
  29  321.3823
  30  394.463
  31  426.2766
  32  437.4683
  33  446.3569
  34  413.4273
  35  398.0785
  36  387.2531
  37  447.726
  38  541.0268
  39  484.6069
  40  455.5002
  41  510.4815
  42  593.571
  43  545.2377
  44  373.6937
  45  481.6609
  46  504.5821
  47  508.0377
  48  556.1434
  49  642.573
  50  503.354
  51  507.6481
  52  505.1429
  53  445.8853
  54  386.245
  55  521.7608
  56  513.328
  57  529.1019
  58  522.6402
  59  492.4146
  60  500.7026
  61  501.4702
  62  531.9326
  63  562.9603
  64  611.0488
  65  540.2451
  66  439.0476
  67  411.8071
  68  470.668
  69  601.8626
  70  677.8638
  71  590.5033
  72  546.9073
  73  498.2283
  74  508.2949
  75  483.1509
  76  536.8499
  77  583.76
  78  612.0237
  79  586.852
  80  522.584
  81  569.2159
  82  531.3578
  83  489.7203
  84  549.488
  85  573.2489
  86  536.343
  87  510.6648
  88  635.4373
  89  649.02
  90  490.2454
  91  520.1198
  92  531.1142
  93  638.5108
  94  502.4539
  95  489.1402
  96  569.7164
  97  522.2308
  98  511.908
  99  550.9278
 100  532.6389
 101  401.3805
 102  429.7951
 103  437.0839
 104  477.959
 105  366.9183
 106  552.3509
 107  500.932
 108  543.5327
 109  498.1233
 110  556.3668
 111  514.4542
 112  407.2064
 113  340.6587
 114  479.7598
 115  454.684
 116  549.4771
 117  526.3679
 118  507.0814
 119  539.7235
 120  558.3836
 121  453.5608
 122  522.5845
 123  648.7777
 124  643.1597
 125  606.763
 126  528.3735
 127  544.6661
 128  592.0672
 129  539.0564
 130  430.9583
 131  486.8238
 132  512.2422
 133  479.3089
 134  375.348
 135  521.0801
 136  559.3676
 137  502.5103
 138  529.4612
 139  446.4498
 140  469.2715
 141  507.7979
 142  537.9719
 143  526.7322
 144  507.1518
 145  489.4047
 146  511.5478
 147  476.587
 148  409.1924
 149  487.474
 150  492.379
 151  525.3712
 152  487.9027
 153  473.9931
 154  562.854
 155  505.6442
 156  514.5856
 157  477.3606
 158  538.3851
 159  534.4461
 160  467.1943
 161  518.9507
 162  474.3599
 163  433.241
 164  489.9325
 165  466.7324
 166  427.7482
 167  428.5696
 168  436.5263
 169  483.9399
 170  487.3344
 171  482.2856
 172  511.6632
 173  469.9693
 174  422.4127
 175  467.8198
 176  459.1826
 177  517.6116
 178  500.7849
 179  527.1805
 180  549.3696
 181  384.2491
 182  312.8381
 183  433.9188
 184  524.9648
 185  603.3062
 186  572.4166
 187  357.2168
 188  453.6662
 189  441.1541
 190  501.2495
 191  559.1742
 192  509.8983
 193  520.444
 194  563.7341
 195  587.5255
 196  623.8919
 197  561.073
 198  536.4116
 199  628.1028
 200  710.1025
 201  716.5145
 202  623.4699
 203  692.2559
 204  629.6013
 205  524.652
 206  483.6356
 207  628.7776
 208  668.0366
 209  524.7068
 210  700.3601
 211  643.8575
 212  620.4944
 213  590.36
 214  661.291
 215  662.8134
 216  648.2497
 217  580.942
 218  699.5141
 219  540.8398
 220  517.6662
 221  533.3932
 222  686.1005
 223  741.8864
 224  567.1367
 225  555.7398
 226  636.0405
 227  581.1708
 228  593.4197
 229  655.5433
 230  638.1613
 231  541.3352
 232  530.6336
 233  600.4972
 234  512.4813
 235  510.9005
 236  495.4453
 237  555.6435
 238  541.2832
 239  624.6223
 240  594.7661
 241  583.0638
 242  629.6778
 243  654.4898
 244  733.4424
 245  680.5963
 246  635.3464
 247  606.9832
 248  551.6631
 249  533.141
 250  459.4172
 251  433.8475
 252  604.0316
 253  645.8962
 254  657.7289
 255  515.488
 256  510.2318
 257  547.6193
 258  608.3376
 259  750.8918
 260  733.4703
 261  609.1516
 262  520.0182
 263  510.4933
 264  655.2551
 265  539.1591
 266  499.1256
 267  498.7687
 268  571.5364
 269  641.4098
 270  543.8003
 271  443.8061
 272  394.1759
 273  523.2714
 274  453.8298
 275  389.6225
 276  464.1829
 277  520.4531
 278  527.4678
 279  387.2505
 280  373.2607
 281  571.8422
 282  549.9809
 283  543.0416
 284  554.1067
 285  521.7726
 286  530.2639
 287  666.0977
 288  620.7366
 289  576.9862
 290  544.4312
 291  669.5295
 292  552.9937
 293  430.0879
 294  569.6545
 295  551.5266
 296  510.6523
 297  506.104
 298  480.1761
 299  529.431
 300  465.5564
 301  472.1905
 302  527.6113
 303  464.883
 304  507.5997
 305  474.5869
 306  552.3375
 307  472.2819
 308  420.5452
 309  581.7073
 310  524.992
 311  529.3585
 312  463.2868
 313  423.225
 314  556.467
 315  563.0435
 316  605.4628
 317  570.5121
 318  437.6885
 319  475.0444
 320  373.1024
 321  479.4021
 322  407.9338
 323  495.0958
 324  446.6046
 325  477.1624
 326  563.7136
 327  653.9631
 328  535.0409
 329  403.1188
 330  456.5726
 331  425.6605
 332  491.9274
 333  501.0339
 334  570.3165
 335  592.5817
 336  520.6008
 337  531.0182
 338  411.8676
 339  465.1194
 340  468.7727
 341  468.1193
 342  515.447
 343  448.3682
 344  487.3563
 345  407.007
 346  497.3301
 347  582.8682
 348  503.9208
 349  502.9114
 350  442.567
 351  404.6912
 352  350.7449
 353  376.7765
 354  363.2832
 355  442.8421
 356  540.7036
 357  516.9548
 358  534.2368
 359  495.3948
 360  513.3237
 361  586.7524
 362  563.5656
 363  539.4955
 364  635.5354
 365  647.7539
 366  581.3862
 367  447.7105
 368  555.6197
 369  539.5892
 370  479.9916
 371  576.0659
 372  575.8488
 373  629.0269
 374  551.8451
 375  516.1451
 376  473.6082
 377  544.4353
 378  462.0271
 379  496.2331
 380  487.1784
 381  505.724
 382  442.9945
 383  483.0993
 384  546.0596
 385  628.0767
 386  463.9353
 387  500.7731
 388  571.7319
 389  518.9864
 390  607.4039
 391  571.843
 392  596.9489
 393  555.7485
 394  441.9273
 395  530.7068
 396  499.5599
 397  568.3041
 398  586.0064
 399  507.2645
 400  569.3555
 401  557.728
 402  512.7397
 403  640.2308
 404  728.7304
 405  577.7301
 406  445.1868
 407  500.9801
 408  630.8282
 409  569.7359
 410  584.4906
 411  516.5618
 412  489.7207
 413  544.159
 414  539.3019
 415  538.5078
 416  618.6105
 417  620.4498
 418  585.361
 419  573.814
 420  557.2817
 421  572.9659
 422  563.5
 423  514.9442
 424  538.2719
 425  522.1819
 426  480.2782
 427  453.7172
 428  475.2297
 429  460.5179
 430  429.757
 431  469.2843
 432  503.139
 433  494.0818
 434  444.6651
 435  512.6737
 436  527.974
 437  493.0109
 438  572.5768
 439  532.2177
 440  544.6176
 441  493.7242
 442  523.2524
 443  472.2752
 444  507.2195
 445  450.5107
 446  431.49
 447  346.8132
 448  507.1104
 449  572.2558
 450  574.6018
 451  534.377
 452  490.493
 453  488.2865
 454  453.1129
 455  444.2229
 456  487.288
 457  517.4282
 458  389.7107
 459  438.2279
 460  478.0556
 461  536.3774
 462  492.0145
 463  502.0946
 464  445.2457
 465  587.7645
 466  584.9047
 467  596.859
 468  569.0289
 469  522.301
 470  489.0878
 471  533.4214
 472  506.0537
 473  504.3611
 474  477.4493
 475  459.3732
 476  476.764
 477  388.429
 478  492.8427
 479  462.8134
 480  467.7139
 481  469.6312
 482  447.227
 483  449.8948
 484  459.9583
 485  510.8221
 486  479.8728
 487  520.3668
 488  536.8775
 489  433.8655
 490  476.4619
 491  546.2602
 492  680.3993
 493  602.952
 494  474.3435
 495  498.9069
 496  562.2162
 497  549.7648
 498  449.5578
 499  335.6921
 500  352.1962
 501  487.3927
 502  563.2289
 503  557.3453
 504  429.4388
 505  588.2881
 506  565.1218
 507  544.4049
 508  600.3021
 509  766.2764
 510  888.1372
 511  882.8751
