# Input file       =  1180437945.13237_cleaned.dat
# Candidate        =  PSR_0332+5434
# Telescope        =  AR
# Epoch_topo       =  57906.476436717247
# Epoch_bary       =  N/A
# T_sample         =  0.002
# Data Folded      =  7340032
# Data Avg         =  0.025055837897649
# Data StdDev      =  1.00003373916079 
# Profile Bins     =  512
# Profile Avg      =  359.21639283655  
# Profile StdDev   =  119.737076068933 
# Reduced chi-sqr  =  1.192
# Prob(Noise)      <  0.00181   (~2.9 sigma)
# P_topo (ms)      =  714.515477228778  +/- 0.000202
# P'_topo (s/s)    =  -0                +/- 1.07e-10
# P''_topo (s/s^2) =  0                 +/- 4.71e-14
# P_bary (ms)      =  N/A
# P'_bary (s/s)    =  N/A
# P''_bary (s/s^2) =  N/A
# P_orb (s)        =  N/A
# asin(i)/c (s)    =  N/A
# eccentricity     =  N/A
# w (rad)          =  N/A
# T_peri           =  N/A
######################################################
   0  737.8884
   1  825.3251
   2  764.7817
   3  473.6463
   4  391.3521
   5  490.774
   6  511.3896
   7  441.8123
   8  311.4384
   9  311.4201
  10  288.8364
  11  332.0605
  12  296.9777
  13  265.3515
  14  259.1627
  15  280.0322
  16  335.8803
  17  368.0968
  18  361.6253
  19  416.1057
  20  299.9505
  21  346.1575
  22  320.3978
  23  209.2211
  24  261.7209
  25  312.0475
  26  274.8972
  27  131.3859
  28  189.7778
  29  345.3756
  30  360.7639
  31  348.8601
  32  284.3808
  33  320.1939
  34  291.2951
  35  398.5188
  36  466.5331
  37  432.3387
  38  369.8555
  39  433.7914
  40  434.3126
  41  339.7115
  42  191.0877
  43  307.5031
  44  352.3605
  45  332.0675
  46  330.1715
  47  252.9714
  48  280.5936
  49  417.011
  50  422.5622
  51  348.5191
  52  286.2738
  53  382.5647
  54  351.6491
  55  301.3603
  56  278.3651
  57  202.3851
  58  311.595
  59  467.0231
  60  470.6226
  61  391.826
  62  305.903
  63  232.5827
  64  319.327
  65  409.6754
  66  408.0944
  67  285.559
  68  283.101
  69  258.2207
  70  346.085
  71  223.1958
  72  282.5962
  73  333.433
  74  341.7033
  75  178.4195
  76  202.8537
  77  280.031
  78  304.5933
  79  261.6215
  80  243.0797
  81  142.0701
  82  243.6223
  83  346.1354
  84  365.6278
  85  326.2319
  86  325.4634
  87  482.9729
  88  436.2072
  89  439.1889
  90  332.917
  91  344.5414
  92  292.0749
  93  282.2769
  94  388.0922
  95  428.9451
  96  308.8384
  97  373.277
  98  350.6494
  99  272.2566
 100  313.9108
 101  321.1472
 102  389.9799
 103  457.5095
 104  411.9873
 105  190.4821
 106  182.9567
 107  216.7238
 108  335.9883
 109  364.1281
 110  181.8338
 111  224.3545
 112  163.1601
 113  257.7304
 114  281.3987
 115  322.8805
 116  309.3996
 117  241.2353
 118  297.4146
 119  326.5664
 120  409.5493
 121  494.4705
 122  397.9781
 123  267.595
 124  253.6254
 125  393.2461
 126  455.1106
 127  413.4542
 128  340.0316
 129  403.3207
 130  398.7239
 131  434.0788
 132  329.7904
 133  333.4032
 134  385.9368
 135  402.6024
 136  418.0847
 137  424.7285
 138  388.4854
 139  382.6386
 140  288.3545
 141  374.4956
 142  391.46
 143  528.2939
 144  340.4255
 145  275.7766
 146  440.7628
 147  494.3395
 148  464.9727
 149  417.63
 150  311.7848
 151  220.2186
 152  307.4107
 153  387.0533
 154  316.112
 155  262.2422
 156  304.5307
 157  409.6613
 158  331.4575
 159  250.003
 160  260.5781
 161  282.9345
 162  331.7609
 163  358.9102
 164  499.5158
 165  484.3032
 166  443.4453
 167  312.9287
 168  322.8447
 169  402.6183
 170  491.6973
 171  501.3311
 172  444.8831
 173  420.7255
 174  420.4286
 175  471.8311
 176  569.5536
 177  430.3285
 178  430.8943
 179  446.9608
 180  406.6833
 181  397.4614
 182  321.6117
 183  374.7362
 184  352.0355
 185  458.2455
 186  512.3511
 187  487.0468
 188  368.0257
 189  283.9451
 190  434.598
 191  383.5406
 192  348.6481
 193  297.273
 194  369.3099
 195  381.861
 196  317.4733
 197  356.9857
 198  310.6971
 199  399.2495
 200  338.608
 201  353.222
 202  482.029
 203  482.6232
 204  385.6906
 205  369.1698
 206  342.8969
 207  375.0809
 208  384.1824
 209  341.4796
 210  334.6823
 211  191.3399
 212  204.4734
 213  343.6511
 214  439.6045
 215  289.8374
 216  330.2627
 217  540.6824
 218  555.6603
 219  425.0855
 220  477.0388
 221  385.9326
 222  355.5164
 223  346.5997
 224  341.3579
 225  461.423
 226  369.9736
 227  256.4539
 228  274.9715
 229  425.5387
 230  489.4926
 231  441.2196
 232  328.6264
 233  431.2811
 234  383.9677
 235  301.3487
 236  180.3788
 237  341.9949
 238  489.4319
 239  464.3656
 240  239.0049
 241  274.9006
 242  339.2944
 243  295.3141
 244  330.1802
 245  231.8389
 246  345.2144
 247  373.0128
 248  328.1601
 249  298.7682
 250  301.7713
 251  343.9811
 252  315.4714
 253  329.6046
 254  320.4236
 255  358.8652
 256  303.7934
 257  319.285
 258  378.3536
 259  469.3202
 260  501.7746
 261  367.065
 262  399.2135
 263  485.0681
 264  434.4316
 265  367.5458
 266  425.0645
 267  432.1789
 268  415.7045
 269  409.9373
 270  377.1282
 271  283.1956
 272  415.0599
 273  409.6997
 274  434.3741
 275  399.7175
 276  543.4955
 277  356.1447
 278  353.5627
 279  421.7425
 280  547.9694
 281  529.5286
 282  375.4589
 283  464.5625
 284  335.6707
 285  220.1784
 286  288.0076
 287  405.6557
 288  374.8327
 289  389.8312
 290  451.2659
 291  607.1514
 292  539.6423
 293  445.1669
 294  490.79
 295  489.1963
 296  482.6151
 297  459.0267
 298  527.4418
 299  428.6273
 300  432.7855
 301  386.8624
 302  499.9396
 303  354.6506
 304  380.2614
 305  478.9731
 306  439.3533
 307  506.127
 308  393.341
 309  299.2495
 310  311.0124
 311  332.5024
 312  395.2951
 313  386.7243
 314  452.0859
 315  352.5689
 316  171.4184
 317  202.3223
 318  357.2291
 319  379.1867
 320  413.0514
 321  250.8117
 322  415.8079
 323  411.4122
 324  321.1046
 325  365.0403
 326  411.0663
 327  314.7878
 328  228.4638
 329  223.1552
 330  263.7877
 331  246.0973
 332  285.3142
 333  374.0262
 334  350.8525
 335  313.1475
 336  421.1624
 337  271.4966
 338  309.7699
 339  430.2117
 340  398.1562
 341  435.928
 342  419.7062
 343  317.7964
 344  418.1674
 345  271.0447
 346  326.8739
 347  466.7855
 348  402.3307
 349  416.5677
 350  398.1102
 351  355.1057
 352  317.3774
 353  224.8068
 354  273.2515
 355  358.4626
 356  511.2897
 357  433.4387
 358  363.132
 359  299.5683
 360  171.8736
 361  224.265
 362  205.5967
 363  289.074
 364  352.8322
 365  169.9874
 366  121.5542
 367  198.8591
 368  315.208
 369  414.5374
 370  369.0041
 371  381.2026
 372  345.9632
 373  270.9276
 374  330.5467
 375  307.3734
 376  344.7193
 377  416.6211
 378  228.068
 379  361.0746
 380  436.3434
 381  390.7042
 382  431.3677
 383  383.5434
 384  476.4594
 385  411.6604
 386  350.788
 387  322.9373
 388  284.3294
 389  355.7703
 390  431.0165
 391  440.6804
 392  356.06
 393  261.7261
 394  269.932
 395  385.0216
 396  318.6965
 397  323.2807
 398  359.6362
 399  405.104
 400  304.1091
 401  234.2928
 402  278.4791
 403  306.2822
 404  345.8311
 405  413.2109
 406  467.9893
 407  428.639
 408  196.8058
 409  237.8829
 410  333.4034
 411  226.877
 412  261.8396
 413  406.5548
 414  378.4452
 415  380.9492
 416  427.8233
 417  215.2262
 418  111.3736
 419  207.1271
 420  235.8828
 421  331.6077
 422  458.0709
 423  559.7087
 424  427.7517
 425  361.7468
 426  451.9258
 427  276.2845
 428  244.9772
 429  286.0291
 430  356.0072
 431  339.1994
 432  286.1339
 433  376.8959
 434  430.159
 435  394.7979
 436  427.4505
 437  380.2364
 438  355.4234
 439  445.7923
 440  388.8882
 441  318.5196
 442  221.2173
 443  303.1451
 444  420.6652
 445  364.5086
 446  257.6278
 447  282.5338
 448  367.0232
 449  441.2766
 450  358.722
 451  358.8604
 452  334.7796
 453  280.1361
 454  196.6261
 455  273.5602
 456  332.3245
 457  256.6288
 458  267.0022
 459  357.2382
 460  468.4168
 461  415.4726
 462  293.3891
 463  369.3492
 464  493.051
 465  414.7985
 466  308.3237
 467  377.5129
 468  333.9128
 469  292.7753
 470  367.5456
 471  497.0219
 472  471.0991
 473  409.6478
 474  390.433
 475  344.5528
 476  449.4723
 477  421.6238
 478  335.3208
 479  307.343
 480  452.7083
 481  353.4833
 482  266.8701
 483  334.2296
 484  239.5865
 485  365.4714
 486  216.6421
 487  189.522
 488  235.9045
 489  203.966
 490  371.5519
 491  272.8574
 492  267.1086
 493  255.8573
 494  117.6869
 495  187.0327
 496  255.3012
 497  328.3015
 498  398.7391
 499  407.6349
 500  329.6006
 501  361.1797
 502  458.1539
 503  515.3558
 504  585.4983
 505  542.324
 506  527.5567
 507  575.8696
 508  517.66
 509  549.6863
 510  628.275
 511  662.1507
