# Input file       =  1180149854.141643_cleaned.dat
# Candidate        =  PSR_0332+5434
# Telescope        =  AR
# Epoch_topo       =  57903.142050250499
# Epoch_bary       =  N/A
# T_sample         =  0.002
# Data Folded      =  7208960
# Data Avg         =  0.0383952712365432
# Data StdDev      =  1.00018073618721 
# Profile Bins     =  512
# Profile Avg      =  540.570907523494 
# Profile StdDev   =  118.680621800541 
# Reduced chi-sqr  =  0.885
# Prob(Noise)      <  0.971   (~0.0 sigma)
# P_topo (ms)      =  714.518392693271  +/- 0.000334
# P'_topo (s/s)    =  -0                +/- 1.79e-10
# P''_topo (s/s^2) =  0                 +/- 8.06e-14
# P_bary (ms)      =  N/A
# P'_bary (s/s)    =  N/A
# P''_bary (s/s^2) =  N/A
# P_orb (s)        =  N/A
# asin(i)/c (s)    =  N/A
# eccentricity     =  N/A
# w (rad)          =  N/A
# T_peri           =  N/A
######################################################
   0  455.1749
   1  551.6562
   2  625.3451
   3  428.214
   4  450.6527
   5  461.0005
   6  521.594
   7  408.9718
   8  414.8807
   9  508.873
  10  464.481
  11  446.298
  12  515.7491
  13  564.3145
  14  583.6173
  15  552.4645
  16  523.4105
  17  500.8179
  18  492.6638
  19  502.6172
  20  502.3807
  21  564.2859
  22  428.0797
  23  510.5183
  24  556.0513
  25  586.768
  26  599.405
  27  536.5748
  28  522.3953
  29  526.1511
  30  575.6807
  31  498.891
  32  477.4874
  33  536.5025
  34  425.7079
  35  442.9732
  36  497.5089
  37  431.928
  38  406.4991
  39  437.3777
  40  468.6837
  41  459.2587
  42  536.8817
  43  564.7148
  44  623.8475
  45  565.756
  46  504.3
  47  440.4807
  48  461.2258
  49  534.4442
  50  375.9386
  51  438.8324
  52  446.5544
  53  477.8141
  54  540.2175
  55  585.1609
  56  576.7267
  57  509.1176
  58  456.4402
  59  463.6879
  60  484.6503
  61  549.9282
  62  570.7204
  63  578.3088
  64  499.3021
  65  553.6028
  66  499.2737
  67  468.2161
  68  530.6506
  69  529.0289
  70  438.9051
  71  293.1346
  72  384.2504
  73  535.2811
  74  573.8976
  75  581.054
  76  541.0455
  77  546.4672
  78  519.5416
  79  461.1176
  80  335.9327
  81  386.4025
  82  421.3073
  83  410.513
  84  533.8386
  85  598.0734
  86  525.1089
  87  457.947
  88  481.9148
  89  419.4283
  90  533.6292
  91  600.8864
  92  692.8586
  93  617.9899
  94  399.6548
  95  526.0478
  96  459.1655
  97  548.6553
  98  553.2937
  99  465.2827
 100  495.5392
 101  473.1509
 102  524.658
 103  540.6685
 104  630.4937
 105  637.3019
 106  702.9802
 107  629.3018
 108  606.1776
 109  586.6674
 110  513.6374
 111  530.6769
 112  582.7844
 113  655.9083
 114  611.4163
 115  640.211
 116  672.9515
 117  636.8576
 118  610.8784
 119  676.4215
 120  771.5295
 121  772.7585
 122  841.3367
 123  879.8445
 124  837.0341
 125  765.7501
 126  664.5997
 127  504.7914
 128  535.7821
 129  515.3213
 130  538.4378
 131  443.2047
 132  519.2928
 133  499.4772
 134  475.2361
 135  503.4235
 136  481.3052
 137  615.435
 138  493.1233
 139  438.6021
 140  399.5834
 141  543.1174
 142  559.7685
 143  522.0513
 144  419.4325
 145  511.5016
 146  477.7213
 147  486.6581
 148  569.623
 149  489.2531
 150  504.7644
 151  465.9489
 152  530.6533
 153  580.2372
 154  561.1724
 155  529.5895
 156  471.7375
 157  539.8273
 158  555.1162
 159  584.1141
 160  584.764
 161  546.5669
 162  548.2089
 163  601.0331
 164  590.8424
 165  434.9513
 166  488.7485
 167  441.5126
 168  428.519
 169  518.5803
 170  554.035
 171  459.5561
 172  560.968
 173  715.792
 174  678.8733
 175  561.7316
 176  562.8763
 177  563.4129
 178  529.9276
 179  446.4256
 180  481.5569
 181  537.4322
 182  453.0212
 183  517.6027
 184  541.7203
 185  456.868
 186  527.406
 187  498.5669
 188  533.1886
 189  549.3197
 190  626.8094
 191  588.5142
 192  576.7727
 193  538.0754
 194  562.7507
 195  546.9041
 196  576.6295
 197  426.6347
 198  422.1869
 199  535.8973
 200  548.9664
 201  483.5682
 202  457.8353
 203  400.8607
 204  407.5807
 205  425.9964
 206  553.616
 207  559.1792
 208  508.0043
 209  525.1911
 210  529.3052
 211  476.9908
 212  585.7031
 213  614.8423
 214  589.5621
 215  552.2079
 216  552.6966
 217  589.2234
 218  505.4793
 219  460.3163
 220  564.1377
 221  518.4806
 222  545.4777
 223  575.8157
 224  600.698
 225  407.1879
 226  438.2084
 227  509.0823
 228  514.9279
 229  476.1686
 230  535.017
 231  429.4591
 232  478.3147
 233  537.5133
 234  546.8382
 235  441.7953
 236  433.095
 237  544.4766
 238  617.7052
 239  521.0295
 240  542.0714
 241  609.5739
 242  677.1855
 243  583.1888
 244  579.3906
 245  601.5905
 246  573.4351
 247  584.3176
 248  547.6601
 249  684.9469
 250  676.5934
 251  601.0764
 252  442.8485
 253  441.9538
 254  514.3448
 255  596.3802
 256  602.0748
 257  561.9135
 258  635.7312
 259  630.0387
 260  573.572
 261  445.6877
 262  548.9902
 263  620.5054
 264  541.3148
 265  586.8479
 266  672.7377
 267  608.2616
 268  583.7214
 269  445.6701
 270  549.5323
 271  589.6269
 272  488.5347
 273  480.355
 274  545.4384
 275  650.7307
 276  562.5545
 277  572.6194
 278  466.5582
 279  496.348
 280  514.274
 281  519.769
 282  466.5
 283  534.7294
 284  456.6895
 285  516.2037
 286  516.0424
 287  444.476
 288  424.1573
 289  525.9966
 290  518.7234
 291  588.0925
 292  616.0256
 293  592.2373
 294  570.7801
 295  531.7601
 296  463.1749
 297  398.5291
 298  536.9562
 299  589.4832
 300  571.4565
 301  560.3967
 302  624.647
 303  549.229
 304  454.7537
 305  521.314
 306  680.9052
 307  704.1265
 308  613.4555
 309  591.3136
 310  560.0819
 311  540.6912
 312  571.9958
 313  547.7106
 314  531.6294
 315  477.1828
 316  521.7191
 317  519.3209
 318  506.6427
 319  528.2206
 320  518.1177
 321  576.1046
 322  553.7079
 323  606.6399
 324  611.4351
 325  487.1597
 326  532.0037
 327  591.5512
 328  528.0262
 329  499.6371
 330  570.6294
 331  694.1029
 332  632.926
 333  540.1728
 334  475.4766
 335  533.3532
 336  536.0045
 337  553.5779
 338  612.5583
 339  598.9952
 340  585.952
 341  550.005
 342  744.1619
 343  660.2623
 344  683.2762
 345  631.3069
 346  570.8665
 347  633.3911
 348  637.2996
 349  668.2445
 350  545.9813
 351  567.1616
 352  533.5573
 353  523.246
 354  388.8663
 355  400.1338
 356  456.7243
 357  499.7081
 358  610.6212
 359  541.299
 360  563.885
 361  541.0266
 362  446.9735
 363  451.5962
 364  503.6405
 365  504.9765
 366  560.4194
 367  492.9448
 368  403.8034
 369  387.9206
 370  483.492
 371  501.247
 372  455.3783
 373  378.0617
 374  528.2956
 375  582.8575
 376  499.0999
 377  380.6977
 378  430.9877
 379  491.9296
 380  349.1648
 381  429.5601
 382  410.5294
 383  472.6774
 384  555.4943
 385  592.4164
 386  583.663
 387  610.2594
 388  566.1928
 389  548.2443
 390  425.2631
 391  374.1065
 392  497.7965
 393  558.8774
 394  467.7564
 395  471.8384
 396  449.8511
 397  509.4117
 398  590.0223
 399  629.0688
 400  639.4227
 401  493.0733
 402  479.6568
 403  390.7136
 404  469.8867
 405  619.5143
 406  729.0565
 407  584.9894
 408  489.4344
 409  544.114
 410  500.1204
 411  519.1094
 412  551.6841
 413  634.241
 414  554.3795
 415  433.8569
 416  515.5443
 417  548.9548
 418  661.1914
 419  567.4356
 420  517.938
 421  550.1261
 422  574.1282
 423  605.2641
 424  679.1816
 425  744.5764
 426  607.6603
 427  570.5148
 428  546.8606
 429  630.2157
 430  618.7703
 431  509.7746
 432  600.8242
 433  534.8098
 434  602.335
 435  443.2392
 436  503.148
 437  615.8361
 438  522.3607
 439  461.2378
 440  649.3274
 441  650.4889
 442  482.1741
 443  361.8717
 444  484.0356
 445  514.9139
 446  517.3333
 447  546.7062
 448  513.7534
 449  617.6729
 450  727.7015
 451  499.3694
 452  466.3739
 453  517.7946
 454  555.7969
 455  533.1359
 456  595.5515
 457  611.0503
 458  616.2772
 459  662.3107
 460  676.3215
 461  575.2928
 462  611.9284
 463  571.0623
 464  458.3006
 465  524.4956
 466  561.6562
 467  628.9853
 468  639.0543
 469  597.6399
 470  559.2579
 471  595.1121
 472  556.6569
 473  572.0571
 474  660.6415
 475  638.1642
 476  568.4526
 477  557.2575
 478  722.1028
 479  662.4885
 480  675.6902
 481  687.1757
 482  701.8086
 483  674.5511
 484  592.6774
 485  554.5111
 486  670.7589
 487  653.5654
 488  592.931
 489  589.3831
 490  584.1252
 491  694.2589
 492  599.3666
 493  560.6006
 494  522.0361
 495  547.946
 496  440.9496
 497  455.9475
 498  484.5786
 499  642.8882
 500  624.3793
 501  508.845
 502  616.0255
 503  721.1625
 504  616.1184
 505  541.0809
 506  492.907
 507  403.8907
 508  405.4062
 509  421.9148
 510  561.676
 511  517.4838
