# Input file       =  1180782598.102683_cleaned.dat
# Candidate        =  PSR_0332+5434
# Telescope        =  AR
# Epoch_topo       =  57910.465475725498
# Epoch_bary       =  N/A
# T_sample         =  0.002
# Data Folded      =  7340032
# Data Avg         =  0.144862703989409
# Data StdDev      =  3.59124243027114 
# Profile Bins     =  256
# Profile Avg      =  4153.71721920425 
# Profile StdDev   =  608.098199567402 
# Reduced chi-sqr  =  1.317
# Prob(Noise)      <  0.000512   (~3.3 sigma)
# P_topo (ms)      =  714.511624576883  +/- 0.000513
# P'_topo (s/s)    =  -0                +/- 2.71e-10
# P''_topo (s/s^2) =  0                 +/- 1.19e-13
# P_bary (ms)      =  N/A
# P'_bary (s/s)    =  N/A
# P''_bary (s/s^2) =  N/A
# P_orb (s)        =  N/A
# asin(i)/c (s)    =  N/A
# eccentricity     =  N/A
# w (rad)          =  N/A
# T_peri           =  N/A
######################################################
   0  4627.256
   1  4629.961
   2  3767.525
   3  3550.464
   4  4400.502
   5  4310.018
   6  4335.25
   7  3992.377
   8  3776.48
   9  4304.638
  10  3991.92
  11  3641.169
  12  4043.644
  13  4739.582
  14  3999.776
  15  3603.207
  16  3958.032
  17  3192.106
  18  3578.954
  19  3830.332
  20  3476.596
  21  4015.624
  22  4114.112
  23  3415.475
  24  3799.663
  25  3358.543
  26  3706.391
  27  3483.556
  28  4400.959
  29  3932.888
  30  3857.573
  31  3594.71
  32  3825.195
  33  3550.023
  34  4046.447
  35  4171.901
  36  4344.18
  37  4974.016
  38  4939.997
  39  4113.341
  40  3921.031
  41  4236.806
  42  3984.374
  43  3314.97
  44  3554.147
  45  3561.83
  46  4001.099
  47  3237.153
  48  3463.172
  49  3206.738
  50  3158.891
  51  3386.029
  52  3708.857
  53  3467.322
  54  3810.733
  55  3767.035
  56  3383.316
  57  3808.719
  58  4786.586
  59  3744.236
  60  4308.111
  61  4481.033
  62  4450.542
  63  4304.063
  64  3891.095
  65  3668.015
  66  4209.156
  67  3430.234
  68  3516.279
  69  4012.4
  70  3764.502
  71  3948.392
  72  4047.427
  73  3761.205
  74  3643.717
  75  3534.001
  76  3941.858
  77  3733.353
  78  3336.526
  79  4425.409
  80  4201.366
  81  3763.793
  82  3825.628
  83  3994.194
  84  3531.957
  85  3498.212
  86  3808.191
  87  4219.425
  88  3936.518
  89  4463.802
  90  4353.962
  91  3511.543
  92  3949.707
  93  3925.788
  94  3935.273
  95  4232.688
  96  3859.147
  97  3196.458
  98  3597.146
  99  3718.729
 100  3743.918
 101  3026.191
 102  3325.088
 103  3774.223
 104  4507.029
 105  4676.474
 106  4059.792
 107  4101.357
 108  4587.428
 109  4927.546
 110  4186.595
 111  4161.225
 112  3398.266
 113  4090.562
 114  4357.449
 115  4161.303
 116  3920.379
 117  3908.446
 118  3287.221
 119  4200.92
 120  4071.537
 121  4095.564
 122  3250.907
 123  3566.864
 124  4303.217
 125  3213.152
 126  3522.645
 127  3719.245
 128  3178.32
 129  3130.602
 130  3124.562
 131  3940.722
 132  3322.302
 133  3490.686
 134  3981.831
 135  4036.457
 136  4489.729
 137  4632.381
 138  4639.546
 139  4055.647
 140  4014.948
 141  4596.446
 142  4787.458
 143  4430.826
 144  4406.515
 145  4278.431
 146  4518.375
 147  5794.591
 148  5826.433
 149  4721.949
 150  5092.187
 151  4812.452
 152  4621.482
 153  5140.291
 154  5208.348
 155  5160.445
 156  4838.001
 157  4334.333
 158  4690.113
 159  4532.975
 160  4371.854
 161  4679.594
 162  5520.279
 163  6630.011
 164  7538.769
 165  5695.839
 166  4979.56
 167  4048.062
 168  4218.23
 169  4341.767
 170  3628.298
 171  3598.851
 172  4370.469
 173  4237.233
 174  3389.601
 175  4409.199
 176  4176.863
 177  4305.34
 178  4872.132
 179  4481.494
 180  4338.048
 181  3993.752
 182  4559.011
 183  3272.103
 184  3176.575
 185  3952.235
 186  4971.598
 187  4316.941
 188  4216.733
 189  4197.226
 190  4947.025
 191  4944.614
 192  4919.735
 193  4262.037
 194  4151.649
 195  3521.43
 196  4127.676
 197  4237.257
 198  4894.981
 199  4355.913
 200  4495.87
 201  4095.482
 202  4200.261
 203  4972.223
 204  4930.03
 205  4451.935
 206  4073.714
 207  4055.374
 208  4597.573
 209  4376.733
 210  4393.854
 211  4177.583
 212  4084.599
 213  3643.253
 214  3858.667
 215  3675.322
 216  4253.343
 217  4025.206
 218  3770.767
 219  3161.968
 220  4007.096
 221  4225.459
 222  4333.432
 223  4461.235
 224  4659.229
 225  4806.394
 226  3961.535
 227  4157.683
 228  3582.941
 229  4099.738
 230  3871.583
 231  4023.716
 232  4432.009
 233  4044.077
 234  4000.661
 235  4722.603
 236  5293.602
 237  5843.436
 238  5250.93
 239  5016.036
 240  5344.424
 241  5276.605
 242  4353.447
 243  4681.158
 244  4676.941
 245  4284.671
 246  4534.361
 247  4554.714
 248  4426.278
 249  4450.351
 250  4293.944
 251  4281.419
 252  4612.062
 253  3786.039
 254  3930.165
 255  4125.684
