# Input file       =  1180250726.097181-PSRB0329-2ms-sampling-dd.dat
# Candidate        =  PSR_0332+5434
# Telescope        =  AR
# Epoch_topo       =  57904.309549735895
# Epoch_bary       =  N/A
# T_sample         =  0.002
# Data Folded      =  7340032
# Data Avg         =  3.55260206039016e-10
# Data StdDev      =  6.58424924423483 
# Profile Bins     =  512
# Profile Avg      =  0.271879025600404
# Profile StdDev   =  788.352154273663 
# Reduced chi-sqr  =  0.745
# Prob(Noise)      <  1   (~0.0 sigma)
# P_topo (ms)      =  714.517259178162  +/- 0.000628
# P'_topo (s/s)    =  -0                +/- 3.31e-10
# P''_topo (s/s^2) =  0                 +/- 1.46e-13
# P_bary (ms)      =  N/A
# P'_bary (s/s)    =  N/A
# P''_bary (s/s^2) =  N/A
# P_orb (s)        =  N/A
# asin(i)/c (s)    =  N/A
# eccentricity     =  N/A
# w (rad)          =  N/A
# T_peri           =  N/A
######################################################
   0  -419.4673
   1  -81.80205
   2  184.9248
   3  219.5145
   4  182.5594
   5  -220.2349
   6  -142.5703
   7  70.55862
   8  73.76571
   9  -54.68056
  10  88.6813
  11  246.6291
  12  -313.6545
  13  -554.9155
  14  -193.9776
  15  -285.7758
  16  -431.1458
  17  -202.4332
  18  108.1466
  19  -222.2943
  20  -369.0718
  21  -495.309
  22  -530.8385
  23  -572.394
  24  -21.96394
  25  -171.2742
  26  -357.6523
  27  -438.4622
  28  -352.5158
  29  -287.0231
  30  -306.6259
  31  57.07731
  32  -377.6671
  33  -501.7139
  34  -197.9543
  35  616.4065
  36  684.5613
  37  311.8827
  38  -26.0105
  39  -218.2838
  40  -612.8892
  41  -402.6707
  42  -518.402
  43  -12.25733
  44  -61.03122
  45  33.6341
  46  -167.1027
  47  -325.4314
  48  -72.99599
  49  -183.6426
  50  -261.1225
  51  116.4248
  52  -14.27026
  53  779.9152
  54  878.432
  55  556.9471
  56  654.6022
  57  484.8683
  58  508.4178
  59  545.5151
  60  378.4447
  61  116.0641
  62  -159.393
  63  249.8992
  64  505.0361
  65  727.4709
  66  727.5125
  67  467.6635
  68  -28.5117
  69  145.6874
  70  480.1672
  71  250.6986
  72  770.2283
  73  606.574
  74  689.126
  75  78.36992
  76  195.3212
  77  -207.2549
  78  228.2117
  79  393.9485
  80  314.2845
  81  122.2354
  82  -335.4641
  83  -369.229
  84  -51.71186
  85  85.80615
  86  -187.2756
  87  -245.3094
  88  -520.5037
  89  -594.4415
  90  -102.7914
  91  -439.5802
  92  -466.8981
  93  -359.8293
  94  -397.5026
  95  -85.90857
  96  -289.6135
  97  -130.6329
  98  -237.7807
  99  -125.1328
 100  -121.8563
 101  289.7673
 102  -57.64919
 103  230.5856
 104  152.5591
 105  123.7666
 106  150.9339
 107  -150.0345
 108  -285.5684
 109  -100.1805
 110  278.6709
 111  260.1711
 112  -75.46404
 113  224.5484
 114  -5.462468
 115  -806.5485
 116  -998.2591
 117  -622.5584
 118  -52.60274
 119  217.851
 120  467.2228
 121  -30.60016
 122  -514.7678
 123  -700.0142
 124  -256.1771
 125  -115.8318
 126  161.7363
 127  486.8337
 128  324.893
 129  277.5314
 130  618.4148
 131  78.58996
 132  17.60499
 133  -1.11948
 134  88.05962
 135  58.10251
 136  372.1606
 137  945.2794
 138  1055.843
 139  1252.921
 140  1098.786
 141  1052.568
 142  467.5584
 143  -102.8652
 144  -89.36269
 145  1367.504
 146  712.285
 147  295.4521
 148  160.5037
 149  -65.62062
 150  -555.9641
 151  -223.3232
 152  483.3172
 153  166.8426
 154  130.9202
 155  310.434
 156  -207.2819
 157  -252.0683
 158  -244.7229
 159  176.9512
 160  194.9309
 161  -159.6443
 162  -153.1771
 163  72.38798
 164  135.6187
 165  -266.6197
 166  -478.5756
 167  -537.4419
 168  -438.6598
 169  -93.25774
 170  -186.3854
 171  8.390698
 172  6.629696
 173  -51.44506
 174  -237.054
 175  -187.1305
 176  -391.9934
 177  -101.1069
 178  177.9541
 179  364.506
 180  591.0569
 181  414.1742
 182  253.3304
 183  -136.178
 184  -68.11832
 185  671.3626
 186  486.4588
 187  423.7782
 188  423.6758
 189  -307.0989
 190  -95.67553
 191  303.9836
 192  244.8758
 193  -27.0304
 194  -129.0833
 195  -66.14891
 196  148.369
 197  242.7062
 198  295.7866
 199  590.0086
 200  343.3289
 201  391.9182
 202  -44.19455
 203  -132.3231
 204  131.5552
 205  -535.3453
 206  -473.4825
 207  -174.1701
 208  347.1943
 209  266.2588
 210  -41.88823
 211  32.72903
 212  21.37224
 213  297.177
 214  403.7195
 215  501.7356
 216  377.0781
 217  655.1724
 218  1240.975
 219  1473.708
 220  1659.207
 221  1827.577
 222  2411.362
 223  2005.099
 224  1631.07
 225  1306.099
 226  77.21451
 227  370.2582
 228  407.8931
 229  1265.642
 230  955.6345
 231  718.3698
 232  926.5142
 233  593.5284
 234  563.3456
 235  89.48812
 236  126.2603
 237  403.2401
 238  173.0744
 239  208.5016
 240  -265.2124
 241  -655.7505
 242  -778.6552
 243  -280.9355
 244  -29.66455
 245  500.0823
 246  320.6579
 247  -296.3653
 248  -558.2912
 249  -116.8205
 250  -187.619
 251  -240.7563
 252  -616.2079
 253  -471.0334
 254  -647.4351
 255  -561.9472
 256  -305.7528
 257  -501.803
 258  -239.0529
 259  -35.02729
 260  199.0033
 261  121.8762
 262  -145.7838
 263  -227.063
 264  -475.7435
 265  -609.3613
 266  112.44
 267  53.29392
 268  -152.3422
 269  -386.5199
 270  50.73324
 271  -287.6128
 272  -420.1239
 273  -568.9427
 274  -472.4133
 275  -244.1111
 276  -138.5907
 277  63.63366
 278  272.0204
 279  0.02429183
 280  228.8539
 281  401.2997
 282  305.8346
 283  77.94067
 284  -275.174
 285  399.273
 286  -304.695
 287  -238.5556
 288  257.8716
 289  421.5477
 290  552.7762
 291  573.1583
 292  274.0487
 293  -12.2338
 294  -183.0849
 295  -178.858
 296  4.952278
 297  -7.838951
 298  465.457
 299  349.5146
 300  88.15506
 301  -274.5175
 302  -565.8153
 303  -269.2936
 304  -74.4047
 305  -217.8792
 306  -799.7694
 307  -684.3276
 308  -312.993
 309  -564.8729
 310  -546.7877
 311  -238.1153
 312  -272.7466
 313  -361.1418
 314  -528.381
 315  -551.8675
 316  -555.0894
 317  -131.7462
 318  -115.6789
 319  -349.3616
 320  -185.7328
 321  -410.9808
 322  -554.4198
 323  -457.1361
 324  -421.2805
 325  -234.0554
 326  -138.7276
 327  -468.1102
 328  -718.7756
 329  -394.9995
 330  -503.1709
 331  -801.1494
 332  -609.8857
 333  -573.4239
 334  -628.2115
 335  -158.1333
 336  -155.3058
 337  252.1194
 338  789.7032
 339  1562.621
 340  938.2051
 341  799.7033
 342  385.3781
 343  -230.4101
 344  133.1425
 345  1084.025
 346  1377.397
 347  1172.606
 348  429.4807
 349  -105.5231
 350  384.0894
 351  308.7933
 352  791.6774
 353  1072.672
 354  916.8411
 355  857.181
 356  747.5012
 357  216.0328
 358  199.7384
 359  38.90556
 360  907.2249
 361  496.5044
 362  815.3939
 363  703.5916
 364  -23.85257
 365  -227.2847
 366  -438.0887
 367  -306.9394
 368  272.057
 369  196.3772
 370  179.4876
 371  237.8772
 372  302.1025
 373  293.6354
 374  672.1048
 375  743.137
 376  -136.2335
 377  -530.9653
 378  -69.82938
 379  469.8118
 380  243.4876
 381  199.3448
 382  -291.6126
 383  -382.8614
 384  -306.7782
 385  -184.6924
 386  -394.5133
 387  -355.6855
 388  -311.0279
 389  -173.3067
 390  451.7586
 391  794.1655
 392  635.3906
 393  -54.78723
 394  -400.0733
 395  -175.7825
 396  -282.9043
 397  -301.0831
 398  -356.0521
 399  -872.7867
 400  -991.8912
 401  -540.8757
 402  -478.0455
 403  -254.0455
 404  -836.7162
 405  -1086.117
 406  -1208.736
 407  -921.9179
 408  -539.5609
 409  -391.2654
 410  -827.0764
 411  -878.8323
 412  -904.0217
 413  -596.5507
 414  -898.4787
 415  -1223.846
 416  -1227.584
 417  -1103.875
 418  -669.8876
 419  -363.9499
 420  -310.906
 421  -427.2989
 422  -881.9753
 423  -819.3516
 424  -708.1543
 425  -49.13783
 426  -32.60567
 427  -24.63853
 428  42.35719
 429  -197.1522
 430  -147.7499
 431  -179.3979
 432  12.36479
 433  -69.0175
 434  -66.84903
 435  63.09463
 436  90.28701
 437  -41.57682
 438  -131.3236
 439  -38.30906
 440  -171.5894
 441  -183.4432
 442  -65.68686
 443  -257.975
 444  -280.9638
 445  -434.9534
 446  -150.0315
 447  356.5117
 448  129.0237
 449  -66.89119
 450  77.73564
 451  -73.33437
 452  -82.23759
 453  159.9142
 454  333.7095
 455  376.917
 456  -73.99189
 457  57.27871
 458  -70.64799
 459  -25.3884
 460  -14.28907
 461  275.032
 462  111.8617
 463  -188.6753
 464  -339.3033
 465  -437.7131
 466  -450.9494
 467  -387.7694
 468  256.2136
 469  708.1698
 470  430.377
 471  406.1699
 472  535.8149
 473  -125.4702
 474  107.9162
 475  256.9977
 476  -194.714
 477  133.4348
 478  116.3546
 479  -75.1773
 480  -172.133
 481  -140.8374
 482  -48.26716
 483  -379.5151
 484  -428.5416
 485  -521.6826
 486  -512.5118
 487  -517.77
 488  -499.8963
 489  -663.308
 490  -443.5327
 491  -344.8265
 492  -370.3336
 493  -482.7958
 494  -905.8548
 495  -563.91
 496  -452.8705
 497  -94.04032
 498  160.7143
 499  -343.0278
 500  -579.0217
 501  -370.774
 502  -382.0799
 503  183.3179
 504  378.796
 505  309.9594
 506  146.6735
 507  271.4403
 508  414.6567
 509  382.1979
 510  -46.41478
 511  -252.449
