# Input file       =  1180939997.108558_cleaned.dat
# Candidate        =  PSR_0332+5434
# Telescope        =  AR
# Epoch_topo       =  57912.287223478677
# Epoch_bary       =  N/A
# T_sample         =  0.002
# Data Folded      =  7340032
# Data Avg         =  0.0263594569196235
# Data StdDev      =  1.00001621073175 
# Profile Bins     =  512
# Profile Avg      =  378.00794655518  
# Profile StdDev   =  119.7349773369   
# Reduced chi-sqr  =  1.553
# Prob(Noise)      <  1.37e-14   (~7.6 sigma)
# P_topo (ms)      =  714.509548483942  +/- 0.000302
# P'_topo (s/s)    =  -0                +/- 1.59e-10
# P''_topo (s/s^2) =  0                 +/- 7.02e-14
# P_bary (ms)      =  N/A
# P'_bary (s/s)    =  N/A
# P''_bary (s/s^2) =  N/A
# P_orb (s)        =  N/A
# asin(i)/c (s)    =  N/A
# eccentricity     =  N/A
# w (rad)          =  N/A
# T_peri           =  N/A
######################################################
   0  972.1168
   1  1027.624
   2  835.7574
   3  631.369
   4  599.5122
   5  577.4454
   6  352.6936
   7  484.9817
   8  460.016
   9  361.0145
  10  344.4025
  11  389.2205
  12  531.5903
  13  474.4195
  14  438.9267
  15  355.7019
  16  469.5521
  17  612.5652
  18  389.0641
  19  274.8654
  20  376.0675
  21  444.9863
  22  437.1128
  23  353.5525
  24  393.3524
  25  395.5835
  26  456.1317
  27  429.1221
  28  388.1046
  29  412.4402
  30  452.2757
  31  317.413
  32  261.7393
  33  362.3213
  34  533.9637
  35  555.1928
  36  420.205
  37  355.4322
  38  399.1045
  39  438.2852
  40  331.6121
  41  390.5178
  42  442.2839
  43  465.649
  44  403.3792
  45  422.0249
  46  482.3029
  47  443.6286
  48  506.4656
  49  319.1518
  50  377.2927
  51  389.9612
  52  407.9376
  53  374.1627
  54  364.8361
  55  403.5837
  56  338.636
  57  368.9038
  58  303.9951
  59  356.6175
  60  483.1729
  61  475.2265
  62  374.6278
  63  440.8717
  64  462.1584
  65  396.9649
  66  306.73
  67  374.719
  68  350.6628
  69  299.0576
  70  368.378
  71  374.0336
  72  396.1093
  73  534.5325
  74  413.8088
  75  353.3911
  76  229.0683
  77  262.3833
  78  311.5262
  79  287.9374
  80  425.2842
  81  297.4862
  82  377.2814
  83  419.9387
  84  410.0179
  85  374.5914
  86  383.5006
  87  406.9548
  88  430.8831
  89  374.1587
  90  385.1262
  91  349.2735
  92  304.9221
  93  368.0545
  94  396.5353
  95  513.4413
  96  423.665
  97  359.2623
  98  321.9784
  99  347.9353
 100  222.428
 101  187.9185
 102  390.8334
 103  385.2357
 104  349.3408
 105  388.7893
 106  359.4249
 107  322.0796
 108  264.5633
 109  206.4337
 110  275.9441
 111  283.7102
 112  357.6877
 113  371.5518
 114  388.5248
 115  301.7013
 116  297.855
 117  294.0604
 118  170.5775
 119  153.186
 120  214.246
 121  391.7018
 122  283.8143
 123  220.6485
 124  240.0776
 125  242.8876
 126  321.371
 127  403.7602
 128  469.41
 129  482.0474
 130  460.7596
 131  289.5881
 132  359.2983
 133  277.1961
 134  321.6827
 135  290.3893
 136  368.5304
 137  326.4377
 138  235.8334
 139  366.8886
 140  334.7427
 141  321.8373
 142  384.8949
 143  347.338
 144  377.8232
 145  401.8015
 146  341.441
 147  342.1815
 148  328.2182
 149  372.0655
 150  326.8451
 151  291.6913
 152  308.6667
 153  380.9745
 154  309.2104
 155  250.5118
 156  248.4227
 157  279.7479
 158  222.5617
 159  246.43
 160  273.8087
 161  247.6998
 162  292.8107
 163  301.6801
 164  297.6219
 165  425.0651
 166  455.7441
 167  482.1561
 168  414.3205
 169  407.3879
 170  496.7415
 171  416.4666
 172  457.4466
 173  473.2898
 174  201.4657
 175  276.6924
 176  350.85
 177  367.6002
 178  374.5398
 179  336.1323
 180  433.3037
 181  425.0265
 182  274.3661
 183  307.0067
 184  317.5807
 185  320.4429
 186  388.5117
 187  301.4124
 188  326.2773
 189  361.398
 190  380.1888
 191  369.5841
 192  249.2279
 193  278.8228
 194  334.1801
 195  301.8026
 196  283.3585
 197  181.0524
 198  168.9873
 199  202.0937
 200  198.0482
 201  302.6803
 202  253.8531
 203  177.877
 204  252.4895
 205  337.7449
 206  334.9115
 207  197.9582
 208  296.7337
 209  386.2545
 210  249.6535
 211  323.4094
 212  311.8547
 213  295.8407
 214  188.3008
 215  234.7355
 216  336.8603
 217  278.8347
 218  250.8531
 219  55.19526
 220  145.0974
 221  220.7306
 222  189.5617
 223  191.5579
 224  280.9277
 225  228.4674
 226  168.6594
 227  242.4531
 228  399.5769
 229  242.8917
 230  186.733
 231  289.989
 232  370.5305
 233  334.1616
 234  283.1019
 235  136.6851
 236  363.4595
 237  331.1615
 238  254.7291
 239  378.0148
 240  430.6429
 241  432.2527
 242  305.1989
 243  332.7524
 244  294.3375
 245  310.5822
 246  340.7042
 247  293.6108
 248  271.329
 249  275.2801
 250  306.7571
 251  275.9834
 252  319.0801
 253  421.5725
 254  549.0614
 255  454.2737
 256  383.6501
 257  457.025
 258  556.6943
 259  457.4845
 260  561.9974
 261  535.574
 262  480.5806
 263  434.9577
 264  424.0498
 265  373.9639
 266  470.4202
 267  453.6689
 268  332.397
 269  454.372
 270  471.0222
 271  424.7252
 272  364.1551
 273  315.7758
 274  323.3912
 275  272.0662
 276  229.9029
 277  206.3343
 278  307.5031
 279  407.1222
 280  335.7672
 281  315.5426
 282  342.182
 283  348.2813
 284  344.1372
 285  415.7582
 286  489.0912
 287  350.9106
 288  334.7107
 289  356.3448
 290  318.5515
 291  335.0819
 292  264.929
 293  292.01
 294  338.8654
 295  369.1025
 296  382.5099
 297  376.5527
 298  365.4057
 299  315.2288
 300  301.1083
 301  422.4922
 302  384.057
 303  377.2766
 304  444.6679
 305  355.7791
 306  270.6725
 307  247.1215
 308  302.3018
 309  465.0622
 310  433.9185
 311  290.2717
 312  374.8758
 313  307.9684
 314  301.5405
 315  257.488
 316  396.9482
 317  389.4004
 318  304.4633
 319  406.1776
 320  486.1571
 321  454.2743
 322  422.0057
 323  490.2286
 324  395.6826
 325  433.4562
 326  527.5659
 327  484.3527
 328  353.8371
 329  350.5999
 330  432.6028
 331  375.4319
 332  394.1451
 333  485.5052
 334  399.0297
 335  426.7941
 336  381.4839
 337  424.512
 338  355.6453
 339  369.6973
 340  372.336
 341  352.1164
 342  377.5565
 343  352.4059
 344  387.9122
 345  360.4789
 346  355.9533
 347  382.9535
 348  354.7086
 349  280.1024
 350  328.585
 351  304.425
 352  239.8528
 353  278.2217
 354  256.9309
 355  387.7598
 356  447.2381
 357  389.2356
 358  351.2166
 359  289.2084
 360  289.6591
 361  251.5257
 362  293.2534
 363  397.8681
 364  377.8958
 365  286.3389
 366  368.3229
 367  442.9149
 368  424.5403
 369  276.2506
 370  168.8948
 371  417.5764
 372  452.963
 373  414.1053
 374  405.7767
 375  284.7343
 376  300.7964
 377  236.6541
 378  208.0267
 379  286.9585
 380  368.8384
 381  356.0366
 382  334.1128
 383  296.1996
 384  256.1165
 385  356.0375
 386  326.7673
 387  313.1155
 388  280.4092
 389  359.5828
 390  398.5419
 391  184.5684
 392  271.9733
 393  430.3583
 394  446.863
 395  515.4332
 396  511.7316
 397  400.5569
 398  382.6844
 399  498.6762
 400  591.0507
 401  587.6599
 402  348.0089
 403  311.0565
 404  409.1295
 405  452.6201
 406  389.6771
 407  343.7657
 408  414.0197
 409  470.1937
 410  483.4584
 411  433.2856
 412  391.2606
 413  409.6089
 414  353.0307
 415  314.3619
 416  328.7583
 417  387.0325
 418  457.6692
 419  458.1588
 420  432.1281
 421  431.2883
 422  426.9962
 423  369.9407
 424  311.4359
 425  368.8812
 426  415.1881
 427  433.9696
 428  394.4163
 429  480.5399
 430  359.0032
 431  333.8819
 432  394.1804
 433  454.3457
 434  497.5952
 435  486.8415
 436  467.2623
 437  474.3354
 438  423.8352
 439  316.2814
 440  265.4852
 441  352.7644
 442  378.4209
 443  421.4772
 444  325.5811
 445  323.4606
 446  388.9808
 447  387.6533
 448  498.7098
 449  443.5107
 450  460.6933
 451  366.6464
 452  372.5127
 453  464.5014
 454  458.0866
 455  290.5906
 456  378.5707
 457  421.0135
 458  400.7644
 459  466.2428
 460  427.2106
 461  393.9201
 462  414.6252
 463  368.2927
 464  527.5676
 465  511.1957
 466  534.1765
 467  469.4758
 468  421.6626
 469  530.8323
 470  557.1888
 471  553.985
 472  555.264
 473  458.3319
 474  471.7448
 475  447.1255
 476  434.201
 477  515.3518
 478  458.06
 479  478.3184
 480  449.1329
 481  424.1099
 482  404.6254
 483  379.279
 484  404.87
 485  463.1925
 486  464.4657
 487  362.9791
 488  467.9407
 489  458.1776
 490  456.3342
 491  539.9574
 492  502.9655
 493  529.531
 494  533.3631
 495  484.508
 496  469.1933
 497  525.6631
 498  417.5497
 499  436.2891
 500  467.4002
 501  388.1376
 502  445.7679
 503  533.2354
 504  435.4238
 505  416.136
 506  422.4619
 507  478.5049
 508  638.6016
 509  837.4272
 510  997.0958
 511  966.3665
