# Input file       =  1180063718.097963_cleaned.dat
# Candidate        =  PSR_0332+5434
# Telescope        =  AR
# Epoch_topo       =  57902.145105300500
# Epoch_bary       =  N/A
# T_sample         =  0.002
# Data Folded      =  7208960
# Data Avg         =  0.0311415102719162
# Data StdDev      =  1.00001892886773 
# Profile Bins     =  512
# Profile Avg      =  438.49683477418  
# Profile StdDev   =  118.661421877374 
# Reduced chi-sqr  =  1.012
# Prob(Noise)      <  0.415   (~0.2 sigma)
# P_topo (ms)      =  714.519373353958  +/- 0.000136
# P'_topo (s/s)    =  -0                +/- 7.3e-11
# P''_topo (s/s^2) =  0                 +/- 3.28e-14
# P_bary (ms)      =  N/A
# P'_bary (s/s)    =  N/A
# P''_bary (s/s^2) =  N/A
# P_orb (s)        =  N/A
# asin(i)/c (s)    =  N/A
# eccentricity     =  N/A
# w (rad)          =  N/A
# T_peri           =  N/A
######################################################
   0  437.7157
   1  480.6171
   2  538.7592
   3  444.856
   4  344.8225
   5  378.1965
   6  431.3041
   7  401.641
   8  397.048
   9  425.9838
  10  533.206
  11  559.0367
  12  515.634
  13  499.4991
  14  456.7161
  15  414.1899
  16  515.2
  17  504.9401
  18  417.083
  19  359.822
  20  544.853
  21  450.9306
  22  398.8737
  23  400.3536
  24  430.6841
  25  359.1562
  26  450.2857
  27  506.7289
  28  498.7194
  29  517.0988
  30  428.2477
  31  371.6431
  32  428.9896
  33  544.6022
  34  557.7635
  35  569.8544
  36  643.4233
  37  638.4382
  38  491.7325
  39  411.9353
  40  451.5927
  41  490.4378
  42  487.0071
  43  573.0027
  44  684.0589
  45  679.0258
  46  558.27
  47  541.6805
  48  591.7262
  49  531.6199
  50  496.308
  51  387.0286
  52  359.3026
  53  365.5161
  54  392.6818
  55  278.2066
  56  246.8778
  57  373.7072
  58  403.1304
  59  391.6112
  60  405.7355
  61  511.5285
  62  371.0572
  63  376.133
  64  405.8278
  65  379.7953
  66  330.9615
  67  333.3163
  68  464.0576
  69  375.4779
  70  360.086
  71  449.0084
  72  430.2756
  73  523.9645
  74  356.1481
  75  343.0667
  76  284.2566
  77  338.3772
  78  602.5322
  79  600.8865
  80  388.2855
  81  497.3118
  82  556.3425
  83  443.9833
  84  463.1837
  85  451.3441
  86  493.4542
  87  532.1113
  88  491.7796
  89  511.0498
  90  539.3298
  91  530.8362
  92  517.3367
  93  561.603
  94  488.4551
  95  495.7
  96  503.8181
  97  399.9762
  98  424.6946
  99  547.6573
 100  534.0545
 101  518.1981
 102  529.3723
 103  431.92
 104  510.0826
 105  398.7077
 106  392.0161
 107  379.2334
 108  241.6582
 109  367.1592
 110  336.037
 111  342.1471
 112  385.4272
 113  424.3741
 114  378.7442
 115  333.257
 116  402.7185
 117  428.6788
 118  410.5847
 119  422.4989
 120  437.7218
 121  466.8018
 122  417.425
 123  405.228
 124  356.7872
 125  331.3483
 126  438.3857
 127  456.4953
 128  491.2195
 129  490.9717
 130  486.3879
 131  485.6068
 132  632.1746
 133  597.2434
 134  629.7137
 135  542.7711
 136  379.0862
 137  403.1093
 138  383.1572
 139  397.647
 140  441.3201
 141  471.3661
 142  409.6556
 143  446.4243
 144  553.8732
 145  533.1121
 146  469.6915
 147  528.5195
 148  460.7978
 149  615.6617
 150  724.7664
 151  867.8043
 152  877.9651
 153  751.0352
 154  715.7865
 155  549.6623
 156  355.5421
 157  428.2141
 158  399.157
 159  374.093
 160  434.038
 161  507.4301
 162  486.4273
 163  517.0394
 164  535.6005
 165  490.3288
 166  547.4346
 167  548.6432
 168  490.8266
 169  448.2267
 170  421.7276
 171  432.4863
 172  526.4712
 173  555.7603
 174  506.0409
 175  500.1881
 176  495.892
 177  524.67
 178  459.7982
 179  533.6562
 180  504.4799
 181  505.7982
 182  558.9538
 183  503.9734
 184  528.2516
 185  472.9083
 186  417.1845
 187  417.8441
 188  395.8611
 189  391.9602
 190  393.9941
 191  406.6261
 192  403.6849
 193  366.0576
 194  368.1689
 195  355.8513
 196  343.3742
 197  355.8782
 198  370.1848
 199  450.9197
 200  614.6872
 201  461.1964
 202  442.5833
 203  443.5476
 204  393.8023
 205  368.8381
 206  355.1592
 207  446.8684
 208  514.5361
 209  468.0327
 210  437.5963
 211  416.1921
 212  459.3107
 213  487.9143
 214  496.2899
 215  564.736
 216  494.4242
 217  462.1272
 218  353.7461
 219  305.8469
 220  479.0312
 221  466.6994
 222  436.9247
 223  452.6926
 224  412.1931
 225  449.7993
 226  306.8647
 227  373.9679
 228  484.0866
 229  469.1068
 230  414.9147
 231  366.229
 232  426.5341
 233  459.0619
 234  460.5971
 235  427.5513
 236  405.314
 237  350.4093
 238  353.4516
 239  467.97
 240  461.8486
 241  470.9215
 242  337.8427
 243  440.0038
 244  507.6591
 245  436.5738
 246  309.5399
 247  348.9148
 248  455.3143
 249  443.0179
 250  537.6646
 251  453.8434
 252  443.592
 253  394.8739
 254  369.3719
 255  415.5502
 256  388.4469
 257  437.718
 258  348.5358
 259  392.1578
 260  339.4812
 261  355.8873
 262  374.1623
 263  413.8327
 264  595.2982
 265  546.3105
 266  488.4081
 267  526.4619
 268  365.4514
 269  202.6524
 270  262.7422
 271  397.9305
 272  436.1418
 273  483.0316
 274  538.8943
 275  471.7512
 276  483.0685
 277  466.8256
 278  454.9724
 279  369.6615
 280  375.3465
 281  458.789
 282  453.7421
 283  488.1573
 284  422.0214
 285  409.3467
 286  389.6235
 287  388.773
 288  301.7403
 289  364.0716
 290  331.0511
 291  358.828
 292  458.4754
 293  302.7097
 294  330.8212
 295  373.7525
 296  420.7067
 297  376.7922
 298  387.862
 299  430.7358
 300  367.8918
 301  296.831
 302  269.6156
 303  170.1178
 304  264.37
 305  333.7658
 306  386.1138
 307  371.7865
 308  433.371
 309  363.6112
 310  226.6423
 311  287.1201
 312  328.5638
 313  420.6679
 314  394.2536
 315  460.1593
 316  442.1681
 317  411.4112
 318  513.9705
 319  417.5027
 320  265.2631
 321  284.0509
 322  431.8592
 323  398.7773
 324  329.5206
 325  251.936
 326  353.3231
 327  335.1517
 328  319.0092
 329  350.3778
 330  382.0329
 331  467.0628
 332  418.1227
 333  385.8392
 334  246.8947
 335  271.2032
 336  322.4051
 337  380.109
 338  434.1713
 339  428.102
 340  465.0815
 341  454.38
 342  358.3362
 343  469.354
 344  387.9519
 345  418.5863
 346  412.5939
 347  363.2567
 348  436.7271
 349  420.5185
 350  321.9469
 351  357.9562
 352  378.8955
 353  376.3823
 354  377.4277
 355  387.0406
 356  436.0525
 357  397.6477
 358  514.1597
 359  360.0798
 360  377.0499
 361  538.5155
 362  407.8417
 363  414.0756
 364  417.3528
 365  461.0018
 366  422.8059
 367  444.352
 368  400.0643
 369  320.9493
 370  351.5188
 371  389.7706
 372  439.9599
 373  448.9282
 374  363.6398
 375  429.9976
 376  471.8719
 377  470.0799
 378  413.5726
 379  477.2871
 380  483.7653
 381  412.369
 382  366.5443
 383  420.5745
 384  380.4695
 385  352.1087
 386  355.5978
 387  328.0504
 388  333.9928
 389  515.4186
 390  522.1078
 391  426.268
 392  319.4886
 393  375.0433
 394  417.2704
 395  371.951
 396  550.0502
 397  529.0183
 398  506.3807
 399  473.2384
 400  563.0244
 401  581.4001
 402  436.4068
 403  352.169
 404  500.4766
 405  464.1038
 406  517.1989
 407  493.2892
 408  445.8566
 409  439.2249
 410  372.9247
 411  537.1757
 412  581.8317
 413  492.8716
 414  413.2462
 415  387.1312
 416  355.9706
 417  333.4782
 418  357.1631
 419  363.0054
 420  425.7367
 421  517.196
 422  359.6815
 423  507.4186
 424  422.212
 425  428.4452
 426  525.0817
 427  550.7312
 428  490.1766
 429  460.5186
 430  474.3586
 431  505.6236
 432  532.8101
 433  521.2439
 434  581.3069
 435  526.9454
 436  429.4832
 437  416.2239
 438  428.3093
 439  397.3006
 440  339.4407
 441  436.4046
 442  431.9752
 443  318.2892
 444  273.7955
 445  365.6099
 446  548.5345
 447  517.7285
 448  500.5618
 449  596.1241
 450  484.4972
 451  424.9999
 452  315.4533
 453  352.2621
 454  500.3647
 455  533.6427
 456  518.8082
 457  453.662
 458  391.2084
 459  330.9241
 460  271.1887
 461  291.3965
 462  340.7088
 463  443.6505
 464  540.7258
 465  581.1774
 466  389.9602
 467  398.8875
 468  404.484
 469  407.3739
 470  315.7679
 471  362.4334
 472  391.325
 473  378.3879
 474  406.9871
 475  420.3343
 476  504.7155
 477  506.1857
 478  432.6361
 479  387.0077
 480  421.1142
 481  493.9914
 482  529.207
 483  480.3735
 484  449.7481
 485  470.1213
 486  553.3413
 487  445.0734
 488  392.6305
 489  381.9001
 490  478.1451
 491  441.6848
 492  378.1882
 493  443.6488
 494  426.6036
 495  438.7878
 496  421.9045
 497  525.1033
 498  498.3985
 499  453.5993
 500  494.2863
 501  445.2208
 502  490.9188
 503  444.921
 504  299.3714
 505  432.5924
 506  495.0791
 507  577.7917
 508  588.5679
 509  470.5348
 510  515.5992
 511  473.7957
