# Input file       =  1180696444.113249_cleaned.dat
# Candidate        =  PSR_0332+5434
# Telescope        =  AR
# Epoch_topo       =  57909.468323070010
# Epoch_bary       =  N/A
# T_sample         =  0.002
# Data Folded      =  7340032
# Data Avg         =  0.026757418012566
# Data StdDev      =  1.00004512763663 
# Profile Bins     =  512
# Profile Avg      =  383.659224171224 
# Profile StdDev   =  119.738439645724 
# Reduced chi-sqr  =  1.166
# Prob(Noise)      <  0.00551   (~2.5 sigma)
# P_topo (ms)      =  714.512582194715  +/- 0.000313
# P'_topo (s/s)    =  -0                +/- 1.65e-10
# P''_topo (s/s^2) =  0                 +/- 7.3e-14
# P_bary (ms)      =  N/A
# P'_bary (s/s)    =  N/A
# P''_bary (s/s^2) =  N/A
# P_orb (s)        =  N/A
# asin(i)/c (s)    =  N/A
# eccentricity     =  N/A
# w (rad)          =  N/A
# T_peri           =  N/A
######################################################
   0  733.5309
   1  692.1647
   2  615.8361
   3  471.4261
   4  381.5385
   5  384.6798
   6  434.6743
   7  457.634
   8  392.783
   9  268.1666
  10  168.7748
  11  200.9944
  12  286.6504
  13  313.1308
  14  379.1017
  15  441.4669
  16  429.2108
  17  339.9601
  18  249.67
  19  372.637
  20  463.6186
  21  395.3496
  22  339.4441
  23  337.5772
  24  216.1267
  25  272.478
  26  307.6509
  27  409.8912
  28  342.6953
  29  406.092
  30  484.2657
  31  443.7213
  32  445.3441
  33  382.8364
  34  313.2579
  35  492.1164
  36  479.6726
  37  385.6418
  38  419.466
  39  345.0206
  40  435.9184
  41  399.0322
  42  469.1258
  43  385.7198
  44  250.0988
  45  383.5378
  46  361.191
  47  335.3754
  48  347.1753
  49  438.5738
  50  400.6482
  51  232.4975
  52  249.03
  53  244.0432
  54  453.7731
  55  377.9215
  56  301.2614
  57  211.9995
  58  256.5666
  59  317.8397
  60  298.4358
  61  321.9979
  62  310.9657
  63  201.5624
  64  247.257
  65  336.9806
  66  221.625
  67  222.046
  68  285.8212
  69  335.2875
  70  391.5467
  71  334.904
  72  412.3119
  73  313.4167
  74  310.5642
  75  415.0446
  76  318.9613
  77  396.0998
  78  451.4145
  79  329.0678
  80  357.4879
  81  428.4219
  82  397.2173
  83  307.1572
  84  390.0059
  85  381.7812
  86  231.3726
  87  328.1644
  88  320.4405
  89  247.499
  90  331.5482
  91  341.4016
  92  212.1042
  93  199.9777
  94  224.2525
  95  320.569
  96  347.8017
  97  278.4547
  98  292.4049
  99  372.3558
 100  236.7519
 101  338.3098
 102  271.0157
 103  289.829
 104  293.6955
 105  257.9095
 106  375.763
 107  287.5215
 108  377.0717
 109  609.42
 110  415.9677
 111  333.4609
 112  441.4951
 113  373.9157
 114  330.3277
 115  334.9267
 116  381.9246
 117  486.6881
 118  440.201
 119  537.2524
 120  436.6133
 121  386.2402
 122  315.4149
 123  324.6286
 124  344.7071
 125  412.4699
 126  433.0962
 127  370.6772
 128  396.5351
 129  318.506
 130  376.3427
 131  271.0676
 132  245.8707
 133  326.6655
 134  257.9731
 135  222.1082
 136  400.8152
 137  318.3738
 138  265.0054
 139  357.9665
 140  225.9401
 141  123.9763
 142  249.1897
 143  306.4343
 144  452.7287
 145  362.9452
 146  258.7926
 147  380.9243
 148  287.997
 149  356.2489
 150  327.9324
 151  255.1707
 152  287.5761
 153  384.0337
 154  422.6689
 155  351.9293
 156  381.0284
 157  541.3439
 158  524.3521
 159  405.2192
 160  440.9849
 161  496.5584
 162  409.1763
 163  378.5141
 164  445.9284
 165  387.1107
 166  304.4063
 167  394.7431
 168  360.9669
 169  458.3795
 170  373.6365
 171  341.5604
 172  364.3718
 173  388.2985
 174  429.2335
 175  519.3436
 176  397.4119
 177  298.0193
 178  298.5849
 179  437.5887
 180  358.1675
 181  327.63
 182  332.7338
 183  368.5469
 184  427.3933
 185  386.6528
 186  465.5537
 187  413.0314
 188  363.3899
 189  346.2565
 190  371.3242
 191  441.3311
 192  463.6426
 193  455.6449
 194  385.8041
 195  354.6067
 196  482.6322
 197  524.2009
 198  477.5619
 199  431.7225
 200  432.6778
 201  433.987
 202  415.0205
 203  485.9795
 204  549.2034
 205  458.0769
 206  440.3682
 207  377.0444
 208  353.7378
 209  362.6071
 210  455.0111
 211  405.9567
 212  488.974
 213  365.5985
 214  372.3678
 215  418.0144
 216  390.3148
 217  363.5895
 218  384.9431
 219  435.6327
 220  214.3195
 221  178.4432
 222  301.4152
 223  328.7406
 224  402.497
 225  370.968
 226  343.5466
 227  410.322
 228  394.9463
 229  366.2739
 230  352.108
 231  442.7571
 232  438.4161
 233  302.7174
 234  335.0542
 235  361.7964
 236  482.3647
 237  631.8066
 238  638.4586
 239  518.0206
 240  393.5247
 241  414.3022
 242  337.2199
 243  300.5014
 244  397.8281
 245  462.7396
 246  421.7968
 247  621.0902
 248  655.9951
 249  548.1321
 250  489.8188
 251  326.4297
 252  404.3362
 253  371.478
 254  315.8344
 255  390.6338
 256  458.1599
 257  540.7216
 258  477.7252
 259  532.247
 260  418.681
 261  350.7661
 262  290.7282
 263  329.2297
 264  429.0122
 265  533.1833
 266  484.7347
 267  344.7621
 268  274.8772
 269  261.8275
 270  334.7766
 271  356.683
 272  427.3992
 273  356.3786
 274  302.9239
 275  317.5789
 276  340.6494
 277  413.2585
 278  427.0695
 279  356.2376
 280  471.159
 281  428.9572
 282  410.761
 283  458.1346
 284  478.372
 285  382.1673
 286  419.7051
 287  477.9458
 288  574.4391
 289  552.2028
 290  385.8117
 291  321.79
 292  322.8057
 293  350.7206
 294  316.705
 295  397.2672
 296  461.1238
 297  365.7843
 298  302.3939
 299  327.0844
 300  383.4593
 301  461.4883
 302  361.4076
 303  385.5784
 304  355.0606
 305  351.7166
 306  382.6591
 307  432.6165
 308  461.9014
 309  421.4377
 310  366.8609
 311  426.8773
 312  367.1494
 313  403.4072
 314  448.6623
 315  408.8309
 316  352.5399
 317  485.8464
 318  470.2392
 319  341.9187
 320  422.5255
 321  486.1039
 322  418.5999
 323  531.0518
 324  506.676
 325  401.7481
 326  503.7497
 327  671.7164
 328  595.0285
 329  537.1761
 330  405.6721
 331  419.1502
 332  456.4691
 333  572.5557
 334  559.5717
 335  445.1021
 336  533.4636
 337  568.3678
 338  384.5175
 339  318.9603
 340  378.496
 341  386.089
 342  395.0369
 343  441.3585
 344  561.5631
 345  419.5208
 346  345.6941
 347  350.5371
 348  510.8996
 349  497.9029
 350  601.0508
 351  509.0704
 352  488.2497
 353  374.3578
 354  311.0335
 355  314.6029
 356  362.2084
 357  370.5861
 358  323.4381
 359  315.6003
 360  330.9291
 361  431.7684
 362  343.1176
 363  348.3663
 364  420.3517
 365  374.0269
 366  423.5043
 367  368.2575
 368  384.6321
 369  403.0417
 370  485.2155
 371  500.3862
 372  428.3998
 373  477.0597
 374  498.7278
 375  531.6743
 376  508.325
 377  509.0316
 378  428.8915
 379  395.9738
 380  398.1799
 381  337.6117
 382  309.8062
 383  346.0928
 384  411.5991
 385  396.591
 386  448.0234
 387  523.8699
 388  494.5506
 389  357.5609
 390  388.9619
 391  393.8337
 392  425.5149
 393  440.3251
 394  496.7627
 395  438.1435
 396  383.3537
 397  408.428
 398  385.2555
 399  476.025
 400  383.3297
 401  411.4095
 402  574.6227
 403  513.3884
 404  443.8086
 405  473.984
 406  466.9522
 407  435.1696
 408  483.7608
 409  514.9064
 410  383.1334
 411  335.2213
 412  327.8918
 413  373.9907
 414  411.5073
 415  432.632
 416  402.4647
 417  416.0489
 418  469.2606
 419  479.528
 420  458.6323
 421  336.3698
 422  261.8328
 423  352.1679
 424  399.5328
 425  256.5953
 426  235.7384
 427  398.0786
 428  345.8899
 429  315.1117
 430  317.5309
 431  176.3337
 432  252.3731
 433  224.9908
 434  185.7502
 435  224.6403
 436  220.3049
 437  387.0001
 438  400.6776
 439  312.1286
 440  326.121
 441  280.9698
 442  307.0832
 443  344.0182
 444  306.4232
 445  395.4978
 446  450.6929
 447  333.9247
 448  260.9009
 449  209.128
 450  219.7066
 451  319.6507
 452  272.5475
 453  329.746
 454  444.9388
 455  307.4238
 456  237.111
 457  371.0434
 458  443.0048
 459  431.9898
 460  477.3089
 461  435.5331
 462  348.6407
 463  255.6156
 464  169.9506
 465  159.9857
 466  171.246
 467  259.99
 468  258.455
 469  215.9919
 470  291.8685
 471  352.1776
 472  373.5499
 473  296.3039
 474  290.9467
 475  293.7344
 476  241.9574
 477  338.335
 478  396.1516
 479  392.1832
 480  277.0687
 481  248.0134
 482  296.1897
 483  338.665
 484  207.1407
 485  220.4431
 486  347.1841
 487  394.1839
 488  304.6945
 489  334.0692
 490  421.6136
 491  263.4305
 492  394.7103
 493  448.6613
 494  422.6132
 495  497.3255
 496  470.1363
 497  452.6049
 498  545.3119
 499  485.9409
 500  370.1419
 501  299.217
 502  355.9296
 503  461.2156
 504  493.1662
 505  511.4122
 506  462.3461
 507  352.6075
 508  458.2151
 509  489.4801
 510  616.7095
 511  751.578
