# Input file       =  1180839218.112024_cleaned.dat
# Candidate        =  PSR_0332+5434
# Telescope        =  AR
# Epoch_topo       =  57911.120799907687
# Epoch_bary       =  N/A
# T_sample         =  0.002
# Data Folded      =  7143424
# Data Avg         =  0.0297959735187331
# Data StdDev      =  1.00003722539244 
# Profile Bins     =  512
# Profile Avg      =  415.604883373882 
# Profile StdDev   =  118.122981492529 
# Reduced chi-sqr  =  1.202
# Prob(Noise)      <  0.00112   (~3.1 sigma)
# P_topo (ms)      =  714.510650598579  +/- 0.000365
# P'_topo (s/s)    =  -0                +/- 1.98e-10
# P''_topo (s/s^2) =  0                 +/- 8.98e-14
# P_bary (ms)      =  N/A
# P'_bary (s/s)    =  N/A
# P''_bary (s/s^2) =  N/A
# P_orb (s)        =  N/A
# asin(i)/c (s)    =  N/A
# eccentricity     =  N/A
# w (rad)          =  N/A
# T_peri           =  N/A
######################################################
   0  387.437
   1  482.417
   2  376.976
   3  383.2962
   4  384.6388
   5  443.4841
   6  427.6765
   7  514.1161
   8  498.3105
   9  418.392
  10  402.4174
  11  376.1071
  12  484.1301
  13  537.9102
  14  471.2034
  15  363.1515
  16  345.744
  17  413.2386
  18  404.1402
  19  337.001
  20  457.2804
  21  459.2275
  22  456.5517
  23  455.7576
  24  375.3402
  25  433.0739
  26  414.7073
  27  375.1289
  28  297.076
  29  235.6603
  30  344.9343
  31  409.1924
  32  367.7576
  33  350.4172
  34  440.864
  35  448.081
  36  388.5631
  37  472.2326
  38  464.1845
  39  372.8972
  40  406.9356
  41  447.4247
  42  509.1663
  43  537.3621
  44  520.4171
  45  446.9298
  46  461.2976
  47  486.8029
  48  472.8753
  49  464.9969
  50  513.6196
  51  497.6963
  52  540.3119
  53  542.8715
  54  576.6497
  55  504.471
  56  518.3739
  57  344.9821
  58  401.5115
  59  450.605
  60  489.0132
  61  390.8698
  62  334.649
  63  480.7633
  64  511.4803
  65  429.9414
  66  467.0025
  67  578.5876
  68  680.2841
  69  914.295
  70  956.2009
  71  879.7343
  72  894.5791
  73  809.7202
  74  546.8538
  75  547.2653
  76  453.6806
  77  421.3033
  78  419.7474
  79  404.0544
  80  375.2592
  81  428.9409
  82  496.8889
  83  472.0165
  84  454.5651
  85  447.9531
  86  455.7033
  87  478.2549
  88  499.1104
  89  493.5422
  90  357.5008
  91  336.889
  92  355.5243
  93  348.8928
  94  418.0432
  95  437.5399
  96  338.168
  97  258.641
  98  354.2336
  99  307.2931
 100  297.9857
 101  421.589
 102  452.7955
 103  459.3235
 104  362.5826
 105  342.6595
 106  351.26
 107  400.9252
 108  336.8839
 109  409.1914
 110  505.365
 111  432.1293
 112  385.3511
 113  338.8837
 114  407.6136
 115  392.464
 116  419.8918
 117  447.3239
 118  400.4438
 119  299.2375
 120  359.4439
 121  394.2651
 122  385.1265
 123  280.8025
 124  278.9675
 125  261.2564
 126  247.6472
 127  338.5681
 128  351.7809
 129  460.0035
 130  415.0598
 131  428.1524
 132  407.8958
 133  302.2572
 134  310.309
 135  395.1083
 136  302.1177
 137  254.2328
 138  279.1671
 139  419.4892
 140  407.8103
 141  366.5211
 142  306.0124
 143  361.4252
 144  415.2719
 145  481.8524
 146  423.4014
 147  390.6031
 148  406.2698
 149  329.7357
 150  349.6907
 151  440.5656
 152  499.0308
 153  377.8024
 154  510.8846
 155  509.751
 156  467.5769
 157  583.666
 158  496.8642
 159  398.951
 160  382.7768
 161  427.3374
 162  441.8194
 163  574.7604
 164  692.5684
 165  677.2034
 166  568.4174
 167  519.5677
 168  496.6343
 169  419.2356
 170  438.1171
 171  578.0319
 172  558.5493
 173  623.9257
 174  564.011
 175  459.3855
 176  457.1417
 177  372.4853
 178  425.8255
 179  499.5232
 180  551.8297
 181  424.2469
 182  321.4945
 183  409.3557
 184  396.122
 185  356.6981
 186  360.1496
 187  403.2694
 188  432.541
 189  374.6808
 190  331.7672
 191  343.0126
 192  385.5954
 193  390.9998
 194  440.8538
 195  463.3199
 196  505.3563
 197  394.0293
 198  359.3349
 199  290.1236
 200  349.0202
 201  395.1758
 202  288.7027
 203  297.1863
 204  396.0961
 205  425.2476
 206  478.5202
 207  472.6757
 208  536.6659
 209  527.9404
 210  455.2989
 211  498.3593
 212  442.0864
 213  472.1342
 214  556.4333
 215  462.3163
 216  554.5068
 217  521.8473
 218  486.3223
 219  416.7861
 220  513.2714
 221  413.9082
 222  466.8065
 223  526.3967
 224  478.7498
 225  435.0567
 226  495.1337
 227  510.0346
 228  463.2422
 229  483.4624
 230  510.2491
 231  478.2623
 232  538.3328
 233  531.5317
 234  532.3176
 235  509.7427
 236  541.2106
 237  562.2451
 238  490.6984
 239  460.0286
 240  501.6817
 241  545.2191
 242  540.4651
 243  509.0549
 244  553.0107
 245  513.7729
 246  466.2814
 247  434.0784
 248  366.2857
 249  310.658
 250  303.7587
 251  417.3274
 252  441.9932
 253  493.124
 254  439.1764
 255  564.2449
 256  520.6398
 257  415.5684
 258  391.0688
 259  491.6542
 260  534.892
 261  370.207
 262  388.1061
 263  433.6083
 264  552.674
 265  517.7326
 266  426.0692
 267  432.4706
 268  435.3742
 269  391.494
 270  378.3572
 271  464.522
 272  466.071
 273  345.4864
 274  309.2986
 275  394.3415
 276  370.7328
 277  438.1198
 278  314.0465
 279  326.3966
 280  335.82
 281  362.9001
 282  304.1171
 283  298.1183
 284  345.8862
 285  311.9122
 286  283.1748
 287  380.3005
 288  435.8183
 289  418.645
 290  420.7413
 291  492.3289
 292  408.6906
 293  272.8535
 294  319.8163
 295  356.2543
 296  445.5532
 297  484.5965
 298  454.2275
 299  504.0915
 300  424.4955
 301  448.4344
 302  459.0168
 303  529.2438
 304  465.9515
 305  539.5889
 306  412.9725
 307  389.1196
 308  372.8769
 309  358.1364
 310  415.4629
 311  310.0669
 312  332.5769
 313  505.5489
 314  422.8769
 315  443.5227
 316  429.4941
 317  351.8725
 318  316.7737
 319  417.3547
 320  473.9085
 321  385.2604
 322  337.6341
 323  309.4407
 324  389.5264
 325  410.1638
 326  514.4612
 327  521.5637
 328  465.9771
 329  364.231
 330  333.0867
 331  408.1737
 332  348.0607
 333  259.2474
 334  328.7968
 335  381.3722
 336  457.1472
 337  405.5816
 338  415.9189
 339  349.7337
 340  303.1308
 341  388.4296
 342  451.8639
 343  329.3186
 344  373.7111
 345  350.1265
 346  314.3194
 347  322.0713
 348  313.4761
 349  294.2789
 350  332.3108
 351  306.4582
 352  230.4975
 353  336.2764
 354  413.3476
 355  321.9579
 356  313.0146
 357  434.8114
 358  397.653
 359  420.1308
 360  395.3276
 361  406.6006
 362  420.352
 363  432.3436
 364  437.4963
 365  266.7182
 366  350.1128
 367  459.5487
 368  416.64
 369  404.2417
 370  460.3676
 371  404.2765
 372  342.0927
 373  352.4653
 374  333.2137
 375  371.8413
 376  254.4664
 377  177.2207
 378  378.745
 379  544.2368
 380  496.6463
 381  301.38
 382  453.6614
 383  546.2291
 384  426.2301
 385  430.7275
 386  443.9159
 387  539.7995
 388  427.89
 389  379.8037
 390  384.058
 391  373.6742
 392  433.8371
 393  426.8094
 394  463.9333
 395  564.8489
 396  490.2513
 397  339.9314
 398  296.4589
 399  399.3578
 400  370.5854
 401  300.6767
 402  319.5607
 403  348.262
 404  368.8471
 405  410.4779
 406  444.4524
 407  403.1152
 408  388.0947
 409  443.3583
 410  437.2177
 411  398.1627
 412  554.6936
 413  412.9063
 414  345.7602
 415  341.4494
 416  284.6301
 417  321.148
 418  267.0837
 419  338.3208
 420  300.1467
 421  219.7656
 422  231.3137
 423  380.5218
 424  373.7742
 425  337.3983
 426  295.7906
 427  262.3288
 428  434.3668
 429  409.3615
 430  307.8462
 431  270.2502
 432  256.1573
 433  278.8887
 434  276.7123
 435  397.0165
 436  369.4639
 437  355.6276
 438  354.2127
 439  349.6979
 440  294.8554
 441  381.0073
 442  376.9173
 443  431.8534
 444  496.4715
 445  592.6876
 446  534.2258
 447  514.1146
 448  483.4652
 449  447.3444
 450  350.1807
 451  401.407
 452  392.6982
 453  386.9709
 454  429.3895
 455  464.3269
 456  379.5475
 457  327.1519
 458  361.2048
 459  328.2489
 460  273.9018
 461  271.3473
 462  487.8425
 463  544.3693
 464  441.1566
 465  455.5763
 466  337.9985
 467  289.3098
 468  289.0414
 469  344.4873
 470  311.2401
 471  418.4971
 472  437.3857
 473  459
 474  566.1419
 475  381.5652
 476  393.702
 477  481.2003
 478  464.7572
 479  389.2426
 480  301.8664
 481  389.1354
 482  441.1568
 483  389.2311
 484  368.5434
 485  347.6486
 486  289.8334
 487  301.177
 488  223.8609
 489  369.984
 490  434.0962
 491  348.1911
 492  418.2563
 493  443.0617
 494  349.4412
 495  299.2743
 496  306.3836
 497  381.9449
 498  398.1104
 499  369.0752
 500  327.0713
 501  282.749
 502  304.5822
 503  436.3318
 504  416.4908
 505  429.6103
 506  281.7415
 507  326.9331
 508  380.2998
 509  426.0698
 510  457.0049
 511  468.4112
