# Input file       =  1180753068.109029_cleaned.dat
# Candidate        =  PSR_0332+5434
# Telescope        =  AR
# Epoch_topo       =  57910.123693391542
# Epoch_bary       =  N/A
# T_sample         =  0.002
# Data Folded      =  7143424
# Data Avg         =  0.0309779482298978
# Data StdDev      =  1.00003586073792 
# Profile Bins     =  512
# Profile Avg      =  432.191413952827 
# Profile StdDev   =  118.122820301469 
# Reduced chi-sqr  =  1.016
# Prob(Noise)      <  0.389   (~0.3 sigma)
# P_topo (ms)      =  714.511606268424  +/- 0.000538
# P'_topo (s/s)    =  -0                +/- 2.92e-10
# P''_topo (s/s^2) =  0                 +/- 1.32e-13
# P_bary (ms)      =  N/A
# P'_bary (s/s)    =  N/A
# P''_bary (s/s^2) =  N/A
# P_orb (s)        =  N/A
# asin(i)/c (s)    =  N/A
# eccentricity     =  N/A
# w (rad)          =  N/A
# T_peri           =  N/A
######################################################
   0  468.6189
   1  568.0921
   2  470.0573
   3  460.2757
   4  517.2805
   5  445.0377
   6  494.6014
   7  518.4403
   8  595.9018
   9  583.5373
  10  418.0177
  11  386.3803
  12  388.2176
  13  491.3818
  14  594.6152
  15  608.4094
  16  642.4075
  17  603.9479
  18  768.3799
  19  799.2646
  20  891.9584
  21  897.8961
  22  907.6159
  23  822.3041
  24  463.7572
  25  454.8128
  26  455.5835
  27  435.3602
  28  433.0772
  29  482.5988
  30  447.5532
  31  438.0914
  32  429.7731
  33  394.2838
  34  448.0354
  35  497.6306
  36  437.4331
  37  391.589
  38  400.46
  39  316.0602
  40  393.4093
  41  452.8962
  42  472.6828
  43  410.2336
  44  485.7346
  45  428.3298
  46  382.3727
  47  446.5125
  48  474.4531
  49  312.2787
  50  394.2993
  51  551.5853
  52  505.7618
  53  462.1306
  54  459.3696
  55  507.8466
  56  405.2702
  57  505.8514
  58  510.3871
  59  520.9739
  60  459.3351
  61  374.9583
  62  388.2183
  63  451.8839
  64  419.6087
  65  558.7164
  66  413.9821
  67  419.3405
  68  480.5198
  69  511.0619
  70  615.6484
  71  539.8979
  72  497.2969
  73  502.8613
  74  436.3339
  75  504.4708
  76  382.1061
  77  410.1648
  78  395.5738
  79  464.9639
  80  409.0311
  81  468.9572
  82  329.4907
  83  340.4256
  84  361.0723
  85  463.5578
  86  438.9814
  87  488.7793
  88  509.7466
  89  421.6165
  90  562.1512
  91  589.9611
  92  551.0782
  93  437.6953
  94  262.3737
  95  384.38
  96  342.6158
  97  477.6396
  98  419.1601
  99  443.799
 100  461.4188
 101  371.8536
 102  551.8901
 103  466.1843
 104  368.8267
 105  422.5953
 106  386.0103
 107  320.5612
 108  228.3339
 109  340.5634
 110  398.1657
 111  387.9424
 112  340.5486
 113  470.1718
 114  397.8513
 115  302.1666
 116  230.6793
 117  283.3837
 118  414.9119
 119  426.9332
 120  457.9673
 121  456.5993
 122  505.8788
 123  531.1996
 124  401.9151
 125  349.1621
 126  421.5819
 127  475.6866
 128  418.8568
 129  450.4305
 130  405.3912
 131  376.589
 132  402.7913
 133  400.0225
 134  443.7188
 135  510.5643
 136  472.6573
 137  443.4666
 138  509.3088
 139  610.8364
 140  667.2584
 141  546.1474
 142  387.3954
 143  420.8072
 144  531.0005
 145  488.9224
 146  416.2623
 147  489.588
 148  590.5275
 149  479.4084
 150  418.8019
 151  436.031
 152  429.1926
 153  439.0764
 154  384.8871
 155  359.1585
 156  501.1169
 157  580.4363
 158  455.0623
 159  476.4546
 160  485.7125
 161  401.9108
 162  337.749
 163  402.0254
 164  477.8542
 165  406.3588
 166  430.4724
 167  490.065
 168  462.0515
 169  431.3253
 170  472.7311
 171  414.5554
 172  345.471
 173  395.741
 174  321.3578
 175  343.0656
 176  363.3336
 177  518.9372
 178  466.4624
 179  413.6544
 180  520.0594
 181  476.7303
 182  425.2725
 183  574.148
 184  533.2143
 185  426.5953
 186  356.0383
 187  460.3533
 188  493.7048
 189  529.1758
 190  480.5728
 191  412.8052
 192  370.0759
 193  405.81
 194  375.2759
 195  343.2303
 196  369.2813
 197  350.1685
 198  344.3148
 199  409.0469
 200  321.9033
 201  347.8476
 202  369.4698
 203  357.9034
 204  364.4434
 205  415.6373
 206  461.4208
 207  437.0217
 208  378.217
 209  404.4119
 210  522.4605
 211  423.2536
 212  541.0926
 213  457.0816
 214  424.9489
 215  397.2022
 216  397.8936
 217  434.9151
 218  460.2248
 219  492.8261
 220  543.2292
 221  572.3878
 222  563.8989
 223  459.7867
 224  404.2979
 225  369.8688
 226  382.4091
 227  378.2099
 228  414.9887
 229  480.2004
 230  506.9962
 231  510.1413
 232  373.4126
 233  330.9106
 234  412.2971
 235  474.3047
 236  417.2847
 237  338.6074
 238  367.3747
 239  354.0011
 240  268.0312
 241  375.335
 242  388.3123
 243  369.6933
 244  388.7111
 245  387.9413
 246  224.9775
 247  286.9043
 248  333.4587
 249  279.3477
 250  361.7563
 251  431.4997
 252  410.7245
 253  285.4216
 254  325.3269
 255  362.4742
 256  351.722
 257  461.3146
 258  398.9432
 259  342.2464
 260  330.1866
 261  420.6266
 262  410.077
 263  361.1867
 264  354.1181
 265  316.6917
 266  380.0675
 267  376.7484
 268  422.8875
 269  375.8985
 270  420.918
 271  440.6005
 272  480.0055
 273  498.8928
 274  540.3953
 275  503.3729
 276  419.4203
 277  455.8064
 278  322.2043
 279  468.5747
 280  484.8979
 281  366.5095
 282  380.4306
 283  501.4004
 284  548.1678
 285  454.9321
 286  379.5725
 287  370.4235
 288  379.0278
 289  390.6705
 290  460.11
 291  518.0833
 292  429.4841
 293  458.2536
 294  478.0244
 295  545.7813
 296  493.4962
 297  382.2265
 298  467.4114
 299  403.1191
 300  410.428
 301  355.48
 302  252.2849
 303  438.3088
 304  421.7872
 305  471.8531
 306  569.1819
 307  480.5189
 308  331.7242
 309  253.0273
 310  350.5878
 311  319.7523
 312  374.5808
 313  394.8013
 314  336.9584
 315  301.5137
 316  313.0822
 317  464.4736
 318  426.9707
 319  435.9314
 320  483.9167
 321  553.0974
 322  466.765
 323  407.737
 324  369.5623
 325  410.4228
 326  406.0967
 327  357.5925
 328  508.4256
 329  443.6882
 330  454.2907
 331  495.9791
 332  319.9792
 333  378.5417
 334  332.3427
 335  442.3639
 336  432.784
 337  450.288
 338  522.2193
 339  379.3813
 340  279.5244
 341  287.4401
 342  388.8374
 343  362.9921
 344  422.9989
 345  415.6924
 346  434.4309
 347  466.6137
 348  399.5152
 349  498.6409
 350  400.9112
 351  424.8161
 352  424.5561
 353  529.7318
 354  490.6159
 355  392.5467
 356  405.5925
 357  429.8534
 358  470.6029
 359  427.9232
 360  441.825
 361  428.4809
 362  411.1825
 363  483.8766
 364  517.716
 365  473.0491
 366  511.8737
 367  430.1394
 368  469.551
 369  558.499
 370  491.9174
 371  467.6526
 372  441.3543
 373  521.7552
 374  490.701
 375  385.4136
 376  323.0921
 377  413.0799
 378  408.2333
 379  484.3113
 380  297.957
 381  274.2609
 382  318.7762
 383  424.5835
 384  365.8018
 385  377.7574
 386  396.6442
 387  340.5591
 388  421.7189
 389  400.3682
 390  467.6265
 391  361.7522
 392  367.0948
 393  466.7003
 394  361.6851
 395  382.993
 396  444.8567
 397  469.2993
 398  403.895
 399  339.7499
 400  378.7095
 401  438.7239
 402  447.0912
 403  449.0662
 404  474.9984
 405  429.4899
 406  400.2742
 407  348.4206
 408  392.274
 409  546.4393
 410  498.3989
 411  559.9109
 412  458.3035
 413  512.2199
 414  521.6094
 415  478.9679
 416  428.9745
 417  397.522
 418  392.6447
 419  474.5992
 420  459.5064
 421  442.0849
 422  413.1913
 423  451.3014
 424  452.8371
 425  380.506
 426  326.6299
 427  453.6863
 428  526.9283
 429  543.9814
 430  551.6612
 431  468.7167
 432  560.3393
 433  663.2861
 434  472.6281
 435  387.6456
 436  472.7945
 437  478.6673
 438  474.5365
 439  456.2302
 440  444.6282
 441  422.3406
 442  392.4887
 443  443.0299
 444  421.685
 445  393.0891
 446  497.6337
 447  469.2174
 448  424.6167
 449  391.2465
 450  340.801
 451  313.5703
 452  360.5165
 453  387.3824
 454  370.9126
 455  241.4662
 456  262.4789
 457  336.5535
 458  353.481
 459  340.4252
 460  413.1898
 461  435.7241
 462  498.1353
 463  393.3468
 464  286.7704
 465  389.4968
 466  368.2888
 467  306.7632
 468  380.6288
 469  500.2203
 470  590.496
 471  572.3958
 472  466.0082
 473  344.074
 474  316.0365
 475  357.4763
 476  429.8027
 477  277.0652
 478  386.3206
 479  459.5963
 480  355.6089
 481  301.9449
 482  353.1186
 483  432.0779
 484  292.8223
 485  373.7474
 486  515.7867
 487  452.7319
 488  408.0461
 489  404.7783
 490  417.5729
 491  406.8934
 492  487.4047
 493  490.4308
 494  412.7971
 495  420.0127
 496  426.0822
 497  352.1507
 498  329.1144
 499  361.2794
 500  348.0846
 501  344.0679
 502  472.2476
 503  522.2114
 504  374.3984
 505  325.753
 506  400.6909
 507  448.775
 508  430.1149
 509  348.3626
 510  423.3066
 511  373.9935
