# Input file       =  1180839218.112024_cleaned.dat
# Candidate        =  PSR_0332+5434
# Telescope        =  AR
# Epoch_topo       =  57911.120799907687
# Epoch_bary       =  N/A
# T_sample         =  0.002
# Data Folded      =  7143424
# Data Avg         =  0.0297959735187331
# Data StdDev      =  1.00003722539244 
# Profile Bins     =  512
# Profile Avg      =  415.604886754214 
# Profile StdDev   =  118.122981492529 
# Reduced chi-sqr  =  1.212
# Prob(Noise)      <  0.000705   (~3.2 sigma)
# P_topo (ms)      =  714.51065000276   +/- 0.000365
# P'_topo (s/s)    =  -0                +/- 1.98e-10
# P''_topo (s/s^2) =  0                 +/- 8.97e-14
# P_bary (ms)      =  N/A
# P'_bary (s/s)    =  N/A
# P''_bary (s/s^2) =  N/A
# P_orb (s)        =  N/A
# asin(i)/c (s)    =  N/A
# eccentricity     =  N/A
# w (rad)          =  N/A
# T_peri           =  N/A
######################################################
   0  871.0983
   1  889.3267
   2  637.4
   3  522.7232
   4  521.7432
   5  413.2584
   6  426.2638
   7  406.075
   8  375.7299
   9  412.3155
  10  455.3562
  11  508.1075
  12  436.5864
  13  458.9282
  14  449.1768
  15  467.3895
  16  497.7663
  17  514.8693
  18  418.0619
  19  318.481
  20  354.1369
  21  335.3017
  22  407.8122
  23  435.2718
  24  413.7534
  25  235.5896
  26  324.163
  27  346.3632
  28  268.1558
  29  375.6804
  30  452.9333
  31  469.3871
  32  393.7008
  33  342.2028
  34  329.1588
  35  408.0105
  36  360.4799
  37  369.4891
  38  476.3465
  39  478.1738
  40  385.6185
  41  343.443
  42  395.0215
  43  401.2598
  44  418.3173
  45  415.3526
  46  451.8958
  47  307.7775
  48  343.6288
  49  366.8799
  50  421.2916
  51  307.0757
  52  281.0073
  53  267.6677
  54  240.8084
  55  305.5038
  56  353.5983
  57  399.024
  58  466.2853
  59  395.8404
  60  458.9865
  61  327.8366
  62  287.3214
  63  349.4945
  64  369.7962
  65  258.9971
  66  265.7336
  67  364.2903
  68  437.3387
  69  369.6301
  70  326.697
  71  318.5658
  72  398.2012
  73  465.7072
  74  462.7395
  75  388.497
  76  408.1812
  77  350.6987
  78  331.7116
  79  401.3316
  80  500.4345
  81  412.5533
  82  431.5338
  83  551.6323
  84  461.0282
  85  544.4156
  86  549.9415
  87  424.79
  88  376.1085
  89  421.1314
  90  429.7024
  91  499.0922
  92  667.9742
  93  688.9293
  94  625.1476
  95  524.4322
  96  511.2873
  97  456.5301
  98  403.6436
  99  527.2973
 100  590.3254
 101  574.1736
 102  625.3094
 103  470.9691
 104  471.1418
 105  402.7381
 106  388.4744
 107  461.9686
 108  553.9923
 109  491.4581
 110  348.5651
 111  352.1987
 112  430.4661
 113  351.3573
 114  368.4454
 115  383.9619
 116  432.9634
 117  403.4974
 118  335.9614
 119  330.9286
 120  378.4157
 121  378.5056
 122  431.3809
 123  420.9317
 124  529.0755
 125  423.5668
 126  388.0194
 127  308.6937
 128  306.9858
 129  395.9813
 130  344.4363
 131  257.6549
 132  384.0577
 133  411.158
 134  447.3837
 135  475.1765
 136  492.635
 137  572.6473
 138  462.4776
 139  475.1543
 140  481.9377
 141  423.635
 142  566.3031
 143  474.1176
 144  526.9207
 145  543.2776
 146  500.4516
 147  423.5945
 148  471.5504
 149  475.6734
 150  410.3489
 151  528.1534
 152  510.9156
 153  434.2583
 154  479.4494
 155  501.6069
 156  491.044
 157  460.7061
 158  515.1363
 159  468.6499
 160  514.2671
 161  548.3668
 162  539.6805
 163  513.7679
 164  503.8805
 165  577.6861
 166  525.685
 167  461.8078
 168  484.8994
 169  517.6017
 170  565.2783
 171  503.4875
 172  553.7448
 173  529.4373
 174  480.3468
 175  443.1354
 176  400.118
 177  339.3438
 178  277.4647
 179  377.0831
 180  431.6246
 181  489.8173
 182  463.6193
 183  494.5648
 184  569.4888
 185  436.1071
 186  397.1414
 187  440.213
 188  553.8211
 189  431.4667
 190  345.6922
 191  417.4105
 192  511.3481
 193  560.324
 194  444.8242
 195  423.5412
 196  434.8543
 197  420.6612
 198  367.2234
 199  429.9614
 200  495.6757
 201  391.0568
 202  303.6419
 203  360.714
 204  376.5276
 205  419.7479
 206  376.2861
 207  296.541
 208  339.2991
 209  354.7056
 210  319.8563
 211  301.5285
 212  322.9696
 213  362.5631
 214  252.1677
 215  354.5432
 216  411.6641
 217  441.9137
 218  407.2
 219  474.8269
 220  464.8656
 221  281.3772
 222  314.9268
 223  312.895
 224  449.1945
 225  449.7811
 226  486.2513
 227  489.0138
 228  451.7812
 229  429.1576
 230  442.2376
 231  520.5448
 232  485.4011
 233  514.2761
 234  469.8082
 235  373.1885
 236  391.8901
 237  353.1473
 238  403.7929
 239  366.9815
 240  284.0736
 241  461.1415
 242  465.3961
 243  414.8775
 244  458.7287
 245  374.4715
 246  339.2266
 247  342.3419
 248  483.4648
 249  403.4876
 250  358.1682
 251  320.4213
 252  354.1614
 253  406.9968
 254  463.938
 255  529.2258
 256  491.357
 257  408.8459
 258  342.1134
 259  358.1362
 260  418.7831
 261  255.2779
 262  319.9807
 263  332.1837
 264  457.308
 265  411.9442
 266  427.1858
 267  383.5837
 268  291.8697
 269  342.3472
 270  448.4798
 271  383.2481
 272  339.7762
 273  378.639
 274  320.5041
 275  317.0535
 276  327.2621
 277  299.3441
 278  315.1249
 279  321.8824
 280  252.6145
 281  266.5546
 282  408.0536
 283  366.3637
 284  298.6441
 285  396.0424
 286  426.6611
 287  385.9818
 288  413.4803
 289  414.441
 290  399.0955
 291  436.159
 292  435.9885
 293  347.3641
 294  272.6217
 295  450.274
 296  444.403
 297  381.179
 298  473.0459
 299  397.8607
 300  391.8878
 301  314.4272
 302  362.8338
 303  330.1079
 304  339.7612
 305  167.8798
 306  292.3227
 307  487.8589
 308  549.0812
 309  359.4326
 310  364.898
 311  551.3742
 312  479.4888
 313  409.5719
 314  437.3186
 315  503.8691
 316  490.9193
 317  378.3972
 318  384.2363
 319  367.132
 320  408.7306
 321  437.3635
 322  436.0491
 323  525.1871
 324  556.2892
 325  395.284
 326  300.201
 327  356.0483
 328  401.5401
 329  308.5421
 330  309.5226
 331  343.9096
 332  365.6843
 333  386.8676
 334  434.544
 335  422.9812
 336  392.4166
 337  415.1442
 338  451.2634
 339  394.7321
 340  492.6924
 341  500.2088
 342  338.4992
 343  364.4358
 344  295.0373
 345  323.4204
 346  269.4579
 347  320.6694
 348  323.5523
 349  260.6716
 350  175.2271
 351  340.2079
 352  380.2889
 353  356.146
 354  322.8257
 355  251.3219
 356  366.8239
 357  457.0975
 358  333.8627
 359  281.316
 360  255.8645
 361  272.3939
 362  266.6389
 363  354.0195
 364  384.1516
 365  361.5275
 366  349.8773
 367  370.3607
 368  303.8911
 369  333.0904
 370  392.0527
 371  410.3317
 372  465.0001
 373  558.982
 374  569.1218
 375  505.761
 376  518.1435
 377  449.3463
 378  403.2718
 379  347.7104
 380  425.8147
 381  368.697
 382  411.7243
 383  454.5654
 384  430.0084
 385  328.0793
 386  360.9656
 387  337.0895
 388  303.6681
 389  239.5297
 390  378.8243
 391  578.3273
 392  461.7771
 393  463.174
 394  387.3725
 395  312.0598
 396  277.8331
 397  333.7718
 398  313.4764
 399  359.7287
 400  462.5648
 401  409.3837
 402  564.9167
 403  464.7875
 404  358.7003
 405  437.5624
 406  485.5611
 407  418.9673
 408  346.889
 409  317.2635
 410  443.5488
 411  401.1519
 412  384.7884
 413  370.3026
 414  296.4401
 415  304.4768
 416  238.6163
 417  291.3408
 418  449.4784
 419  358.4909
 420  396.8554
 421  447.2352
 422  386.8164
 423  316.7678
 424  286.0293
 425  366.3377
 426  398.6234
 427  396.4187
 428  344.4239
 429  297.9859
 430  271.1566
 431  385.5881
 432  424.5984
 433  443.0041
 434  334.8176
 435  284.1778
 436  368.7899
 437  401.3883
 438  442.2195
 439  491.8216
 440  384.8025
 441  468.1033
 442  430.6852
 443  363.3806
 444  379.129
 445  432.9812
 446  420.0619
 447  484.8636
 448  511.3406
 449  460.8305
 450  390.3534
 451  396.994
 452  404.42
 453  556.8304
 454  494.6055
 455  405.191
 456  333.5009
 457  378.3061
 458  440.1162
 459  342.8918
 460  413.3381
 461  487.6338
 462  442.9174
 463  460.0132
 464  398.5891
 465  401.9456
 466  447.4052
 467  377.3426
 468  328.5593
 469  251.7391
 470  274.5522
 471  427.5572
 472  363.0187
 473  361.6737
 474  389.8761
 475  460.4732
 476  405.4071
 477  438.9023
 478  492.512
 479  396.18
 480  391.3082
 481  420.6105
 482  490.0186
 483  527.9567
 484  528.7719
 485  477.3444
 486  448.1767
 487  483.7392
 488  483.7043
 489  467.4736
 490  482.7982
 491  511.7241
 492  512.455
 493  544.1614
 494  577.0474
 495  529.8708
 496  528.3888
 497  406.0061
 498  363.1632
 499  432.7829
 500  501.1769
 501  422.6764
 502  336.6206
 503  394.6397
 504  546.219
 505  450.9099
 506  447.7794
 507  518.5367
 508  631.3834
 509  817.471
 510  970.2042
 511  910.0878
