# Input file       =  1180423018.099737-PSRB0329-2ms-sampling-dd.dat
# Candidate        =  PSR_0332+5434
# Telescope        =  AR
# Epoch_topo       =  57906.303670135843
# Epoch_bary       =  N/A
# T_sample         =  0.002
# Data Folded      =  7340032
# Data Avg         =  -6.06295977324167e-10
# Data StdDev      =  3.67457911132012 
# Profile Bins     =  512
# Profile Avg      =  0.165473477266403
# Profile StdDev   =  439.968514404997 
# Reduced chi-sqr  =  0.622
# Prob(Noise)      <  1   (~0.0 sigma)
# P_topo (ms)      =  714.515311685191  +/- 0.00113
# P'_topo (s/s)    =  -0                +/- 5.96e-10
# P''_topo (s/s^2) =  0                 +/- 2.63e-13
# P_bary (ms)      =  N/A
# P'_bary (s/s)    =  N/A
# P''_bary (s/s^2) =  N/A
# P_orb (s)        =  N/A
# asin(i)/c (s)    =  N/A
# eccentricity     =  N/A
# w (rad)          =  N/A
# T_peri           =  N/A
######################################################
   0  -12.85697
   1  79.53818
   2  203.4696
   3  65.58125
   4  8.003268
   5  29.35428
   6  75.33265
   7  153.3795
   8  113.7721
   9  -55.20026
  10  -62.70357
  11  31.90303
  12  -27.1764
  13  -187.3882
  14  -270.9302
  15  -52.58837
  16  56.48198
  17  -165.043
  18  -164.0134
  19  323.4514
  20  614.1837
  21  298.184
  22  107.826
  23  216.0781
  24  -51.0601
  25  -219.9133
  26  -24.29879
  27  64.17889
  28  40.29032
  29  -78.68119
  30  -141.5056
  31  -365.8206
  32  -231.5616
  33  -0.007322134
  34  319.9926
  35  536.0146
  36  156.0301
  37  6.268324
  38  -140.4217
  39  -0.6172459
  40  31.68342
  41  -23.07187
  42  -279.2324
  43  -190.3305
  44  -217.0717
  45  -207.4156
  46  -61.78921
  47  -102.4324
  48  -208.984
  49  -409.0801
  50  -253.0867
  51  -166.0002
  52  -41.92753
  53  -4.934957
  54  5.408444
  55  217.1428
  56  329.7066
  57  277.8993
  58  206.3114
  59  -219.4947
  60  -123.4054
  61  43.27668
  62  225.8118
  63  52.17729
  64  66.26163
  65  -43.28979
  66  -182.7077
  67  -620.9112
  68  -253.7948
  69  -140.5902
  70  -69.76882
  71  -367.6524
  72  -289.5077
  73  -42.61321
  74  -3.499273
  75  116.2623
  76  -157.6467
  77  -127.9688
  78  -150.6672
  79  -334.7438
  80  -530.1973
  81  -391.5197
  82  -306.8712
  83  -119.3872
  84  -336.5546
  85  -479.0104
  86  -355.4604
  87  -138.2444
  88  -133.8106
  89  -123.8071
  90  -209.9264
  91  -232.3771
  92  -25.60216
  93  79.3344
  94  -254.2082
  95  -122.5748
  96  -564.1121
  97  -286.9122
  98  31.24973
  99  -294.2011
 100  -574.6238
 101  -632.6324
 102  -231.243
 103  35.71442
 104  -36.99251
 105  247.4703
 106  -81.79901
 107  174.9135
 108  329.8578
 109  220.9116
 110  165.3014
 111  118.555
 112  173.8815
 113  -191.2725
 114  220.8249
 115  388.4727
 116  64.96756
 117  110.3854
 118  -155.0917
 119  -128.2482
 120  -160.7172
 121  61.76702
 122  57.31376
 123  -121.9524
 124  -117.0983
 125  -186.2907
 126  -217.2127
 127  88.20727
 128  145.7469
 129  -81.84772
 130  141.0489
 131  88.64761
 132  -29.52303
 133  -160.7822
 134  10.79003
 135  -344.6658
 136  4.453835
 137  -8.527212
 138  -235.5037
 139  -206.4667
 140  107.2185
 141  146.4195
 142  -37.09069
 143  26.12096
 144  -105.7594
 145  -358.1719
 146  -256.4987
 147  -45.51386
 148  -392.0775
 149  -272.8078
 150  -260.5192
 151  -122.8723
 152  49.2123
 153  -39.92344
 154  -176.2631
 155  -77.99001
 156  124.1225
 157  -21.0201
 158  -304.8655
 159  -342.7463
 160  -241.8607
 161  -70.38898
 162  -6.943514
 163  -225.5692
 164  -211.6866
 165  -207.4357
 166  -533.2253
 167  -361.4387
 168  -510.9886
 169  -324.7186
 170  -158.6167
 171  -215.8192
 172  -339.1842
 173  -498.8863
 174  -480.1009
 175  -432.2545
 176  -8.510957
 177  -11.92115
 178  -146.8742
 179  268.3071
 180  221.4898
 181  212.3805
 182  352.779
 183  50.82083
 184  102.1571
 185  59.51465
 186  5.83241
 187  -20.57936
 188  -177.7311
 189  -87.53002
 190  -106.3854
 191  215.8155
 192  219.9801
 193  120.2775
 194  -168.7455
 195  -325.0471
 196  126.8174
 197  124.9671
 198  -303.0704
 199  -571.7397
 200  -433.011
 201  -100.8079
 202  -83.60845
 203  81.18024
 204  184.6435
 205  19.04333
 206  6.328362
 207  -61.96513
 208  202.9856
 209  230.649
 210  95.45726
 211  104.8705
 212  319.3087
 213  163.4638
 214  -159.0554
 215  -310.9055
 216  -219.3137
 217  -131.0392
 218  -385.7562
 219  -249.8123
 220  -272.346
 221  -209.1585
 222  80.69699
 223  -87.65996
 224  -229.3878
 225  -228.8709
 226  -43.3387
 227  16.5373
 228  201.6707
 229  348.5127
 230  379.4231
 231  316.4407
 232  278.0224
 233  317.3435
 234  -61.92383
 235  128.4536
 236  192.8029
 237  -3.667216
 238  -60.6057
 239  117.6044
 240  26.41371
 241  -20.13461
 242  -82.92325
 243  -124.4358
 244  -162.0785
 245  -191.4411
 246  -24.26438
 247  -202.0888
 248  -155.4926
 249  -45.30987
 250  -277.2979
 251  -234.6215
 252  -213.9982
 253  -193.2897
 254  18.59048
 255  -201.1527
 256  -645.2499
 257  -683.7755
 258  -801.3774
 259  -578.9996
 260  -286.0699
 261  -39.26913
 262  -113.8642
 263  -389.6393
 264  -46.00591
 265  -126.7013
 266  -244.0509
 267  -70.55838
 268  -186.6521
 269  -173.4103
 270  -2.718004
 271  -78.25314
 272  -288.8366
 273  -131.075
 274  -22.99651
 275  -81.95937
 276  70.5309
 277  161.9405
 278  146.3326
 279  226.519
 280  -58.73269
 281  -39.98118
 282  48.70998
 283  271.9891
 284  271.5864
 285  564.6583
 286  609.6119
 287  693.8236
 288  1114.268
 289  1314.755
 290  1302.994
 291  809.2545
 292  493.6514
 293  213.0463
 294  174.7666
 295  397.6149
 296  194.5664
 297  -125.5352
 298  18.71882
 299  15.14388
 300  122.4951
 301  56.64499
 302  69.46963
 303  297.9717
 304  515.4468
 305  735.1929
 306  506.9205
 307  140.7508
 308  361.0654
 309  72.3173
 310  22.9471
 311  344.0724
 312  407.2765
 313  328.8971
 314  205.2224
 315  -97.50162
 316  -49.00765
 317  277.1835
 318  185.324
 319  461.6506
 320  436.1188
 321  253.2282
 322  -2.070013
 323  -120.0554
 324  -123.8871
 325  249.9497
 326  396.2168
 327  -3.025051
 328  -25.29013
 329  -140.7168
 330  -46.8221
 331  0.20322
 332  -165.6928
 333  -68.09364
 334  -253.0965
 335  -67.65845
 336  50.46392
 337  159.4671
 338  126.355
 339  33.9523
 340  114.8387
 341  -21.19122
 342  -162.6025
 343  -235.7998
 344  112.1529
 345  -85.51914
 346  -10.18291
 347  348.8586
 348  269.9019
 349  34.77363
 350  186.4917
 351  152.3379
 352  87.94975
 353  245.8557
 354  254.7802
 355  -96.66338
 356  -262.2948
 357  -125.5698
 358  151.1187
 359  -11.50988
 360  260.3395
 361  270.9012
 362  -184.2304
 363  -113.3192
 364  -32.04735
 365  -0.2830258
 366  256.3381
 367  -18.83317
 368  -134.2272
 369  -290.8362
 370  -139.1975
 371  174.7049
 372  120.0047
 373  337.7609
 374  371.6824
 375  45.20154
 376  6.961309
 377  96.33987
 378  229.3458
 379  60.25427
 380  -5.999515
 381  36.01846
 382  83.60477
 383  411.3492
 384  294.7595
 385  37.82545
 386  -87.25947
 387  -103.4143
 388  65.11058
 389  51.01605
 390  -163.9778
 391  -137.4448
 392  -43.93437
 393  155.2493
 394  186.8795
 395  442.7635
 396  327.6744
 397  70.14202
 398  233.2339
 399  298.5648
 400  392.8786
 401  679.0871
 402  462.1109
 403  114.73
 404  183.7282
 405  -12.72609
 406  -212.0588
 407  -207.9648
 408  -279.8382
 409  -213.8178
 410  -283.0737
 411  -310.5267
 412  -210.2243
 413  -119.9544
 414  215.3683
 415  144.9708
 416  129.6057
 417  -14.91882
 418  224.6109
 419  84.63264
 420  -271.9892
 421  -364.615
 422  -297.5119
 423  -264.2343
 424  -15.36122
 425  -155.4393
 426  -149.5016
 427  94.19411
 428  82.08243
 429  42.85765
 430  -168.5016
 431  -244.7778
 432  -276.1731
 433  21.09561
 434  107.3327
 435  -1.083741
 436  -186.9574
 437  -69.1051
 438  -78.51424
 439  71.10426
 440  71.20703
 441  119.669
 442  -75.94475
 443  -168.6378
 444  118.1733
 445  -246.3389
 446  -192.3244
 447  -365.4106
 448  -151.6848
 449  156.2536
 450  1.094125
 451  30.36881
 452  -108.9036
 453  323.6693
 454  67.14133
 455  -190.9025
 456  -71.3841
 457  91.74284
 458  72.90339
 459  -154.997
 460  -110.8216
 461  -220.9585
 462  -139.6566
 463  -208.7069
 464  -163.2289
 465  185.1659
 466  134.0243
 467  98.37439
 468  -103.8391
 469  -119.7517
 470  -152.19
 471  177.1801
 472  115.2551
 473  66.89478
 474  113.0811
 475  5.506249
 476  131.479
 477  -198.2964
 478  -144.9735
 479  -77.25854
 480  -39.13369
 481  48.66769
 482  -27.86328
 483  72.89319
 484  -104.8909
 485  269.5603
 486  560.6968
 487  70.45205
 488  133.5809
 489  137.8971
 490  335.558
 491  91.8327
 492  220.5519
 493  63.71339
 494  13.92989
 495  -39.71357
 496  -20.42403
 497  110.3133
 498  -24.45613
 499  454.593
 500  302.1624
 501  285.3802
 502  340.1172
 503  181.7067
 504  268.2615
 505  426.1901
 506  519.4695
 507  312.9327
 508  226.2982
 509  228.6038
 510  266.86
 511  54.14415
