# Input file       =  1180351768.120151-PSRB0329-2ms-sampling-dd.dat
# Candidate        =  PSR_0332+5434
# Telescope        =  AR
# Epoch_topo       =  57905.479017594342
# Epoch_bary       =  N/A
# T_sample         =  0.002
# Data Folded      =  7340032
# Data Avg         =  -2.61126594020063e-09
# Data StdDev      =  52.8758936716298 
# Profile Bins     =  512
# Profile Avg      =  0.125330111335971
# Profile StdDev   =  6330.99130043927 
# Reduced chi-sqr  =  1.034
# Prob(Noise)      <  0.288   (~0.6 sigma)
# P_topo (ms)      =  714.516449364882  +/- 0.000116
# P'_topo (s/s)    =  -0                +/- 6.13e-11
# P''_topo (s/s^2) =  0                 +/- 2.71e-14
# P_bary (ms)      =  N/A
# P'_bary (s/s)    =  N/A
# P''_bary (s/s^2) =  N/A
# P_orb (s)        =  N/A
# asin(i)/c (s)    =  N/A
# eccentricity     =  N/A
# w (rad)          =  N/A
# T_peri           =  N/A
######################################################
   0  357.8828
   1  -2524.791
   2  903.705
   3  -4426.943
   4  -5637.822
   5  -4840.396
   6  -4619.896
   7  -2738.181
   8  -3021.552
   9  126.3489
  10  -1418.358
  11  -5985.947
  12  -4318.831
  13  -8638.035
  14  -8721.876
  15  -6423.165
  16  -6068.311
  17  -7229.064
  18  -7813.781
  19  -3451.647
  20  -2951.733
  21  -5542.628
  22  -3074.035
  23  -5227.487
  24  -6983.344
  25  -3632.267
  26  3696.837
  27  7064.626
  28  8771.009
  29  12122.74
  30  2168.156
  31  -808.2042
  32  1517.31
  33  5304.762
  34  240.7066
  35  3089.813
  36  3644.379
  37  6307.935
  38  2944.37
  39  2565.344
  40  801.6384
  41  -4297.179
  42  -2338.55
  43  4785.797
  44  8669.809
  45  10996.68
  46  8940.238
  47  -297.6604
  48  -5634.76
  49  -4127.584
  50  -610.6079
  51  684.3273
  52  3022.75
  53  1212.612
  54  585.9875
  55  -4207.912
  56  -9135.599
  57  -5571.188
  58  562.4778
  59  7069.859
  60  4854.714
  61  3089.121
  62  6765.141
  63  6260.853
  64  4722.031
  65  1606.103
  66  6638.166
  67  6370.427
  68  6571.809
  69  8897.408
  70  7865.246
  71  9013.319
  72  5351.06
  73  4384.272
  74  -2379.507
  75  -3752.844
  76  -3014.945
  77  -241.8328
  78  4771.259
  79  7458.104
  80  8720.566
  81  2162.88
  82  -5465.146
  83  -2591.603
  84  -6246.236
  85  -345.2222
  86  5425.125
  87  8711.921
  88  3368.472
  89  -1099.135
  90  -1916.905
  91  -2120.283
  92  -3981.728
  93  -288.0869
  94  5021.98
  95  6478.157
  96  11945.81
  97  12049.73
  98  2302.144
  99  769.2417
 100  -1658.845
 101  3158.679
 102  7411.733
 103  12313.94
 104  9974.474
 105  4720.316
 106  6815.373
 107  4772.946
 108  2163.753
 109  -1568.043
 110  -1284.967
 111  -543.1647
 112  4175.872
 113  5320.257
 114  3333.203
 115  -3525.54
 116  -3260.756
 117  -1491.175
 118  935.2347
 119  1375.017
 120  524.4094
 121  -2557.375
 122  -2668.014
 123  -4999.862
 124  293.3293
 125  -1769.651
 126  -2035.233
 127  -478.4879
 128  -3601.384
 129  -2623.284
 130  -7134.727
 131  -8447.188
 132  -7599.843
 133  -10280.11
 134  -7922.344
 135  -6407.002
 136  -4154.056
 137  -3233.929
 138  -5496.474
 139  -4027.368
 140  -5534.976
 141  -2477.894
 142  -1258.007
 143  -2652.833
 144  -2708.091
 145  -3198.667
 146  -3080.12
 147  -4063.27
 148  -3255.996
 149  -3746.762
 150  -7594.828
 151  -6159.776
 152  -4075.219
 153  -4707.928
 154  -2593.151
 155  -3557.174
 156  -645.0436
 157  -2057.055
 158  2750.499
 159  3389.519
 160  -2682.319
 161  -5406.273
 162  -856.0253
 163  363.4713
 164  4072.396
 165  4034.901
 166  2964.735
 167  -888.8285
 168  -4345.73
 169  -3625.164
 170  -2140.315
 171  3888.972
 172  3685.568
 173  3778.186
 174  7616.631
 175  5930.915
 176  2758.329
 177  -849.7512
 178  -797.9456
 179  3054.732
 180  745.7248
 181  3116.858
 182  3303.923
 183  4199.047
 184  5681.401
 185  229.7433
 186  -2900.279
 187  -113.2544
 188  -2316.2
 189  -3574.85
 190  -2651.258
 191  2110.425
 192  3054.168
 193  2352.347
 194  1231.312
 195  -65.89096
 196  -1962.085
 197  -1865.124
 198  -1490.502
 199  -2390.571
 200  -1614.009
 201  4544.101
 202  4908.426
 203  5566.963
 204  5847.838
 205  2069.287
 206  -1617.872
 207  -5118.887
 208  556.9603
 209  10329.18
 210  14079.29
 211  14522.24
 212  12919.93
 213  5936.245
 214  3475.611
 215  2514.404
 216  7195.334
 217  7940.91
 218  8698.173
 219  8230.099
 220  10445.14
 221  9865.812
 222  6042.029
 223  4677.715
 224  4460.975
 225  3499.754
 226  1463.309
 227  2592.57
 228  -1820.401
 229  1055.229
 230  3811.458
 231  1475.217
 232  -2358.683
 233  -5610.64
 234  -3235.934
 235  -2369.596
 236  -2131.634
 237  627.0823
 238  -2516.524
 239  -3036.679
 240  -3409.774
 241  -1694.924
 242  -2950.353
 243  -7049.61
 244  -6962.045
 245  -7399.115
 246  -3321.827
 247  1278.41
 248  1925.516
 249  -3780.327
 250  -7163.103
 251  -8663.491
 252  -7138.641
 253  -5093.562
 254  -2318.064
 255  -2412.196
 256  -636.086
 257  -2696.052
 258  -2734.476
 259  -3651.13
 260  -5725.386
 261  -6350.323
 262  -3648.146
 263  -3238.927
 264  -4767.312
 265  -2855.567
 266  -2714.349
 267  -5045.465
 268  -6648.958
 269  -6398.786
 270  -2751.462
 271  2093.053
 272  4935.724
 273  857.6172
 274  -2146.739
 275  -1822.607
 276  -2041.535
 277  -1324.243
 278  4670.918
 279  9456.853
 280  10331.55
 281  11045.96
 282  8399.011
 283  2940.97
 284  -1430.56
 285  -5018.744
 286  977.3013
 287  4399.961
 288  5079.227
 289  5233.4
 290  -328.7925
 291  -2528.183
 292  -3680.944
 293  -2327.668
 294  2327.328
 295  3493.892
 296  1956.904
 297  -1266.534
 298  4164.137
 299  525.7731
 300  -5641.271
 301  -6510.417
 302  -5141.887
 303  -1471.059
 304  -4247.358
 305  -3096.349
 306  -1149.194
 307  -3613.094
 308  -2499.614
 309  -414.6369
 310  -71.1768
 311  -1060.979
 312  -1096.568
 313  -4120.765
 314  -4346.108
 315  1553.259
 316  1959.885
 317  -242.0536
 318  -3696.492
 319  -4737.121
 320  -5590.772
 321  -5842.598
 322  -3165.51
 323  -3518.301
 324  -252.9391
 325  -558.2889
 326  -3435.812
 327  -3150.624
 328  -4178.159
 329  -245.7827
 330  896.7999
 331  2459.293
 332  3257.416
 333  2962.127
 334  -2278.42
 335  -2311.933
 336  -748.3206
 337  -1845.162
 338  -1834.282
 339  -1097.949
 340  -181.8867
 341  -2301.098
 342  -388.55
 343  -1160.804
 344  -5860.766
 345  -4238.502
 346  -850.6669
 347  3344.169
 348  5482.035
 349  7682.346
 350  4901.023
 351  186.7283
 352  -67.84219
 353  -2798.744
 354  -3600.683
 355  -4795.906
 356  -4285.396
 357  -4072.416
 358  -953.4814
 359  -2036.412
 360  151.5177
 361  -1860.669
 362  256.214
 363  553.1777
 364  -683.272
 365  1323.631
 366  -936.9337
 367  -1173.544
 368  666.3497
 369  1371.935
 370  945.0331
 371  -1529.723
 372  -657.4824
 373  -943.5718
 374  -2395.688
 375  -2959.75
 376  -7363.511
 377  -9546.728
 378  -5699.711
 379  -3143.246
 380  1088.529
 381  746.3539
 382  -972.1764
 383  -3372.189
 384  -5521.362
 385  -5637.074
 386  -5401.974
 387  -5225.949
 388  -5945.398
 389  -6196.804
 390  -7201.56
 391  -6319.743
 392  -8231.527
 393  -8708.436
 394  -11617.02
 395  -7731.301
 396  -3609.962
 397  -721.5118
 398  2187.423
 399  945.5048
 400  -2430.821
 401  -8224.696
 402  -5447.728
 403  -2402.238
 404  814.8674
 405  -688.6863
 406  -934.0185
 407  -3722.945
 408  -5168.364
 409  -4487.072
 410  -4697.494
 411  -5658.298
 412  -5742.134
 413  -3697.066
 414  -972.0948
 415  3405.382
 416  4621.027
 417  6788.984
 418  4721.052
 419  719.8338
 420  1797.893
 421  2443.342
 422  535.7421
 423  1604.697
 424  3440.475
 425  1957.62
 426  2308.007
 427  -66.52859
 428  -3172.227
 429  -3129.711
 430  1966.357
 431  3490.67
 432  6183.394
 433  6321.584
 434  1515.791
 435  929.4846
 436  2349.531
 437  8337.384
 438  7775.549
 439  5374.057
 440  4653.103
 441  -2361.919
 442  -4527.4
 443  -5039.024
 444  -4888.751
 445  -3890.021
 446  -3250.535
 447  2330.803
 448  932.9897
 449  -1273.568
 450  -3776.983
 451  -4528.736
 452  -2065.34
 453  -1111.935
 454  -898.8658
 455  -1897.899
 456  -4051.121
 457  -4898.655
 458  -3993.613
 459  -3698.575
 460  -3104.297
 461  -897.3481
 462  489.6725
 463  2207.656
 464  4509.42
 465  4251.911
 466  3324.088
 467  5049.381
 468  2172.869
 469  2529.519
 470  3598.373
 471  5492.737
 472  7676.49
 473  3802.591
 474  2900.238
 475  -1131.083
 476  -3569.118
 477  382.3033
 478  -2344.296
 479  184.1161
 480  4014.42
 481  6897.167
 482  5542.995
 483  4366.208
 484  4324.52
 485  5111.18
 486  7099.61
 487  11143.56
 488  15234.4
 489  15274.74
 490  8174.422
 491  3032.258
 492  -1024.565
 493  -1450.762
 494  259.6631
 495  888.2687
 496  62.98623
 497  3118.913
 498  2678.115
 499  1463.179
 500  787.3141
 501  224.1831
 502  519.6357
 503  -652.7321
 504  3849.442
 505  4903.049
 506  3388.913
 507  1995.377
 508  2090.52
 509  181.6248
 510  584.657
 511  1729.726
