# Input file       =  1180696444.113249-PSRB0329-2ms-sampling-dd.dat
# Candidate        =  PSR_0332+5434
# Telescope        =  AR
# Epoch_topo       =  57909.468323070010
# Epoch_bary       =  N/A
# T_sample         =  0.002
# Data Folded      =  7340032
# Data Avg         =  6.85927486109835e-10
# Data StdDev      =  5.60080356143153 
# Profile Bins     =  512
# Profile Avg      =  -0.106950173469146
# Profile StdDev   =  670.601216560003 
# Reduced chi-sqr  =  0.724
# Prob(Noise)      <  1   (~0.0 sigma)
# P_topo (ms)      =  714.512582822015  +/- 0.000513
# P'_topo (s/s)    =  -0                +/- 2.71e-10
# P''_topo (s/s^2) =  0                 +/- 1.19e-13
# P_bary (ms)      =  N/A
# P'_bary (s/s)    =  N/A
# P''_bary (s/s^2) =  N/A
# P_orb (s)        =  N/A
# asin(i)/c (s)    =  N/A
# eccentricity     =  N/A
# w (rad)          =  N/A
# T_peri           =  N/A
######################################################
   0  -219.3232
   1  -425.3245
   2  -183.2932
   3  117.7767
   4  243.49
   5  -5.27591
   6  -234.2094
   7  -454.087
   8  -539.33
   9  -297.759
  10  -215.572
  11  -529.306
  12  -540.3237
  13  -570.8389
  14  -484.8719
  15  -513.3597
  16  -571.8651
  17  -717.8781
  18  -335.2626
  19  -205.6723
  20  -190.986
  21  -82.3169
  22  -271.6182
  23  -500.055
  24  -383.2452
  25  -185.0528
  26  111.1288
  27  91.76184
  28  -387.5762
  29  -525.9266
  30  -391.3102
  31  -585.7952
  32  -680.0686
  33  -414.0362
  34  -124.7937
  35  -255.31
  36  -268.574
  37  2.102081
  38  -121.801
  39  29.39779
  40  -3.000024
  41  230.1216
  42  29.77545
  43  -351.3328
  44  -53.50824
  45  225.9884
  46  444.4093
  47  330.0936
  48  -55.38148
  49  476.2309
  50  216.2273
  51  498.3081
  52  790.3325
  53  344.7148
  54  58.33759
  55  174.2285
  56  453.2153
  57  280.5292
  58  608.1068
  59  723.459
  60  338.97
  61  343.8861
  62  344.7947
  63  130.1976
  64  252.0172
  65  469.3485
  66  509.4634
  67  643.4594
  68  103.9515
  69  445.35
  70  657.15
  71  889.2809
  72  645.0724
  73  466.3792
  74  920.7799
  75  942.3711
  76  695.6732
  77  441.7314
  78  460.5863
  79  175.2719
  80  87.0798
  81  284.9891
  82  648.1463
  83  341.4597
  84  25.94704
  85  -145.6299
  86  344.4919
  87  196.6553
  88  450.743
  89  -50.85092
  90  -175.852
  91  -430.8294
  92  -532.9349
  93  -329.1417
  94  -275.1391
  95  56.83763
  96  -225.3565
  97  -523.3337
  98  -806.5724
  99  -551.3208
 100  -599.6607
 101  -398.7582
 102  -36.77755
 103  85.98044
 104  212.5189
 105  -352.6829
 106  -161.6076
 107  -37.61014
 108  91.66713
 109  207.9688
 110  62.24315
 111  379.8231
 112  210.4858
 113  110.7126
 114  -28.39846
 115  87.06313
 116  402.9634
 117  157.1371
 118  208.9639
 119  133.0901
 120  -200.5262
 121  -478.1071
 122  -139.866
 123  217.356
 124  575.2719
 125  770.9533
 126  384.9634
 127  28.18989
 128  63.46576
 129  130.0278
 130  155.3619
 131  59.40728
 132  381.366
 133  212.7372
 134  155.8489
 135  332.7814
 136  305.6092
 137  427.3007
 138  5.852468
 139  204.8044
 140  664.1581
 141  533.1246
 142  183.9862
 143  392.6105
 144  127.9336
 145  -141.6189
 146  54.60812
 147  23.04245
 148  8.680266
 149  382.7398
 150  238.853
 151  207.5401
 152  219.8317
 153  45.61722
 154  -4.446652
 155  156.098
 156  135.6802
 157  30.62955
 158  44.37251
 159  -287.8744
 160  -212.5745
 161  110.4638
 162  198.5785
 163  -519.9315
 164  -696.7694
 165  -411.6737
 166  -589.4675
 167  -509.5505
 168  -250.3344
 169  -176.2098
 170  22.58436
 171  -64.44575
 172  -447.5942
 173  -670.5648
 174  -852.604
 175  16.5717
 176  533.4073
 177  492.9908
 178  550.3205
 179  91.6965
 180  -201.9421
 181  -417.1837
 182  -644.3925
 183  -496.2849
 184  -38.29152
 185  28.91017
 186  -133.3531
 187  -438.9595
 188  -480.5779
 189  -409.2958
 190  -594.0823
 191  -358.0218
 192  -131.1803
 193  -429.8427
 194  -785.2546
 195  -420.6161
 196  -184.0434
 197  -83.11604
 198  -43.47977
 199  -86.89142
 200  -243.7108
 201  -344.1628
 202  -511.6844
 203  -734.309
 204  -887.6836
 205  -648.2556
 206  -697.6337
 207  -635.5853
 208  -338.7505
 209  0.04446226
 210  468.3967
 211  39.50196
 212  -317.325
 213  -460.8036
 214  -448.3673
 215  -194.9151
 216  27.87718
 217  186.2529
 218  12.92044
 219  -75.22778
 220  -340.4718
 221  -389.3698
 222  -642.1875
 223  -595.0506
 224  -511.1124
 225  -302.1743
 226  -315.747
 227  -305.1735
 228  -333.5706
 229  -622.6306
 230  -128.9774
 231  152.6809
 232  107.5165
 233  212.43
 234  348.5118
 235  187.3302
 236  483.3815
 237  483.3925
 238  93.22379
 239  -122.9334
 240  119.5187
 241  677.0832
 242  905.0681
 243  1277.534
 244  1016.435
 245  387.5839
 246  503.2968
 247  343.6471
 248  870.7672
 249  1309.389
 250  1445.767
 251  1581.825
 252  1266.804
 253  382.88
 254  -189.1913
 255  77.85464
 256  102.4033
 257  122.4734
 258  280.3821
 259  14.27197
 260  -440.4616
 261  -647.9771
 262  -366.9527
 263  -146.584
 264  69.49879
 265  332.1996
 266  273.8299
 267  -35.39003
 268  -221.2408
 269  -133.3978
 270  121.3033
 271  5.346517
 272  109.5724
 273  -57.79208
 274  -593.4576
 275  -431.646
 276  -274.7116
 277  -49.58907
 278  -84.88399
 279  -60.96792
 280  162.7707
 281  40.93239
 282  175.394
 283  181.6185
 284  210.2232
 285  652.6906
 286  49.76402
 287  -36.6746
 288  89.99902
 289  -34.78252
 290  233.9485
 291  125.3448
 292  356.1723
 293  195.9877
 294  -367.4423
 295  -186.2373
 296  -310.6101
 297  -222.5044
 298  -404.0849
 299  342.6468
 300  247.0116
 301  -248.8487
 302  -204.2536
 303  -177.3881
 304  91.87003
 305  -231.498
 306  -223.57
 307  -443.5236
 308  -394.4618
 309  -283.3678
 310  -202.7977
 311  -36.38218
 312  -13.07431
 313  -8.036753
 314  117.1813
 315  -90.60828
 316  -774.8754
 317  -517.8845
 318  -176.5335
 319  27.95498
 320  113.9974
 321  -116.1114
 322  25.76016
 323  -395.5888
 324  -264.4793
 325  349.0249
 326  21.78547
 327  229.8752
 328  -15.51733
 329  30.86665
 330  202.0155
 331  425.362
 332  450.9099
 333  187.761
 334  317.222
 335  546.739
 336  109.4578
 337  79.93243
 338  247.0744
 339  -214.3663
 340  -94.91489
 341  -177.7354
 342  -552.7536
 343  -571.6708
 344  -714.4449
 345  -391.4998
 346  -229.6527
 347  -461.0955
 348  -623.6778
 349  -383.5831
 350  -638.8291
 351  -171.7929
 352  -471.1545
 353  -682.9437
 354  -841.5187
 355  -735.8073
 356  -526.3711
 357  -756.4008
 358  -444.3519
 359  182.8088
 360  -492.9932
 361  -828.0579
 362  -473.4207
 363  -471.6379
 364  -381.0735
 365  -291.521
 366  182.4723
 367  288.6266
 368  -149.492
 369  -95.64823
 370  -432.2216
 371  -22.73254
 372  129.1675
 373  400.832
 374  48.66897
 375  121.781
 376  32.28053
 377  -130.2525
 378  3.897554
 379  85.4687
 380  419.7188
 381  -167.7529
 382  -173.0684
 383  -39.57067
 384  32.87267
 385  -29.13013
 386  162.0985
 387  -143.4785
 388  -405.4177
 389  -442.312
 390  -898.2382
 391  -845.1688
 392  -412.9266
 393  -114.3106
 394  -122.7827
 395  -695.3939
 396  -992.3993
 397  -607.6771
 398  -387.3886
 399  -157.4339
 400  -95.46033
 401  -246.4046
 402  -474.6226
 403  -421.9793
 404  -545.0057
 405  -708.2244
 406  -540.5389
 407  4.093822
 408  152.6776
 409  -169.3341
 410  226.9917
 411  372.9978
 412  285.5551
 413  336.1294
 414  301.2331
 415  202.8017
 416  89.18913
 417  749.6395
 418  1008.535
 419  1203.764
 420  705.4493
 421  669.8263
 422  690.8989
 423  517.8928
 424  480.0327
 425  759.3374
 426  461.1325
 427  118.491
 428  53.28401
 429  266.8945
 430  -136.7581
 431  -358.5699
 432  -125.4738
 433  241.899
 434  336.4491
 435  220.486
 436  -48.37365
 437  -562.4186
 438  -552.8384
 439  -343.9506
 440  26.33856
 441  394.562
 442  665.1126
 443  390.0959
 444  -99.67657
 445  -205.5645
 446  498.694
 447  696.0668
 448  533.1675
 449  531.0341
 450  582.4742
 451  458.1722
 452  222.961
 453  32.6006
 454  161.678
 455  51.32693
 456  100.6861
 457  195.9032
 458  226.4272
 459  362.6111
 460  419.4864
 461  274.7401
 462  425.5237
 463  -29.86642
 464  -6.367179
 465  184.0547
 466  216.1451
 467  304.2849
 468  448.6314
 469  594.5198
 470  -43.59833
 471  -213.9973
 472  -191.582
 473  -21.5506
 474  7.784409
 475  -97.32075
 476  110.3751
 477  449.4508
 478  -1.430039
 479  -2.495902
 480  -138.6339
 481  92.66904
 482  -35.85588
 483  -486.5921
 484  -400.2188
 485  -497.6171
 486  -247.2327
 487  175.8065
 488  362.7875
 489  259.2204
 490  -51.8015
 491  -113.2405
 492  -400.5055
 493  -598.3713
 494  -398.5087
 495  -215.9017
 496  165.2706
 497  692.7318
 498  769.1206
 499  669.1012
 500  502.7395
 501  -126.2766
 502  58.89719
 503  -114.0213
 504  -432.8469
 505  -209.5356
 506  66.74393
 507  508.4647
 508  608.7725
 509  1211.631
 510  806.4765
 511  425.7595
