# Input file       =  1180753068.109029-PSRB0329-2ms-sampling-dd.dat
# Candidate        =  PSR_0332+5434
# Telescope        =  AR
# Epoch_topo       =  57910.123693391542
# Epoch_bary       =  N/A
# T_sample         =  0.002
# Data Folded      =  7208960
# Data Avg         =  -1.30599306081531e-09
# Data StdDev      =  6.67181881381013 
# Profile Bins     =  512
# Profile Avg      =  -0.504360830379791
# Profile StdDev   =  791.672521490481 
# Reduced chi-sqr  =  0.517
# Prob(Noise)      <  1   (~0.0 sigma)
# P_topo (ms)      =  714.511606176198  +/- 6.78e-05
# P'_topo (s/s)    =  -0                +/- 3.64e-11
# P''_topo (s/s^2) =  0                 +/- 1.64e-14
# P_bary (ms)      =  N/A
# P'_bary (s/s)    =  N/A
# P''_bary (s/s^2) =  N/A
# P_orb (s)        =  N/A
# asin(i)/c (s)    =  N/A
# eccentricity     =  N/A
# w (rad)          =  N/A
# T_peri           =  N/A
######################################################
   0  323.9576
   1  572.1772
   2  -226.5092
   3  -49.01993
   4  -97.88651
   5  -10.2426
   6  244.4913
   7  438.8643
   8  602.7776
   9  -145.4236
  10  -330.591
  11  -606.4045
  12  -605.0176
  13  -558.9619
  14  60.71019
  15  606.8805
  16  161.8047
  17  194.6935
  18  286.4575
  19  477.1276
  20  594.5723
  21  890.1151
  22  1117.026
  23  1143.578
  24  124.9685
  25  35.48069
  26  189.0213
  27  -154.0929
  28  -138.6716
  29  -21.05124
  30  -43.12279
  31  -36.44291
  32  -207.2843
  33  -189.1738
  34  -410.2226
  35  18.22005
  36  -323.8804
  37  -373.2808
  38  -443.1262
  39  -570.5378
  40  -169.0208
  41  -194.9208
  42  134.8121
  43  -304.0305
  44  111.3999
  45  -481.6396
  46  -701.4688
  47  -190.7953
  48  -292.3334
  49  -45.92886
  50  193.9176
  51  646.6394
  52  -60.31562
  53  -595.2451
  54  -513.1284
  55  -61.80961
  56  17.92133
  57  378.8323
  58  685.3179
  59  436.8008
  60  -44.78353
  61  -627.4224
  62  -598.8774
  63  -121.0371
  64  65.16643
  65  845.4485
  66  405.5678
  67  287.4129
  68  82.48898
  69  -368.0851
  70  158.8718
  71  -130.9939
  72  178.8902
  73  406.7359
  74  318.8217
  75  209.4235
  76  -151.3031
  77  92.2014
  78  -618.7054
  79  -362.2536
  80  -214.0725
  81  510.9307
  82  122.8725
  83  -195.5266
  84  70.54201
  85  -86.47826
  86  -213.2708
  87  -233.3505
  88  -2.17333
  89  -231.8336
  90  244.3821
  91  338.6175
  92  369.0973
  93  165.0391
  94  -582.4084
  95  -211.3493
  96  -285.7165
  97  300.5275
  98  131.9124
  99  -37.26144
 100  29.7694
 101  -618.7391
 102  46.33246
 103  -407.049
 104  -539.8807
 105  -368.7727
 106  -186.5845
 107  -450.9182
 108  -836.6266
 109  -332.8252
 110  -280.7262
 111  -314.2045
 112  -646.7255
 113  -632.7016
 114  -540.063
 115  -884.4765
 116  -811.998
 117  -647.1583
 118  -33.84525
 119  -407.8033
 120  -726.9815
 121  -638.0924
 122  -565.5033
 123  -358.3799
 124  -534.7682
 125  -182.1985
 126  -96.08746
 127  -218.6826
 128  -422.2271
 129  -252.1489
 130  -242.1444
 131  -452.3968
 132  -80.65421
 133  36.00922
 134  83.45976
 135  -89.25475
 136  -307.9031
 137  -482.779
 138  -193.9836
 139  485.8005
 140  744.4952
 141  177.5099
 142  -340.2627
 143  -156.3441
 144  -95.61627
 145  -589.3018
 146  -51.41813
 147  218.7163
 148  615.6814
 149  -140.6721
 150  -295.2334
 151  -146.3299
 152  -645.6569
 153  -657.2192
 154  -395.5986
 155  -117.2733
 156  -47.49295
 157  -8.596581
 158  -400.0234
 159  -494.2486
 160  -391.8294
 161  -694.5928
 162  -452.3986
 163  -536.8916
 164  -164.3433
 165  -480.2721
 166  -657.263
 167  -570.8832
 168  -540.4974
 169  -418.5918
 170  -618.0598
 171  -435.3817
 172  -745.7574
 173  -468.3868
 174  -956.2796
 175  -959.9097
 176  -511.1187
 177  -403.3776
 178  -258.1915
 179  -455.1509
 180  36.53924
 181  -3.102836
 182  -730.1445
 183  19.84948
 184  111.7288
 185  32.81601
 186  -616.3513
 187  -327.4491
 188  33.84156
 189  -44.98124
 190  -139.3356
 191  -386.7993
 192  -378.5663
 193  -447.6882
 194  -135.3579
 195  -197.2518
 196  -329.2482
 197  -180.0377
 198  -438.8756
 199  -269.2914
 200  -817.6467
 201  -459.4642
 202  -509.8146
 203  -618.7457
 204  -276.0171
 205  -54.75019
 206  -2.6925
 207  -443.6913
 208  -507.6349
 209  -444.1738
 210  -29.44583
 211  -481.1447
 212  -350.6232
 213  347.7132
 214  25.34028
 215  -75.02583
 216  -299.5969
 217  -294.4669
 218  -163.7331
 219  -206.3962
 220  239.5026
 221  520.2665
 222  521.4351
 223  -225.4046
 224  -217.3959
 225  -504.7981
 226  -456.0675
 227  -309.7902
 228  174.1442
 229  827.9327
 230  769.4149
 231  509.2803
 232  -263.7905
 233  -393.561
 234  -157.8343
 235  234.7374
 236  11.16532
 237  -76.27494
 238  299.9072
 239  -165.9543
 240  -385.3447
 241  -264.328
 242  -337.1189
 243  -236.1833
 244  -736.2812
 245  -126.4273
 246  61.44091
 247  484.8517
 248  231.6239
 249  -250.3598
 250  185.773
 251  -201.8785
 252  -60.09847
 253  -216.7872
 254  338.0379
 255  344.4017
 256  -121.4372
 257  175.9196
 258  -61.16335
 259  61.41887
 260  -393.2658
 261  297.7175
 262  462.88
 263  253.8904
 264  381.5582
 265  -313.2579
 266  104.3798
 267  -53.65194
 268  502.5342
 269  300.7696
 270  113.1907
 271  167.0342
 272  251.1893
 273  128.7663
 274  -7.085659
 275  554.2751
 276  375.892
 277  395.8068
 278  281.8267
 279  749.3399
 280  820.8739
 281  -43.22631
 282  -76.84145
 283  335.2122
 284  716.1829
 285  181.103
 286  237.0312
 287  427.6077
 288  304.8032
 289  8.057289
 290  -132.1182
 291  368.2256
 292  5.57953
 293  281.3583
 294  397.4657
 295  875.902
 296  795.4377
 297  79.9108
 298  613.4877
 299  -100.7215
 300  -318.5932
 301  -233.4677
 302  -206.4961
 303  177.1219
 304  282.2507
 305  543.3082
 306  319.1779
 307  -124.5482
 308  -351.7389
 309  -401.3177
 310  -181.4992
 311  29.01626
 312  669.9078
 313  953.8329
 314  479.4432
 315  149.9551
 316  -3.862065
 317  382.8224
 318  -11.34615
 319  538.8409
 320  1159.136
 321  1152.551
 322  426.5937
 323  51.48244
 324  7.874857
 325  -121.2777
 326  -99.58895
 327  -113.8025
 328  1063.168
 329  574.6746
 330  381.939
 331  476.9606
 332  -597.9125
 333  -476.474
 334  -794.0293
 335  -226.4402
 336  -154.0043
 337  -34.73941
 338  415.91
 339  55.20481
 340  -411.0454
 341  -666.3495
 342  -110.2649
 343  -180.6141
 344  203.2888
 345  577.5557
 346  780.7714
 347  622.3876
 348  -24.22627
 349  402.0014
 350  299.1822
 351  272.1407
 352  115.8061
 353  773.5337
 354  752.3863
 355  179.9302
 356  -87.33365
 357  114.1171
 358  715.7219
 359  67.06467
 360  668.9379
 361  802.3597
 362  451.1411
 363  403.627
 364  106.5874
 365  345.2164
 366  132.6468
 367  136.0341
 368  390.0361
 369  574.5762
 370  566.8228
 371  338.7164
 372  259.6143
 373  184.1364
 374  230.4502
 375  415.8892
 376  493.2483
 377  731.2631
 378  477.3869
 379  560.2112
 380  -490.6628
 381  -630.0842
 382  -388.4582
 383  224.9564
 384  -1.468606
 385  -17.99426
 386  303.0922
 387  31.22941
 388  26.17872
 389  -107.3943
 390  406.1845
 391  75.6341
 392  -13.15018
 393  313.1689
 394  -67.13567
 395  417.8797
 396  163.0471
 397  241.2736
 398  30.60507
 399  -551.6242
 400  -361.0571
 401  -240.7581
 402  191.9363
 403  247.1284
 404  704.1907
 405  157.7595
 406  101.716
 407  -286.9537
 408  -437.6785
 409  384.0373
 410  409.617
 411  959.2543
 412  945.1674
 413  815.6316
 414  565.214
 415  88.9054
 416  178.6303
 417  -104.7357
 418  -105.9156
 419  573.3032
 420  993.1948
 421  438.1024
 422  183.0173
 423  14.44754
 424  45.11562
 425  -25.87249
 426  -89.26155
 427  777.2126
 428  872.5079
 429  522.0524
 430  602.9116
 431  263.8431
 432  261.8906
 433  262.8959
 434  49.68381
 435  54.82817
 436  318.7991
 437  554.9739
 438  176.5861
 439  175.0119
 440  -211.2004
 441  -120.8877
 442  -48.45737
 443  378.9951
 444  531.6155
 445  155.8819
 446  629.0911
 447  126.5505
 448  322.6533
 449  316.6892
 450  -366.9121
 451  -558.3191
 452  -270.8479
 453  286.6442
 454  56.02518
 455  -250.5751
 456  -306.0527
 457  -123.1157
 458  -206.202
 459  -410.2471
 460  166.9776
 461  82.22376
 462  -60.31948
 463  -383.2997
 464  -350.338
 465  -442.9066
 466  -709.7164
 467  -550.6356
 468  -286.9499
 469  226.7037
 470  382.9542
 471  471.1332
 472  -97.69312
 473  -372.4075
 474  -595.1404
 475  -449.934
 476  98.44857
 477  -550.5723
 478  361.3861
 479  474.5146
 480  -2.813029
 481  -672.0634
 482  -766.0918
 483  -597.4152
 484  -690.1627
 485  -74.68623
 486  322.5264
 487  467.7684
 488  -358.9298
 489  -473.2169
 490  -570.9041
 491  -556.2849
 492  -116.8498
 493  354.2085
 494  542.8143
 495  412.2827
 496  167.0287
 497  -219.2346
 498  -501.4937
 499  -516.7042
 500  -222.8683
 501  31.77706
 502  215.4048
 503  685.4564
 504  251.3125
 505  57.07956
 506  -5.04013
 507  0.02117911
 508  -18.96956
 509  -178.2368
 510  436.9203
 511  588.337
