# Input file       =  1180250726.097181_cleaned.dat
# Candidate        =  PSR_0332+5434
# Telescope        =  AR
# Epoch_topo       =  57904.309549735895
# Epoch_bary       =  N/A
# T_sample         =  0.002
# Data Folded      =  7340032
# Data Avg         =  0.0342485886919735
# Data StdDev      =  1.0000978406835  
# Profile Bins     =  512
# Profile Avg      =  491.058347485151 
# Profile StdDev   =  119.744751138882 
# Reduced chi-sqr  =  1.567
# Prob(Noise)      <  3.71e-15   (~7.8 sigma)
# P_topo (ms)      =  714.517258554784  +/- 0.000207
# P'_topo (s/s)    =  -0                +/- 1.09e-10
# P''_topo (s/s^2) =  0                 +/- 4.82e-14
# P_bary (ms)      =  N/A
# P'_bary (s/s)    =  N/A
# P''_bary (s/s^2) =  N/A
# P_orb (s)        =  N/A
# asin(i)/c (s)    =  N/A
# eccentricity     =  N/A
# w (rad)          =  N/A
# T_peri           =  N/A
######################################################
   0  1062.194
   1  1094.205
   2  992.0255
   3  773.8956
   4  584.1389
   5  634.6409
   6  706.9861
   7  559.1362
   8  519.4001
   9  501.1354
  10  432.3908
  11  496.0456
  12  624.5317
  13  638.4849
  14  660.2562
  15  554.1159
  16  455.6974
  17  470.3826
  18  493.4925
  19  410.1398
  20  352.9513
  21  220.331
  22  287.6359
  23  280.2704
  24  371.8359
  25  520.2261
  26  401.2696
  27  317.1444
  28  261.8872
  29  353.0758
  30  324.5938
  31  320.9638
  32  301.5702
  33  261.4605
  34  227.0422
  35  275.9252
  36  312.9532
  37  363.2321
  38  430.9589
  39  527.7454
  40  554.8668
  41  510.1815
  42  473.0961
  43  458.1593
  44  445.6496
  45  423.6078
  46  518.7787
  47  515.726
  48  491.3978
  49  426.7592
  50  478.4529
  51  467.6917
  52  409.7551
  53  383.7497
  54  488.0787
  55  608.305
  56  632.0717
  57  581.7514
  58  543.2841
  59  435.4782
  60  487.2098
  61  478.9821
  62  526.5206
  63  436.5435
  64  482.9583
  65  549.7675
  66  377.0541
  67  373.4466
  68  426.0875
  69  413.9191
  70  528.6069
  71  503.8976
  72  540.7119
  73  449.9355
  74  394.0845
  75  433.0462
  76  523.5328
  77  494.4287
  78  563.1724
  79  461.7077
  80  457.0253
  81  417.9887
  82  515.8645
  83  591.05
  84  583.3494
  85  499.1066
  86  441.6153
  87  441.3598
  88  567.293
  89  532.2188
  90  512.0513
  91  574.6956
  92  486.0927
  93  538.9059
  94  485.2792
  95  519.3569
  96  488.7094
  97  459.2055
  98  453.4724
  99  474.0814
 100  521.2451
 101  517.8953
 102  453.0861
 103  476.6893
 104  417.2973
 105  439.1979
 106  462.3904
 107  345.581
 108  422.0737
 109  502.1766
 110  379.3891
 111  350.0767
 112  505.4269
 113  399.9328
 114  406.5318
 115  453.4547
 116  472.736
 117  308.9127
 118  319.8259
 119  485.1815
 120  423.848
 121  505.5524
 122  424.8588
 123  470.8003
 124  414.3176
 125  510.8147
 126  570.9597
 127  609.4932
 128  548.4197
 129  666.6383
 130  603.2371
 131  574.6293
 132  541.9169
 133  495.3909
 134  610.6271
 135  626.9607
 136  604.7684
 137  553.8093
 138  519.8996
 139  399.4819
 140  461.1141
 141  565.3085
 142  615.4871
 143  581.1011
 144  491.9571
 145  513.0426
 146  538.7722
 147  512.7592
 148  637.2885
 149  601.4753
 150  614.3013
 151  617.2885
 152  593.3875
 153  565.2546
 154  612.4955
 155  630.4031
 156  474.7427
 157  486.2699
 158  565.8641
 159  552.7585
 160  469.6203
 161  524.3511
 162  456.7243
 163  516.8428
 164  580.4893
 165  518.9124
 166  470.9876
 167  642.2566
 168  679.3725
 169  505.3651
 170  658.2087
 171  637.1596
 172  616.2631
 173  663.1158
 174  717.777
 175  639.7419
 176  455.4737
 177  518.5447
 178  507.9553
 179  400.1586
 180  408.825
 181  538.4377
 182  507.5807
 183  609.2463
 184  513.2905
 185  517.7621
 186  307.8522
 187  317.1975
 188  470.3849
 189  440.4291
 190  374.5532
 191  347.5169
 192  334.0769
 193  351.4095
 194  235.7365
 195  233.9422
 196  308.2729
 197  312.8066
 198  344.3864
 199  398.4927
 200  417.8392
 201  363.2567
 202  311.336
 203  326.3519
 204  307.2038
 205  379.9319
 206  444.3999
 207  563.4723
 208  521.5616
 209  462.9729
 210  429.2484
 211  515.9537
 212  557.5858
 213  600.1925
 214  583.4388
 215  544.0846
 216  578.0635
 217  580.7435
 218  626.431
 219  651.4615
 220  502.4106
 221  464.3972
 222  445.7552
 223  481.6915
 224  518.6786
 225  462.7104
 226  453.0912
 227  512.2415
 228  457.3984
 229  554.8447
 230  555.7361
 231  518.6996
 232  375.3854
 233  409.1726
 234  446.1648
 235  484.7531
 236  392.8
 237  347.745
 238  267.6491
 239  320.7287
 240  457.9698
 241  565.6147
 242  500.1331
 243  388.6606
 244  370.8764
 245  341.8467
 246  303.3681
 247  367.1994
 248  525.2103
 249  570.2072
 250  468.6122
 251  569.1843
 252  568.5515
 253  444.2734
 254  571.3191
 255  527.0999
 256  452.39
 257  573.8063
 258  554.6244
 259  556.5018
 260  455.0823
 261  510.4158
 262  583.9408
 263  532.8803
 264  511.8657
 265  500.7155
 266  463.9907
 267  461.8244
 268  385.7923
 269  417.9826
 270  370.1501
 271  442.4514
 272  477.3759
 273  419.4669
 274  374.7963
 275  475.887
 276  394.8212
 277  337.5093
 278  304.6787
 279  229.7983
 280  284.6601
 281  390.6651
 282  352.1515
 283  389.7202
 284  460.4673
 285  439.8715
 286  432.3544
 287  365.6282
 288  393.6408
 289  339.9074
 290  405.2846
 291  419.9384
 292  443.1158
 293  472.7662
 294  453.4927
 295  382.1138
 296  463.7932
 297  529.7073
 298  647.7751
 299  564.4464
 300  578.31
 301  576.2195
 302  559.9105
 303  523.6556
 304  396.6623
 305  443.141
 306  530.8192
 307  558.4604
 308  483.716
 309  529.9271
 310  519.3303
 311  460.9107
 312  405.0874
 313  393.3482
 314  366.6773
 315  414.5862
 316  476.3549
 317  406.9714
 318  339.8736
 319  394.4923
 320  415.4529
 321  341.5271
 322  443.2804
 323  548.6942
 324  435.1716
 325  425.1932
 326  536.8848
 327  596.1485
 328  564.4324
 329  482.2395
 330  545.442
 331  502.2101
 332  415.7199
 333  467.7272
 334  471.6852
 335  531.9194
 336  519.566
 337  520.0694
 338  447.8268
 339  468.744
 340  564.8557
 341  469.0391
 342  537.3739
 343  484.4256
 344  414.815
 345  549.5623
 346  568.6043
 347  545.252
 348  566.2166
 349  507.256
 350  546.7938
 351  503.9771
 352  483.2239
 353  514.0246
 354  520.2766
 355  539.0244
 356  595.393
 357  550.4088
 358  538.5325
 359  459.703
 360  368.06
 361  401.596
 362  358.5364
 363  416.7866
 364  408.6797
 365  452.958
 366  484.9848
 367  421.5437
 368  357.2423
 369  286.7028
 370  316.4105
 371  359.5641
 372  389.0569
 373  427.4317
 374  352.4626
 375  346.2607
 376  465.6147
 377  420.1821
 378  339.6842
 379  390.5212
 380  352.5387
 381  408.0056
 382  499.1785
 383  461.435
 384  510.7816
 385  446.4316
 386  473.5107
 387  518.1808
 388  473.0263
 389  600.7667
 390  480.0091
 391  483.9163
 392  507.6401
 393  547.4219
 394  489.1228
 395  497.2692
 396  437.4144
 397  498.9427
 398  514.0916
 399  453.9849
 400  466.0777
 401  559.6155
 402  564.2172
 403  531.5034
 404  465.8867
 405  586.915
 406  589.4692
 407  374.3615
 408  404.3379
 409  493.658
 410  583.4431
 411  619.6155
 412  549.7591
 413  458.6743
 414  402.9885
 415  462.6488
 416  519.5152
 417  503.1836
 418  532.3337
 419  520.3221
 420  492.1272
 421  545.7653
 422  580.7969
 423  444.4995
 424  492.6433
 425  570.1446
 426  551.2653
 427  522.4443
 428  636.1378
 429  625.3101
 430  497.5679
 431  640.087
 432  510.2047
 433  517.4114
 434  634.3906
 435  585.7161
 436  483.678
 437  596.4681
 438  541.2482
 439  547.718
 440  487.2755
 441  541.6464
 442  447.8342
 443  544.2554
 444  604.6742
 445  463.1624
 446  439.3966
 447  447.6046
 448  448.3654
 449  427.5726
 450  429.3288
 451  458.3732
 452  454.9974
 453  386.4293
 454  458.558
 455  573.0992
 456  464.2425
 457  383.1632
 458  421.9864
 459  365.2021
 460  497.1899
 461  508.3508
 462  469.7521
 463  507.276
 464  551.3613
 465  494.7796
 466  479.9055
 467  526.8168
 468  556.761
 469  611.267
 470  579.6706
 471  546.7083
 472  664.1219
 473  753.2196
 474  712.2364
 475  571.3565
 476  516.6187
 477  630.8199
 478  604.7244
 479  727.8613
 480  721.4445
 481  565.2272
 482  552.5648
 483  572.2829
 484  542.2341
 485  572.0503
 486  569.8101
 487  592.2319
 488  579.5594
 489  489.9174
 490  536.3705
 491  528.3754
 492  498.9254
 493  549.3434
 494  389.7137
 495  413.2201
 496  500.9938
 497  487.4429
 498  452.5614
 499  484.2819
 500  575.2473
 501  517.3456
 502  465.1658
 503  472.3018
 504  553.9036
 505  574.7761
 506  605.5159
 507  627.0522
 508  733.9485
 509  782.4482
 510  927.5598
 511  1107.23
