# Input file       =  1180494576.107471_cleaned.dat
# Candidate        =  PSR_0332+5434
# Telescope        =  AR
# Epoch_topo       =  57907.131887817952
# Epoch_bary       =  N/A
# T_sample         =  0.002
# Data Folded      =  7208960
# Data Avg         =  0.0275419613658919
# Data StdDev      =  1.00017598888524 
# Profile Bins     =  512
# Profile Avg      =  387.742416126207 
# Profile StdDev   =  118.680058489602 
# Reduced chi-sqr  =  0.895
# Prob(Noise)      <  0.958   (~0.0 sigma)
# P_topo (ms)      =  714.514494640224  +/- 0.000651
# P'_topo (s/s)    =  -0                +/- 3.5e-10
# P''_topo (s/s^2) =  0                 +/- 1.57e-13
# P_bary (ms)      =  N/A
# P'_bary (s/s)    =  N/A
# P''_bary (s/s^2) =  N/A
# P_orb (s)        =  N/A
# asin(i)/c (s)    =  N/A
# eccentricity     =  N/A
# w (rad)          =  N/A
# T_peri           =  N/A
######################################################
   0  372.2523
   1  368.14
   2  402.6967
   3  389.4552
   4  393.7529
   5  446.2749
   6  366.9694
   7  396.6973
   8  328.8426
   9  378.2361
  10  355.808
  11  358.3774
  12  408.7095
  13  376.3281
  14  455.7972
  15  351.5951
  16  388.5221
  17  402.5052
  18  508.7292
  19  502.9481
  20  527.2487
  21  463.6747
  22  480.9418
  23  502.3303
  24  445.1605
  25  462.5227
  26  486.5565
  27  561.1354
  28  559.2286
  29  433.166
  30  436.8643
  31  439.587
  32  406.1794
  33  321.1088
  34  525.4124
  35  637.2415
  36  515.5408
  37  389.4221
  38  358.7213
  39  382.7101
  40  337.1664
  41  451.9083
  42  478.0701
  43  441.8002
  44  460.0231
  45  427.5118
  46  523.1234
  47  440.8461
  48  473.8013
  49  429.6127
  50  354.377
  51  372.5109
  52  355.9394
  53  452.5018
  54  333.666
  55  338.7007
  56  419.322
  57  367.9181
  58  270.9549
  59  363.9348
  60  291.2491
  61  298.4981
  62  370.5152
  63  355.6165
  64  226.3851
  65  325.4275
  66  361.3387
  67  282.9452
  68  264.5151
  69  309.2544
  70  353.759
  71  498.0632
  72  478.1477
  73  501.7303
  74  412.4283
  75  308.5086
  76  304.4963
  77  401.7852
  78  300.3973
  79  354.9164
  80  442.1204
  81  531.8459
  82  498.9319
  83  422.6203
  84  379.9846
  85  353.9086
  86  378.5995
  87  371.459
  88  426.985
  89  395.9487
  90  388.4461
  91  396.8487
  92  427.5862
  93  360.9711
  94  399.0344
  95  372.61
  96  374.2102
  97  515.085
  98  526.671
  99  422.1467
 100  443.3746
 101  436.1523
 102  475.9982
 103  420.5543
 104  349.0539
 105  408.6317
 106  381.1948
 107  412.785
 108  393.2496
 109  382.4383
 110  378.8596
 111  352.7514
 112  338.2627
 113  375.7467
 114  415.1681
 115  445.5887
 116  482.1156
 117  356.2608
 118  412.2564
 119  405.6902
 120  334.7664
 121  335.8707
 122  413.8875
 123  360.8203
 124  255.3313
 125  402.8767
 126  385.5495
 127  478.2289
 128  429.3373
 129  383.4948
 130  452.3718
 131  367.7175
 132  374.5075
 133  366.9029
 134  255.5834
 135  338.1047
 136  429.0428
 137  323.5856
 138  301.9968
 139  283.6717
 140  200.598
 141  329.3817
 142  330.8188
 143  310.9029
 144  343.9196
 145  351.6584
 146  361.7509
 147  286.3752
 148  292.1938
 149  416.1927
 150  310.2945
 151  186.7305
 152  172.0588
 153  231.482
 154  367.6288
 155  294.2448
 156  269.8751
 157  307.472
 158  243.0627
 159  294.3655
 160  221.5207
 161  233.0731
 162  206.7618
 163  334.4458
 164  273.6783
 165  344.1346
 166  408.717
 167  335.3203
 168  222.8466
 169  235.0802
 170  332.8707
 171  328.1478
 172  355.3945
 173  379.5165
 174  306.4862
 175  310.2159
 176  311.9108
 177  300.0538
 178  324.983
 179  358.2929
 180  373.0514
 181  399.3781
 182  392.8517
 183  330.1715
 184  351.0216
 185  383.7433
 186  374.9671
 187  360.0582
 188  370.6127
 189  357.3822
 190  331.8564
 191  296.5955
 192  367.8126
 193  459.1963
 194  377.6846
 195  415.5365
 196  368.5222
 197  313.5966
 198  307.3344
 199  406.0749
 200  346.962
 201  307.3802
 202  393.0414
 203  364.946
 204  333.4905
 205  323.3474
 206  363.2313
 207  315.8019
 208  321.955
 209  293.2959
 210  300.0249
 211  408.1915
 212  427.5033
 213  384.9512
 214  350.2543
 215  415.6134
 216  378.7834
 217  345.6247
 218  432.638
 219  555.3508
 220  531.3384
 221  500.5991
 222  419.4621
 223  448.4153
 224  473.7703
 225  299.8672
 226  314.131
 227  428.5745
 228  413.4518
 229  356.9245
 230  296.0981
 231  274.6906
 232  263.1455
 233  265.2225
 234  397.0032
 235  394.1241
 236  346.8308
 237  339.1268
 238  362.7379
 239  298.1736
 240  379.6914
 241  395.0468
 242  406.6616
 243  452.4761
 244  375.8446
 245  469.1278
 246  418.4968
 247  462.0941
 248  471.9662
 249  425.2155
 250  437.5341
 251  410.7122
 252  508.7115
 253  473.4997
 254  477.9628
 255  419.9093
 256  451.3243
 257  511.6235
 258  618.5257
 259  564.1305
 260  517.4534
 261  453.3286
 262  502.8815
 263  410.9204
 264  445.6827
 265  411.9734
 266  422.8585
 267  457.3647
 268  459.5797
 269  495.6606
 270  425.2388
 271  458.546
 272  445.3691
 273  405.6497
 274  534.8325
 275  680.4759
 276  754.5684
 277  799.8648
 278  751.0912
 279  719.0501
 280  589.5808
 281  409.5463
 282  366.1458
 283  312.6954
 284  302.3484
 285  394.6505
 286  343.7887
 287  292.3144
 288  359.7519
 289  471.899
 290  497.617
 291  513.2181
 292  505.0402
 293  491.8726
 294  524.4943
 295  430.0384
 296  407.051
 297  361.6977
 298  344.3621
 299  357.8381
 300  249.9576
 301  307.5399
 302  270.8756
 303  457.7188
 304  445.9688
 305  294.516
 306  255.7176
 307  259.0594
 308  224.2853
 309  331.4002
 310  377.8885
 311  346.8925
 312  378.1006
 313  380.9485
 314  295.5717
 315  288.4072
 316  339.6494
 317  373.7448
 318  372.1435
 319  406.7927
 320  411.2448
 321  431.5735
 322  397.4891
 323  348.5583
 324  516.1572
 325  455.1039
 326  354.9649
 327  440.3492
 328  524.3954
 329  468.3429
 330  405.1084
 331  397.0109
 332  385.3069
 333  455.145
 334  369.5172
 335  422.2439
 336  460.4095
 337  463.3835
 338  424.3751
 339  444.4631
 340  314.4937
 341  349.9345
 342  481.6203
 343  456.3915
 344  349.4623
 345  377.9128
 346  320.582
 347  352.8525
 348  368.9995
 349  328.9199
 350  274.3482
 351  348.1313
 352  455.7078
 353  459.722
 354  326.8591
 355  338.7457
 356  360.114
 357  361.4827
 358  294.8224
 359  316.3461
 360  350.5257
 361  405.3727
 362  384.0249
 363  416.3776
 364  492.5645
 365  458.2135
 366  500.824
 367  505.4846
 368  411.7308
 369  383.2769
 370  392.6728
 371  447.3405
 372  423.5323
 373  386.5814
 374  435.9262
 375  470.8468
 376  410.7507
 377  364.1595
 378  395.5277
 379  397.8458
 380  423.6146
 381  457.7758
 382  307.2383
 383  399.7086
 384  346.8766
 385  395.5817
 386  339.1615
 387  343.7934
 388  337.5498
 389  397.997
 390  424.369
 391  235.8685
 392  405.2613
 393  437.433
 394  311.0786
 395  278.7316
 396  391.618
 397  285.2463
 398  256.2427
 399  398.6269
 400  353.4006
 401  302.6443
 402  296.8177
 403  340.6419
 404  331.3374
 405  287.8705
 406  368.0572
 407  278.3425
 408  305.3636
 409  397.2154
 410  399.07
 411  456.2811
 412  281.7587
 413  356.3839
 414  346.6336
 415  354.3974
 416  446.3995
 417  431.4778
 418  332.7516
 419  318.0399
 420  363.701
 421  382.3317
 422  346.1032
 423  412.5616
 424  399.9731
 425  375.5629
 426  457.5259
 427  445.4853
 428  431.4752
 429  393.4181
 430  349.4534
 431  263.4461
 432  354.3527
 433  372.4604
 434  384.5495
 435  360.3957
 436  256.2592
 437  341.1239
 438  403.7348
 439  396.4325
 440  372.1436
 441  385.0546
 442  430.5498
 443  445.6938
 444  421.2789
 445  462.6675
 446  492.5328
 447  406.7005
 448  501.9282
 449  490.6779
 450  516.2862
 451  452.8779
 452  367.7591
 453  381.9509
 454  326.4973
 455  307.5339
 456  346.2726
 457  327.7848
 458  279.0039
 459  413.8512
 460  529.0399
 461  294.0624
 462  279.6537
 463  265.7545
 464  342.7031
 465  317.7627
 466  309.5638
 467  390.7622
 468  364.524
 469  540.9686
 470  518.0927
 471  439.7612
 472  342.326
 473  343.8175
 474  364.4866
 475  404.6687
 476  496.9444
 477  472.5971
 478  444.2816
 479  461.9767
 480  356.0152
 481  319.8572
 482  371.9899
 483  437.2118
 484  300.9794
 485  308.822
 486  315.8004
 487  344.6952
 488  413.225
 489  444.8905
 490  315.687
 491  297.4332
 492  409.2371
 493  400.8102
 494  334.6099
 495  351.3692
 496  374.5833
 497  330.9754
 498  354.3431
 499  361.4182
 500  396.7506
 501  388.7798
 502  192.5114
 503  217.2481
 504  301.2098
 505  444.4153
 506  460.7065
 507  418.4477
 508  493.2699
 509  491.4732
 510  390.611
 511  365.8691
