# Input file       =  1180408342.103741-PSRB0329-2ms-sampling-dd.dat
# Candidate        =  PSR_0332+5434
# Telescope        =  AR
# Epoch_topo       =  57906.133809071078
# Epoch_bary       =  N/A
# T_sample         =  0.002
# Data Folded      =  7208960
# Data Avg         =  -1.14146336758523e-09
# Data StdDev      =  8.98401539047957 
# Profile Bins     =  512
# Profile Avg      =  0.339773723924326
# Profile StdDev   =  1066.0358615507  
# Reduced chi-sqr  =  0.796
# Prob(Noise)      <  1   (~0.0 sigma)
# P_topo (ms)      =  714.51546588899   +/- 0.000203
# P'_topo (s/s)    =  -0                +/- 1.09e-10
# P''_topo (s/s^2) =  0                 +/- 4.89e-14
# P_bary (ms)      =  N/A
# P'_bary (s/s)    =  N/A
# P''_bary (s/s^2) =  N/A
# P_orb (s)        =  N/A
# asin(i)/c (s)    =  N/A
# eccentricity     =  N/A
# w (rad)          =  N/A
# T_peri           =  N/A
######################################################
   0  -184.0502
   1  197.6579
   2  522.2864
   3  -57.05724
   4  -298.8083
   5  -590.5365
   6  -863.6141
   7  -641.2442
   8  -191.9734
   9  -75.65121
  10  -318.0667
  11  -577.1215
  12  -745.3886
  13  -754.1231
  14  -683.8125
  15  -628.7365
  16  -407.3735
  17  -107.558
  18  320.3919
  19  194.0855
  20  135.1789
  21  40.43563
  22  156.818
  23  210.8497
  24  -232.7569
  25  307.1105
  26  -277.5123
  27  -25.55202
  28  -1115.886
  29  -855.5439
  30  -605.7947
  31  -134.4732
  32  -414.623
  33  -168.1261
  34  -451.3385
  35  -871.2873
  36  -216.4496
  37  -328.6251
  38  -209.9973
  39  -139.5011
  40  -482.5555
  41  -512.1436
  42  -895.6795
  43  -462.5298
  44  -689.088
  45  -682.2021
  46  -317.5241
  47  -276.9994
  48  165.0172
  49  332.0311
  50  558.6731
  51  -301.1167
  52  -210.4422
  53  -630.1555
  54  84.63675
  55  48.95136
  56  278.4341
  57  253.814
  58  -119.8523
  59  -336.364
  60  -446.2365
  61  -220.6425
  62  -439.8095
  63  -223.1763
  64  118.6584
  65  28.3278
  66  251.8413
  67  52.02625
  68  -68.37188
  69  -15.35249
  70  -110.7867
  71  28.34337
  72  -454.2269
  73  -749.8076
  74  -382.6722
  75  -30.40423
  76  443.0539
  77  53.4663
  78  -109.0744
  79  -237.2212
  80  -206.7502
  81  -295.3416
  82  245.7384
  83  246.809
  84  36.94009
  85  -406.2613
  86  -119.6155
  87  -214.1745
  88  -455.9113
  89  561.9064
  90  748.08
  91  652.2584
  92  -82.87118
  93  -381.4359
  94  -302.5828
  95  -985.0237
  96  -555.8262
  97  -62.06496
  98  167.8091
  99  -207.1763
 100  218.2693
 101  78.84338
 102  -328.5905
 103  -368.4706
 104  -74.22614
 105  300.9147
 106  324.8345
 107  718.2785
 108  1031.315
 109  560.9117
 110  -414.6699
 111  261.28
 112  930.231
 113  971.9292
 114  395.0852
 115  599.6675
 116  150.3727
 117  -442.9431
 118  -919.802
 119  -304.1032
 120  -294.7534
 121  -569.0823
 122  589.3945
 123  1208.418
 124  2007.566
 125  3109.919
 126  3261.886
 127  1867.913
 128  -722.6712
 129  892.3467
 130  3623.295
 131  4186.984
 132  4025.069
 133  3560.39
 134  1354.467
 135  -791.0565
 136  -335.3434
 137  -243.7165
 138  -537.5495
 139  -726.1001
 140  -224.7674
 141  -58.05104
 142  -380.3256
 143  -396.2567
 144  -724.4337
 145  -296.2839
 146  -456.5688
 147  -343.849
 148  284.6822
 149  -2.331584
 150  92.51915
 151  501.8464
 152  529.078
 153  174.7287
 154  121.2257
 155  -200.6523
 156  -249.4035
 157  -606.3135
 158  -195.9098
 159  -276.8478
 160  -126.1214
 161  -635.2225
 162  -82.57526
 163  -180.6037
 164  -296.1465
 165  49.78539
 166  164.5426
 167  177.683
 168  -62.81154
 169  515.8961
 170  515.4709
 171  -206.2929
 172  -56.02066
 173  1270.82
 174  1095.6
 175  760.5369
 176  660.1151
 177  202.3355
 178  -94.16318
 179  483.648
 180  1216.583
 181  2018.763
 182  1443.592
 183  1571.809
 184  1256.515
 185  650.0464
 186  440.8681
 187  956.7693
 188  603.9844
 189  620.025
 190  687.915
 191  310.9253
 192  -125.8134
 193  69.28288
 194  763.2636
 195  852.0262
 196  992.239
 197  662.4518
 198  908.8804
 199  515.1207
 200  59.80361
 201  -258.8982
 202  70.7276
 203  233.1559
 204  603.2398
 205  885.0033
 206  76.86426
 207  183.6096
 208  -35.90905
 209  235.7046
 210  -465.1405
 211  -64.90514
 212  -17.3932
 213  377.3744
 214  515.863
 215  1111.082
 216  672.8229
 217  -32.71816
 218  444.7404
 219  368.5337
 220  33.53313
 221  -412.6796
 222  -35.8835
 223  271.3525
 224  449.5578
 225  679.299
 226  363.0846
 227  -280.7835
 228  -355.2519
 229  -200.3481
 230  204.7372
 231  -168.1315
 232  258.2082
 233  -226.1241
 234  149.3094
 235  -529.2321
 236  -51.39957
 237  -204.5772
 238  -572.061
 239  -184.5583
 240  29.90763
 241  55.76289
 242  -281.6954
 243  -613.9086
 244  -551.8283
 245  -449.195
 246  87.65432
 247  93.83442
 248  496.7999
 249  -405.8939
 250  -581.2446
 251  -808.0561
 252  -1253.79
 253  -1522.069
 254  -668.5906
 255  -264.547
 256  -459.9043
 257  -876.3484
 258  -378.7815
 259  -246.7391
 260  -544.2982
 261  -198.0886
 262  131.3399
 263  -72.56811
 264  -720.1673
 265  -465.887
 266  -325.9713
 267  -296.9147
 268  -419.3035
 269  -231.0629
 270  365.8601
 271  -159.6214
 272  -96.4546
 273  -439.6169
 274  -934.8241
 275  -968.2535
 276  -1084.585
 277  -439.8348
 278  -656.2246
 279  -766.2001
 280  -244.5438
 281  -111.4938
 282  -474.8445
 283  -304.3528
 284  -431.7114
 285  -382.6598
 286  -1070.707
 287  -666.5188
 288  -229.8282
 289  -64.91183
 290  34.25187
 291  -104.0086
 292  -396.0877
 293  -342.7815
 294  -4.009645
 295  193.6128
 296  41.60229
 297  523.5206
 298  171.7346
 299  66.87435
 300  -295.45
 301  330.1626
 302  455.6513
 303  116.8627
 304  297.7231
 305  124.7176
 306  40.39713
 307  -295.0219
 308  27.49182
 309  -217.0375
 310  44.43197
 311  -166.0568
 312  -46.47025
 313  -415.4592
 314  34.31503
 315  421.1665
 316  206.9199
 317  145.5248
 318  137.6854
 319  796.493
 320  874.5196
 321  543.2678
 322  972.3529
 323  1238.522
 324  1030.154
 325  733.3928
 326  1486.261
 327  1211.681
 328  356.7623
 329  101.3872
 330  452.6087
 331  389.4079
 332  156.3111
 333  469.8096
 334  62.06826
 335  -541.3622
 336  -472.2319
 337  -293.9005
 338  -288.375
 339  -506.4996
 340  -270.8369
 341  52.00307
 342  272.3134
 343  -269.3086
 344  16.35628
 345  338.6304
 346  -60.60754
 347  -207.3196
 348  -189.1118
 349  -621.8262
 350  -1049.459
 351  -426.0739
 352  233.6957
 353  -344.1029
 354  -238.0264
 355  -244.9583
 356  -636.5215
 357  -838.0969
 358  -695.511
 359  -420.847
 360  -783.6244
 361  -91.56991
 362  -441.9107
 363  -269.3421
 364  -709.2073
 365  -607.0667
 366  -425.8896
 367  -581.7262
 368  -682.0839
 369  -282.4324
 370  -379.1422
 371  -379.5953
 372  -475.4352
 373  -469.2812
 374  -384.6326
 375  -706.3417
 376  -393.1961
 377  251.8182
 378  186.4103
 379  597.5376
 380  746.6004
 381  908.9434
 382  -343.3259
 383  -219.309
 384  134.1206
 385  153.1876
 386  1128.235
 387  2203.814
 388  2167.487
 389  1196.395
 390  137.3485
 391  -51.80914
 392  -431.7625
 393  264.2999
 394  70.94572
 395  566.8116
 396  546.6991
 397  261.3653
 398  640.375
 399  491.6964
 400  412.924
 401  92.27944
 402  278.3698
 403  -59.11209
 404  -245.6166
 405  -276.4145
 406  -144.8524
 407  -698.4405
 408  -621.4031
 409  -532.5904
 410  -425.4317
 411  -326.4718
 412  -401.2451
 413  -445.4159
 414  25.32621
 415  -451.4892
 416  -148.2318
 417  -203.1777
 418  -212.068
 419  -212.4666
 420  -398.3043
 421  -684.8101
 422  -692.3452
 423  -712.6523
 424  -558.6741
 425  -1038.174
 426  -678.7307
 427  -341.4813
 428  -492.2085
 429  -504.0934
 430  -588.45
 431  -28.31129
 432  -43.52894
 433  -63.66434
 434  -257.3912
 435  -250.7534
 436  -238.6349
 437  -156.0139
 438  44.77584
 439  255.9369
 440  78.56564
 441  -472.1607
 442  166.7096
 443  141.2757
 444  45.90028
 445  222.1048
 446  114.4334
 447  83.77522
 448  392.4921
 449  688.7183
 450  635.8265
 451  467.4496
 452  -518.0614
 453  -989.3631
 454  -995.5965
 455  -770.4221
 456  -752.7322
 457  -1042.654
 458  -924.4528
 459  -474.2032
 460  -1057.437
 461  -836.4562
 462  -373.2833
 463  -135.9926
 464  -657.0591
 465  -634.002
 466  -617.4841
 467  -504.1258
 468  -990.0222
 469  -478.2018
 470  40.67419
 471  -167.4725
 472  -371.0524
 473  -100.7778
 474  -650.6632
 475  -1276.511
 476  -1000.471
 477  -1115.968
 478  -969.303
 479  -694.2778
 480  -612.9449
 481  -564.0373
 482  -743.4589
 483  -54.61284
 484  191.751
 485  -70.39008
 486  -265.0225
 487  -308.9836
 488  333.1922
 489  69.8478
 490  372.6855
 491  742.7756
 492  655.7492
 493  317.9073
 494  585.2434
 495  1475.53
 496  1147.365
 497  718.6602
 498  601.032
 499  1007.538
 500  1025.132
 501  293.1234
 502  1023.856
 503  1010.755
 504  778.2274
 505  1004.476
 506  958.4982
 507  392.0035
 508  -223.5152
 509  -664.2732
 510  -510.366
 511  -707.7761
