# Input file       =  1180265636.121797_cleaned.dat
# Candidate        =  PSR_0332+5434
# Telescope        =  AR
# Epoch_topo       =  57904.482119465247
# Epoch_bary       =  N/A
# T_sample         =  0.002
# Data Folded      =  7340032
# Data Avg         =  0.0259384435342129
# Data StdDev      =  1.00003242934144 
# Profile Bins     =  512
# Profile Avg      =  371.690336470239 
# Profile StdDev   =  119.736919240284 
# Reduced chi-sqr  =  1.196
# Prob(Noise)      <  0.00152   (~3.0 sigma)
# P_topo (ms)      =  714.51742464653   +/- 0.000288
# P'_topo (s/s)    =  -0                +/- 1.52e-10
# P''_topo (s/s^2) =  0                 +/- 6.7e-14
# P_bary (ms)      =  N/A
# P'_bary (s/s)    =  N/A
# P''_bary (s/s^2) =  N/A
# P_orb (s)        =  N/A
# asin(i)/c (s)    =  N/A
# eccentricity     =  N/A
# w (rad)          =  N/A
# T_peri           =  N/A
######################################################
   0  289.3581
   1  398.8834
   2  512.1069
   3  410.973
   4  285.9731
   5  301.8651
   6  313.1451
   7  359.8404
   8  327.0048
   9  372.2427
  10  392.8978
  11  367.844
  12  505.9789
  13  491.3991
  14  408.1887
  15  315.7762
  16  453.4921
  17  381.6601
  18  292.9478
  19  366.1443
  20  479.1665
  21  476.0405
  22  387.4277
  23  297.5553
  24  493.2123
  25  538.3213
  26  461.9812
  27  424.4614
  28  420.6896
  29  410.8207
  30  482.1133
  31  412.0095
  32  433.0013
  33  416.2818
  34  380.5763
  35  392.0592
  36  467.0009
  37  448.1472
  38  449.7139
  39  345.5968
  40  388.191
  41  365.7946
  42  392.1107
  43  383.5336
  44  434.7975
  45  381.7998
  46  354.5033
  47  340.433
  48  490.5415
  49  435.8094
  50  294.5475
  51  356.1911
  52  474.3352
  53  360.3338
  54  402.8396
  55  455.0683
  56  463.127
  57  557.3316
  58  391.1422
  59  265.5998
  60  283.6421
  61  414.7731
  62  585.7894
  63  408.1746
  64  456.7358
  65  377.2642
  66  314.4578
  67  283.8592
  68  401.3759
  69  518.2142
  70  503.7486
  71  447.9106
  72  490.2444
  73  389.6856
  74  247.5732
  75  380.6651
  76  432.3195
  77  419.0908
  78  481.1046
  79  576.788
  80  699.6186
  81  733.35
  82  831.4006
  83  853.8484
  84  853.5359
  85  674.6605
  86  453.4223
  87  307.5534
  88  369.5695
  89  359.3139
  90  320.8048
  91  401.3748
  92  404.09
  93  374.9113
  94  451.6315
  95  363.1549
  96  318.6787
  97  438.1315
  98  501.0282
  99  396.7039
 100  231.6159
 101  309.7112
 102  383.7815
 103  443.9102
 104  348.4922
 105  382.9195
 106  473.6545
 107  498.9753
 108  387.0313
 109  308.2741
 110  436.661
 111  443.5739
 112  377.812
 113  483.1636
 114  380.8247
 115  405.2518
 116  368.0267
 117  290.7456
 118  388.0789
 119  356.597
 120  449.259
 121  598.6664
 122  449.5046
 123  374.3188
 124  281.1568
 125  220.0731
 126  243.2333
 127  184.4585
 128  222.7893
 129  328.2967
 130  400.9513
 131  370.39
 132  323.1004
 133  288.8991
 134  319.4844
 135  212.696
 136  246.5057
 137  368.2114
 138  217.4377
 139  136.4505
 140  265.8218
 141  319.6137
 142  477.3681
 143  432.6194
 144  350.1113
 145  231.3847
 146  398.1216
 147  334.1331
 148  301.8186
 149  273.3385
 150  329.5078
 151  390.1858
 152  313.7123
 153  416.4436
 154  456.0546
 155  322.8772
 156  402.1341
 157  429.9736
 158  319.884
 159  387.4761
 160  448.4969
 161  528.7491
 162  513.4705
 163  492.2148
 164  510.3713
 165  472.863
 166  426.6686
 167  475.8405
 168  569.811
 169  556.444
 170  354.1493
 171  377.0033
 172  401.4586
 173  371.3165
 174  427.277
 175  365.208
 176  265.2885
 177  192.8542
 178  288.791
 179  344.0225
 180  343.7596
 181  363.6691
 182  401.5323
 183  382.5832
 184  326.2554
 185  364.5518
 186  408.9262
 187  351.557
 188  341.1765
 189  229.0241
 190  312.7056
 191  303.4417
 192  335.1469
 193  307.9892
 194  168.4962
 195  213.4237
 196  390.311
 197  451.9563
 198  405.5142
 199  525.3385
 200  467.5557
 201  441.2795
 202  328.5224
 203  435.0169
 204  380.0278
 205  431.7726
 206  400.3058
 207  490.7668
 208  419.6739
 209  514.587
 210  521.2534
 211  474.8261
 212  481.1594
 213  384.6216
 214  398.0986
 215  376.9079
 216  356.0126
 217  419.2438
 218  312.7607
 219  219.7103
 220  346.1707
 221  418.9702
 222  417.4398
 223  352.8474
 224  311.1191
 225  444.5545
 226  397.2529
 227  262.1609
 228  278.2785
 229  264.7012
 230  313.6169
 231  276.4237
 232  311.1048
 233  410.7309
 234  355.7618
 235  337.1755
 236  305.3874
 237  312.0855
 238  298.9626
 239  354.769
 240  264.8999
 241  286.7353
 242  423.0694
 243  457.5299
 244  467.118
 245  383.1468
 246  359.8769
 247  355.5175
 248  348.7024
 249  387.7796
 250  321.6678
 251  353.9956
 252  388.5118
 253  461.4163
 254  455.7463
 255  493.7524
 256  366.7027
 257  287.1961
 258  384.5834
 259  275.9207
 260  357.227
 261  333.1778
 262  273.9813
 263  311.2795
 264  414.4976
 265  460.6964
 266  445.7635
 267  387.1785
 268  348.8776
 269  313.8362
 270  523.661
 271  435.6014
 272  399.7538
 273  303.4302
 274  321.6955
 275  430.2436
 276  402.9947
 277  367.9191
 278  521.1638
 279  463.6626
 280  422.2803
 281  403.0881
 282  455.5533
 283  452.0959
 284  432.6539
 285  470.3077
 286  365.6246
 287  194.0037
 288  305.8209
 289  329.6777
 290  375.8054
 291  431.392
 292  291.7686
 293  398.3857
 294  451.7267
 295  397.9557
 296  269.8477
 297  228.4221
 298  201.8003
 299  367.4657
 300  342.9697
 301  171.5643
 302  161.9784
 303  173.934
 304  222.1237
 305  276.8309
 306  374.7146
 307  395.9873
 308  400.9927
 309  300.9908
 310  322.6538
 311  434.7203
 312  244.929
 313  207.1741
 314  292.8077
 315  269.9926
 316  171.4387
 317  303.4927
 318  316.3381
 319  208.1229
 320  346.4816
 321  413.0645
 322  369.2184
 323  259.9012
 324  293.1982
 325  246.557
 326  258.4928
 327  288.2434
 328  366.0084
 329  361.0811
 330  367.9607
 331  342.9444
 332  333.3506
 333  259.6672
 334  361.621
 335  379.7955
 336  335.7305
 337  381.6497
 338  454.8519
 339  472.3615
 340  341.2476
 341  327.0293
 342  384.5471
 343  347.6227
 344  360.7567
 345  346.3076
 346  331.7719
 347  383.3564
 348  292.4941
 349  182.4648
 350  316.3837
 351  269.1222
 352  230.8042
 353  189.8122
 354  190.736
 355  293.1557
 356  347.325
 357  387.8998
 358  366.5836
 359  344.1144
 360  307.5815
 361  377.287
 362  354.1928
 363  410.9023
 364  481.4691
 365  493.8647
 366  395.8499
 367  375.4141
 368  373.9431
 369  470.2545
 370  372.1404
 371  403.5436
 372  428.2961
 373  456.1408
 374  409.945
 375  440.2302
 376  337.6278
 377  362.1949
 378  277.4046
 379  343.4732
 380  376.6032
 381  443.2571
 382  385.7126
 383  396.6823
 384  428.0172
 385  270.041
 386  270.4384
 387  345.7899
 388  247.4176
 389  217.4919
 390  350.1775
 391  452.7997
 392  343.8379
 393  277.406
 394  374.8785
 395  360.7216
 396  307.1194
 397  317.64
 398  372.0104
 399  303.6631
 400  167.7332
 401  173.3931
 402  297.1355
 403  306.2542
 404  274.1825
 405  291.0291
 406  278.7691
 407  256.8407
 408  229.7132
 409  269.5869
 410  331.502
 411  330.4208
 412  503.7824
 413  488.1259
 414  433.9888
 415  468.5755
 416  431.384
 417  479.0837
 418  389.8415
 419  474.3544
 420  436.1165
 421  346.586
 422  428.456
 423  370.172
 424  299.681
 425  271.8041
 426  406.0754
 427  331.007
 428  243.1802
 429  174.535
 430  202.3118
 431  332.9855
 432  383.8012
 433  351.7138
 434  297.4541
 435  435.1204
 436  351.295
 437  307.7591
 438  300.9392
 439  325.3678
 440  298.949
 441  225.0503
 442  183.3911
 443  285.7538
 444  173.6341
 445  245.2757
 446  310.1599
 447  407.6707
 448  338.2541
 449  335.9383
 450  432.4158
 451  416.0228
 452  373.5395
 453  402.0999
 454  440.9438
 455  415.3995
 456  344.9656
 457  416.4104
 458  388.5406
 459  447.3423
 460  428.8972
 461  491.5817
 462  414.5307
 463  304.7415
 464  551.3596
 465  426.5302
 466  462.5304
 467  509.0017
 468  449.5607
 469  419.2206
 470  386.2254
 471  476.7733
 472  378.6881
 473  299.6628
 474  381.3638
 475  359.4732
 476  374.9414
 477  376.767
 478  348.2944
 479  327.5137
 480  266.1386
 481  292.4179
 482  242.4971
 483  326.7642
 484  444.8637
 485  439.304
 486  307.019
 487  204.4801
 488  242.7429
 489  397.4556
 490  406.1966
 491  187.5283
 492  259.4712
 493  406.7533
 494  305.4409
 495  328.903
 496  348.9593
 497  499.5706
 498  552.995
 499  467.1006
 500  486.8976
 501  485.1743
 502  439.3165
 503  461.315
 504  370.275
 505  272.7745
 506  286.6821
 507  374.2106
 508  469.7639
 509  425.0806
 510  415.0216
 511  258.7839
