# Input file       =  1180524139.099545_cleaned.dat
# Candidate        =  PSR_0332+5434
# Telescope        =  AR
# Epoch_topo       =  57907.474052078069
# Epoch_bary       =  N/A
# T_sample         =  0.002
# Data Folded      =  7340032
# Data Avg         =  0.125994822867921
# Data StdDev      =  9.39053611331834 
# Profile Bins     =  512
# Profile Avg      =  1806.28986494515 
# Profile StdDev   =  1124.35740205328 
# Reduced chi-sqr  =  1.077
# Prob(Noise)      <  0.112   (~1.2 sigma)
# P_topo (ms)      =  714.514510062705  +/- 0.00058
# P'_topo (s/s)    =  -0                +/- 3.06e-10
# P''_topo (s/s^2) =  0                 +/- 1.35e-13
# P_bary (ms)      =  N/A
# P'_bary (s/s)    =  N/A
# P''_bary (s/s^2) =  N/A
# P_orb (s)        =  N/A
# asin(i)/c (s)    =  N/A
# eccentricity     =  N/A
# w (rad)          =  N/A
# T_peri           =  N/A
######################################################
   0  2221.527
   1  1748.705
   2  1675.764
   3  1571.671
   4  1156.382
   5  936.8851
   6  661.1167
   7  863.9634
   8  931.0479
   9  437.7456
  10  562.1041
  11  607.1674
  12  822.3864
  13  814.3566
  14  993.2426
  15  1128.914
  16  1015.857
  17  1224.315
  18  563.2203
  19  704.9254
  20  795.7379
  21  -126.4335
  22  280.0167
  23  540.6726
  24  670.4496
  25  555.5555
  26  285.4963
  27  224.7379
  28  131.8042
  29  200.032
  30  165.2219
  31  -142.7923
  32  1024.525
  33  1129.552
  34  1094.776
  35  859.1047
  36  -94.00829
  37  106.1175
  38  136.9065
  39  1019.451
  40  840.2578
  41  1144.34
  42  1365.061
  43  1569.177
  44  1512.694
  45  1916.102
  46  2266.713
  47  2306.434
  48  2788.766
  49  2885.849
  50  1593.665
  51  1780.393
  52  1684.837
  53  975.9177
  54  1400.757
  55  2145.567
  56  2726.336
  57  3549.88
  58  3138.391
  59  3101.48
  60  2884.733
  61  2369.745
  62  2180.019
  63  2254.206
  64  2864.545
  65  2351.246
  66  1943.962
  67  1827.867
  68  1795.27
  69  1724.906
  70  1919.86
  71  1690.685
  72  1771.776
  73  1685.657
  74  1858.029
  75  1961.375
  76  1556.016
  77  1264.913
  78  1983.456
  79  2761.419
  80  2220.959
  81  2367.7
  82  2362.556
  83  1480.419
  84  1827.577
  85  2029.038
  86  1449.282
  87  1454.71
  88  2012.766
  89  1503.61
  90  1912.566
  91  2228.109
  92  942.9225
  93  1318.441
  94  1377.332
  95  1459.775
  96  1788.634
  97  2322.23
  98  2672.398
  99  2500.445
 100  2409.63
 101  2212.152
 102  1780.832
 103  1588.064
 104  2153.474
 105  2370.633
 106  1836.399
 107  1738.873
 108  1842.105
 109  2037.672
 110  1954.694
 111  1740.378
 112  2145.059
 113  1623.294
 114  1544.986
 115  1848.889
 116  1361.046
 117  1447.432
 118  1732.201
 119  896.4172
 120  1612.359
 121  1326.255
 122  306.6785
 123  853.9568
 124  1099.196
 125  908.2847
 126  929.6015
 127  659.6913
 128  300.8709
 129  527.6812
 130  646.1108
 131  1173.2
 132  1670.135
 133  1360.796
 134  1491.606
 135  1377.118
 136  921.3126
 137  1167.53
 138  1080.089
 139  846.4318
 140  970.0117
 141  984.8715
 142  923.4202
 143  1119.919
 144  1167.66
 145  1212.727
 146  1666.307
 147  1656.325
 148  1719.287
 149  1843.198
 150  1752.71
 151  1822.655
 152  1697.233
 153  1799.313
 154  1800.241
 155  1641.402
 156  1352.82
 157  1408.786
 158  1087.344
 159  1507.898
 160  1847.946
 161  1941.233
 162  2019.761
 163  1970.693
 164  2059.55
 165  2650.396
 166  1840.046
 167  1713.209
 168  2058.059
 169  1597.069
 170  1712.071
 171  2025.733
 172  1846.92
 173  1760.824
 174  2090.353
 175  1955.257
 176  2681.715
 177  3222.72
 178  3034.688
 179  3267.107
 180  3311.366
 181  3144.018
 182  3167.972
 183  3312.911
 184  3515.056
 185  3242.39
 186  2808.326
 187  2922.956
 188  2443.706
 189  2066.953
 190  1602.129
 191  1619.385
 192  1225.082
 193  1459.23
 194  1323.037
 195  1188.487
 196  765.7187
 197  1099.432
 198  1271.938
 199  938.5796
 200  542.9673
 201  599.4945
 202  1700.216
 203  1880.671
 204  2719.66
 205  2813.988
 206  3000.038
 207  2534.827
 208  2636.823
 209  1915.893
 210  1584.643
 211  2365.743
 212  2062.808
 213  1651.032
 214  1958.825
 215  1764.425
 216  1581.494
 217  2081.36
 218  2704.063
 219  2353.305
 220  2523.493
 221  2159.492
 222  1403.984
 223  1594.498
 224  1881.575
 225  2104.294
 226  2038.361
 227  1737.14
 228  1118.336
 229  1083.722
 230  1623.767
 231  1609.366
 232  1204.29
 233  999.0016
 234  1613.315
 235  1998.536
 236  1452.843
 237  895.1863
 238  1042.917
 239  1474.131
 240  1441.498
 241  1361.421
 242  887.2062
 243  1241.05
 244  1614.171
 245  1193.146
 246  1279.02
 247  1329.205
 248  1320.469
 249  1054.059
 250  925.1118
 251  564.5903
 252  555.671
 253  704.2746
 254  600.6202
 255  882.9413
 256  803.8831
 257  943.5494
 258  757.1216
 259  527.7007
 260  623.3722
 261  792.3171
 262  1002.145
 263  658.5944
 264  683.6235
 265  713.2335
 266  1204.11
 267  1132.047
 268  1290.045
 269  1358.069
 270  887.7091
 271  1021.056
 272  1852.254
 273  1424.324
 274  547.9591
 275  1215.736
 276  984.3864
 277  787.1363
 278  536.6851
 279  583.3523
 280  819.4578
 281  1070.115
 282  1019.502
 283  1207.612
 284  1156.652
 285  853.0353
 286  862.3206
 287  1311.268
 288  1211.237
 289  1283.206
 290  1954.564
 291  1672.4
 292  1095.8
 293  634.5562
 294  391.6044
 295  -87.47711
 296  614.8084
 297  897.4628
 298  1390.977
 299  1693.549
 300  1626.961
 301  907.7675
 302  1570.809
 303  2131.951
 304  1849.036
 305  2535.773
 306  2403.532
 307  1939.203
 308  2328.465
 309  1829.047
 310  1460.969
 311  2033.079
 312  1556.652
 313  1244.672
 314  1712.653
 315  1661.611
 316  1688.904
 317  2152.809
 318  1195.671
 319  1333.986
 320  2443.063
 321  1995.393
 322  2129.28
 323  2467.554
 324  2383.993
 325  2776.513
 326  2698.144
 327  3520.551
 328  4446.775
 329  3961.336
 330  3889.031
 331  3681.564
 332  3292.837
 333  2514.951
 334  2629.763
 335  3519.699
 336  3679.275
 337  3316.449
 338  4119.073
 339  2648.285
 340  2212.914
 341  2270.109
 342  1762.84
 343  1427.738
 344  1009.651
 345  1713.119
 346  2682.779
 347  2986.85
 348  2370.409
 349  2256.867
 350  1560.09
 351  1690.018
 352  1881.881
 353  1748.712
 354  1764.389
 355  1974.615
 356  1805.235
 357  1475.893
 358  1488.358
 359  1735.31
 360  1287.009
 361  861.774
 362  792.5933
 363  1028.384
 364  1516.467
 365  1395.913
 366  1798.801
 367  2156.083
 368  1595.903
 369  2694.416
 370  2909.03
 371  2776.79
 372  2347.793
 373  1649.34
 374  2408.957
 375  2403.135
 376  1847.618
 377  2292.349
 378  2381.482
 379  2088.485
 380  1908.028
 381  2067.568
 382  2317.932
 383  2136.033
 384  2315.716
 385  2099.96
 386  2053.134
 387  2140.082
 388  1950.83
 389  1541.066
 390  894.7543
 391  651.6493
 392  1277.358
 393  1876.298
 394  1407.525
 395  1446.121
 396  1570.734
 397  2010.119
 398  2069.915
 399  2472.578
 400  2930.19
 401  2746.975
 402  2664.73
 403  3146.6
 404  2896.611
 405  1968.678
 406  1920.336
 407  2397.663
 408  2311.736
 409  2259.985
 410  2560.517
 411  3241.918
 412  2647.32
 413  2095.688
 414  2199.623
 415  2368.407
 416  2534.568
 417  2297.086
 418  2292.934
 419  2547.501
 420  1540.575
 421  2056.208
 422  2405.145
 423  2706.04
 424  3571.051
 425  3410.752
 426  3075.259
 427  3003.333
 428  2977.143
 429  3402.063
 430  3398.628
 431  3783.543
 432  3594.949
 433  2603.001
 434  3085.143
 435  3167.085
 436  3283.887
 437  3727.201
 438  4110.864
 439  2896.835
 440  2645.555
 441  3840.681
 442  3672.078
 443  3048.664
 444  2823.281
 445  2014.935
 446  2319.311
 447  2486.916
 448  2756.037
 449  2496.226
 450  1898.094
 451  1891.492
 452  2117.73
 453  2037.958
 454  2173.637
 455  1530.569
 456  1689.297
 457  2100.457
 458  2726.982
 459  3417.451
 460  3102.616
 461  3397.223
 462  3258.723
 463  3215.196
 464  3312.543
 465  4324.981
 466  3832.111
 467  3236.597
 468  2649.509
 469  1713.461
 470  1703.509
 471  3181.583
 472  3318.127
 473  2378.271
 474  1698.421
 475  1094.162
 476  2042.763
 477  1740.786
 478  1926.651
 479  2349.09
 480  2180.039
 481  1774.171
 482  1960.868
 483  1962.968
 484  1864.888
 485  2146.78
 486  2613.843
 487  2663.346
 488  2632.01
 489  2213.751
 490  1937.672
 491  1914.574
 492  1693.295
 493  2004.719
 494  1709.932
 495  1493.137
 496  875.0081
 497  1318.885
 498  767.766
 499  776.4589
 500  1038.94
 501  1194.338
 502  1290.476
 503  1196.801
 504  272.361
 505  485.7621
 506  483.3313
 507  374.4788
 508  531.765
 509  975.5754
 510  2198.176
 511  1946.951
