# Input file       =  1180063718.097963-PSRB0329-2ms-sampling-dd.dat
# Candidate        =  PSR_0332+5434
# Telescope        =  AR
# Epoch_topo       =  57902.145105300500
# Epoch_bary       =  N/A
# T_sample         =  0.002
# Data Folded      =  7208960
# Data Avg         =  -4.96181134532583e-11
# Data StdDev      =  7.79262373933612 
# Profile Bins     =  512
# Profile Avg      =  0.0484927595854161
# Profile StdDev   =  924.666310178724 
# Reduced chi-sqr  =  0.850
# Prob(Noise)      <  0.994   (~0.0 sigma)
# P_topo (ms)      =  714.519373353958  +/- 0.000167
# P'_topo (s/s)    =  -0                +/- 8.99e-11
# P''_topo (s/s^2) =  0                 +/- 4.04e-14
# P_bary (ms)      =  N/A
# P'_bary (s/s)    =  N/A
# P''_bary (s/s^2) =  N/A
# P_orb (s)        =  N/A
# asin(i)/c (s)    =  N/A
# eccentricity     =  N/A
# w (rad)          =  N/A
# T_peri           =  N/A
######################################################
   0  313.89
   1  88.48018
   2  -4.899333
   3  167.3713
   4  -300.8841
   5  -604.3072
   6  287.2258
   7  476.328
   8  911.9373
   9  631.9306
  10  730.4637
  11  457.9937
  12  -59.01031
  13  -30.0116
  14  -167.9052
  15  48.65709
  16  422.0256
  17  529.2537
  18  98.77528
  19  -626.9589
  20  -62.19721
  21  -21.05766
  22  86.93875
  23  97.7112
  24  207.7513
  25  -320.2805
  26  -274.6339
  27  36.09015
  28  25.89077
  29  120.3777
  30  -324.0807
  31  -368.7979
  32  -271.3131
  33  335.7739
  34  305.3354
  35  117.253
  36  73.97457
  37  -0.3572082
  38  13.99429
  39  -408.2878
  40  -73.74506
  41  11.51739
  42  -3.465045
  43  76.97526
  44  240.5735
  45  276.5794
  46  -123.9805
  47  442.9586
  48  602.6371
  49  292.6445
  50  43.2271
  51  -169.4997
  52  -469.4348
  53  -774.1375
  54  -422.2117
  55  -566.0605
  56  -321.1773
  57  97.69748
  58  -58.46858
  59  168.4209
  60  289.979
  61  1076.204
  62  809.791
  63  981.6595
  64  383.7524
  65  421.0007
  66  224.6641
  67  90.76205
  68  552.845
  69  159.7159
  70  72.86935
  71  -43.61715
  72  -169.2931
  73  41.87764
  74  -287.7937
  75  -271.5775
  76  -527.7493
  77  156.4887
  78  540.0603
  79  337.221
  80  -122.006
  81  -23.12804
  82  226.3321
  83  -8.963515
  84  -32.05867
  85  -404.5119
  86  -343.7017
  87  -146.2474
  88  -217.3532
  89  -64.97113
  90  -9.931077
  91  -93.37941
  92  -305.5118
  93  -146.2173
  94  -352.5791
  95  -120.8028
  96  -45.48015
  97  -185.9516
  98  -307.8629
  99  -88.17606
 100  -215.2252
 101  -464.3604
 102  -131.5349
 103  -0.3859707
 104  235.9573
 105  -71.34367
 106  -146.5028
 107  134.8679
 108  -300.861
 109  -164.8439
 110  -226.8245
 111  -519.4622
 112  -145.1698
 113  -197.3308
 114  31.50999
 115  -249.3617
 116  -412.2659
 117  -482.5016
 118  -589.1539
 119  -689.9253
 120  -923.1187
 121  -327.6896
 122  -506.3189
 123  -497.6496
 124  -505.755
 125  -840.2964
 126  -560.6772
 127  -602.2899
 128  -510.7716
 129  -211.7951
 130  -279.2543
 131  -113.3336
 132  206.5299
 133  343.8328
 134  -40.94229
 135  -170.6531
 136  -672.7858
 137  -409.6612
 138  -651.3074
 139  -635.9741
 140  -380.1378
 141  -221.8139
 142  -140.1351
 143  224.7292
 144  832.2518
 145  455.2494
 146  191.8701
 147  515.1776
 148  595.6921
 149  837.5684
 150  1184.892
 151  1303.778
 152  1013.819
 153  389.8988
 154  326.0335
 155  -5.622624
 156  -217.2102
 157  -258.5389
 158  -632.6229
 159  -665.9913
 160  -652.7827
 161  -369.9585
 162  -403.8943
 163  -263.5667
 164  -369.5841
 165  -227.6042
 166  -216.259
 167  -293.4839
 168  -305.2498
 169  -230.4187
 170  -371.8955
 171  -338.9286
 172  86.31365
 173  6.562075
 174  634.7356
 175  925.8006
 176  1465.049
 177  1441.135
 178  1324.288
 179  1323.067
 180  1664.71
 181  1407.871
 182  1390.446
 183  1158.644
 184  855.4659
 185  735.9752
 186  459.8807
 187  44.06247
 188  -269.8917
 189  -538.8966
 190  -80.37114
 191  345.1809
 192  1048.29
 193  1396.501
 194  1402.257
 195  423.2672
 196  253.8219
 197  715.8331
 198  2535.313
 199  2380.63
 200  2561.987
 201  1860.53
 202  -84.45384
 203  -179.6852
 204  -338.7476
 205  -435.2077
 206  -378.3962
 207  -388.1835
 208  -227.2055
 209  135.271
 210  -127.0126
 211  -365.7443
 212  -190.4104
 213  -73.53458
 214  -320.125
 215  -82.19728
 216  5.566475
 217  62.57167
 218  -515.1042
 219  -1249.565
 220  -833.4474
 221  -957.6371
 222  -659.9037
 223  -799.0103
 224  -764.5174
 225  -367.0316
 226  -451.1408
 227  -47.20762
 228  650.1393
 229  851.59
 230  811.9127
 231  462.4756
 232  697.1126
 233  913.0701
 234  1766.036
 235  2060.615
 236  2174.783
 237  1755.362
 238  1072.428
 239  1305.424
 240  695.0203
 241  573.5751
 242  183.4024
 243  283.2218
 244  124.5016
 245  -255.1099
 246  -667.2274
 247  -590.3224
 248  -242.0294
 249  -254.7106
 250  402.4451
 251  -22.2273
 252  -230.0672
 253  -658.5136
 254  -797.7142
 255  -315.6947
 256  -273.2657
 257  30.63052
 258  -127.6153
 259  161.0166
 260  -390.2642
 261  -605.0007
 262  -188.5314
 263  -134.4149
 264  627.7874
 265  468.7427
 266  500.2973
 267  67.21156
 268  -594.3881
 269  -1106.674
 270  -1023.795
 271  -392.2531
 272  54.3429
 273  544.2039
 274  895.7172
 275  1044.215
 276  538.1276
 277  161.9739
 278  -84.32336
 279  33.52446
 280  334.0845
 281  735.519
 282  813.8742
 283  580.0377
 284  -45.25697
 285  -329.6781
 286  -379.3221
 287  -468.7992
 288  -731.0988
 289  -352.2576
 290  -659.3488
 291  -391.435
 292  -258.1923
 293  -1108.005
 294  -854.233
 295  -753.0677
 296  -448.7815
 297  -472.6109
 298  -74.49945
 299  -107.1884
 300  -286.0004
 301  -415.5883
 302  -1023.17
 303  -1235.619
 304  -1157.923
 305  -581.5421
 306  136.1855
 307  3.038201
 308  23.3382
 309  -246.3014
 310  -890.6872
 311  -892.8701
 312  -620.0234
 313  3.436392
 314  176.6778
 315  818.1556
 316  693.1963
 317  517.5977
 318  182.5176
 319  60.7141
 320  -544.6415
 321  -137.4956
 322  152.0788
 323  -235.5048
 324  -181.7872
 325  -586.4064
 326  20.09589
 327  -459.7224
 328  -572.8538
 329  -538.7433
 330  -318.4342
 331  511.3415
 332  310.3487
 333  606.0862
 334  -15.0236
 335  -859.4055
 336  -338.966
 337  -99.62703
 338  564.4944
 339  492.9996
 340  908.7111
 341  143.6764
 342  -275.2115
 343  -224.8122
 344  -620.8153
 345  -621.3245
 346  -467.2917
 347  316.1393
 348  633.1606
 349  854.7525
 350  318.9472
 351  -54.09502
 352  -749.2618
 353  -1583.139
 354  -511.4636
 355  28.00463
 356  370.9221
 357  249.4073
 358  241.4534
 359  -844.0675
 360  -1124.781
 361  -581.4009
 362  -925.578
 363  -537.9615
 364  -491.638
 365  -100.5417
 366  -404.9544
 367  -783.3892
 368  -860.8647
 369  -1058.847
 370  -655.2637
 371  -648.7905
 372  -270.984
 373  -214.5939
 374  -288.328
 375  -272.3386
 376  -456.8445
 377  -698.5751
 378  -978.0667
 379  -310.7877
 380  399.9345
 381  1021.411
 382  -368.6466
 383  -346.1488
 384  -475.053
 385  -915.1295
 386  -1045.587
 387  -1022.671
 388  -785.7386
 389  210.6699
 390  693.3023
 391  904.948
 392  192.2867
 393  548.5339
 394  588.6663
 395  859.8691
 396  1099.659
 397  652.701
 398  839.2115
 399  1078.768
 400  1668.935
 401  1050.508
 402  116.9773
 403  -668.9197
 404  -300.1331
 405  -539.7617
 406  -141.2188
 407  -29.519
 408  -73.79195
 409  257.2813
 410  -262.3876
 411  -122.9626
 412  -98.84615
 413  -436.1116
 414  -477.26
 415  -768.821
 416  -583.4644
 417  -1005.311
 418  -633.6614
 419  -780.449
 420  -746.8931
 421  -384.3709
 422  -1105.765
 423  -387.9246
 424  -634.9903
 425  -459.179
 426  -238.7805
 427  9.817991
 428  -120.9067
 429  -104.547
 430  461.1056
 431  240.1847
 432  269.4568
 433  213.6607
 434  738.3357
 435  892.5844
 436  728.7383
 437  734.2867
 438  533.6561
 439  535.5274
 440  643.302
 441  953.5433
 442  1069.961
 443  457.2999
 444  520.6326
 445  954.6025
 446  1223.168
 447  905.8313
 448  1220.606
 449  1450.468
 450  390.1988
 451  73.09425
 452  -277.8115
 453  -59.62259
 454  157.79
 455  331.3356
 456  473.869
 457  276.2966
 458  224.9812
 459  -11.40823
 460  193.3912
 461  -163.91
 462  17.18889
 463  57.16948
 464  305.6047
 465  775.8779
 466  728.3513
 467  768.3333
 468  323.6464
 469  1.170121
 470  -844.5353
 471  -498.9731
 472  -78.30775
 473  -108.6661
 474  -156.8717
 475  -406.0861
 476  -297.2181
 477  -365.2983
 478  0.8995432
 479  -228.758
 480  -488.4924
 481  -517.1949
 482  -518.217
 483  -715.9783
 484  -908.4866
 485  -638.5974
 486  -235.9491
 487  -397.5282
 488  -703.0145
 489  -887.7749
 490  -54.11977
 491  -234.87
 492  -485.4855
 493  -55.31871
 494  -304.6335
 495  -729.9202
 496  -898.1512
 497  -116.9074
 498  -206.0719
 499  -163.7365
 500  -234.4428
 501  -475.7949
 502  -562.1459
 503  -729.8306
 504  -982.319
 505  -592.8068
 506  -361.0977
 507  -68.17682
 508  417.1877
 509  201.2669
 510  163.6587
 511  388.0504
