# Input file       =  1180696444.113249_cleaned.dat
# Candidate        =  PSR_0332+5434
# Telescope        =  AR
# Epoch_topo       =  57909.468323070010
# Epoch_bary       =  N/A
# T_sample         =  0.002
# Data Folded      =  7340032
# Data Avg         =  0.026757418012566
# Data StdDev      =  1.00004512763663 
# Profile Bins     =  512
# Profile Avg      =  383.659211556606 
# Profile StdDev   =  119.738439645724 
# Reduced chi-sqr  =  1.166
# Prob(Noise)      <  0.00552   (~2.5 sigma)
# P_topo (ms)      =  714.512582822015  +/- 0.000313
# P'_topo (s/s)    =  -0                +/- 1.65e-10
# P''_topo (s/s^2) =  0                 +/- 7.3e-14
# P_bary (ms)      =  N/A
# P'_bary (s/s)    =  N/A
# P''_bary (s/s^2) =  N/A
# P_orb (s)        =  N/A
# asin(i)/c (s)    =  N/A
# eccentricity     =  N/A
# w (rad)          =  N/A
# T_peri           =  N/A
######################################################
   0  291.3683
   1  328.7578
   2  425.4491
   3  533.2476
   4  485.4977
   5  346.3124
   6  275.8486
   7  261.1765
   8  334.5042
   9  355.6181
  10  427.3651
  11  359.276
  12  302.0266
  13  316.4694
  14  340.8596
  15  411.9729
  16  428.3172
  17  355.6774
  18  470.4182
  19  429.3296
  20  411.3888
  21  455.6352
  22  479.4103
  23  382.9863
  24  417.899
  25  477.7781
  26  572.2406
  27  555.0799
  28  388.468
  29  321.7995
  30  322.746
  31  351.3105
  32  315.2053
  33  396.9989
  34  460.4739
  35  368.8685
  36  302.2162
  37  325.3552
  38  381.8369
  39  461.8933
  40  363.0029
  41  385.3518
  42  355.2701
  43  351.8504
  44  380.9142
  45  433.1852
  46  460.3273
  47  423.3061
  48  366.6991
  49  426.4343
  50  367.7555
  51  402.6492
  52  448.1959
  53  411.417
  54  349.9298
  55  484.906
  56  472.0451
  57  343.1912
  58  419.623
  59  488.1342
  60  417.3493
  61  529.2164
  62  508.8882
  63  401.1687
  64  500.6198
  65  672.0848
  66  596.6726
  67  538.4858
  68  406.1185
  69  419.2726
  70  455.1289
  71  571.0667
  72  560.2377
  73  446.484
  74  531.2787
  75  570.1599
  76  387.3765
  77  318.6807
  78  377.5769
  79  385.71
  80  394.7314
  81  439.1673
  82  561.9954
  83  422.4012
  84  345.7997
  85  348.1016
  86  510.888
  87  496.8847
  88  600.6033
  89  510.9368
  90  488.5194
  91  376.8221
  92  310.5119
  93  314.7463
  94  361.4831
  95  371.7771
  96  324.4001
  97  314.1431
  98  329.4807
  99  431.2911
 100  345.1795
 101  347.7162
 102  420.1138
 103  374.003
 104  423.619
 105  368.5908
 106  384.5216
 107  402.389
 108  483.5197
 109  500.5119
 110  429.2336
 111  477.0068
 112  496.9779
 113  532.5134
 114  506.3978
 115  511.7076
 116  429.943
 117  396.3762
 118  397.7207
 119  338.7043
 120  310.3287
 121  345.9491
 122  410.7899
 123  395.9849
 124  446.3696
 125  523.0317
 126  497.5226
 127  357.8695
 128  388.1317
 129  393.817
 130  425.9074
 131  439.0131
 132  496.08
 133  439.2766
 134  383.3913
 135  408.5095
 136  385.0043
 137  475.432
 138  385.241
 139  408.7581
 140  573.9888
 141  515.424
 142  443.3652
 143  473.2232
 144  466.8806
 145  436.5952
 146  481.3642
 147  517.8174
 148  383.2141
 149  337.356
 150  325.611
 151  374.9522
 152  408.587
 153  433.3592
 154  403.2422
 155  415.577
 156  469.1324
 157  478.9153
 158  458.9202
 159  340.4203
 160  261.4859
 161  350.7009
 162  400.175
 163  259.7197
 164  233.2249
 165  397.0216
 166  346.5487
 167  314.407
 168  319.3923
 169  177.0787
 170  251.3555
 171  226.6016
 172  186.0419
 173  223.6455
 174  220.1014
 175  382.6166
 176  404.4831
 177  311.0389
 178  326.171
 179  282.8436
 180  304.4342
 181  344.9391
 182  306.1506
 183  393.2559
 184  452.2903
 185  335.1383
 186  262.3453
 187  210.2075
 188  216.4634
 189  319.282
 190  274.0886
 191  327.8507
 192  444.0726
 193  310.7681
 194  235.4982
 195  369.0782
 196  441.7958
 197  433.2493
 198  476.8824
 199  436.7956
 200  350.6776
 201  256.659
 202  171.3317
 203  159.7576
 204  169.261
 205  260.1894
 206  257.7343
 207  216.4449
 208  290.8143
 209  350.1325
 210  375.0575
 211  295.6167
 212  292.1496
 213  293.7533
 214  241.5876
 215  336.0222
 216  396.6988
 217  393.3444
 218  278.9485
 219  247.9901
 220  294.7248
 221  339.4786
 222  209.3177
 223  217.5658
 224  345.599
 225  393.9837
 226  307.4006
 227  332.0591
 228  422.8261
 229  265.6596
 230  391.3011
 231  448.6655
 232  421.7771
 233  496.5585
 234  472.5919
 235  450.0397
 236  546.132
 237  486.0107
 238  372.7135
 239  299.0827
 240  354.6398
 241  459.6402
 242  493.8435
 243  511.0493
 244  464.7373
 245  351.0821
 246  456.8154
 247  489.156
 248  612.9434
 249  750.8624
 250  733.2928
 251  695.1722
 252  616.4258
 253  475.4103
 254  380.2423
 255  385.6087
 256  432.9294
 257  458.1029
 258  394.6779
 259  270.4997
 260  169.0526
 261  199.7448
 262  284.5957
 263  313.8365
 264  377.7569
 265  440.8356
 266  430.9579
 267  340.2206
 268  251.4098
 269  367.4336
 270  466.6514
 271  395.1776
 272  340.5207
 273  337.886
 274  217.7224
 275  270.4428
 276  307.3743
 277  408.3967
 278  344.3354
 279  402.685
 280  484.4261
 281  444.5248
 282  446.3835
 283  383.8003
 284  313.6984
 285  487.2079
 286  483.9807
 287  384.1385
 288  420.4174
 289  344.7041
 290  435.3287
 291  400.3938
 292  466.4451
 293  390.4439
 294  249.0273
 295  381.1573
 296  362.9454
 297  335.1995
 298  346.7211
 299  436.6051
 300  404.1656
 301  232.6713
 302  250.0295
 303  241.4238
 304  451.9092
 305  379.8332
 306  303.3481
 307  211.6044
 308  255.7525
 309  316.7747
 310  300.4817
 311  320.0502
 312  312.8272
 313  202.4106
 314  245.8346
 315  336.7301
 316  224.523
 317  218.7272
 318  286.1523
 319  332.5637
 320  393.4795
 321  333.5467
 322  411.8438
 323  316.7308
 324  307.9814
 325  415.9491
 326  320.0191
 327  393.1668
 328  452.2013
 329  329.7378
 330  356.9406
 331  428.3897
 332  398.446
 333  308.5618
 334  387.7397
 335  384.0432
 336  232.5509
 337  324.7888
 338  323.1615
 339  247.4426
 340  329.4483
 341  343.0534
 342  213.5002
 343  200.3437
 344  221.9477
 345  319.8303
 346  347.4312
 347  281.8546
 348  288.3191
 349  375.679
 350  236.5143
 351  337.2113
 352  271.7386
 353  288.6453
 354  293.8676
 355  257.3188
 356  375.0912
 357  289.4224
 358  372.5814
 359  608.9847
 360  420.1459
 361  332.2632
 362  440.7022
 363  376.4757
 364  329.3866
 365  335.493
 366  379.5322
 367  486.814
 368  440.2736
 369  536.2336
 370  438.4779
 371  385.69
 372  317.6427
 373  324.2554
 374  343.7204
 375  410.9637
 376  434.2331
 377  369.9374
 378  397.8451
 379  319.3315
 380  375.8847
 381  273.5684
 382  243.822
 383  326.7173
 384  259.7197
 385  220.1674
 386  399.3084
 387  321.278
 388  264.482
 389  357.3331
 390  228.5615
 391  123.9498
 392  247.3242
 393  304.9437
 394  450.7029
 395  367.3633
 396  256.842
 397  380.7397
 398  288.536
 399  353.3387
 400  330.5909
 401  256.0166
 402  287.2807
 403  381.7628
 404  423.3041
 405  352.231
 406  379.0987
 407  538.7683
 408  527.8862
 409  405.1511
 410  439.81
 411  495.6732
 412  412.6823
 413  376.6273
 414  446.5613
 415  388.4688
 416  303.6817
 417  394.6666
 418  360.0424
 419  457.8982
 420  375.1975
 421  341.8333
 422  363.3091
 423  388.7093
 424  426.6673
 425  519.8077
 426  400.1843
 427  298.9991
 428  296.8596
 429  436.3626
 430  360.4097
 431  327.6591
 432  333.3216
 433  367.2253
 434  425.9417
 435  386.4317
 436  466.3783
 437  413.5681
 438  364.7608
 439  345.7349
 440  370.3179
 441  440.1468
 442  463.3509
 443  456.6335
 444  387.1388
 445  353.9031
 446  479.8328
 447  525.0546
 448  477.6381
 449  432.7461
 450  431.5768
 451  435.1204
 452  414.4006
 453  484.4929
 454  549.4682
 455  459.5062
 456  441.1632
 457  377.1734
 458  355.0121
 459  360.4727
 460  455.2424
 461  405.3024
 462  490.2008
 463  366.9081
 464  371.3146
 465  417.9005
 466  390.9932
 467  363.8326
 468  383.3075
 469  437.0753
 470  218.2843
 471  176.695
 472  300.0378
 473  328.148
 474  401.6526
 475  371.3758
 476  344.1508
 477  409.2306
 478  397.2757
 479  363.8216
 480  353.6544
 481  439.8046
 482  440.6678
 483  304.2765
 484  333.6785
 485  361.3484
 486  480.4794
 487  629.0546
 488  639.4576
 489  521.1279
 490  394.0406
 491  413.553
 492  340.1105
 493  298.0851
 494  396.8437
 495  464.1326
 496  419.9291
 497  617.1613
 498  657.8439
 499  549.3331
 500  492.043
 501  328.0366
 502  402.0877
 503  373.3885
 504  315.5142
 505  390.0728
 506  455.7123
 507  541.0513
 508  477.3597
 509  532.7708
 510  420.5206
 511  352.3495
