# Input file       =  1180494576.107471_cleaned.dat
# Candidate        =  PSR_0332+5434
# Telescope        =  AR
# Epoch_topo       =  57907.131887817952
# Epoch_bary       =  N/A
# T_sample         =  0.002
# Data Folded      =  7208960
# Data Avg         =  0.0275419613658919
# Data StdDev      =  1.00017598888524 
# Profile Bins     =  512
# Profile Avg      =  387.742415021253 
# Profile StdDev   =  118.680058489602 
# Reduced chi-sqr  =  0.895
# Prob(Noise)      <  0.957   (~0.0 sigma)
# P_topo (ms)      =  714.514494070374  +/- 0.000656
# P'_topo (s/s)    =  -0                +/- 3.53e-10
# P''_topo (s/s^2) =  0                 +/- 1.59e-13
# P_bary (ms)      =  N/A
# P'_bary (s/s)    =  N/A
# P''_bary (s/s^2) =  N/A
# P_orb (s)        =  N/A
# asin(i)/c (s)    =  N/A
# eccentricity     =  N/A
# w (rad)          =  N/A
# T_peri           =  N/A
######################################################
   0  769.9912
   1  734.9993
   2  654.3115
   3  441.923
   4  355.9579
   5  340.115
   6  288.7654
   7  384.2948
   8  366.9584
   9  288.7312
  10  353.763
  11  418.2481
  12  508.73
  13  485.2361
  14  535.0111
  15  477.8077
  16  523.4988
  17  464.196
  18  411.2777
  19  391.4074
  20  320.2118
  21  386.4604
  22  243.1538
  23  324.0114
  24  244.172
  25  416.3911
  26  466.8006
  27  342.4911
  28  254.7446
  29  262.4757
  30  230.3925
  31  286.9706
  32  374.4128
  33  353.7787
  34  368.5086
  35  389.1102
  36  325.9248
  37  277.6694
  38  324.0421
  39  363.3277
  40  367.7571
  41  406.6977
  42  405.3487
  43  419.7462
  44  421.1257
  45  343.2298
  46  474.7883
  47  493.7597
  48  374.8083
  49  392.9368
  50  518.2292
  51  485.2597
  52  427.329
  53  404.4542
  54  367.9908
  55  444.47
  56  400.8691
  57  394.2065
  58  454.7142
  59  460.4961
  60  426.3849
  61  461.1867
  62  359.2039
  63  311.1167
  64  446.2574
  65  485.249
  66  368.85
  67  353.1277
  68  348.5805
  69  326.7664
  70  396.0403
  71  333.3035
  72  296.9696
  73  303.179
  74  431.1531
  75  478.619
  76  368.6128
  77  308.92
  78  363.5123
  79  361.9782
  80  324.4191
  81  286.2925
  82  352.46
  83  393.6681
  84  397.6978
  85  385.3264
  86  474.1387
  87  479.0304
  88  480.3925
  89  510.2857
  90  441.8008
  91  380.0385
  92  406.7798
  93  417.3253
  94  440.999
  95  376.8307
  96  430.3641
  97  472.7152
  98  438.1471
  99  365.7427
 100  380.1438
 101  415.6314
 102  382.9231
 103  485.8302
 104  331.5441
 105  369.2641
 106  359.6594
 107  380.7389
 108  353.7567
 109  350.2325
 110  336.1382
 111  368.3476
 112  446.8653
 113  271.4546
 114  338.1142
 115  458.6863
 116  346.3616
 117  269.0281
 118  361.854
 119  350.4217
 120  212.8961
 121  378.7892
 122  379.1932
 123  332.7824
 124  269.5071
 125  339.7386
 126  315.0221
 127  320.7394
 128  319.7955
 129  337.8651
 130  267.863
 131  399.624
 132  383.6601
 133  437.2079
 134  352.567
 135  305.6317
 136  377.8585
 137  321.1067
 138  417.6875
 139  465.7423
 140  352.9025
 141  308.3199
 142  345.8716
 143  394.9853
 144  343.6962
 145  385.7954
 146  419.3892
 147  370.7383
 148  449.2226
 149  437.3513
 150  445.9596
 151  391.6443
 152  403.9544
 153  254.84
 154  320.8528
 155  379.3791
 156  385.7216
 157  380.531
 158  271.4672
 159  302.7298
 160  400.4397
 161  395.0668
 162  378.4818
 163  380.0839
 164  407.9757
 165  466.032
 166  413.4962
 167  437.9816
 168  502.4305
 169  424.1028
 170  465.1447
 171  507.6533
 172  490.0277
 173  502.3979
 174  367.1471
 175  398.6119
 176  326.6453
 177  324.2932
 178  318.6895
 179  356.469
 180  272.5744
 181  355.6226
 182  526.4515
 183  374.9709
 184  260.2223
 185  273.0958
 186  321.7858
 187  330.7501
 188  298.72
 189  369.008
 190  354.032
 191  488.4497
 192  547.3486
 193  472.6646
 194  369.1234
 195  332.0867
 196  358.9729
 197  375.1938
 198  475.3512
 199  504.2769
 200  447.1949
 201  467.2838
 202  381.1165
 203  319.0318
 204  350.4359
 205  435.2777
 206  351.6495
 207  283.9971
 208  318.311
 209  343.0826
 210  366.5065
 211  466.4958
 212  352.3841
 213  289.1366
 214  370.4258
 215  408.7105
 216  369.4222
 217  325.9239
 218  387.4526
 219  324.7436
 220  359.0002
 221  362.6821
 222  381.115
 223  402.6133
 224  249.9262
 225  196.8572
 226  277.5753
 227  385.3875
 228  474.9581
 229  429.1219
 230  452.8654
 231  521.7995
 232  412.7854
 233  370.1701
 234  375.2835
 235  355.1974
 236  390.8268
 237  401.0825
 238  387.358
 239  433.1333
 240  398.1611
 241  381.3033
 242  372.5384
 243  338.304
 244  391.2066
 245  316.2261
 246  428.7217
 247  369.1003
 248  439.6099
 249  383.108
 250  362.2744
 251  401.0308
 252  481.355
 253  505.2746
 254  512.4135
 255  491.2892
 256  478.0154
 257  494.3655
 258  455.8173
 259  458.887
 260  482.1339
 261  538.3575
 262  563.869
 263  478.8463
 264  416.9597
 265  448.2908
 266  407.8618
 267  340.3512
 268  450.4597
 269  632.4772
 270  571.5419
 271  408.5156
 272  367.5303
 273  373.3607
 274  341.6109
 275  407.0457
 276  489.8044
 277  449.4653
 278  459.2192
 279  423.2017
 280  510.6725
 281  460.2738
 282  464.1024
 283  448.858
 284  377.4634
 285  364.5522
 286  358.5544
 287  415.1813
 288  396.0338
 289  295.1388
 290  415.9499
 291  406.4082
 292  265.143
 293  348.2509
 294  322.6246
 295  295.8163
 296  336.9021
 297  388.9068
 298  246.9512
 299  273.5716
 300  377.6638
 301  294.0864
 302  267.7482
 303  302.7155
 304  324.2201
 305  459.665
 306  492.4029
 307  490.6548
 308  450.688
 309  343.2193
 310  271.8543
 311  406.9372
 312  324.4033
 313  311.7733
 314  424.778
 315  509.1932
 316  532.5963
 317  428.5265
 318  396.9818
 319  361.464
 320  370.6153
 321  375.943
 322  386.2117
 323  436.5316
 324  372.0639
 325  399.219
 326  436.2307
 327  369.9035
 328  384.5475
 329  382.3559
 330  365.764
 331  456.7009
 332  555.2097
 333  435.7094
 334  450.4901
 335  439.4145
 336  452.0581
 337  461.7916
 338  349.8774
 339  391.9337
 340  369.8773
 341  417.5388
 342  393.8052
 343  399.1066
 344  378.811
 345  370.9404
 346  337.0988
 347  353.6452
 348  406.8269
 349  426.528
 350  492.8678
 351  377.1921
 352  387.9044
 353  425.4407
 354  372.3628
 355  309.0565
 356  383.8625
 357  409.2925
 358  254.6462
 359  372.8758
 360  386.7636
 361  442.2041
 362  464.033
 363  389.2557
 364  421.7344
 365  411.1038
 366  338.4472
 367  401.4324
 368  283.4427
 369  288.4397
 370  427.6423
 371  352.2363
 372  293.5569
 373  307.779
 374  211.404
 375  286.3764
 376  352.8604
 377  307.8452
 378  328.2645
 379  364.1306
 380  350.2417
 381  338.1392
 382  230.4414
 383  408.4262
 384  356.1226
 385  223.298
 386  173.0605
 387  188.5762
 388  343.6494
 389  332.2245
 390  253.0669
 391  308.764
 392  246.3357
 393  299.5132
 394  231.7992
 395  235.997
 396  200.7457
 397  307.2641
 398  299.0948
 399  304.1923
 400  393.4965
 401  389.7194
 402  228.271
 403  224.8498
 404  302.2975
 405  326.364
 406  368.8677
 407  362.0678
 408  345.4223
 409  280.5943
 410  315.3356
 411  311.5274
 412  313.1211
 413  350.2419
 414  375.6901
 415  376.3945
 416  422.6616
 417  320.5358
 418  350.8267
 419  371.2473
 420  402.3865
 421  342.08
 422  378.1305
 423  361.9536
 424  350.7893
 425  291.1572
 426  324.4231
 427  458.9288
 428  407.2074
 429  395.0238
 430  381.2353
 431  333.3044
 432  287.3578
 433  398.2797
 434  354.9901
 435  328.0323
 436  355.5028
 437  404.5486
 438  317.3044
 439  327.1428
 440  354.8081
 441  327.9402
 442  314.9405
 443  298.5466
 444  301.9556
 445  365.1946
 446  441.3346
 447  390.8995
 448  362.9717
 449  394.615
 450  411.2028
 451  331.7903
 452  389.4439
 453  530.2274
 454  550.4745
 455  514.1456
 456  450.2672
 457  417.7633
 458  493.5534
 459  354.2718
 460  267.0287
 461  415.5416
 462  424.2341
 463  378.3252
 464  306.7424
 465  278.7744
 466  281.8135
 467  239.8054
 468  362.5315
 469  399.4107
 470  368.2691
 471  334.3713
 472  369.4241
 473  306.1106
 474  338.8041
 475  416.8723
 476  376.666
 477  458.0811
 478  383.9604
 479  451.0269
 480  437.1326
 481  426.3049
 482  497.0381
 483  428.0176
 484  435.798
 485  410.0992
 486  468.297
 487  506.6609
 488  462.1855
 489  451.6726
 490  428.0378
 491  495.0236
 492  601.9244
 493  577.3315
 494  539.58
 495  448.38
 496  503.8924
 497  439.8922
 498  427.9524
 499  442.5161
 500  392.5093
 501  481.8488
 502  426.3359
 503  501.8385
 504  432.5145
 505  456.5369
 506  462.0924
 507  404.1805
 508  479.2649
 509  649.5773
 510  734.5801
 511  784.8875
