# Input file       =  1180954929.103668_cleaned.dat
# Candidate        =  PSR_0332+5434
# Telescope        =  AR
# Epoch_topo       =  57912.460047496155
# Epoch_bary       =  N/A
# T_sample         =  0.002
# Data Folded      =  7340032
# Data Avg         =  0.127677789262504
# Data StdDev      =  3.5096408098049  
# Profile Bins     =  512
# Profile Avg      =  1830.40671271328 
# Profile StdDev   =  420.219950749753 
# Reduced chi-sqr  =  1.663
# Prob(Noise)      <  2.7e-19   (~8.9 sigma)
# P_topo (ms)      =  714.509719118825  +/- 0.000134
# P'_topo (s/s)    =  -0                +/- 7.09e-11
# P''_topo (s/s^2) =  0                 +/- 3.13e-14
# P_bary (ms)      =  N/A
# P'_bary (s/s)    =  N/A
# P''_bary (s/s^2) =  N/A
# P_orb (s)        =  N/A
# asin(i)/c (s)    =  N/A
# eccentricity     =  N/A
# w (rad)          =  N/A
# T_peri           =  N/A
######################################################
   0  1926.756
   1  1806.78
   2  1555.008
   3  1669.848
   4  1590.027
   5  1535.66
   6  1632.684
   7  1684.37
   8  1483.07
   9  1290.035
  10  1485.474
  11  1439.404
  12  1228.564
  13  1290.368
  14  1008.264
  15  1077.732
  16  1150.723
  17  1440.96
  18  1247.465
  19  1101.949
  20  1134.159
  21  1055.76
  22  1406.919
  23  1461.275
  24  1177.775
  25  1537.78
  26  1813.686
  27  1436.241
  28  1760.707
  29  1641.242
  30  1921.157
  31  2058.391
  32  2041.603
  33  2209.773
  34  2185.332
  35  2085.001
  36  1992.069
  37  2265.592
  38  2221.264
  39  2618.45
  40  2527.828
  41  2521.878
  42  2531.769
  43  2526.587
  44  2434.298
  45  2665.413
  46  2442.678
  47  2221.604
  48  2124.454
  49  2183.733
  50  2016.665
  51  2351.667
  52  2150.323
  53  1623.81
  54  1376.825
  55  1189.582
  56  1274.758
  57  1692.322
  58  1737.272
  59  1770.144
  60  1601.263
  61  1839.92
  62  1559.067
  63  1233.484
  64  1596.482
  65  1558.869
  66  1681.419
  67  1726.119
  68  1875.604
  69  1601.454
  70  1598.786
  71  1871.849
  72  1919.639
  73  1794.226
  74  1935.553
  75  2001.943
  76  1728.627
  77  1867.725
  78  1875.905
  79  1879.389
  80  2005.129
  81  2075.159
  82  1875.061
  83  2088.089
  84  1986.222
  85  2116.023
  86  2105.629
  87  2084.489
  88  2130.763
  89  1860.73
  90  1813.439
  91  2145.647
  92  2012.066
  93  1923.512
  94  1892.499
  95  1887.382
  96  1615.894
  97  1825.791
  98  1696.245
  99  1965.229
 100  1865.134
 101  1701.02
 102  1677.193
 103  1824.85
 104  1819.556
 105  1950.316
 106  2064.894
 107  2220.239
 108  1931.223
 109  1802.659
 110  1780.788
 111  1532.443
 112  1869.918
 113  1835.24
 114  1726.84
 115  1874.577
 116  1715.79
 117  1506.273
 118  1680.608
 119  2013.093
 120  2116.709
 121  2190.728
 122  2062.118
 123  1938.051
 124  1928.5
 125  2108.496
 126  2410.517
 127  2368.053
 128  1980.369
 129  2075.337
 130  2394.688
 131  2191.995
 132  2181.523
 133  2140.415
 134  2309.143
 135  1836.829
 136  1478.474
 137  1530.1
 138  1497.589
 139  1611.672
 140  1735.442
 141  1614.405
 142  1381.649
 143  1283.117
 144  1612.539
 145  1536.756
 146  1636.912
 147  1591.073
 148  1577.963
 149  1586.226
 150  1470.782
 151  1988.171
 152  1989.699
 153  1909.67
 154  2049.661
 155  2287.515
 156  2615.177
 157  2486.366
 158  2106.568
 159  2170.723
 160  2245.081
 161  2306.352
 162  2508.349
 163  2861.756
 164  2721.617
 165  2538.581
 166  2537.564
 167  2347.589
 168  2346.359
 169  2542.767
 170  2282.551
 171  2467.301
 172  2595.021
 173  2532.706
 174  2144.204
 175  1900.887
 176  1670.66
 177  1495.582
 178  1704.806
 179  1804.886
 180  1880.863
 181  1633.318
 182  1573.217
 183  1373.592
 184  1714.398
 185  1680.207
 186  1428.501
 187  1382.574
 188  1407.286
 189  1049.407
 190  1158.202
 191  1254.63
 192  1626.566
 193  1469.061
 194  1211.514
 195  1574.277
 196  1457.329
 197  1644.249
 198  1706.112
 199  1703.025
 200  1624.276
 201  2034.314
 202  2076.965
 203  2055.718
 204  2081.717
 205  2104.796
 206  1832.359
 207  1874.86
 208  2129.497
 209  2052.035
 210  1919.212
 211  2048.944
 212  2108.92
 213  2141.344
 214  2528.42
 215  2341.757
 216  2174.905
 217  2044.564
 218  2185.676
 219  2045.398
 220  2123.13
 221  2067.768
 222  2149.496
 223  2094.725
 224  1906.494
 225  1484.069
 226  1725.816
 227  1783.773
 228  1688.219
 229  1687.152
 230  1478.137
 231  1526.697
 232  1470.263
 233  1658.704
 234  1768.25
 235  1889.545
 236  1805.073
 237  1644.2
 238  1737.963
 239  1457.13
 240  1279.037
 241  1290.836
 242  1787.785
 243  1664.461
 244  1417.731
 245  1830.642
 246  1649.412
 247  1757.01
 248  1860.539
 249  1494.062
 250  1514.216
 251  1522.831
 252  1774.238
 253  1930.702
 254  2130.264
 255  1994.442
 256  1733.105
 257  1644.178
 258  1714.52
 259  2027.526
 260  2051.282
 261  1657.376
 262  1525.002
 263  1433.786
 264  1499.35
 265  1556.526
 266  1256.24
 267  1011.963
 268  1018.85
 269  1234.052
 270  1228.389
 271  1072.35
 272  1058.404
 273  1286.768
 274  1482.054
 275  1369.483
 276  1438.43
 277  1306.556
 278  1543.461
 279  1182.382
 280  917.7338
 281  1169.656
 282  1784.508
 283  1847.236
 284  1698.081
 285  1635.956
 286  1912.312
 287  2260.718
 288  2292.405
 289  1820.073
 290  1917.043
 291  1621.546
 292  1843.793
 293  2089.977
 294  2379.865
 295  2287.476
 296  2377.426
 297  2100.527
 298  1954.051
 299  2106.589
 300  2172.196
 301  2272.419
 302  2306.527
 303  2191.626
 304  1959.791
 305  1806.108
 306  1596.455
 307  1740.861
 308  1684.427
 309  1806.674
 310  2073.031
 311  1850.447
 312  1636.646
 313  1629.777
 314  1424.308
 315  1814.269
 316  1881.136
 317  1786.751
 318  2011.269
 319  1898.495
 320  1896.704
 321  1607.895
 322  1647.957
 323  1589.171
 324  1583.461
 325  1632.368
 326  1868.289
 327  1866.712
 328  1909.636
 329  1910.5
 330  1875.928
 331  2168.749
 332  1919.461
 333  2190.615
 334  2009.427
 335  2402.459
 336  2678.278
 337  3308.548
 338  3877.384
 339  3858.387
 340  3465.569
 341  3141.179
 342  2703.356
 343  2579.229
 344  2474.183
 345  2279.956
 346  1931.61
 347  2169.363
 348  2011.811
 349  1692.552
 350  1628.243
 351  1710.28
 352  1615.743
 353  1950.267
 354  1908.691
 355  1760.345
 356  1623.54
 357  1609.735
 358  1609.266
 359  1598.299
 360  1629.105
 361  1859.603
 362  1966.295
 363  1576.43
 364  1564.653
 365  1301.82
 366  1580.891
 367  1785.393
 368  2074.948
 369  1842.173
 370  1888.23
 371  1969.898
 372  2083.458
 373  1755.028
 374  1780.662
 375  2363.826
 376  2231.296
 377  1872.145
 378  1811.251
 379  1963.349
 380  2185.604
 381  2391.777
 382  2538.908
 383  2176.565
 384  2312.672
 385  1783.039
 386  1707.37
 387  2079.602
 388  1822.141
 389  1900.696
 390  1788.292
 391  1593.616
 392  1701.942
 393  1624.081
 394  1884.95
 395  1865.751
 396  1686.315
 397  1454.868
 398  1473.467
 399  1846.717
 400  1817.012
 401  1822.578
 402  1893.491
 403  1707.217
 404  1479.606
 405  1631.494
 406  1637.28
 407  1959.379
 408  1978.002
 409  2297.362
 410  2024.422
 411  2051.593
 412  2027.062
 413  1590.427
 414  1582.085
 415  1772.757
 416  1924.669
 417  1760.82
 418  1183.931
 419  1263.715
 420  1781.948
 421  1615.422
 422  1935.384
 423  2294.438
 424  2162.428
 425  2145.692
 426  2094.085
 427  2250.54
 428  2322.019
 429  1778.74
 430  1804.95
 431  1590.399
 432  1459.387
 433  1377.65
 434  1728.55
 435  1931.243
 436  1565.545
 437  1494.431
 438  1379.153
 439  1483.298
 440  1293.369
 441  1365.508
 442  1238.598
 443  1387.659
 444  1222.844
 445  1014.029
 446  1142.306
 447  1360.075
 448  1451.532
 449  1633.29
 450  1306.521
 451  1295.806
 452  1405.83
 453  1440.974
 454  1793.725
 455  1696.367
 456  1328.632
 457  988.8094
 458  1382.758
 459  1658.688
 460  1894.151
 461  1966.598
 462  2031.975
 463  1914.582
 464  1919.128
 465  2014.802
 466  2428.919
 467  2536.643
 468  2237.611
 469  2306.615
 470  2111.02
 471  2329.105
 472  2258.481
 473  2160.189
 474  2034.86
 475  2273.366
 476  2474.034
 477  2084.255
 478  1597.015
 479  2013.189
 480  1521.962
 481  1145.302
 482  1669.812
 483  1654.655
 484  1843.825
 485  1735.362
 486  1360.318
 487  1274.476
 488  1537.427
 489  1686.168
 490  1772.099
 491  1698.525
 492  1552.195
 493  1299.073
 494  1723.147
 495  1958.295
 496  1653.104
 497  1913.022
 498  1627.62
 499  1368.988
 500  1386.656
 501  1515.259
 502  1565.875
 503  2133.049
 504  2159.691
 505  1793.096
 506  1643.646
 507  1666.578
 508  2334.21
 509  1861.188
 510  1768.363
 511  1681.934
