# Input file       =  1180853821.116358_cleaned.dat
# Candidate        =  PSR_0332+5434
# Telescope        =  AR
# Epoch_topo       =  57911.289816161552
# Epoch_bary       =  N/A
# T_sample         =  0.002
# Data Folded      =  7340032
# Data Avg         =  0.0365716886715573
# Data StdDev      =  1.0000584909576  
# Profile Bins     =  512
# Profile Avg      =  524.304982663226 
# Profile StdDev   =  119.74003967672  
# Reduced chi-sqr  =  0.959
# Prob(Noise)      <  0.741   (~0.0 sigma)
# P_topo (ms)      =  714.510500674968  +/- 0.000359
# P'_topo (s/s)    =  -0                +/- 1.9e-10
# P''_topo (s/s^2) =  0                 +/- 8.37e-14
# P_bary (ms)      =  N/A
# P'_bary (s/s)    =  N/A
# P''_bary (s/s^2) =  N/A
# P_orb (s)        =  N/A
# asin(i)/c (s)    =  N/A
# eccentricity     =  N/A
# w (rad)          =  N/A
# T_peri           =  N/A
######################################################
   0  449.5229
   1  487.2057
   2  594.1484
   3  642.1953
   4  501.0286
   5  403.9699
   6  452.2865
   7  432.8512
   8  491.275
   9  514.5181
  10  597.1157
  11  568.0587
  12  519.0975
  13  511.5487
  14  407.2133
  15  492.1196
  16  450.2093
  17  492.4909
  18  492.1681
  19  452.7113
  20  471.2349
  21  408.7914
  22  541.8997
  23  563.6471
  24  502.9439
  25  486.3854
  26  432.6413
  27  405.1279
  28  332.5866
  29  387.1444
  30  360.3715
  31  483.5575
  32  529.5741
  33  520.1772
  34  527.981
  35  498.8321
  36  534.7284
  37  593.7264
  38  542.1378
  39  562.8513
  40  641.3856
  41  652.3664
  42  538.4332
  43  450.8648
  44  587.4598
  45  500.8411
  46  496.3823
  47  578.7079
  48  588.5029
  49  625.6824
  50  533.5762
  51  503.9233
  52  494.5894
  53  533.0062
  54  459.1454
  55  494.5527
  56  494.9239
  57  485.3575
  58  456.9765
  59  477.2215
  60  585.6595
  61  596.1773
  62  454.6762
  63  532.6712
  64  563.6891
  65  521.9525
  66  624.1572
  67  553.1468
  68  617.5198
  69  507.422
  70  457.4156
  71  525.5822
  72  510.5778
  73  584.8763
  74  581.7542
  75  494.4566
  76  589.166
  77  527.8292
  78  529.3875
  79  678.8342
  80  711.6449
  81  542.5175
  82  428.7514
  83  542.3176
  84  624.7539
  85  567.6144
  86  573.1777
  87  505.6544
  88  496.9966
  89  555.5089
  90  530.0232
  91  552.8135
  92  633.0781
  93  613.4011
  94  571.378
  95  583.0681
  96  548.1544
  97  587.6118
  98  537.5014
  99  522.0382
 100  536.3292
 101  519.1628
 102  470.1411
 103  449.9661
 104  483.3671
 105  440.1045
 106  442.4443
 107  475.6843
 108  516.397
 109  470.3418
 110  457.769
 111  516.9783
 112  510.7594
 113  520.0723
 114  563.9245
 115  544.8842
 116  521.4163
 117  507.2015
 118  512.074
 119  478.6018
 120  500.1558
 121  439.2183
 122  415.9564
 123  355.0698
 124  555.8601
 125  564.1935
 126  579.2592
 127  507.1451
 128  489.7328
 129  492.2311
 130  439.9896
 131  462.9773
 132  491.2695
 133  494.1036
 134  384.7754
 135  439.9374
 136  504.2407
 137  531.0104
 138  492.9651
 139  486.1278
 140  453.6663
 141  617.6655
 142  575.4383
 143  601.9515
 144  569.7906
 145  494.3266
 146  511.8724
 147  514.3867
 148  514.2502
 149  491.3368
 150  488.2981
 151  447.9793
 152  472.1747
 153  381.646
 154  514.6243
 155  446.061
 156  485.066
 157  449.4374
 158  449.8848
 159  451.6882
 160  476.2729
 161  507.375
 162  471.0686
 163  542.9559
 164  517.2073
 165  435.5462
 166  482.0896
 167  582.3832
 168  688.9153
 169  554.1241
 170  471.9894
 171  510.1286
 172  576.9509
 173  532.0745
 174  416.61
 175  321.8965
 176  378.0522
 177  509.9689
 178  585.7848
 179  505.276
 180  455.8003
 181  605.7855
 182  558.6489
 183  549.4698
 184  627.8961
 185  803.1603
 186  891.709
 187  906.0823
 188  1001.183
 189  1029.847
 190  810.9366
 191  496.2491
 192  474.3338
 193  575.9655
 194  424.4797
 195  399.7172
 196  441.0449
 197  493.6368
 198  477.6099
 199  543.1672
 200  578.5352
 201  557.9183
 202  496.7456
 203  509.0914
 204  601.6826
 205  561.4523
 206  478.6298
 207  489.4645
 208  527.8253
 209  427.1499
 210  479.7675
 211  468.457
 212  376.808
 213  375.8963
 214  492.2166
 215  444.1965
 216  370.214
 217  339.9104
 218  407.2391
 219  429.8481
 220  427.5504
 221  449.9295
 222  408.0214
 223  394.7387
 224  384.9213
 225  486.4573
 226  536.1475
 227  472.8549
 228  461.2841
 229  519.7203
 230  610.7413
 231  484.8334
 232  390.5422
 233  501.8987
 234  505.3372
 235  513.9307
 236  582.848
 237  626.203
 238  479.0927
 239  517.3492
 240  496.7513
 241  419.5269
 242  413.879
 243  536.8307
 244  501.2006
 245  523.7327
 246  523.0897
 247  488.4011
 248  510.3034
 249  502.4429
 250  539.7637
 251  576.3602
 252  607.5784
 253  507.4721
 254  433.4568
 255  407.8433
 256  508.1402
 257  622.4558
 258  665.7637
 259  580.5956
 260  535.6027
 261  500.7424
 262  497.5697
 263  490.3226
 264  540.9362
 265  597.931
 266  609.7645
 267  580.8388
 268  513.8106
 269  582.8307
 270  499.1764
 271  508.9415
 272  559.5648
 273  567.9158
 274  533.5137
 275  508.8428
 276  684.7883
 277  597.3727
 278  494.6076
 279  511.9291
 280  563.9915
 281  621.9595
 282  474.5317
 283  508.6047
 284  573.6436
 285  505.0935
 286  520.9466
 287  565.876
 288  501.8654
 289  393.558
 290  440.5645
 291  453.5126
 292  452.6325
 293  382.2016
 294  563.4461
 295  488.5562
 296  550.1011
 297  505.2329
 298  560.3955
 299  493.4315
 300  368.9207
 301  371.5559
 302  485.8579
 303  468.9624
 304  562.9597
 305  511.6423
 306  512.0216
 307  555.7842
 308  530.3547
 309  453.9755
 310  546.0823
 311  674.3683
 312  623.8827
 313  600.0569
 314  500.1202
 315  572.7042
 316  588.045
 317  518.5726
 318  428.9658
 319  496.7161
 320  522.3433
 321  446.4748
 322  392.8755
 323  545.2111
 324  546.685
 325  503.3868
 326  515.7765
 327  437.6833
 328  485.4913
 329  512.5074
 330  539.6569
 331  513.1427
 332  507.2873
 333  487.6381
 334  514.9833
 335  453.1797
 336  430.9247
 337  481.7722
 338  512.9244
 339  515.6729
 340  481.2569
 341  490.9946
 342  560.261
 343  491.8618
 344  511.4852
 345  485.9139
 346  549.3375
 347  518.3738
 348  466.6869
 349  531.6699
 350  450.4905
 351  446.6701
 352  487.6366
 353  451.7982
 354  431.3813
 355  426.0533
 356  448.0882
 357  487.3083
 358  488.2285
 359  485.0576
 360  516.8164
 361  452.561
 362  428.2134
 363  467.6732
 364  465.0323
 365  520.4375
 366  498.1296
 367  544.5013
 368  528.6074
 369  336.4827
 370  329.7329
 371  471.6705
 372  543.5521
 373  613.3629
 374  513.5002
 375  356.4262
 376  472.809
 377  429.5771
 378  529.6882
 379  550.314
 380  508.1248
 381  536.8524
 382  558.4395
 383  604.5181
 384  618.2704
 385  552.6512
 386  548.7567
 387  654.6329
 388  713.0446
 389  696.2786
 390  618.1829
 391  708.1366
 392  595.8178
 393  520.295
 394  484.5981
 395  674.2109
 396  614.9876
 397  564.3531
 398  702.6277
 399  637.1318
 400  609.6016
 401  598.0554
 402  671.8145
 403  672.4835
 404  606.6862
 405  616.2529
 406  667.0176
 407  530.9775
 408  513.1267
 409  565.3091
 410  721.1387
 411  705.0734
 412  550.2989
 413  567.832
 414  639.9426
 415  564.6548
 416  614.4256
 417  650.025
 418  634.6178
 419  506.9335
 420  567.3277
 421  578.3244
 422  510.0343
 423  500.4965
 424  518.5967
 425  546.557
 426  561.441
 427  621.344
 428  585.3501
 429  601.9997
 430  627.3137
 431  678.7961
 432  731.601
 433  654.2134
 434  643.1212
 435  583.9161
 436  556.4798
 437  522.8689
 438  439.8224
 439  460.5951
 440  623.1426
 441  651.0949
 442  636.9617
 443  505.456
 444  524.0711
 445  555.0563
 446  628.5041
 447  768.0237
 448  706.3756
 449  589.3633
 450  495.995
 451  551.9111
 452  638.7456
 453  527.3747
 454  491.5117
 455  517.3178
 456  590.1658
 457  633.4967
 458  520.9845
 459  414.2936
 460  416.1584
 461  526.6282
 462  418.383
 463  413.809
 464  477.5468
 465  535.5144
 466  506.7382
 467  351.6858
 468  419.3972
 469  584.3651
 470  539.4204
 471  549.9681
 472  542.5309
 473  518.5335
 474  555.6064
 475  675.5739
 476  602.7913
 477  571.0313
 478  565.916
 479  673.5405
 480  495.9238
 481  454.3874
 482  586.2189
 483  537.3911
 484  510.406
 485  501.0768
 486  483.5671
 487  531.0886
 488  447.2005
 489  503.8717
 490  503.6833
 491  468.868
 492  503.808
 493  483.3092
 494  557.5398
 495  434.4529
 496  466.3034
 497  588.2388
 498  513.9821
 499  511.9034
 500  443.9932
 501  431.7875
 502  587.0502
 503  551.1459
 504  634.681
 505  525.1298
 506  450.393
 507  451.8211
 508  390.0252
 509  463.9474
 510  427.2714
 511  487.6235
