# Input file       =  1180408342.103741_cleaned.dat
# Candidate        =  PSR_0332+5434
# Telescope        =  AR
# Epoch_topo       =  57906.133809071078
# Epoch_bary       =  N/A
# T_sample         =  0.002
# Data Folded      =  7208960
# Data Avg         =  0.031162900927539
# Data StdDev      =  1.0001075023988  
# Profile Bins     =  512
# Profile Avg      =  438.728704561902 
# Profile StdDev   =  118.671931939568 
# Reduced chi-sqr  =  1.058
# Prob(Noise)      <  0.177   (~0.9 sigma)
# P_topo (ms)      =  714.51546588899   +/- 0.000461
# P'_topo (s/s)    =  -0                +/- 2.47e-10
# P''_topo (s/s^2) =  0                 +/- 1.11e-13
# P_bary (ms)      =  N/A
# P'_bary (s/s)    =  N/A
# P''_bary (s/s^2) =  N/A
# P_orb (s)        =  N/A
# asin(i)/c (s)    =  N/A
# eccentricity     =  N/A
# w (rad)          =  N/A
# T_peri           =  N/A
######################################################
   0  392.6263
   1  438.8288
   2  519.2562
   3  445.6386
   4  491.4167
   5  504.7904
   6  446.0242
   7  471.8158
   8  551.0023
   9  595.8748
  10  562.8732
  11  418.5912
  12  367.6538
  13  476.0456
  14  515.6948
  15  386.1169
  16  377.1173
  17  442.2977
  18  607.8455
  19  521.162
  20  423.9737
  21  488.6751
  22  542.3573
  23  563.9705
  24  502.1772
  25  541.2304
  26  494.8188
  27  554.4662
  28  396.7412
  29  366.2433
  30  449.7499
  31  488.0334
  32  387.1301
  33  388.9038
  34  346.3993
  35  342.1198
  36  497.9042
  37  492.434
  38  405.2312
  39  430.1382
  40  367.1679
  41  368.0047
  42  339.3138
  43  403.3723
  44  418.1235
  45  354.9512
  46  385.5571
  47  354.8372
  48  414.8521
  49  405.5747
  50  431.7085
  51  331.6181
  52  367.328
  53  422.5283
  54  503.203
  55  409.1039
  56  427.718
  57  493.3282
  58  438.729
  59  432.4186
  60  471.8585
  61  482.4232
  62  466.6254
  63  498.6837
  64  446.4371
  65  437.3756
  66  519.6453
  67  449.9031
  68  376.8005
  69  346.3369
  70  368.2657
  71  369.4383
  72  435.0571
  73  350.4612
  74  333.6671
  75  437.3216
  76  462.2092
  77  439.8001
  78  458.7986
  79  429.6551
  80  498.7925
  81  512.0133
  82  537.7415
  83  492.2984
  84  440.7861
  85  418.835
  86  528.8108
  87  458.5375
  88  437.9145
  89  561.6783
  90  573.7483
  91  584.0885
  92  459.3795
  93  396.7481
  94  462.0305
  95  406.852
  96  461.631
  97  470.8587
  98  487.274
  99  466.8849
 100  546.3197
 101  482.5384
 102  495.9481
 103  402.1732
 104  497.7803
 105  508.6185
 106  441.1039
 107  449.5571
 108  485.6289
 109  391.6721
 110  396.5118
 111  610.4524
 112  662.6032
 113  462.3403
 114  367.5046
 115  369.064
 116  357.8477
 117  396.3188
 118  348.733
 119  385.826
 120  447.9869
 121  458.0732
 122  523.4086
 123  480.9621
 124  376.7633
 125  415.2068
 126  356.0029
 127  325.3129
 128  403.4228
 129  462.6002
 130  616.9432
 131  468.547
 132  555.2858
 133  561.9123
 134  512.053
 135  489.0998
 136  550.4717
 137  502.5848
 138  454.5885
 139  423.3051
 140  501.0583
 141  483.3076
 142  476.2857
 143  504.7432
 144  378.7808
 145  495.1956
 146  486.1613
 147  535.6646
 148  636.8984
 149  535.7277
 150  485.6237
 151  525.148
 152  550.6216
 153  576.0594
 154  556.328
 155  478.7589
 156  500.8394
 157  501.3571
 158  549.1008
 159  486.2233
 160  451.9147
 161  359.5429
 162  458.0086
 163  434.4576
 164  412.6297
 165  448.9018
 166  434.7836
 167  461.8674
 168  407.1462
 169  489.7886
 170  584.163
 171  485.8296
 172  501.5745
 173  517.5887
 174  401.143
 175  352.3202
 176  518.2131
 177  570.3696
 178  504.4042
 179  515.4938
 180  698.9726
 181  896.7435
 182  889.5685
 183  936.6841
 184  803.7524
 185  570.5832
 186  590.7328
 187  519.0675
 188  337.8277
 189  316.4106
 190  407.1032
 191  403.6942
 192  328.308
 193  471.4725
 194  504.59
 195  406.1211
 196  458.5958
 197  364.5607
 198  369.9261
 199  368.2929
 200  391.8351
 201  393.6124
 202  406.7542
 203  446.786
 204  495.9554
 205  495.9192
 206  415.241
 207  499.6029
 208  473.676
 209  475.5583
 210  417.0482
 211  396.2764
 212  418.9698
 213  451.6287
 214  450.3094
 215  518.403
 216  410.7719
 217  427.8533
 218  470.8058
 219  459.2787
 220  518.2816
 221  538.9857
 222  512.7508
 223  500.0944
 224  561.556
 225  633.4674
 226  608.0134
 227  525.2574
 228  507.3153
 229  470.8236
 230  555.0362
 231  532.5587
 232  614.9023
 233  468.8675
 234  502.5556
 235  457.4002
 236  591.6379
 237  488.0092
 238  418.7203
 239  453.1495
 240  489.9666
 241  410.469
 242  473.0571
 243  459.2289
 244  453.2689
 245  418.3531
 246  483.5297
 247  462.0527
 248  585.4017
 249  495.0741
 250  460.2595
 251  429.0497
 252  290.4097
 253  292.2153
 254  499.2084
 255  544.1682
 256  511.0667
 257  386.3089
 258  470.4042
 259  434.6975
 260  390.5435
 261  437.8027
 262  551.3025
 263  506.9629
 264  327.0379
 265  384.7471
 266  356.125
 267  364.6139
 268  385.3314
 269  451.7263
 270  460.3241
 271  334.7252
 272  350.8751
 273  314.532
 274  279.0369
 275  312.2924
 276  368.268
 277  407.5969
 278  325.8516
 279  284.8228
 280  345.3434
 281  388.7508
 282  366.4042
 283  505.4494
 284  538.4789
 285  522.2701
 286  368.5436
 287  204.6292
 288  329.4636
 289  432.0579
 290  422.7256
 291  347.7402
 292  352.1392
 293  333.1768
 294  394.9999
 295  431.2879
 296  372.463
 297  409.7232
 298  391.3569
 299  367.273
 300  315.3132
 301  372.5945
 302  451.7819
 303  473.2856
 304  513.7645
 305  517.1684
 306  529.5507
 307  411.9355
 308  494.7144
 309  464.7412
 310  492.9497
 311  490.1193
 312  446.0997
 313  365.8083
 314  436.3966
 315  537.5306
 316  478.3306
 317  470.5309
 318  506.9208
 319  463.4773
 320  385.3964
 321  477.8184
 322  401.6115
 323  392.7911
 324  424.0841
 325  435.6491
 326  566.8712
 327  513.8487
 328  361.7405
 329  258.9024
 330  371.2363
 331  535.9575
 332  413.7929
 333  472.2839
 334  432.4832
 335  378.5139
 336  402.1556
 337  402.1624
 338  412.6481
 339  465.7131
 340  375.8361
 341  483.5906
 342  654.2741
 343  447.3965
 344  305.3683
 345  389.8754
 346  415.4474
 347  453.1555
 348  429.9767
 349  351.1782
 350  244.1474
 351  399.8388
 352  518.3389
 353  316.2489
 354  331.3095
 355  362.9741
 356  336.5133
 357  311.8761
 358  345.5589
 359  417.7929
 360  395.1729
 361  478.4274
 362  451.6854
 363  384.5894
 364  373.8016
 365  420.4461
 366  472.2797
 367  495.3225
 368  393.8661
 369  468.0046
 370  418.2589
 371  423.6628
 372  377.0742
 373  385.3285
 374  484.3199
 375  430.4702
 376  382.3599
 377  393.7712
 378  409.3837
 379  424.0822
 380  447.2501
 381  384.1626
 382  382.0552
 383  360.6146
 384  364.8455
 385  341.7586
 386  378.0859
 387  500.3152
 388  596.7348
 389  505.4349
 390  443.1228
 391  470.2886
 392  460.2899
 393  394.2165
 394  322.8308
 395  453.7005
 396  452.6805
 397  445.5665
 398  572.2903
 399  590.7786
 400  555.4965
 401  455.5658
 402  417.5475
 403  370.6165
 404  353.1603
 405  307.224
 406  315.2527
 407  310.9228
 408  330.9896
 409  323.1298
 410  333.8065
 411  441.3855
 412  399.4562
 413  423.8233
 414  455.2779
 415  367.2458
 416  367.7871
 417  307.2215
 418  400.5199
 419  376.0589
 420  303.4121
 421  345.0457
 422  322.0835
 423  241.4843
 424  395.7948
 425  422.4336
 426  432.0165
 427  476.3731
 428  444.4085
 429  413.53
 430  391.9152
 431  514.6302
 432  559.9994
 433  492.6774
 434  481.343
 435  483.3709
 436  490.2374
 437  528.6584
 438  574.8369
 439  592.0348
 440  477.7802
 441  422.3784
 442  533.7698
 443  392.0715
 444  409.8951
 445  546.4411
 446  441.6249
 447  366.4232
 448  466.2324
 449  476.9668
 450  544.4529
 451  441.1066
 452  284.0429
 453  249.0991
 454  294.3529
 455  361.7278
 456  371.6823
 457  344.744
 458  338.8601
 459  399.2893
 460  245.2024
 461  281.7184
 462  367.5245
 463  432.7206
 464  446.8463
 465  371.154
 466  405.5775
 467  431.6902
 468  302.8309
 469  410.2309
 470  486.3374
 471  451.6045
 472  510.4691
 473  526.8091
 474  464.6001
 475  312.2598
 476  409.9478
 477  340.7834
 478  366.4327
 479  368.7505
 480  362.3764
 481  362.6763
 482  350.1134
 483  442.3422
 484  370.0705
 485  242.6707
 486  337.462
 487  301.4757
 488  300.9865
 489  388.1624
 490  388.6347
 491  417.4084
 492  317.7507
 493  275.077
 494  281.6798
 495  413.7187
 496  323.5974
 497  274.5087
 498  354.82
 499  407.6218
 500  288.2271
 501  278.5797
 502  364.5413
 503  421.2564
 504  412.4452
 505  412.8117
 506  483.972
 507  542.3463
 508  495.8402
 509  365.2176
 510  347.7802
 511  303.7895
