# Input file       =  1180007091.099125_cleaned.dat
# Candidate        =  PSR_0332+5434
# Telescope        =  AR
# Epoch_topo       =  57901.489700221355
# Epoch_bary       =  N/A
# T_sample         =  0.002
# Data Folded      =  7340032
# Data Avg         =  0.028038038842485
# Data StdDev      =  1.00005625216176 
# Profile Bins     =  512
# Profile Avg      =  401.933208681123 
# Profile StdDev   =  119.739771618896 
# Reduced chi-sqr  =  1.109
# Prob(Noise)      <  0.0443   (~1.7 sigma)
# P_topo (ms)      =  714.520364603035  +/- 0.000401
# P'_topo (s/s)    =  -0                +/- 2.12e-10
# P''_topo (s/s^2) =  0                 +/- 9.34e-14
# P_bary (ms)      =  N/A
# P'_bary (s/s)    =  N/A
# P''_bary (s/s^2) =  N/A
# P_orb (s)        =  N/A
# asin(i)/c (s)    =  N/A
# eccentricity     =  N/A
# w (rad)          =  N/A
# T_peri           =  N/A
######################################################
   0  488.9694
   1  527.5366
   2  467.4875
   3  368.9951
   4  372.5877
   5  410.079
   6  359.3835
   7  313.1318
   8  283.7493
   9  281.8567
  10  311.5119
  11  335.5812
  12  191.7427
  13  328.6482
  14  443.028
  15  423.2112
  16  319.9553
  17  330.0477
  18  380.4425
  19  405.3814
  20  344.6978
  21  338.9319
  22  391.1628
  23  397.3492
  24  385.3953
  25  353.7083
  26  399.4511
  27  413.1443
  28  473.9131
  29  405.6444
  30  293.7423
  31  244.0539
  32  395.4336
  33  396.8235
  34  400.0641
  35  410.5543
  36  340.3541
  37  409.7672
  38  549.574
  39  580.4444
  40  743.6987
  41  831.299
  42  917.8558
  43  883.2908
  44  817.9058
  45  756.4276
  46  586.3124
  47  539.3966
  48  537.1893
  49  630.3935
  50  555.5771
  51  434.187
  52  452.2497
  53  550.3996
  54  471.2224
  55  431.2093
  56  352.2331
  57  503.6078
  58  499.5783
  59  508.2798
  60  519.1555
  61  483.3918
  62  446.7
  63  453.2867
  64  427.6818
  65  325.9741
  66  303.9951
  67  326.895
  68  417.8707
  69  509.403
  70  454.8212
  71  427.7339
  72  411.3725
  73  410.3762
  74  451.3451
  75  422.3844
  76  335.9715
  77  249.3831
  78  377.4789
  79  420.1659
  80  378.7754
  81  428.8906
  82  476.2422
  83  480.3018
  84  467.1251
  85  504.0297
  86  398.2908
  87  354.9637
  88  474.026
  89  625.468
  90  440.5706
  91  429.2015
  92  441.8044
  93  400.2798
  94  380.0281
  95  333.1656
  96  277.0149
  97  117.6699
  98  295.5558
  99  417.195
 100  447.3885
 101  496.0681
 102  480.4779
 103  284.1773
 104  326.4878
 105  414.8943
 106  386.2546
 107  316.1721
 108  382.3895
 109  435.0515
 110  307.3532
 111  365.0766
 112  445.3958
 113  511.5966
 114  397.473
 115  356.4814
 116  362.642
 117  254.3247
 118  321.8502
 119  370.1725
 120  372.588
 121  315.1474
 122  312.902
 123  433.4938
 124  385.1625
 125  378.0648
 126  309.6772
 127  299.1173
 128  478.5882
 129  462.4036
 130  341.1978
 131  287.8251
 132  332.1058
 133  340.9924
 134  382.8569
 135  379.956
 136  411.4778
 137  446.1249
 138  485.291
 139  447.8253
 140  419.3602
 141  426.2164
 142  420.8091
 143  460.1262
 144  380.7944
 145  300.9291
 146  333.1066
 147  347.6661
 148  341.4404
 149  460.2162
 150  517.6848
 151  310.7406
 152  345.8801
 153  404.2368
 154  452.2513
 155  377.9344
 156  434.9824
 157  397.9162
 158  456.305
 159  317.02
 160  395.8281
 161  478.8117
 162  390.533
 163  465.0247
 164  466.9316
 165  470.9889
 166  498.0808
 167  533.8608
 168  441.3906
 169  434.2367
 170  494.1195
 171  543.9463
 172  522.1927
 173  423.9081
 174  438.1363
 175  422.9398
 176  443.586
 177  317.3161
 178  395.6108
 179  381.2138
 180  430.0385
 181  441.7644
 182  435.7587
 183  362.5832
 184  285.4192
 185  442.1584
 186  509.8361
 187  474.7402
 188  460.8327
 189  394.4461
 190  428.6438
 191  438.9438
 192  403.0023
 193  385.3949
 194  353.2527
 195  312.9098
 196  321.1779
 197  183.0932
 198  233.5038
 199  369.5475
 200  281.1879
 201  353.3271
 202  334.0455
 203  231.2106
 204  223.4532
 205  217.6576
 206  278.5969
 207  311.4303
 208  535.748
 209  446.1716
 210  480.821
 211  415.1982
 212  349.1836
 213  331.4018
 214  474.4414
 215  528.17
 216  509.7828
 217  481.4932
 218  365.4945
 219  302.7013
 220  404.6141
 221  393.2483
 222  192.3124
 223  259.6251
 224  352.6228
 225  391.0847
 226  386.1421
 227  293.0612
 228  313.3857
 229  441.459
 230  519.2421
 231  384.3229
 232  329.2934
 233  416.7523
 234  472.3402
 235  461.8289
 236  360.0154
 237  428.9311
 238  493.7644
 239  515.5317
 240  432.1797
 241  518.4178
 242  448.393
 243  322.7695
 244  241.1603
 245  192.927
 246  277.3658
 247  454.9786
 248  410.2581
 249  379.5706
 250  388.0914
 251  475.4799
 252  434.298
 253  396.0441
 254  354.1503
 255  332.3139
 256  364.8591
 257  439.8255
 258  485.955
 259  376.1537
 260  308.5352
 261  399.0815
 262  537.48
 263  426.2141
 264  400.4304
 265  459.9262
 266  498.3619
 267  407.5773
 268  460.1363
 269  451.5988
 270  461.4918
 271  337.7136
 272  400.2722
 273  333.5966
 274  151.6326
 275  297.5363
 276  374.5049
 277  426.2578
 278  314.5459
 279  366.8994
 280  288.864
 281  288.0019
 282  420.9667
 283  429.9828
 284  552.8576
 285  458.9216
 286  278.0695
 287  299.1741
 288  432.5424
 289  461.1024
 290  497.4349
 291  485.1331
 292  327.1444
 293  432.9551
 294  328.3177
 295  424.7993
 296  440.6842
 297  328.8947
 298  391.9223
 299  390.8601
 300  399.3538
 301  308.3428
 302  320.9303
 303  426.3559
 304  438.0291
 305  336.5001
 306  349.1018
 307  498.0224
 308  493.455
 309  371.5019
 310  308.4696
 311  316.4159
 312  403.1521
 313  463.0663
 314  421.2292
 315  362.8079
 316  380.1311
 317  311.5934
 318  412.6813
 319  418.8447
 320  446.4949
 321  371.6392
 322  333.5273
 323  298.0805
 324  405.5847
 325  395.1902
 326  324.7843
 327  274.161
 328  279.8417
 329  290.4144
 330  390.4942
 331  467.2744
 332  429.5559
 333  368.4508
 334  257.1617
 335  281.3674
 336  229.6085
 337  282.1263
 338  451.579
 339  435.8405
 340  484.7727
 341  440.6356
 342  387.7021
 343  460.6896
 344  334.2816
 345  361.6488
 346  384.6521
 347  449.3007
 348  423.4893
 349  459.1408
 350  516.9818
 351  478.7994
 352  527.5385
 353  518.6132
 354  463.7379
 355  503.1687
 356  456.3229
 357  497.9337
 358  507.0076
 359  377.5353
 360  387.5443
 361  306.5576
 362  295.8998
 363  349.1096
 364  445.1199
 365  443.012
 366  431.1531
 367  382.0669
 368  378.1697
 369  268.7646
 370  288.8966
 371  523.2885
 372  418.3466
 373  341.4413
 374  401.4055
 375  311.2983
 376  339.1218
 377  372.1106
 378  401.1596
 379  295.0767
 380  288.3109
 381  388.2695
 382  447.8799
 383  444.3957
 384  451.8751
 385  375.63
 386  367.1316
 387  398.8465
 388  268.8356
 389  301.6402
 390  417.1229
 391  332.2347
 392  422.8721
 393  361.9197
 394  390.7143
 395  434.6191
 396  458.1805
 397  467.9442
 398  470.2492
 399  463.3686
 400  400.1108
 401  360.9229
 402  288.9299
 403  322.3651
 404  351.9159
 405  336.5566
 406  340.6234
 407  290.1769
 408  345.0348
 409  333.2995
 410  350.9127
 411  356.4117
 412  416.9472
 413  365.894
 414  315.6449
 415  410.5805
 416  424.3083
 417  453.7269
 418  469.114
 419  401.0823
 420  420.4781
 421  320.417
 422  320.2656
 423  472.8533
 424  422.0692
 425  426.3386
 426  373.6122
 427  422.7411
 428  627.2027
 429  444.7336
 430  495.7602
 431  390.6405
 432  228.3058
 433  369.8871
 434  492.2502
 435  435.417
 436  478.8452
 437  388.9567
 438  296.7282
 439  378.3434
 440  347.617
 441  381.2785
 442  424.4687
 443  420.5414
 444  348.209
 445  372.5994
 446  281.705
 447  336.6066
 448  301.1306
 449  339.4417
 450  341.1711
 451  240.8172
 452  337.4742
 453  314.4478
 454  371.4973
 455  363.7122
 456  400.7402
 457  300.6694
 458  290.2958
 459  363.86
 460  403.8233
 461  458.5829
 462  434.9356
 463  561.228
 464  473.0839
 465  412.3903
 466  225.8074
 467  327.8068
 468  430.7112
 469  414.5521
 470  478.7334
 471  556.7286
 472  450.2639
 473  462.457
 474  504.9169
 475  468.4558
 476  403.5741
 477  309.9869
 478  223.165
 479  285.8391
 480  342.4858
 481  427.2944
 482  280.2928
 483  284.4828
 484  390.4788
 485  461.4904
 486  471.8647
 487  496.7581
 488  456.9525
 489  507.8286
 490  536.6481
 491  451.2373
 492  302.9021
 493  363.9254
 494  424.0434
 495  443.8949
 496  456.4853
 497  426.1763
 498  397.0536
 499  426.489
 500  473.9643
 501  422.3306
 502  492.3808
 503  493.6768
 504  463.6515
 505  426.3932
 506  484.3369
 507  574.6306
 508  449.8581
 509  330.3062
 510  411.7783
 511  472.8975
