# Input file       =  1180250726.097181_cleaned.dat
# Candidate        =  PSR_0332+5434
# Telescope        =  AR
# Epoch_topo       =  57904.309549735895
# Epoch_bary       =  N/A
# T_sample         =  0.002
# Data Folded      =  7340032
# Data Avg         =  0.0342485886919735
# Data StdDev      =  1.0000978406835  
# Profile Bins     =  512
# Profile Avg      =  491.058345430806 
# Profile StdDev   =  119.744751138882 
# Reduced chi-sqr  =  1.571
# Prob(Noise)      <  2.42e-15   (~7.8 sigma)
# P_topo (ms)      =  714.517259178162  +/- 0.000207
# P'_topo (s/s)    =  -0                +/- 1.09e-10
# P''_topo (s/s^2) =  0                 +/- 4.82e-14
# P_bary (ms)      =  N/A
# P'_bary (s/s)    =  N/A
# P''_bary (s/s^2) =  N/A
# P_orb (s)        =  N/A
# asin(i)/c (s)    =  N/A
# eccentricity     =  N/A
# w (rad)          =  N/A
# T_peri           =  N/A
######################################################
   0  425.8882
   1  465.7029
   2  473.6342
   3  372.7012
   4  448.0718
   5  508.7244
   6  624.7938
   7  596.6497
   8  565.4528
   9  589.3736
  10  548.1393
  11  555.1973
  12  405.1849
  13  435.173
  14  501.5961
  15  572.6685
  16  500.5439
  17  504.2253
  18  547.6877
  19  468.5817
  20  424.0818
  21  368.1271
  22  383.4271
  23  388.3299
  24  474.0055
  25  427.0115
  26  346.5948
  27  380.7838
  28  429.6656
  29  351.4557
  30  395.1937
  31  550.8383
  32  470.4059
  33  406.6519
  34  507.3737
  35  586.8586
  36  589.9596
  37  500.6344
  38  514.2924
  39  536.707
  40  408.5177
  41  466.0935
  42  460.1763
  43  537.4363
  44  515.6502
  45  530.6117
  46  454.7018
  47  441.9231
  48  563.6943
  49  493.7552
  50  501.0248
  51  524.0604
  52  399.2474
  53  522.8724
  54  581.7858
  55  544.8803
  56  561.3641
  57  516.9437
  58  533.6091
  59  529.9672
  60  469.7094
  61  517.8844
  62  508.3545
  63  548.9121
  64  576.2551
  65  573.2077
  66  520.5845
  67  507.2421
  68  361.913
  69  408.7948
  70  360.9495
  71  405.3137
  72  406.4418
  73  434.2187
  74  492.0812
  75  436.0628
  76  370.4825
  77  300.3957
  78  295.8793
  79  363.5638
  80  381.0851
  81  423.9602
  82  375.3635
  83  331.5166
  84  443.6554
  85  447.1365
  86  333.0468
  87  384.6613
  88  361.6803
  89  383.055
  90  499.3484
  91  461.7635
  92  503.5096
  93  465.3346
  94  456.9017
  95  528.502
  96  460.5106
  97  583.6713
  98  516.6556
  99  474.8127
 100  489.1326
 101  552.9614
 102  490.3379
 103  501.6804
 104  453.5485
 105  472.1771
 106  532.9598
 107  458.364
 108  457.0503
 109  532.8734
 110  565.1329
 111  551.8424
 112  482.9633
 113  542.7365
 114  622.1234
 115  405.2509
 116  376.2711
 117  472.514
 118  580.3889
 119  612.8884
 120  565.8403
 121  481.0043
 122  416.9648
 123  432.2173
 124  517.3174
 125  505.0166
 126  507.3087
 127  552.9895
 128  485.2309
 129  528.923
 130  590.8275
 131  472.8189
 132  473.1196
 133  550.1486
 134  557.1463
 135  519.2036
 136  605.603
 137  668.2554
 138  494.2259
 139  616.9387
 140  552.79
 141  483.4596
 142  629.3199
 143  605.6144
 144  486.8102
 145  580.6479
 146  555.7524
 147  556.6218
 148  483.6583
 149  541.0779
 150  453.1473
 151  520.602
 152  604.8233
 153  499.9565
 154  435.4087
 155  441.7668
 156  446.7384
 157  442.5925
 158  421.3024
 159  454.4848
 160  467.3026
 161  396.6109
 162  422.1134
 163  564.2411
 164  501.7277
 165  386.2505
 166  415.8549
 167  370.8063
 168  453.889
 169  530.2097
 170  473.9465
 171  495.8868
 172  537.3516
 173  520.9281
 174  463.259
 175  522.034
 176  542.384
 177  612.6499
 178  590.0952
 179  539.3018
 180  629.7285
 181  737.9992
 182  746.651
 183  608.7419
 184  497.8481
 185  614.5239
 186  609.4938
 187  679.1061
 188  761.4682
 189  585.67
 190  552.4889
 191  576.1982
 192  537.8598
 193  564.4899
 194  569.217
 195  587.3819
 196  596.8706
 197  513.6227
 198  507.0019
 199  557.4827
 200  479.0811
 201  551.8399
 202  433.9558
 203  384.7967
 204  502.3201
 205  483.5329
 206  459.8153
 207  466.726
 208  560.712
 209  539.7863
 210  475.7487
 211  470.7898
 212  525.634
 213  585.7857
 214  577.0099
 215  632.9719
 216  698.0356
 217  774.7753
 218  872.8027
 219  1089.622
 220  1062.439
 221  1095.535
 222  1028.638
 223  839.4744
 224  608.4203
 225  612.9116
 226  694.868
 227  611.1671
 228  494.8978
 229  531.2417
 230  426.9765
 231  480.1581
 232  605.2888
 233  640.2943
 234  659.796
 235  580.0451
 236  467.8876
 237  471.2779
 238  482.0036
 239  455.64
 240  343.8703
 241  271.0002
 242  249.222
 243  297.106
 244  314.2478
 245  513.4814
 246  435.9268
 247  338.7439
 248  257.3004
 249  335.745
 250  329.1165
 251  332.0417
 252  305.9001
 253  280.7418
 254  213.8247
 255  269.2541
 256  307.4052
 257  344.1206
 258  418.8546
 259  500.374
 260  557.3111
 261  523.5676
 262  481.0973
 263  458.3096
 264  456.5516
 265  398.4744
 266  525.7109
 267  504.4074
 268  525.3156
 269  410.9154
 270  483.9762
 271  453.0654
 272  441.3391
 273  368.6882
 274  457.906
 275  581.7877
 276  651.4604
 277  578.593
 278  572.2117
 279  435.8695
 280  482.5948
 281  470.2183
 282  520.2998
 283  469.6494
 284  452.0425
 285  562.2653
 286  407.2674
 287  358.4378
 288  437.0562
 289  394.6179
 290  517.7189
 291  494.7657
 292  550.413
 293  475.0663
 294  402.2408
 295  402.9431
 296  523.8188
 297  485.2746
 298  557.7288
 299  494.9816
 300  436.4489
 301  436.2489
 302  477.9698
 303  590.1873
 304  597.4162
 305  520.4026
 306  445.9021
 307  433.4169
 308  530.7549
 309  565.547
 310  488.6843
 311  580.4161
 312  510.2732
 313  515.6151
 314  507.6479
 315  498.9355
 316  505.6964
 317  461.8237
 318  447.0587
 319  478.2436
 320  495.4516
 321  543.0551
 322  452.6144
 323  478.424
 324  425.2497
 325  426.1931
 326  471.1809
 327  366.4585
 328  393.8636
 329  499.4107
 330  411.6761
 331  330.1774
 332  481.1597
 333  437.5871
 334  387.6218
 335  440.9018
 336  484.7256
 337  346.2321
 338  290.5582
 339  465.4019
 340  440.5452
 341  483.9303
 342  449.0989
 343  457.7584
 344  424.6761
 345  479.2056
 346  564.9518
 347  604.7264
 348  560.3913
 349  632.4429
 350  639.5604
 351  576.9815
 352  551.8311
 353  501.9975
 354  562.5857
 355  637.2363
 356  607.1523
 357  578.8777
 358  527.7756
 359  421.4397
 360  432.1217
 361  552.4631
 362  611.0601
 363  593.288
 364  507.7075
 365  496.8613
 366  550.5641
 367  488.8206
 368  617.8707
 369  617.3446
 370  608.4825
 371  621.4286
 372  600.3334
 373  563.8632
 374  599.0555
 375  635.3604
 376  521.0162
 377  453.6158
 378  569.4451
 379  556.8849
 380  489.3037
 381  511.7947
 382  471.7295
 383  491.1764
 384  567.2933
 385  550.5289
 386  459.5063
 387  596.1528
 388  710.1938
 389  512.671
 390  622.2109
 391  654.0032
 392  629.2585
 393  635.5193
 394  717.5594
 395  676.486
 396  480.6904
 397  485.5316
 398  531.2836
 399  419.5454
 400  387.1266
 401  522.7877
 402  505.9045
 403  609.8227
 404  525.1357
 405  535.4651
 406  344.6543
 407  282.1054
 408  447.0342
 409  464.5568
 410  385.6269
 411  366.6631
 412  313.3174
 413  375.4117
 414  242.4312
 415  233.9068
 416  288.2574
 417  316.3402
 418  328.4194
 419  396.4246
 420  402.9417
 421  396.1725
 422  306.7444
 423  339.9435
 424  293.0006
 425  367.1963
 426  415.2449
 427  545.7568
 428  546.179
 429  473.0503
 430  426.1804
 431  498.1567
 432  543.166
 433  599.0544
 434  587.7511
 435  551.3596
 436  563.3005
 437  590.3635
 438  606.871
 439  657.6149
 440  544.9586
 441  454.3624
 442  470.347
 443  440.8676
 444  543.9509
 445  458.6532
 446  450.8699
 447  508.982
 448  459.3289
 449  530.877
 450  574.5441
 451  527.6512
 452  404.6458
 453  379.2051
 454  445.8887
 455  478.903
 456  413.6802
 457  366.3239
 458  282.6231
 459  311.2318
 460  417.8868
 461  548.9437
 462  527.5078
 463  398.9586
 464  378.4791
 465  340.96
 466  326.5569
 467  324.1388
 468  487.978
 469  582.6243
 470  482.5874
 471  537.4866
 472  600.6754
 473  457.8319
 474  526.4705
 475  567.3577
 476  442.9852
 477  552.9836
 478  561.2964
 479  567.5009
 480  469.4052
 481  489.6536
 482  569.0994
 483  556.9081
 484  494.7548
 485  521.0161
 486  473.0368
 487  462.711
 488  409.1766
 489  397.5173
 490  383.4909
 491  410.4343
 492  483.4841
 493  442.1122
 494  365.0388
 495  467.1086
 496  421.4378
 497  338.3702
 498  332.588
 499  225.6413
 500  266.0789
 501  369.5103
 502  371.6309
 503  363.2326
 504  452.2283
 505  455.2581
 506  434.6838
 507  382.7961
 508  374.468
 509  364.2872
 510  368.9739
 511  439.7519
