# Input file       =  1180236029.103016_cleaned.dat
# Candidate        =  PSR_0332+5434
# Telescope        =  AR
# Epoch_topo       =  57904.139445636756
# Epoch_bary       =  N/A
# T_sample         =  0.002
# Data Folded      =  7208960
# Data Avg         =  0.0317606560230876
# Data StdDev      =  1.00009491710015 
# Profile Bins     =  512
# Profile Avg      =  446.918271941984 
# Profile StdDev   =  118.670438578404 
# Reduced chi-sqr  =  1.350
# Prob(Noise)      <  2.04e-07   (~5.1 sigma)
# P_topo (ms)      =  714.517413341605  +/- 0.000278
# P'_topo (s/s)    =  -0                +/- 1.49e-10
# P''_topo (s/s^2) =  0                 +/- 6.7e-14
# P_bary (ms)      =  N/A
# P'_bary (s/s)    =  N/A
# P''_bary (s/s^2) =  N/A
# P_orb (s)        =  N/A
# asin(i)/c (s)    =  N/A
# eccentricity     =  N/A
# w (rad)          =  N/A
# T_peri           =  N/A
######################################################
   0  958.739
   1  829.8981
   2  658.959
   3  503.2891
   4  462.3178
   5  433.6104
   6  541.3627
   7  592.789
   8  565.6459
   9  474.5623
  10  488.2051
  11  514.6433
  12  514.4882
  13  602.3672
  14  500.2611
  15  472.0725
  16  492.8787
  17  420.5173
  18  424.661
  19  531.4978
  20  576.1794
  21  425.6159
  22  364.7868
  23  379.1467
  24  522.8975
  25  438.3142
  26  339.311
  27  531.1085
  28  456.6022
  29  440.0375
  30  425.1449
  31  460.2745
  32  494.1728
  33  439.3315
  34  512.095
  35  549.9396
  36  461.7194
  37  493.6045
  38  601.5771
  39  607.855
  40  529.3681
  41  505.7753
  42  545.7235
  43  555.1955
  44  479.4535
  45  510.7065
  46  472.1671
  47  382.1251
  48  390.5759
  49  456.1663
  50  591.887
  51  599.0555
  52  518.0769
  53  411.0854
  54  375.741
  55  505.2809
  56  445.2879
  57  493.5298
  58  522.9901
  59  434.9979
  60  473.7528
  61  443.9874
  62  480.4034
  63  439.4973
  64  446.212
  65  412.7905
  66  309.3734
  67  290.6356
  68  434.1295
  69  565.533
  70  599.7523
  71  543.6103
  72  479.9655
  73  434.7785
  74  504.9591
  75  468.9113
  76  476.656
  77  549.2997
  78  597.3843
  79  612.6472
  80  506.7038
  81  456.8637
  82  516.1384
  83  456.4923
  84  517.8794
  85  426.8429
  86  455.962
  87  430.5268
  88  383.6516
  89  429.6453
  90  430.3504
  91  385.4473
  92  386.9818
  93  360.7921
  94  368.9299
  95  374.8541
  96  319.6714
  97  286.4774
  98  339.2664
  99  302.7155
 100  278.0217
 101  366.2023
 102  515.283
 103  335.3013
 104  338.622
 105  452.2589
 106  339.924
 107  386.8442
 108  403.7567
 109  387.2866
 110  350.4672
 111  390.3999
 112  430.9189
 113  358.7246
 114  438.3646
 115  464.209
 116  421.8188
 117  438.5403
 118  479.988
 119  424.196
 120  443.54
 121  480.6947
 122  519.8923
 123  535.4271
 124  672.0995
 125  495.6215
 126  544.722
 127  578.8524
 128  641.2908
 129  534.3931
 130  469.5443
 131  381.0835
 132  404.9221
 133  311.5014
 134  365.7675
 135  475.6416
 136  447.8621
 137  420.3725
 138  422.0622
 139  323.6335
 140  338.5466
 141  417.4797
 142  334.5988
 143  403.1547
 144  373.6733
 145  341.8371
 146  408.7071
 147  289.3883
 148  210.2523
 149  385.96
 150  453.325
 151  393.3495
 152  375.828
 153  400.2689
 154  326.6452
 155  321.9069
 156  514.8022
 157  578.3851
 158  510.6552
 159  432.3197
 160  524.6923
 161  544.5179
 162  456.6355
 163  449.1021
 164  408.4374
 165  428.8125
 166  498.8588
 167  453.4254
 168  487.5218
 169  477.0515
 170  495.7707
 171  451.3927
 172  496.0792
 173  479.0997
 174  452.958
 175  458.3392
 176  448.2934
 177  441.426
 178  434.0987
 179  357.0868
 180  367.3277
 181  461.7675
 182  489.2411
 183  488.0498
 184  315.321
 185  268.0347
 186  291.2951
 187  359.7151
 188  244.2176
 189  350.0232
 190  244.0076
 191  282.4127
 192  386.5313
 193  500.8825
 194  575.4704
 195  548.4586
 196  471.2687
 197  388.4174
 198  390.5077
 199  452.3708
 200  508.0002
 201  561.3165
 202  565.2582
 203  480.6533
 204  529.2703
 205  624.8047
 206  594.0186
 207  524.5494
 208  504.093
 209  669.9726
 210  533.5384
 211  523.7089
 212  534.5338
 213  421.3866
 214  477.0319
 215  509.9093
 216  370.3459
 217  244.5701
 218  360.6004
 219  403.4002
 220  307.7284
 221  141.9021
 222  240.8804
 223  370.0109
 224  317.7045
 225  493.106
 226  441.8331
 227  333.2645
 228  335.7722
 229  265.6309
 230  289.0815
 231  293.5349
 232  240.779
 233  169.8933
 234  244.4541
 235  326.2432
 236  368.4091
 237  272.935
 238  302.0742
 239  370.9684
 240  374.2598
 241  344.4273
 242  393.4078
 243  293.0388
 244  257.4551
 245  413.0926
 246  508.4526
 247  400.9861
 248  253.7952
 249  293.4564
 250  270.7547
 251  319.4488
 252  438.5043
 253  342.2867
 254  312.6931
 255  346.5893
 256  508.0942
 257  470.6258
 258  401.8528
 259  425.8208
 260  359.5435
 261  407.1762
 262  433.2016
 263  490.222
 264  427.1465
 265  435.9249
 266  400.6836
 267  421.3241
 268  455.7613
 269  363.1884
 270  249.2753
 271  357.665
 272  511.4283
 273  454.0636
 274  415.862
 275  408.706
 276  422.2971
 277  457.6856
 278  433.8284
 279  424.0486
 280  334.8355
 281  407.41
 282  400.978
 283  328.2208
 284  402.9984
 285  482.5502
 286  391.2434
 287  342.3208
 288  419.1405
 289  505.3695
 290  493.6573
 291  435.4162
 292  299.2534
 293  325.193
 294  384.0856
 295  358.7735
 296  465.1265
 297  502.591
 298  513.72
 299  489.8813
 300  419.6642
 301  455.0795
 302  399.164
 303  344.9208
 304  324.6709
 305  316.6292
 306  453.6502
 307  399.1918
 308  349.7912
 309  386.3282
 310  299.3785
 311  336.0622
 312  340.3602
 313  336.989
 314  369.8963
 315  346.692
 316  332.6186
 317  366.3446
 318  334.5292
 319  343.7336
 320  343.676
 321  383.9842
 322  357.2271
 323  352.1461
 324  470.9608
 325  522.7125
 326  417.3452
 327  400.6866
 328  384.4394
 329  478.5851
 330  442.8268
 331  491.361
 332  441.2703
 333  534.765
 334  561.5001
 335  412.9809
 336  557.8384
 337  594.0004
 338  456.0077
 339  620.2779
 340  625.1888
 341  476.4175
 342  522.9327
 343  535.3036
 344  622.0045
 345  549.8004
 346  505.6872
 347  452.8864
 348  563.3511
 349  573.4182
 350  476.8371
 351  515.5641
 352  520.2822
 353  674.8352
 354  626.6658
 355  649.9127
 356  615.752
 357  605.7053
 358  434.1222
 359  425.8942
 360  423.2389
 361  459.1421
 362  367.0805
 363  377.3524
 364  420.3889
 365  390.67
 366  371.3699
 367  482.7148
 368  499.1425
 369  447.9817
 370  442.4477
 371  570.038
 372  595.7516
 373  563.8544
 374  431.0936
 375  474.14
 376  534.445
 377  431.6286
 378  561.8746
 379  568.2089
 380  450.394
 381  419.4367
 382  512.1266
 383  475.6657
 384  395.0018
 385  457.3232
 386  500.214
 387  420.2995
 388  376.9982
 389  358.6309
 390  421.1236
 391  482.9729
 392  475.402
 393  399.9484
 394  318.9431
 395  447.3998
 396  572.2629
 397  514.2786
 398  417.8924
 399  455.6562
 400  472.3469
 401  424.4615
 402  385.0029
 403  395.1888
 404  519.2725
 405  444.0855
 406  362.602
 407  467.203
 408  394.4416
 409  345.7074
 410  422.5223
 411  516.5664
 412  483.3612
 413  425.6777
 414  448.2167
 415  546.1299
 416  461.7285
 417  446.8602
 418  523.973
 419  609.0011
 420  495.8289
 421  418.2669
 422  510.6776
 423  447.631
 424  440.2079
 425  442.6465
 426  513.7814
 427  460.3703
 428  430.6901
 429  470.0073
 430  420.7531
 431  454.3792
 432  485.0215
 433  421.0788
 434  326.593
 435  375.3655
 436  459.2085
 437  369.3512
 438  385.1185
 439  306.5135
 440  411.1398
 441  415.998
 442  382.172
 443  308.1157
 444  333.3357
 445  378.4009
 446  379.9078
 447  377.8219
 448  406.5219
 449  397.8495
 450  490.8004
 451  430.7742
 452  416.3182
 453  354.0651
 454  507.9047
 455  504.6192
 456  520.8366
 457  484.2409
 458  439.7217
 459  405.0685
 460  378.4113
 461  394.4884
 462  488.8591
 463  475.1786
 464  447.9091
 465  471.5366
 466  530.8792
 467  549.322
 468  368.8775
 469  376.1568
 470  436.1366
 471  471.15
 472  498.808
 473  614.5143
 474  624.6373
 475  533.0997
 476  606.7632
 477  435.337
 478  354.2549
 479  368.7077
 480  455.803
 481  465.22
 482  374.7511
 483  351.0948
 484  431.9781
 485  369.0914
 486  467.6015
 487  432.5588
 488  447.6367
 489  530.3539
 490  593.5658
 491  439.1935
 492  359.8416
 493  400.7948
 494  458.5634
 495  569.8962
 496  577.0438
 497  557.7264
 498  656.736
 499  568.282
 500  508.6125
 501  563.1954
 502  513.5919
 503  514.6592
 504  550.1819
 505  529.554
 506  578.5746
 507  604.5185
 508  654.4319
 509  741.6575
 510  904.8437
 511  1038.537
