# Input file       =  1180839218.112024_cleaned.dat
# Candidate        =  PSR_0332+5434
# Telescope        =  AR
# Epoch_topo       =  57911.120799907687
# Epoch_bary       =  N/A
# T_sample         =  0.002
# Data Folded      =  7143424
# Data Avg         =  0.141991218903376
# Data StdDev      =  3.68704876368521 
# Profile Bins     =  256
# Profile Avg      =  3961.65922788952 
# Profile StdDev   =  615.902707298772 
# Reduced chi-sqr  =  0.955
# Prob(Noise)      <  0.686   (~0.0 sigma)
# P_topo (ms)      =  714.510650745719  +/- 9.58e-05
# P'_topo (s/s)    =  -0                +/- 5.19e-11
# P''_topo (s/s^2) =  0                 +/- 2.36e-14
# P_bary (ms)      =  N/A
# P'_bary (s/s)    =  N/A
# P''_bary (s/s^2) =  N/A
# P_orb (s)        =  N/A
# asin(i)/c (s)    =  N/A
# eccentricity     =  N/A
# w (rad)          =  N/A
# T_peri           =  N/A
######################################################
   0  4997.595
   1  3757.643
   2  4570.797
   3  4134.771
   4  4929.532
   5  3988.141
   6  4038.764
   7  3580.866
   8  4368.446
   9  3411.057
  10  4015.278
  11  3805.83
  12  3507.465
  13  3643.521
  14  3422.716
  15  3066.239
  16  3900.811
  17  3697.797
  18  4326.726
  19  3473.447
  20  4123.076
  21  4258.621
  22  4303.64
  23  4166.035
  24  4279.533
  25  4476.01
  26  3984.012
  27  3709.494
  28  3681.814
  29  4430.667
  30  3726.069
  31  3535.383
  32  3919.302
  33  3779.982
  34  3397.045
  35  4080.39
  36  4667.125
  37  3966.081
  38  3426.012
  39  3135.802
  40  3857.003
  41  4022.119
  42  3434.536
  43  4149.164
  44  3605.245
  45  3624.541
  46  3361.469
  47  3427.439
  48  2541.533
  49  3532.102
  50  3377.525
  51  4116.072
  52  3794.368
  53  3958.347
  54  4205.951
  55  3374.775
  56  3694.884
  57  3845.61
  58  3639.222
  59  3877.778
  60  3178.481
  61  3647.423
  62  4903.207
  63  3736.653
  64  4154.323
  65  3776.186
  66  4101.032
  67  3642.943
  68  3703.659
  69  4301.645
  70  4797.526
  71  3287.792
  72  3859.784
  73  3477.841
  74  3583.588
  75  3913.012
  76  3934.086
  77  4124.929
  78  4725.377
  79  3468.177
  80  3590.9
  81  3079.46
  82  3334.559
  83  2785.795
  84  3618.489
  85  3496.214
  86  3572.234
  87  3649.898
  88  2875.347
  89  3188.942
  90  3486.733
  91  3485.798
  92  3460.414
  93  3689.458
  94  4425.665
  95  5136.251
  96  4399.186
  97  3789.767
  98  3542.705
  99  3893.043
 100  3895.364
 101  3835.344
 102  3367.759
 103  4096.049
 104  4088.918
 105  3890.478
 106  3225.047
 107  3663.561
 108  4019.46
 109  4402.347
 110  3716.844
 111  4532.352
 112  3549.558
 113  3924.911
 114  3422.534
 115  3214.566
 116  2946.321
 117  3916.535
 118  3511.284
 119  3589.614
 120  3305.699
 121  3573.202
 122  3381.917
 123  3218.701
 124  3774.905
 125  3528.509
 126  3881.66
 127  4064.449
 128  4081.265
 129  3900.843
 130  3635.161
 131  3834.437
 132  4427.059
 133  3887.05
 134  4044.757
 135  4480.548
 136  3937.972
 137  3778.042
 138  4093.427
 139  4033.103
 140  3726.038
 141  3733.311
 142  3852.003
 143  3532.614
 144  4169.354
 145  3968.36
 146  3567.811
 147  4048.095
 148  3689.644
 149  4271.067
 150  4485.713
 151  4109.338
 152  4469.622
 153  4332.723
 154  4387.14
 155  4733.977
 156  4440.829
 157  3429.134
 158  4174.694
 159  3861.365
 160  4658.749
 161  4232.335
 162  4891.449
 163  6602.634
 164  6259.366
 165  5267.444
 166  4343.41
 167  4160.365
 168  3806.792
 169  4535.252
 170  4369.839
 171  4265.294
 172  4088.616
 173  4097.382
 174  3623.08
 175  3765.623
 176  3644.964
 177  3562.267
 178  3665.646
 179  4254.931
 180  3931.709
 181  3822.479
 182  3614.868
 183  4196.237
 184  3778.044
 185  3986.481
 186  4132.664
 187  3789.147
 188  3359.334
 189  3679.65
 190  3212.163
 191  3305.796
 192  3954.771
 193  4021.314
 194  4163.665
 195  3476.583
 196  3659.939
 197  3153.306
 198  4045.636
 199  3551.823
 200  4045.2
 201  4415.283
 202  4208.506
 203  3298.692
 204  4248.637
 205  3855.126
 206  4326.536
 207  4646.419
 208  3936.648
 209  4150.836
 210  5541.097
 211  5138.827
 212  4636.435
 213  4068.556
 214  4901.322
 215  4849.191
 216  4198.524
 217  4049.537
 218  4969.017
 219  3970.078
 220  3704.009
 221  3607.041
 222  3928.852
 223  3524.153
 224  3626.954
 225  4186.749
 226  4300.155
 227  3953.083
 228  3445.569
 229  3388.494
 230  3363.972
 231  3976.123
 232  4213.766
 233  4478.414
 234  4369.689
 235  4618.711
 236  4030.355
 237  4342.495
 238  4248.715
 239  4141.29
 240  4188.913
 241  4432.906
 242  4457.092
 243  4546.884
 244  4459.435
 245  4692.47
 246  4609.015
 247  4426.923
 248  4214.5
 249  4614.631
 250  4913.222
 251  4631.967
 252  3863.377
 253  3312.61
 254  3973.957
 255  4416.634
