# Input file       =  1180767674.113528_cleaned.dat
# Candidate        =  PSR_0332+5434
# Telescope        =  AR
# Epoch_topo       =  57910.292744369537
# Epoch_bary       =  N/A
# T_sample         =  0.002
# Data Folded      =  7340032
# Data Avg         =  0.0643223572302046
# Data StdDev      =  2.24590866222246 
# Profile Bins     =  1024
# Profile Avg      =  460.757293329176 
# Profile StdDev   =  190.147705203404 
# Reduced chi-sqr  =  1.521
# Prob(Noise)      <  8.96e-25   (~10.2 sigma)
# P_topo (ms)      =  714.511456050075  +/- 0.000275
# P'_topo (s/s)    =  -0                +/- 1.45e-10
# P''_topo (s/s^2) =  0                 +/- 6.4e-14
# P_bary (ms)      =  N/A
# P'_bary (s/s)    =  N/A
# P''_bary (s/s^2) =  N/A
# P_orb (s)        =  N/A
# asin(i)/c (s)    =  N/A
# eccentricity     =  N/A
# w (rad)          =  N/A
# T_peri           =  N/A
######################################################
   0  508.8573
   1  666.7524
   2  678.597
   3  580.6818
   4  484.0266
   5  376.8546
   6  296.0047
   7  165.5228
   8  225.4344
   9  365.644
  10  438.9893
  11  422.7282
  12  279.4992
  13  257.9254
  14  298.1573
  15  363.23
  16  361.9223
  17  316.1087
  18  293.5268
  19  242.4778
  20  206.5487
  21  222.2472
  22  304.0886
  23  310.3955
  24  368.7403
  25  375.8973
  26  437.5773
  27  457.8068
  28  518.8158
  29  452.4736
  30  380.2479
  31  373.6849
  32  460.6834
  33  596.5486
  34  618.0939
  35  621.3888
  36  563.4332
  37  492.1805
  38  491.1292
  39  446.1331
  40  487.9343
  41  454.7887
  42  521.8339
  43  474.6659
  44  466.1606
  45  430.069
  46  486.382
  47  539.1428
  48  594.603
  49  614.4799
  50  576.0434
  51  535.6932
  52  499.2122
  53  495.6171
  54  432.242
  55  458.0196
  56  467.7092
  57  540.4188
  58  550.4705
  59  488.7547
  60  494.3218
  61  568.6192
  62  624.276
  63  628.4016
  64  482.9098
  65  480.6411
  66  465.5793
  67  572.6187
  68  559.2188
  69  536.5185
  70  403.0321
  71  364.8153
  72  390.7248
  73  538.4793
  74  589.6984
  75  599.9617
  76  550.9357
  77  470.5848
  78  428.7517
  79  473.4338
  80  485.5171
  81  531.3623
  82  486.406
  83  471.237
  84  412.5742
  85  386.9638
  86  464.5713
  87  407.2147
  88  412.1219
  89  300.1535
  90  327.3326
  91  310.7806
  92  290.1701
  93  300.8394
  94  381.987
  95  485.6229
  96  530.8251
  97  477.0632
  98  558.7686
  99  571.2698
 100  525.7097
 101  398.1328
 102  327.6354
 103  280.9149
 104  224.5363
 105  178.4685
 106  127.7927
 107  121.717
 108  229.0598
 109  322.7762
 110  404.4975
 111  429.3551
 112  469.1367
 113  420.7746
 114  386.0102
 115  348.6475
 116  322.8594
 117  350.7533
 118  425.2463
 119  467.3567
 120  401.2758
 121  303.7205
 122  255.779
 123  261.2765
 124  279.3885
 125  289.261
 126  319.5099
 127  351.0024
 128  428.9322
 129  414.4758
 130  408.4085
 131  338.5695
 132  336.9006
 133  321.3989
 134  395.2767
 135  369.999
 136  345.9442
 137  286.7621
 138  404.7454
 139  506.1754
 140  561.7396
 141  449.3611
 142  312.9236
 143  268.7094
 144  278.7708
 145  325.0032
 146  366.5281
 147  282.0247
 148  342.6706
 149  367.4606
 150  482.3096
 151  533.213
 152  512.4874
 153  541.8204
 154  484.7394
 155  431.6036
 156  316.7076
 157  330.2273
 158  380.9903
 159  396.2168
 160  409.9123
 161  385.7337
 162  369.9519
 163  381.2145
 164  513.5368
 165  541.497
 166  450.8734
 167  296.3023
 168  298.4557
 169  355.7137
 170  441.9107
 171  356.9516
 172  358.7859
 173  327.7534
 174  477.3495
 175  510.567
 176  537.5236
 177  447.2022
 178  408.544
 179  381.2962
 180  387.8692
 181  367.1244
 182  354.8011
 183  393.6164
 184  423.113
 185  463.3188
 186  404.6612
 187  324.9872
 188  293.0826
 189  317.957
 190  359.2805
 191  323.2448
 192  324.1329
 193  294.753
 194  329.9775
 195  326.187
 196  282.6256
 197  248.2846
 198  318.1966
 199  456.8191
 200  523.9739
 201  489.3407
 202  416.2291
 203  391.0364
 204  336.3435
 205  335.6799
 206  299.6072
 207  279.3828
 208  335.3723
 209  427.2032
 210  476.4765
 211  449.0538
 212  388.712
 213  424.86
 214  424.3656
 215  479.687
 216  583.0319
 217  568.2641
 218  572.6633
 219  476.5302
 220  533.7276
 221  472.6457
 222  406.7977
 223  397.3961
 224  416.5334
 225  497.3984
 226  445.0709
 227  409.5629
 228  392.5861
 229  418.9929
 230  497.9947
 231  453.7034
 232  476.9959
 233  481.1364
 234  533.9399
 235  485.4267
 236  483.5758
 237  381.8303
 238  395.2337
 239  370.2839
 240  505.5648
 241  460.1421
 242  510.0506
 243  559.813
 244  531.423
 245  553.8669
 246  504.4922
 247  553.2618
 248  558.9654
 249  669.0701
 250  670.9255
 251  582.6509
 252  511.8534
 253  559.1115
 254  584.9588
 255  549.3585
 256  507.2276
 257  521.5734
 258  548.5776
 259  537.9999
 260  642.5917
 261  693.9201
 262  763.162
 263  647.463
 264  573.8876
 265  482.7199
 266  498.9517
 267  510.1386
 268  479.2881
 269  479.5251
 270  463.5794
 271  418.1454
 272  379.3719
 273  380.3647
 274  430.1715
 275  466.2664
 276  616.0577
 277  645.639
 278  669.5097
 279  609.5762
 280  558.1033
 281  509.2937
 282  482.8412
 283  514.4031
 284  544.5594
 285  552.4398
 286  524.9872
 287  398.9106
 288  377.1215
 289  354.5117
 290  405.0534
 291  461.333
 292  488.5007
 293  459.9395
 294  334.817
 295  340.77
 296  376.2105
 297  425.686
 298  390.316
 299  351.1367
 300  339.5596
 301  420.0597
 302  443.4184
 303  454.3731
 304  387.4505
 305  313.113
 306  235.7276
 307  311.652
 308  450.9622
 309  575.9349
 310  475.1863
 311  378.554
 312  206.2509
 313  233.7057
 314  309.2771
 315  457.5919
 316  533.3177
 317  474.3501
 318  532.9367
 319  538.9543
 320  638.9506
 321  611.9829
 322  638.2329
 323  621.2152
 324  603.5723
 325  569.914
 326  563.4059
 327  574.8175
 328  615.7363
 329  632.7755
 330  606.1838
 331  601.5001
 332  600.1896
 333  557.0474
 334  630.4734
 335  645.6426
 336  694.703
 337  575.7283
 338  579.103
 339  589.0518
 340  602.4764
 341  475.9653
 342  353.2932
 343  337.2189
 344  439.5354
 345  567.7903
 346  627.4074
 347  559.9155
 348  478.7422
 349  425.974
 350  368.1225
 351  347.5531
 352  362.8987
 353  330.7852
 354  377.9004
 355  391.2302
 356  462.1401
 357  426.5497
 358  382.9151
 359  367.425
 360  327.1089
 361  289.6088
 362  327.8435
 363  353.3401
 364  383.8166
 365  459.0446
 366  491.8581
 367  497.2881
 368  412.4232
 369  471.0122
 370  497.2488
 371  461.1012
 372  452.1789
 373  485.0345
 374  499.107
 375  482.9077
 376  488.3953
 377  470.2178
 378  562.6771
 379  571.4434
 380  623.2363
 381  512.4117
 382  480.4008
 383  524.2523
 384  556.7123
 385  590.015
 386  495.2337
 387  412.4219
 388  417.1546
 389  484.1645
 390  568.8309
 391  532.5748
 392  446.139
 393  356.5734
 394  459.379
 395  518.1792
 396  569.3899
 397  531.7398
 398  658.7164
 399  781.2214
 400  736.2635
 401  578.4128
 402  443.3549
 403  494.0203
 404  463.3282
 405  445.871
 406  434.4812
 407  527.4741
 408  564.8853
 409  555.0001
 410  478.4491
 411  425.9786
 412  473.8248
 413  530.8317
 414  540.9467
 415  485.4048
 416  509.6632
 417  532.6175
 418  516.4031
 419  532.6225
 420  573.4109
 421  484.9606
 422  357.2694
 423  325.167
 424  403.2722
 425  419.9628
 426  439.8528
 427  434.8644
 428  560.1945
 429  527.0013
 430  572.2061
 431  523.2238
 432  563.6568
 433  551.6087
 434  535.4676
 435  594.0561
 436  656.4066
 437  677.3478
 438  717.2488
 439  632.6686
 440  666.159
 441  604.1234
 442  642.6793
 443  666.4606
 444  712.7044
 445  678.2016
 446  629.4169
 447  628.3889
 448  636.1194
 449  577.0021
 450  586.0755
 451  620.6491
 452  640.7896
 453  526.8992
 454  486.5032
 455  450.5561
 456  496.4068
 457  441.8033
 458  424.8907
 459  430.0416
 460  453.3767
 461  528.0894
 462  493.628
 463  563.2271
 464  521.896
 465  602.4444
 466  601.0514
 467  548.7162
 468  384.6163
 469  386.3005
 470  451.407
 471  485.1487
 472  476.8509
 473  513.1558
 474  516.7466
 475  451.3808
 476  417.0317
 477  471.3269
 478  479.2513
 479  512.8028
 480  493.3985
 481  548.4722
 482  544.6858
 483  524.7094
 484  391.0421
 485  331.007
 486  343.6907
 487  438.1438
 488  422.2642
 489  454.5534
 490  509.3237
 491  570.5864
 492  526.9213
 493  575.1451
 494  573.137
 495  517.4871
 496  431.522
 497  400.8548
 498  467.6952
 499  508.2282
 500  444.7065
 501  349.4314
 502  271.9186
 503  299.7643
 504  335.1694
 505  350.2946
 506  347.0772
 507  278.1048
 508  206.8775
 509  237.2889
 510  338.8634
 511  316.7083
 512  362.2061
 513  380.0499
 514  381.2221
 515  337.5742
 516  354.6868
 517  406.9012
 518  475.4315
 519  589.1498
 520  657.1533
 521  573.675
 522  466.1783
 523  402.7573
 524  300.2953
 525  230.4265
 526  187.6386
 527  261.3398
 528  382.5793
 529  433.1623
 530  486.2684
 531  461.4795
 532  415.8585
 533  307.5927
 534  374.3341
 535  420.908
 536  442.456
 537  341.0762
 538  257.7164
 539  268.8784
 540  294.165
 541  281.5744
 542  310.6889
 543  283.9044
 544  378.7567
 545  431.6182
 546  363.5487
 547  311.1996
 548  331.1924
 549  477.6189
 550  490.2453
 551  441.0589
 552  384.0103
 553  413.3456
 554  420.9752
 555  329.5707
 556  305.0911
 557  300.6868
 558  470.6425
 559  507.0526
 560  497.0034
 561  474.6219
 562  455.4615
 563  491.2584
 564  424.8062
 565  421.2146
 566  330.1183
 567  313.0847
 568  244.4961
 569  284.6537
 570  368.6064
 571  489.0604
 572  576.3833
 573  462.476
 574  410.0886
 575  400.1855
 576  416.3445
 577  392.7376
 578  403.4503
 579  410.0694
 580  422.3988
 581  325.3312
 582  377.6921
 583  453.5545
 584  489.7345
 585  377.59
 586  347.5373
 587  386.4878
 588  442.3139
 589  388.1797
 590  420.8241
 591  431.8862
 592  372.4706
 593  333.169
 594  307.4552
 595  307.6278
 596  314.1923
 597  402.4958
 598  469.3493
 599  453.0769
 600  417.8895
 601  375.274
 602  469.3235
 603  410.3579
 604  479.491
 605  452.9675
 606  469.0181
 607  392.1753
 608  392.8689
 609  432.6324
 610  446.0884
 611  393.7434
 612  433.8958
 613  466.2945
 614  496.1559
 615  522.5051
 616  464.6908
 617  413.3874
 618  371.9223
 619  467.4283
 620  488.6943
 621  541.1936
 622  499.4265
 623  473.1981
 624  479.6558
 625  503.8519
 626  569.8907
 627  466.7275
 628  370.3857
 629  307.7662
 630  425.3198
 631  488.6472
 632  544.0283
 633  489.5094
 634  457.638
 635  370.1167
 636  341.7451
 637  368.7221
 638  426.2432
 639  439.6743
 640  429.1799
 641  449.217
 642  418.8042
 643  348.1241
 644  248.2155
 645  277.1684
 646  320.4593
 647  319.263
 648  297.8136
 649  368.5238
 650  376.8421
 651  376.7695
 652  403.8522
 653  430.9451
 654  410.288
 655  313.6571
 656  300.9738
 657  331.9207
 658  380.2632
 659  379.4191
 660  323.2252
 661  317.059
 662  369.5003
 663  448.4558
 664  524.2371
 665  510.0408
 666  504.0129
 667  437.2224
 668  428.3589
 669  400.5242
 670  402.6847
 671  414.2408
 672  374.4509
 673  349.0975
 674  348.5179
 675  430.3801
 676  565.038
 677  589.5547
 678  594.0811
 679  467.9998
 680  413.5919
 681  341.6848
 682  428.0551
 683  528.1024
 684  565.5461
 685  583.4715
 686  544.2208
 687  534.4006
 688  529.123
 689  512.7012
 690  490.1947
 691  520.6002
 692  544.9579
 693  552.9328
 694  523.4171
 695  448.1575
 696  395.5994
 697  371.7658
 698  403.9736
 699  523.4448
 700  600.363
 701  544.9523
 702  468.8072
 703  473.2368
 704  564.7357
 705  521.6218
 706  539.2621
 707  529.6073
 708  495.8167
 709  357.8269
 710  401.688
 711  579.8314
 712  699.0273
 713  675.1486
 714  499.3928
 715  444.3724
 716  413.5303
 717  500.3799
 718  512.0974
 719  542.9019
 720  530.5215
 721  610.2473
 722  634.3096
 723  569.1035
 724  553.7
 725  569.1793
 726  633.0731
 727  639.7305
 728  680.0491
 729  539.0377
 730  486.9464
 731  598.2444
 732  688.2359
 733  617.243
 734  536.5491
 735  656.4297
 736  682.0843
 737  660.2686
 738  592.3013
 739  579.3558
 740  574.5314
 741  519.0093
 742  558.6907
 743  533.5601
 744  568.0404
 745  485.1574
 746  523.5076
 747  518.9988
 748  672.4587
 749  726.4052
 750  751.739
 751  835.8288
 752  991.6351
 753  1150.314
 754  1238.722
 755  1389.466
 756  1452.222
 757  1393.979
 758  1241.071
 759  1123.71
 760  1001.043
 761  881.4106
 762  647.0584
 763  487.722
 764  470.2359
 765  488.1098
 766  498.8748
 767  410.8245
 768  410.5032
 769  323.7462
 770  339.6517
 771  419.2771
 772  552.8272
 773  571.2677
 774  547.6721
 775  540.9806
 776  571.3865
 777  478.9232
 778  488.1982
 779  495.8352
 780  610.4823
 781  571.9456
 782  498.2242
 783  412.3823
 784  445.3163
 785  583.2094
 786  534.947
 787  461.6877
 788  396.8435
 789  568.1352
 790  597.6007
 791  545.0672
 792  519.9551
 793  503.0075
 794  502.4035
 795  444.3937
 796  454.4489
 797  512.8552
 798  568.4697
 799  519.7747
 800  437.4365
 801  364.0066
 802  313.0959
 803  327.9197
 804  372.3516
 805  325.4263
 806  237.9083
 807  193.5499
 808  236.299
 809  263.739
 810  352.8814
 811  433.5998
 812  368.1035
 813  327.3023
 814  348.5257
 815  342.2081
 816  316.226
 817  359.7257
 818  447.071
 819  446.0548
 820  430.1031
 821  430.5563
 822  416.6841
 823  389.7139
 824  396.1145
 825  452.1765
 826  455.3273
 827  364.656
 828  306.1875
 829  292.9072
 830  310.4834
 831  427.7291
 832  512.1667
 833  537.0593
 834  471.0207
 835  415.3699
 836  350.1248
 837  341.7816
 838  274.5334
 839  293.6762
 840  330.6071
 841  450.4286
 842  496.7984
 843  438.9066
 844  395.3697
 845  353.0912
 846  429.0155
 847  421.6265
 848  378.0896
 849  173.4924
 850  170.5532
 851  202.7076
 852  273.7857
 853  314.26
 854  439.0743
 855  495.728
 856  489.0628
 857  441.2909
 858  487.3326
 859  417.8987
 860  314.8448
 861  327.3504
 862  313.6808
 863  301.8408
 864  205.7349
 865  259.4559
 866  251.7099
 867  349.1297
 868  361.5156
 869  448.8615
 870  391.1709
 871  358.0832
 872  335.8583
 873  379.9335
 874  272.6277
 875  299.1626
 876  258.8666
 877  313.0927
 878  307.5083
 879  355.4911
 880  432.905
 881  477.3317
 882  511.9228
 883  475.6118
 884  492.6502
 885  465.6837
 886  436.5528
 887  348.0683
 888  384.8557
 889  390.672
 890  436.7322
 891  475.5025
 892  505.6506
 893  459.6031
 894  384.6698
 895  369.3888
 896  422.6685
 897  424.6474
 898  359.0909
 899  376.4963
 900  389.6271
 901  436.5194
 902  356.2802
 903  318.92
 904  358.6123
 905  451.2069
 906  574.5738
 907  550.6301
 908  512.0868
 909  483.9278
 910  495.9299
 911  413.9212
 912  391.8372
 913  408.6485
 914  449.559
 915  460.574
 916  435.1872
 917  479.0587
 918  495.8551
 919  517.0336
 920  584.154
 921  600.6962
 922  602.4244
 923  561.6938
 924  569.1201
 925  560.9067
 926  561.0934
 927  631.9257
 928  689.5036
 929  579.5532
 930  469.5702
 931  475.0934
 932  564.1082
 933  576.5094
 934  562.7995
 935  610.2286
 936  641.2491
 937  658.4852
 938  606.865
 939  561.6313
 940  554.5775
 941  597.8785
 942  622.3942
 943  588.6362
 944  414.9413
 945  389.7844
 946  444.4724
 947  561.6036
 948  555.2308
 949  532.8772
 950  581.5754
 951  578.7584
 952  584.7916
 953  514.4458
 954  477.9765
 955  411.28
 956  424.8914
 957  435.8527
 958  521.8282
 959  552.625
 960  547.0433
 961  507.2469
 962  409.2765
 963  389.9392
 964  364.2233
 965  262.8178
 966  235.3919
 967  264.2704
 968  456.0348
 969  545.3694
 970  640.855
 971  597.3132
 972  488.3904
 973  384.2919
 974  449.266
 975  514.0151
 976  555.0431
 977  541.312
 978  570.2261
 979  560.5807
 980  539.6313
 981  529.3027
 982  476.8666
 983  428.3628
 984  414.791
 985  520.0284
 986  565.0307
 987  569.2341
 988  547.2887
 989  513.9968
 990  447.0076
 991  339.3521
 992  329.5583
 993  357.6957
 994  407.4955
 995  409.7608
 996  505.3496
 997  481.0941
 998  554.7366
 999  515.3281
1000  554.2183
1001  489.9746
1002  495.1653
1003  474.6444
1004  467.4335
1005  463.3924
1006  494.6953
1007  472.9806
1008  449.3658
1009  447.8615
1010  453.1404
1011  449.1804
1012  491.3964
1013  505.4949
1014  503.7213
1015  530.8217
1016  536.4857
1017  552.9566
1018  520.4756
1019  435.6448
1020  470.4822
1021  454.2111
1022  431.7395
1023  407.2417
