# Input file       =  1180753068.109029_cleaned.dat
# Candidate        =  PSR_0332+5434
# Telescope        =  AR
# Epoch_topo       =  57910.123693391542
# Epoch_bary       =  N/A
# T_sample         =  0.002
# Data Folded      =  7143424
# Data Avg         =  0.164592731493064
# Data StdDev      =  4.83285800919957 
# Profile Bins     =  512
# Profile Avg      =  2296.37075043276 
# Profile StdDev   =  570.850347048508 
# Reduced chi-sqr  =  0.532
# Prob(Noise)      <  1   (~0.0 sigma)
# P_topo (ms)      =  714.511606268424  +/- 4.5e-05
# P'_topo (s/s)    =  -0                +/- 2.44e-11
# P''_topo (s/s^2) =  0                 +/- 1.11e-14
# P_bary (ms)      =  N/A
# P'_bary (s/s)    =  N/A
# P''_bary (s/s^2) =  N/A
# P_orb (s)        =  N/A
# asin(i)/c (s)    =  N/A
# eccentricity     =  N/A
# w (rad)          =  N/A
# T_peri           =  N/A
######################################################
   0  2205.097
   1  2742.67
   2  2229.267
   3  2423.766
   4  2310.892
   5  2282.649
   6  2370.366
   7  2500.01
   8  2824.946
   9  2382.51
  10  2256.929
  11  2241.866
  12  2309.151
  13  2210.782
  14  2662.44
  15  3066.03
  16  2740.865
  17  2650.62
  18  2779.173
  19  3137.253
  20  3361.452
  21  3620.113
  22  3649.737
  23  3507.559
  24  2451.811
  25  2144.821
  26  2289.865
  27  1808.507
  28  2085.186
  29  2334.872
  30  2306.417
  31  2381.517
  32  2219.437
  33  2249.16
  34  1857.787
  35  2220.606
  36  2081.453
  37  2110.118
  38  2067.052
  39  1835.692
  40  2098.76
  41  2120.329
  42  2141.051
  43  1762.946
  44  2348.654
  45  2025.041
  46  2102.032
  47  2441.064
  48  2235.255
  49  1974.411
  50  2059.812
  51  2652.999
  52  2105.621
  53  1997.813
  54  2224.009
  55  2498.608
  56  2419.527
  57  2504.613
  58  2590.306
  59  2397.632
  60  2219.191
  61  1976.996
  62  2028.63
  63  2496.141
  64  2326.97
  65  2985.052
  66  2430.192
  67  2228.487
  68  2240.062
  69  2008.838
  70  2724.381
  71  2597.92
  72  2576.96
  73  2793.41
  74  2541.479
  75  2362.155
  76  2070.694
  77  2539.628
  78  2090.059
  79  2477.693
  80  2292.362
  81  2706.756
  82  2225.312
  83  1928.839
  84  2163.447
  85  2348.991
  86  2472.636
  87  2298.523
  88  2459.905
  89  2269.698
  90  2681.409
  91  2816.778
  92  2686.075
  93  2385.791
  94  1726.251
  95  2210.899
  96  2089.65
  97  2703.801
  98  2589.666
  99  2405.288
 100  2560.395
 101  1781.337
 102  2678.817
 103  2280.153
 104  2107.575
 105  2303.525
 106  2395.83
 107  2192.994
 108  1561.596
 109  1895.555
 110  1907.636
 111  2199.541
 112  2047.123
 113  2443.97
 114  2355.535
 115  1871.213
 116  1592.503
 117  1690.585
 118  2371.944
 119  2087.029
 120  2019.924
 121  2248.949
 122  2496.554
 123  2566.895
 124  2199.543
 125  1904.008
 126  2085.957
 127  2392.053
 128  2193.238
 129  2434.623
 130  2411.301
 131  2072.131
 132  2255.016
 133  2090.597
 134  2223.702
 135  2363.751
 136  2329.828
 137  2302.873
 138  2411.481
 139  3011.822
 140  3050.413
 141  2484.602
 142  2021.406
 143  2408.353
 144  2610.508
 145  2399.277
 146  2660.403
 147  2560.074
 148  2942.075
 149  2457.103
 150  2095.25
 151  2283.627
 152  2170.471
 153  2350.053
 154  2340.009
 155  2537.65
 156  2914.805
 157  2969.865
 158  2307.844
 159  2323.297
 160  2504.31
 161  2328.693
 162  2540.938
 163  2371.49
 164  2728.258
 165  2423.383
 166  2206.767
 167  2361.87
 168  2326.576
 169  2410.285
 170  2369.117
 171  2494.032
 172  2266.443
 173  2501.571
 174  1972.24
 175  1939.582
 176  2203.078
 177  2234.769
 178  2341.207
 179  2191.294
 180  2710.095
 181  2701.193
 182  2072.687
 183  2818.799
 184  2646.059
 185  2513.114
 186  1887.742
 187  2326.449
 188  2704.716
 189  2810.544
 190  2494.87
 191  2119.406
 192  2078.852
 193  1943.715
 194  2242.559
 195  2182.009
 196  2248.825
 197  2496.538
 198  2135.477
 199  2285.822
 200  1826.29
 201  2152.252
 202  2057.774
 203  2057.171
 204  2321.714
 205  2503.893
 206  2611.215
 207  2025.702
 208  2011.828
 209  2002.988
 210  2504.614
 211  2115.417
 212  2317.667
 213  2791.984
 214  2310.803
 215  2252.26
 216  1960.461
 217  2045.409
 218  2177.336
 219  2287.995
 220  2575.073
 221  2731.403
 222  2788.425
 223  2269.468
 224  2258.166
 225  1853.04
 226  2109.501
 227  2230.837
 228  2470.52
 229  2916.127
 230  2908.918
 231  2761.967
 232  1930.408
 233  1832.464
 234  2251.424
 235  2538.975
 236  2356.243
 237  2148.656
 238  2450.715
 239  2129.686
 240  2048.45
 241  2176.207
 242  2205.594
 243  2237.311
 244  1821.114
 245  2202.076
 246  1944.607
 247  2262.662
 248  2292.821
 249  1901.4
 250  2334.527
 251  2137.898
 252  2098.573
 253  1816.789
 254  2187.948
 255  2349.828
 256  2113.598
 257  2388.396
 258  2278.354
 259  2263.627
 260  1560.766
 261  2054.899
 262  2308.596
 263  2274.147
 264  2230.018
 265  1842.465
 266  2356.833
 267  2116.01
 268  2427.636
 269  2191.277
 270  2315.84
 271  2370.792
 272  2595.914
 273  2520.316
 274  2330.861
 275  2573.611
 276  2376.368
 277  2425.558
 278  2087.915
 279  2654.348
 280  2779.068
 281  2060.358
 282  2211.322
 283  2500.333
 284  2704.711
 285  2268.462
 286  2248.2
 287  2380.769
 288  2311.006
 289  2209.322
 290  2157.025
 291  2413.146
 292  2241.584
 293  2547.158
 294  2517.571
 295  2753.687
 296  2599.329
 297  1969.069
 298  2438.501
 299  2007.481
 300  2088.594
 301  2053.01
 302  1993.767
 303  2386.97
 304  2467.687
 305  2573.312
 306  2435.918
 307  2135.432
 308  1829.308
 309  1805.364
 310  2021.487
 311  2109.98
 312  2527.347
 313  2527.499
 314  2227.741
 315  1914.822
 316  1817.183
 317  2333.269
 318  2085.599
 319  2393.029
 320  2628.006
 321  2806.254
 322  2309.862
 323  2161.371
 324  2259.28
 325  2208.567
 326  2104.911
 327  1830.935
 328  2827.303
 329  2450.844
 330  2408.908
 331  2713.394
 332  2057.754
 333  2201.401
 334  1773.768
 335  2188.075
 336  2106.19
 337  2279.321
 338  2787.32
 339  2416.446
 340  1948.484
 341  1974.191
 342  2438.68
 343  1979.154
 344  2334.583
 345  2464.633
 346  2417.613
 347  2515.347
 348  2013.731
 349  2507.732
 350  2342.95
 351  2283.577
 352  2250.762
 353  2770.938
 354  2682.747
 355  2203.968
 356  2257.559
 357  2412.904
 358  2628.733
 359  2190.678
 360  2544.894
 361  2529.287
 362  2433.615
 363  2540.898
 364  2405.019
 365  2517.747
 366  2446.579
 367  2273.094
 368  2272.123
 369  2499.85
 370  2548.43
 371  2510.773
 372  2224.569
 373  2129.372
 374  2205.774
 375  2168.989
 376  2256.583
 377  2454.28
 378  2382.086
 379  2565.317
 380  1612.927
 381  1612.938
 382  1760.154
 383  2192.943
 384  2033.553
 385  2120.422
 386  2430.276
 387  2247.759
 388  2187.637
 389  1867.164
 390  2358.285
 391  1960.568
 392  1829.392
 393  2362.494
 394  2143.153
 395  2555.555
 396  2303.416
 397  2434.736
 398  2233.988
 399  1749.414
 400  1955.653
 401  2152.172
 402  2348.347
 403  2319.97
 404  2650.604
 405  2355.201
 406  2181.901
 407  1742.97
 408  1938.588
 409  2671.4
 410  2351.738
 411  2736.599
 412  2641.457
 413  2686.371
 414  2585.497
 415  2397.088
 416  2370.945
 417  2047.915
 418  2092.724
 419  2506.379
 420  2662.328
 421  2362.471
 422  2363.001
 423  2439.44
 424  2367.878
 425  2066.705
 426  1726.079
 427  2604.479
 428  2721.345
 429  2500.769
 430  2634.319
 431  2320.71
 432  2642.577
 433  2686.959
 434  2331.108
 435  2051.431
 436  2312.35
 437  2530.794
 438  2333.675
 439  2407.298
 440  2176.422
 441  2213.879
 442  2170.104
 443  2500.973
 444  2393.351
 445  2099.23
 446  2614.09
 447  2198.881
 448  2420.135
 449  2581.688
 450  2107.861
 451  1987.347
 452  2025.073
 453  2212.155
 454  2003.299
 455  1572.847
 456  1580.319
 457  1905.446
 458  1973.924
 459  1884.887
 460  2518.435
 461  2508.681
 462  2565.362
 463  2031.701
 464  1867.657
 465  1795.641
 466  1740.446
 467  1859.221
 468  2071.686
 469  2664.971
 470  2783.056
 471  2711.829
 472  2040.565
 473  1821.69
 474  1802.628
 475  2042.718
 476  2313.264
 477  1819.614
 478  2406.966
 479  2482.067
 480  2189.093
 481  1799.699
 482  1822.943
 483  2056.843
 484  1778.763
 485  2030.097
 486  2486.017
 487  2544.68
 488  2004.855
 489  1954.897
 490  1995.288
 491  2021.57
 492  2412.183
 493  2542.924
 494  2464.44
 495  2318.102
 496  2281.844
 497  1909.304
 498  1684.271
 499  1964.901
 500  2005.296
 501  2151.578
 502  2225.665
 503  2701.913
 504  2282.6
 505  2068.811
 506  2265.958
 507  2137.086
 508  2213.117
 509  1819.623
 510  2248.184
 511  2327.358
