# Input file       =  1180595367.128308_cleaned.dat
# Candidate        =  PSR_0332+5434
# Telescope        =  AR
# Epoch_topo       =  57908.298450559123
# Epoch_bary       =  N/A
# T_sample         =  0.002
# Data Folded      =  7340032
# Data Avg         =  0.0323288739220677
# Data StdDev      =  1.0001229964875  
# Profile Bins     =  512
# Profile Avg      =  463.000799047316 
# Profile StdDev   =  119.747763119678 
# Reduced chi-sqr  =  1.124
# Prob(Noise)      <  0.0268   (~1.9 sigma)
# P_topo (ms)      =  714.513376429533  +/- 0.000224
# P'_topo (s/s)    =  -0                +/- 1.18e-10
# P''_topo (s/s^2) =  0                 +/- 5.21e-14
# P_bary (ms)      =  N/A
# P'_bary (s/s)    =  N/A
# P''_bary (s/s^2) =  N/A
# P_orb (s)        =  N/A
# asin(i)/c (s)    =  N/A
# eccentricity     =  N/A
# w (rad)          =  N/A
# T_peri           =  N/A
######################################################
   0  966.7759
   1  906.5513
   2  817.3901
   3  643.5005
   4  520.0713
   5  397.5482
   6  471.9749
   7  403.7629
   8  503.0389
   9  452.9306
  10  553.0232
  11  540.876
  12  537.8103
  13  556.1292
  14  450.1547
  15  547.0145
  16  648.6492
  17  566.5322
  18  478.8484
  19  477.8347
  20  504.4254
  21  535.9584
  22  477.5181
  23  455.3918
  24  451.64
  25  479.7534
  26  563.2914
  27  459.7695
  28  524.5287
  29  578.5801
  30  563.1392
  31  640.4055
  32  665.5606
  33  563.8091
  34  433.477
  35  418.554
  36  515.1845
  37  541.0345
  38  437.6473
  39  515.1866
  40  491.2344
  41  479.1883
  42  369.3246
  43  335.8609
  44  480.0215
  45  445.5979
  46  397.8207
  47  332.2727
  48  238.4601
  49  256.0247
  50  399.8652
  51  521.6633
  52  513.541
  53  383.9493
  54  460.1742
  55  501.596
  56  558.1081
  57  453.7655
  58  370.5999
  59  320.6981
  60  354.2235
  61  404.5554
  62  411.8896
  63  414.7715
  64  473.4184
  65  400.2097
  66  319.1302
  67  372.2935
  68  490.4021
  69  480.7254
  70  472.8737
  71  275.7491
  72  390.6765
  73  449.3418
  74  521.4373
  75  560.5477
  76  508.6625
  77  432.807
  78  414.9078
  79  369.5593
  80  311.0477
  81  503.0034
  82  579.0001
  83  426.0882
  84  421.9675
  85  474.4854
  86  481.4563
  87  444.1724
  88  523.904
  89  469.6227
  90  437.3811
  91  453.2785
  92  458.1332
  93  387.0734
  94  370.484
  95  465.3962
  96  434.455
  97  473.5619
  98  497.9181
  99  593.8953
 100  520.2195
 101  483.9225
 102  476.5908
 103  507.7019
 104  450.0411
 105  452.2547
 106  420.0741
 107  503.4492
 108  517.1138
 109  500.879
 110  562.7316
 111  580.1449
 112  532.8539
 113  517.1111
 114  423.2893
 115  496.4684
 116  484.2212
 117  480.6403
 118  437.341
 119  478.6451
 120  500.6977
 121  380.8308
 122  481.7549
 123  452.8717
 124  520.6946
 125  502.374
 126  400.7543
 127  455.5009
 128  279.2173
 129  353.9193
 130  397.995
 131  318.2404
 132  423.4274
 133  499.1039
 134  471.0937
 135  465.4317
 136  439.6775
 137  315.2308
 138  341.91
 139  480.0024
 140  504.5421
 141  479.4835
 142  455.6109
 143  479.0514
 144  295.0965
 145  373.0449
 146  308.4384
 147  309.5644
 148  360.6966
 149  386.8932
 150  495.8745
 151  451.1894
 152  317.4303
 153  368.1847
 154  416.334
 155  443.5137
 156  481.7986
 157  516.0076
 158  395.0934
 159  417.1269
 160  466.4096
 161  451.6001
 162  543.3936
 163  505.3708
 164  419.7011
 165  491.58
 166  402.9572
 167  358.9783
 168  363.4037
 169  343.1342
 170  430.2414
 171  418.9567
 172  423.6809
 173  487.7063
 174  577.9737
 175  537.4686
 176  510.7393
 177  443.795
 178  442.6523
 179  419.0505
 180  454.7216
 181  554.788
 182  546.6881
 183  506.6825
 184  449.1157
 185  426.6056
 186  379.9443
 187  431.0122
 188  495.8063
 189  544.8732
 190  370.1741
 191  408.4571
 192  426.7047
 193  421.7871
 194  452.24
 195  447.6504
 196  517.553
 197  645.7039
 198  612.5518
 199  453.7943
 200  412.9253
 201  293.0905
 202  398.3004
 203  452.6027
 204  551.2893
 205  546.2426
 206  417.1003
 207  362.4026
 208  421.085
 209  558.5311
 210  461.2437
 211  376.7218
 212  421.241
 213  464.6271
 214  458.6274
 215  444.0189
 216  432.2088
 217  371.4089
 218  413.4131
 219  404.4327
 220  348.3209
 221  341.2087
 222  383.8435
 223  388.9295
 224  448.7063
 225  652.1481
 226  426.0222
 227  374.6716
 228  494.7939
 229  452.0011
 230  470.7701
 231  435.1696
 232  515.7169
 233  455.3064
 234  446.4405
 235  354.9469
 236  374.4504
 237  388.1774
 238  455.4147
 239  465.0388
 240  573.5966
 241  568.2885
 242  495.111
 243  481.1484
 244  454.9403
 245  433.0975
 246  510.0604
 247  590.7621
 248  595.2333
 249  516.1222
 250  464.1333
 251  498.5109
 252  504.4732
 253  404.1866
 254  390.8433
 255  445.9802
 256  554.1516
 257  565.3679
 258  437.471
 259  415.9802
 260  485.1217
 261  487.6733
 262  434.7505
 263  465.4335
 264  441.2613
 265  410.4394
 266  425.2032
 267  475.7583
 268  460.6655
 269  418.8368
 270  496.0755
 271  524.9581
 272  501.2444
 273  420.8394
 274  547.9379
 275  542.8532
 276  428.4761
 277  539.9398
 278  685.4055
 279  678.8766
 280  502.7212
 281  489.2555
 282  570.0203
 283  524.0055
 284  459.679
 285  491.0289
 286  510.8094
 287  622.8884
 288  476.0791
 289  456.4118
 290  606.0893
 291  486.6059
 292  518.9531
 293  595.0747
 294  569.323
 295  458.4568
 296  535.6434
 297  548.3271
 298  510.5933
 299  512.0563
 300  373.5709
 301  482.4391
 302  401.4078
 303  315.6479
 304  355.5506
 305  367.1556
 306  356.9814
 307  376.4983
 308  285.0302
 309  265.5681
 310  323.1892
 311  353.1632
 312  422.4342
 313  383.6062
 314  567.9808
 315  589.5579
 316  540.3984
 317  432.9752
 318  280.2955
 319  372.7354
 320  479.7322
 321  507.3015
 322  498.1621
 323  390.8725
 324  413.6418
 325  532.8783
 326  569.7042
 327  473.9691
 328  464.6277
 329  570.0725
 330  406.1596
 331  391.6171
 332  508.9467
 333  563.0236
 334  566.388
 335  519.1474
 336  432.9561
 337  408.0388
 338  347.4394
 339  324.5077
 340  380.2687
 341  486.1691
 342  535.9667
 343  434.8313
 344  334.1122
 345  432.7933
 346  492.7932
 347  456.2005
 348  320.1485
 349  341.4323
 350  343.1223
 351  438.3535
 352  472.0179
 353  556.062
 354  528.1389
 355  455.639
 356  439.7637
 357  319.3415
 358  425.2538
 359  509.4369
 360  461.3937
 361  541.563
 362  464.9362
 363  358.105
 364  449.7596
 365  501.0003
 366  503.0631
 367  436.4699
 368  379.5368
 369  431.2673
 370  517.3667
 371  429.9019
 372  467.1985
 373  486.3499
 374  487.747
 375  457.9768
 376  490.5322
 377  501.2892
 378  348.4377
 379  244.7166
 380  349.1321
 381  448.4094
 382  536.0973
 383  358.8058
 384  424.125
 385  518.1927
 386  382.1251
 387  277.4641
 388  446.3769
 389  488.4275
 390  338.8026
 391  378.3192
 392  312.4253
 393  375.1922
 394  424.8736
 395  499.2433
 396  452.0779
 397  420.055
 398  439.4721
 399  316.6794
 400  375.5213
 401  365.9111
 402  435.9714
 403  465.2815
 404  418.8801
 405  413.1093
 406  385.7824
 407  453.1846
 408  583.5334
 409  505.9534
 410  386.4254
 411  435.6837
 412  347.9555
 413  356.6626
 414  497.1702
 415  599.7053
 416  490.2114
 417  472.2549
 418  508.6952
 419  519.2803
 420  527.6724
 421  488.1735
 422  470.1211
 423  447.4835
 424  447.1416
 425  407.3008
 426  448.0191
 427  452.1549
 428  524.7957
 429  548.0714
 430  625.0627
 431  496.1268
 432  474.7594
 433  485.8394
 434  496.9059
 435  441.1819
 436  442.0302
 437  487.3401
 438  443.6703
 439  429.425
 440  334.3044
 441  311.6417
 442  321.4809
 443  303.8184
 444  424.0024
 445  453.7388
 446  395.9392
 447  499.1389
 448  483.9079
 449  512.9333
 450  540.2481
 451  522.4702
 452  560.5284
 453  561.9161
 454  580.7325
 455  561.0504
 456  524.1148
 457  473.5871
 458  543.3534
 459  607.8124
 460  652.3804
 461  585.7852
 462  545.7457
 463  491.9875
 464  416.3698
 465  355.7485
 466  290.5943
 467  409.337
 468  408.8138
 469  424.9203
 470  435.7338
 471  379.0251
 472  302.1867
 473  407.9332
 474  394.1841
 475  384.1834
 476  357.6576
 477  226.3543
 478  398.2441
 479  369.3802
 480  322.8806
 481  384.9866
 482  388.2796
 483  390.7716
 484  398.0272
 485  383.4157
 486  427.2859
 487  432.4399
 488  468.2024
 489  559.5479
 490  486.3198
 491  445.5905
 492  478.2316
 493  565.7987
 494  537.5357
 495  560.4899
 496  495.2807
 497  564.1219
 498  526.7595
 499  492.7902
 500  554.5698
 501  519.3829
 502  501.0359
 503  501.826
 504  561.0214
 505  616.1594
 506  702.8814
 507  719.5281
 508  696.422
 509  698.8377
 510  811.3359
 511  953.3853
