# Input file       =  1180868747.104038_cleaned.dat
# Candidate        =  PSR_0332+5434
# Telescope        =  AR
# Epoch_topo       =  57911.462570648589
# Epoch_bary       =  N/A
# T_sample         =  0.002
# Data Folded      =  7340032
# Data Avg         =  0.0265537581015895
# Data StdDev      =  1.00003784339072 
# Profile Bins     =  512
# Profile Avg      =  380.447250665002 
# Profile StdDev   =  119.737567480843 
# Reduced chi-sqr  =  1.117
# Prob(Noise)      <  0.034   (~1.8 sigma)
# P_topo (ms)      =  714.510669645947  +/- 0.000285
# P'_topo (s/s)    =  -0                +/- 1.5e-10
# P''_topo (s/s^2) =  0                 +/- 6.63e-14
# P_bary (ms)      =  N/A
# P'_bary (s/s)    =  N/A
# P''_bary (s/s^2) =  N/A
# P_orb (s)        =  N/A
# asin(i)/c (s)    =  N/A
# eccentricity     =  N/A
# w (rad)          =  N/A
# T_peri           =  N/A
######################################################
   0  362.8252
   1  493.454
   2  406.0291
   3  407.4316
   4  442.8336
   5  374.0099
   6  442.9591
   7  241.7098
   8  361.0015
   9  500.8639
  10  458.8583
  11  370.1179
  12  355.445
  13  367.7793
  14  426.5725
  15  499.4357
  16  474.8141
  17  454.3839
  18  439.2467
  19  441.8259
  20  456.068
  21  364.1436
  22  530.1187
  23  407.088
  24  404.8923
  25  311.6347
  26  349.1045
  27  348.3437
  28  345.0138
  29  313.3955
  30  404.3469
  31  437.1835
  32  345.5925
  33  311.0301
  34  275.1939
  35  462.1293
  36  385.3105
  37  281.7473
  38  369.8085
  39  475.2375
  40  276.3843
  41  144.5945
  42  260.6024
  43  313.8844
  44  200.4342
  45  111.5368
  46  188.6393
  47  353.2642
  48  478.6766
  49  362.0044
  50  331.5049
  51  435.9737
  52  273.9363
  53  308.4094
  54  331.1554
  55  411.1526
  56  415.7806
  57  467.3084
  58  471.0398
  59  326.9529
  60  427.8902
  61  469.2196
  62  470.6871
  63  422.1479
  64  429.7763
  65  353.2021
  66  293.7613
  67  380.2224
  68  419.0107
  69  409.9072
  70  346.0898
  71  391.067
  72  435.1152
  73  450.4707
  74  399.7813
  75  512.4006
  76  452.4931
  77  339.0577
  78  377.8188
  79  345.0742
  80  442.0301
  81  515.5831
  82  523.9586
  83  466.8674
  84  475.3506
  85  529.2383
  86  550.4112
  87  337.2914
  88  371.8709
  89  366.9073
  90  316.2486
  91  347.957
  92  496.756
  93  533.5437
  94  441.9392
  95  322.6109
  96  357.9954
  97  364.9301
  98  255.6003
  99  350.5331
 100  360.2329
 101  262.0284
 102  241.0105
 103  264.9774
 104  276.8905
 105  365.7715
 106  396.027
 107  328.0873
 108  216.6649
 109  277.9635
 110  323.4093
 111  288.6053
 112  220.1962
 113  319.7505
 114  292.9985
 115  287.6958
 116  311.591
 117  377.0714
 118  303.3242
 119  236.1279
 120  346.6109
 121  311.9948
 122  308.3461
 123  299.8797
 124  265.2466
 125  348.156
 126  399.4669
 127  448.3065
 128  409.0011
 129  509.4118
 130  449.2031
 131  415.511
 132  429.8537
 133  346.1588
 134  378.3575
 135  396.2012
 136  277.6837
 137  288.2425
 138  356.4641
 139  368.0991
 140  323.5185
 141  486.0892
 142  529.8156
 143  416.9194
 144  366.662
 145  349.9603
 146  374.0266
 147  429.2532
 148  376.5959
 149  473.5495
 150  516.5733
 151  333.9343
 152  331.0146
 153  496.9688
 154  550.3201
 155  462.9272
 156  327.4112
 157  384.1691
 158  351.2503
 159  378.9484
 160  443.4065
 161  518.8933
 162  469.5498
 163  420.0077
 164  383.7702
 165  368.7367
 166  463.9354
 167  477.3761
 168  400.0222
 169  448.8605
 170  421.329
 171  366.9993
 172  447.2874
 173  362.6978
 174  339.4525
 175  377.2098
 176  397.2769
 177  335.7305
 178  373.5108
 179  426.1785
 180  299.4485
 181  340.9807
 182  319.616
 183  297.1088
 184  369.1919
 185  335.6481
 186  337.2892
 187  384.9682
 188  296.6386
 189  320.0011
 190  384.3087
 191  379.711
 192  476.4439
 193  373.5693
 194  448.6649
 195  447.5611
 196  362.6317
 197  362.2928
 198  252.3128
 199  251.0622
 200  235.1717
 201  324.5681
 202  421.0581
 203  323.2739
 204  310.3281
 205  284.6139
 206  252.4152
 207  131.3944
 208  166.3543
 209  147.5811
 210  123.4655
 211  282.5343
 212  402.1303
 213  262.0114
 214  171.4957
 215  218.5215
 216  208.4273
 217  282.464
 218  355.4361
 219  360.7607
 220  330.0534
 221  391.7469
 222  349.6173
 223  275.9316
 224  311.8485
 225  373.8381
 226  425.9521
 227  345.8489
 228  348.7933
 229  518.6086
 230  336.8792
 231  270.9632
 232  317.6085
 233  336.2327
 234  438.4413
 235  381.8253
 236  446.7975
 237  463.3492
 238  410.7107
 239  334.7473
 240  305.2801
 241  286.5209
 242  373.1671
 243  413.2215
 244  407.1264
 245  332.5001
 246  338.6669
 247  367.9906
 248  326.391
 249  369.7719
 250  370.986
 251  292.046
 252  300.7119
 253  330.139
 254  446.1813
 255  425.5832
 256  390.5344
 257  381.3102
 258  455.0671
 259  460.7021
 260  333.9322
 261  312.6765
 262  305.1395
 263  300.1451
 264  365.1966
 265  385.977
 266  332.821
 267  455.4764
 268  320.783
 269  345.1631
 270  430.0092
 271  443.2614
 272  385.2807
 273  427.2438
 274  429.2462
 275  400.8604
 276  413.3067
 277  425.6988
 278  449.8618
 279  461.1403
 280  587.6783
 281  596.2572
 282  504.357
 283  520.3994
 284  696.395
 285  831.4221
 286  830.9811
 287  820.9289
 288  746.1432
 289  487.8706
 290  404.4834
 291  348.3584
 292  353.0708
 293  333.7238
 294  335.9904
 295  357.5235
 296  395.7132
 297  413.0536
 298  382.5697
 299  464.407
 300  491.8552
 301  544.1892
 302  497.0856
 303  453.149
 304  465.0011
 305  387.4276
 306  367.5756
 307  424.6163
 308  435.4151
 309  289.8949
 310  405.6494
 311  404.7104
 312  469.5035
 313  448.5321
 314  444.6245
 315  434.2337
 316  395.6339
 317  345.9983
 318  264.8299
 319  321.867
 320  449.7812
 321  526.875
 322  361.8051
 323  332.9094
 324  471.9524
 325  448.128
 326  434.2318
 327  416.0724
 328  370.9994
 329  423.4013
 330  422.0809
 331  404.9351
 332  402.4161
 333  397.1038
 334  323.8951
 335  399.3085
 336  392.2567
 337  333.5099
 338  287.8723
 339  343.0607
 340  452.5935
 341  435.9453
 342  417.8105
 343  343.6623
 344  314.9686
 345  387.4431
 346  454.7034
 347  410.993
 348  496.8268
 349  451.3766
 350  382.9254
 351  316.901
 352  373.9845
 353  402.7997
 354  486.6882
 355  470.8752
 356  378.3074
 357  533.3336
 358  527.3264
 359  427.3316
 360  509.1393
 361  510.1671
 362  383.8705
 363  333.416
 364  365.2663
 365  345.2797
 366  265.5239
 367  316.4118
 368  341.5944
 369  378.292
 370  327.1925
 371  341.8996
 372  197.3521
 373  205.0423
 374  250.3968
 375  316.1591
 376  329.3556
 377  374.2448
 378  444.664
 379  517.1013
 380  333.4016
 381  235.3853
 382  225.5419
 383  333.2946
 384  366.5138
 385  462.3132
 386  480.5487
 387  481.1437
 388  420.5491
 389  471.6387
 390  504.0631
 391  459.806
 392  482.63
 393  515.9511
 394  413.1867
 395  412.5474
 396  483.3383
 397  407.0356
 398  349.7729
 399  459.1786
 400  425.3859
 401  384.3352
 402  427.2164
 403  447.4581
 404  515.4868
 405  470.1935
 406  447.3258
 407  468.9767
 408  434.845
 409  480.5798
 410  359.0537
 411  473.157
 412  541.7548
 413  343.0712
 414  231.9055
 415  447.8427
 416  382.1955
 417  251.7315
 418  280.2924
 419  347.3911
 420  438.8427
 421  421.5881
 422  452.9817
 423  477.8912
 424  358.2953
 425  347.0883
 426  346.1436
 427  409.2147
 428  408.0293
 429  330.0663
 430  288.7507
 431  359.9633
 432  394.5672
 433  466.476
 434  479.8527
 435  457.9824
 436  285.4767
 437  286.6356
 438  450.1146
 439  397.5835
 440  401.2589
 441  468.3435
 442  522.4887
 443  349.8067
 444  365.3774
 445  287.5835
 446  374.7103
 447  385.3984
 448  423.2029
 449  439.7864
 450  370.8685
 451  408.8043
 452  422.6361
 453  316.9923
 454  299.6938
 455  263.56
 456  339.2124
 457  245.9435
 458  247.8765
 459  304.5903
 460  274.4966
 461  268.4797
 462  253.1397
 463  266.2961
 464  225.4823
 465  169.1885
 466  259.7858
 467  235.733
 468  180.3077
 469  302.6556
 470  354.3199
 471  223.7521
 472  87.18513
 473  253.4554
 474  303.9177
 475  281.6551
 476  319.7617
 477  381.5144
 478  326.6307
 479  326.3535
 480  206.3968
 481  269.2885
 482  353.9137
 483  407.6422
 484  394.351
 485  382.6055
 486  375.3838
 487  329.2026
 488  335.1589
 489  458.892
 490  368.4105
 491  324.5529
 492  505.5777
 493  395.7834
 494  452.4638
 495  410.0407
 496  460.2884
 497  407.0606
 498  343.1026
 499  375.8469
 500  418.3552
 501  417.6779
 502  413.3916
 503  508.9607
 504  393.2422
 505  355.5108
 506  299.3802
 507  379.7716
 508  504.4652
 509  424.9962
 510  349.6001
 511  284.8168
