# Input file       =  1180007091.099125_cleaned.dat
# Candidate        =  PSR_0332+5434
# Telescope        =  AR
# Epoch_topo       =  57901.489700221355
# Epoch_bary       =  N/A
# T_sample         =  0.002
# Data Folded      =  7340032
# Data Avg         =  0.028038038842485
# Data StdDev      =  1.00005625216176 
# Profile Bins     =  512
# Profile Avg      =  401.933226887336 
# Profile StdDev   =  119.739771618896 
# Reduced chi-sqr  =  1.105
# Prob(Noise)      <  0.0504   (~1.6 sigma)
# P_topo (ms)      =  714.520363795348  +/- 0.000401
# P'_topo (s/s)    =  -0                +/- 2.12e-10
# P''_topo (s/s^2) =  0                 +/- 9.35e-14
# P_bary (ms)      =  N/A
# P'_bary (s/s)    =  N/A
# P''_bary (s/s^2) =  N/A
# P_orb (s)        =  N/A
# asin(i)/c (s)    =  N/A
# eccentricity     =  N/A
# w (rad)          =  N/A
# T_peri           =  N/A
######################################################
   0  848.1072
   1  778.6507
   2  679.5762
   3  537.6375
   4  544.9655
   5  567.8075
   6  639.7836
   7  468.3544
   8  422.1309
   9  520.8192
  10  520.879
  11  450.9598
  12  374.8027
  13  409.9646
  14  525.9254
  15  487.9617
  16  524.9425
  17  499.2351
  18  484.4962
  19  413.6178
  20  475.812
  21  344.2134
  22  334.682
  23  293.0511
  24  382.8109
  25  464.3763
  26  499.28
  27  428.722
  28  414.8555
  29  420.7166
  30  415.7463
  31  463.0041
  32  382.223
  33  268.5249
  34  308.8655
  35  420.8542
  36  396.3445
  37  396.5406
  38  460.18
  39  460.0868
  40  483.3406
  41  486.5339
  42  470.8323
  43  352.9228
  44  390.219
  45  589.9032
  46  542.0356
  47  399.2475
  48  458.9829
  49  403.7662
  50  394.1802
  51  351.7192
  52  330.0384
  53  189.9852
  54  164.1083
  55  402.7538
  56  415.9949
  57  475.7996
  58  512.8065
  59  366.7648
  60  291.0011
  61  367.4065
  62  425.9396
  63  335.316
  64  334.8493
  65  441.7531
  66  350.7937
  67  335.198
  68  391.3011
  69  513.8846
  70  452.8733
  71  354.6445
  72  377.8847
  73  292.6395
  74  285.7697
  75  348.3493
  76  373.2094
  77  345.5986
  78  298.2889
  79  384.1026
  80  426.1765
  81  365.6446
  82  359.7404
  83  282.8126
  84  371.138
  85  527.3833
  86  379.3059
  87  313.3169
  88  298.3423
  89  344.095
  90  352.1164
  91  395.7894
  92  387.725
  93  424.868
  94  472.5044
  95  463.5602
  96  434.3548
  97  417.2491
  98  430.91
  99  436.2414
 100  454.0464
 101  304.3466
 102  320.0885
 103  330.4102
 104  353.7492
 105  375.9135
 106  545.9788
 107  403.5609
 108  300.4907
 109  369.3651
 110  446.5909
 111  422.2275
 112  398.7806
 113  426.553
 114  417.8802
 115  397.9976
 116  311.5424
 117  468.3379
 118  435.4758
 119  423.6399
 120  469.6749
 121  463.9547
 122  475.7662
 123  542.3248
 124  486.7316
 125  436.8606
 126  438.7596
 127  524.128
 128  556.4065
 129  444.3969
 130  469.3168
 131  385.8458
 132  475.8593
 133  346.7704
 134  359.1588
 135  395.45
 136  409.5472
 137  437.0052
 138  439.0361
 139  410.4399
 140  290.4963
 141  361.9042
 142  498.5755
 143  494.8899
 144  463.929
 145  435.2866
 146  379.3761
 147  463.7071
 148  414.0796
 149  394.8438
 150  369.2649
 151  318.6608
 152  331.4216
 153  278.0255
 154  156.1582
 155  353.5309
 156  295.7876
 157  310.8146
 158  367.6937
 159  247.7412
 160  230.8432
 161  225.3589
 162  252.589
 163  281.0767
 164  439.8412
 165  514.2081
 166  451.3694
 167  463.9937
 168  363.2703
 169  335.8025
 170  371.0203
 171  545.1205
 172  502.2394
 173  520.3335
 174  423.6397
 175  310.2067
 176  348.7595
 177  432.4123
 178  279.7751
 179  197.2408
 180  326.1454
 181  363.4836
 182  409.2328
 183  319.8442
 184  301.8247
 185  351.0749
 186  537.364
 187  441.7892
 188  346.3925
 189  336.7614
 190  484.1374
 191  466.2067
 192  428.6835
 193  350.523
 194  477.1247
 195  509.2622
 196  461.6522
 197  481.2311
 198  505.6243
 199  394.1825
 200  248.6448
 201  234.6467
 202  185.667
 203  419.205
 204  428.4204
 205  402.6462
 206  353.2135
 207  448.2765
 208  458.98
 209  429.685
 210  359.3723
 211  343.0668
 212  330.0465
 213  421.0899
 214  471.028
 215  436.9731
 216  320.857
 217  338.8492
 218  483.881
 219  506.0011
 220  381.2872
 221  448.908
 222  478.0637
 223  450.6061
 224  421.1201
 225  458.0133
 226  473.4637
 227  386.0305
 228  354.125
 229  411.2589
 230  209.8088
 231  220.131
 232  331.8181
 233  428.2005
 234  363.3182
 235  334.819
 236  353.7366
 237  237.5938
 238  378.2521
 239  419.2872
 240  492.9611
 241  542.5443
 242  348.2902
 243  260.3944
 244  377.626
 245  458.7327
 246  477.1967
 247  519.4413
 248  374.9062
 249  384.4978
 250  382.922
 251  350.9417
 252  462.1555
 253  366.3139
 254  362.4536
 255  394.5869
 256  399.1494
 257  355.8857
 258  290.2978
 259  374.1777
 260  455.5485
 261  384.8262
 262  323.9029
 263  422.1474
 264  537.7444
 265  425.2225
 266  338.2519
 267  289.4815
 268  351.5764
 269  457.4873
 270  447.2339
 271  387.2646
 272  370.9195
 273  334.9929
 274  354.3235
 275  431.9343
 276  436.9271
 277  401.2894
 278  362.905
 279  292.6794
 280  370.6025
 281  409.2288
 282  360.3019
 283  266.0615
 284  303.3202
 285  253.2525
 286  359.9596
 287  426.362
 288  471.5061
 289  387.8532
 290  313.675
 291  247.3914
 292  284.4886
 293  214.8018
 294  386.9469
 295  448.9318
 296  450.0273
 297  486.9122
 298  388.8654
 299  440.5721
 300  408.6729
 301  313.9615
 302  386.1121
 303  405.0031
 304  464.5852
 305  427.5953
 306  502.6437
 307  491.4049
 308  501.144
 309  529.8098
 310  488.7654
 311  471.6426
 312  497.7493
 313  441.2618
 314  556.8074
 315  411.6116
 316  388.4759
 317  348.8516
 318  288.1514
 319  314.8167
 320  400.4406
 321  465.2591
 322  421.0628
 323  418.8917
 324  372.0732
 325  348.4133
 326  227.0224
 327  442.8547
 328  495.8272
 329  346.1867
 330  379.6957
 331  361.807
 332  304.6806
 333  344.1175
 334  407.3442
 335  347.7842
 336  267.1408
 337  343.0005
 338  427.2035
 339  464.482
 340  438.5883
 341  428.8055
 342  329.5668
 343  416.9661
 344  331.9709
 345  262.8982
 346  381.593
 347  369.6245
 348  361.5901
 349  417.433
 350  351.108
 351  432.7843
 352  442.8227
 353  471.0927
 354  454.6844
 355  483.5473
 356  419.7797
 357  383.5974
 358  326.665
 359  283.296
 360  367.8586
 361  327.0917
 362  361.193
 363  293.0764
 364  322.1054
 365  345.0188
 366  328.799
 367  365.2052
 368  372.9099
 369  420.1185
 370  314.5932
 371  376.5629
 372  422.5043
 373  426.281
 374  465.8609
 375  446.6246
 376  387.8662
 377  400.3163
 378  258.272
 379  442.7482
 380  458.4536
 381  407.7028
 382  409.7673
 383  353.0198
 384  572.5275
 385  548.4913
 386  441.7666
 387  473.5324
 388  262.5641
 389  275.6152
 390  473.5545
 391  461.813
 392  467.2196
 393  443.4236
 394  330.6285
 395  330.0541
 396  381.0383
 397  345.6472
 398  415.6247
 399  424.5104
 400  369.8349
 401  376.3517
 402  287.945
 403  337.7813
 404  302.3568
 405  337.2014
 406  365.0052
 407  256.6695
 408  294.4634
 409  312.2137
 410  357.1821
 411  362.2841
 412  396.0271
 413  346.7677
 414  290.3644
 415  322.4732
 416  396.9802
 417  429.9352
 418  444.2849
 419  497.0699
 420  540.2878
 421  429.1554
 422  318.7075
 423  242.3272
 424  411.5584
 425  429.8527
 426  417.8849
 427  545.8755
 428  500.5348
 429  434.1305
 430  492.8778
 431  494.7342
 432  447.0865
 433  342.6669
 434  261.5985
 435  239.7548
 436  312.394
 437  415.2942
 438  344.1976
 439  269.9396
 440  339.1364
 441  451.3206
 442  452.8384
 443  479.8268
 444  480.7698
 445  479.4019
 446  529.8803
 447  496.42
 448  362.3778
 449  308.9556
 450  417.5253
 451  431.0833
 452  449.3978
 453  446.437
 454  415.8618
 455  404.4763
 456  469.376
 457  438.545
 458  446.6067
 459  524.7505
 460  458.8169
 461  454.3565
 462  431.6322
 463  543.5496
 464  537.4803
 465  343.9034
 466  392.8355
 467  431.2212
 468  500.403
 469  487.6144
 470  533.7997
 471  402.0437
 472  352.2982
 473  387.4763
 474  389.8582
 475  337.847
 476  307.4606
 477  264.1454
 478  302.0166
 479  327.5131
 480  280.688
 481  203.9446
 482  435.6042
 483  425.5161
 484  374.7928
 485  307.194
 486  364.8945
 487  408.1591
 488  367.037
 489  330.4792
 490  367.2811
 491  410.6459
 492  392.5786
 493  367.7455
 494  377.0524
 495  401.674
 496  442.5208
 497  448.5146
 498  347.7344
 499  245.4098
 500  320.4059
 501  403.8293
 502  389.6305
 503  417.6806
 504  373.9996
 505  351.1148
 506  504.8094
 507  553.7689
 508  666.088
 509  790.3032
 510  894.0842
 511  911.2493
