# Input file       =  1180580777.110533_cleaned.dat
# Candidate        =  PSR_0332+5434
# Telescope        =  AR
# Epoch_topo       =  57908.129584612652
# Epoch_bary       =  N/A
# T_sample         =  0.002
# Data Folded      =  7143424
# Data Avg         =  0.0274997578695951
# Data StdDev      =  1.00004831529701 
# Profile Bins     =  512
# Profile Avg      =  383.662539606783 
# Profile StdDev   =  118.124291416359 
# Reduced chi-sqr  =  1.096
# Prob(Noise)      <  0.0648   (~1.5 sigma)
# P_topo (ms)      =  714.513527524386  +/- 0.000223
# P'_topo (s/s)    =  -0                +/- 1.21e-10
# P''_topo (s/s^2) =  0                 +/- 5.48e-14
# P_bary (ms)      =  N/A
# P'_bary (s/s)    =  N/A
# P''_bary (s/s^2) =  N/A
# P_orb (s)        =  N/A
# asin(i)/c (s)    =  N/A
# eccentricity     =  N/A
# w (rad)          =  N/A
# T_peri           =  N/A
######################################################
   0  368.6837
   1  498.0059
   2  576.5234
   3  371.3609
   4  464.5547
   5  402.3238
   6  352.8636
   7  279.4777
   8  373.5159
   9  531.4138
  10  507.3969
  11  379.646
  12  343.6925
  13  372.2838
  14  407.6187
  15  425.0864
  16  348.8564
  17  227.2981
  18  368.3822
  19  342.5978
  20  288.7114
  21  240.748
  22  226.3711
  23  207.0149
  24  282.7691
  25  190.5691
  26  267.8543
  27  192.4851
  28  303.5855
  29  344.6423
  30  192.0689
  31  265.6767
  32  334.1675
  33  415.5727
  34  393.9475
  35  300.7737
  36  339.7041
  37  363.9886
  38  311.7046
  39  303.6302
  40  300.0924
  41  310.3708
  42  329.8357
  43  355.2287
  44  334.7301
  45  367.7068
  46  328.1183
  47  385.2072
  48  395.9263
  49  356.6833
  50  409.6972
  51  463.1923
  52  425.8479
  53  335.437
  54  327.4832
  55  424.0316
  56  471.235
  57  527.4761
  58  509.35
  59  515.0206
  60  455.0573
  61  457.9377
  62  517.101
  63  543.3939
  64  597.796
  65  585.6732
  66  453.4135
  67  390.261
  68  460.4299
  69  511.7143
  70  542.1923
  71  452.0095
  72  353.9846
  73  410.8232
  74  371.7672
  75  354.9475
  76  449.9427
  77  416.5269
  78  450.3514
  79  385.3649
  80  296.9432
  81  364.7654
  82  505.8884
  83  541.6727
  84  377.7749
  85  485.0521
  86  476.6396
  87  343.7306
  88  379.0777
  89  406.3127
  90  308.6081
  91  269.9367
  92  349.1164
  93  315.3657
  94  287.7654
  95  376.8468
  96  398.3894
  97  437.3013
  98  390.1702
  99  393.2645
 100  340.62
 101  353.8769
 102  350.9622
 103  357.3555
 104  389.7238
 105  340.6933
 106  305.8709
 107  410.029
 108  428.1202
 109  386.3758
 110  372.4965
 111  396.8416
 112  347.309
 113  367.3367
 114  327.6806
 115  334.6573
 116  271.5075
 117  363.2227
 118  387.2571
 119  427.8943
 120  438.073
 121  352.3089
 122  292.0125
 123  335.9271
 124  378.8988
 125  373.9821
 126  345.0312
 127  448.3887
 128  390.8779
 129  354.2966
 130  467.5786
 131  473.2409
 132  443.3396
 133  329.4683
 134  402.7843
 135  337.1395
 136  311.0932
 137  449.2359
 138  509.8922
 139  392.0863
 140  355.7391
 141  362.348
 142  317.0182
 143  425.5439
 144  485.7972
 145  494.8123
 146  457.7284
 147  414.7114
 148  354.9142
 149  424.7293
 150  567.3442
 151  438.6335
 152  416.9086
 153  367.9039
 154  431.6695
 155  316.7332
 156  394.098
 157  436.2004
 158  345.5836
 159  436.1443
 160  399.7865
 161  415.256
 162  370.8798
 163  397.7507
 164  420.5626
 165  236.5759
 166  298.2628
 167  360.2255
 168  332.4081
 169  379.301
 170  376.3241
 171  314.3705
 172  215.2845
 173  247.1329
 174  323.8072
 175  495.9074
 176  469.4427
 177  366.1996
 178  380.1587
 179  348.6765
 180  366.6971
 181  387.7295
 182  264.9759
 183  277.9143
 184  408.7003
 185  361.457
 186  259.584
 187  265.15
 188  292.9222
 189  270.9802
 190  353.2212
 191  428.9154
 192  400.8561
 193  412.5701
 194  411.0268
 195  375.7561
 196  380.6596
 197  415.1229
 198  373.0686
 199  370.593
 200  364.761
 201  376.1644
 202  386.942
 203  441.1129
 204  425.1782
 205  476.6307
 206  470.4072
 207  387.0796
 208  378.1515
 209  421.8022
 210  334.9974
 211  387.6275
 212  353.213
 213  195.3839
 214  320.254
 215  466.2268
 216  439.3676
 217  360.0202
 218  265.6636
 219  355.9526
 220  344.9228
 221  340.2506
 222  396.1253
 223  342.263
 224  308.8581
 225  324.5281
 226  342.1129
 227  446.0148
 228  433.3777
 229  463.6218
 230  483.7465
 231  454.6177
 232  440.7327
 233  391.8297
 234  444.1272
 235  489.7607
 236  359.5365
 237  327.5106
 238  379.4905
 239  449.7798
 240  478.441
 241  422.6733
 242  303.9403
 243  328.2279
 244  278.1815
 245  361.1142
 246  487.9866
 247  318.9779
 248  319.0964
 249  313.7673
 250  328.1509
 251  324.6924
 252  436.3142
 253  421.3972
 254  305.771
 255  284.4887
 256  326.3296
 257  305.2809
 258  441.2034
 259  504.2031
 260  303.1639
 261  288.9729
 262  224.6006
 263  302.3306
 264  449.5903
 265  363.1296
 266  264.0702
 267  386.4174
 268  404.8025
 269  465.1353
 270  360.7545
 271  308.5542
 272  449.5878
 273  411.3102
 274  378.4716
 275  483.9458
 276  495.0036
 277  518.5492
 278  403.118
 279  452.5031
 280  495.2316
 281  344.8945
 282  413.2437
 283  453.6731
 284  339.914
 285  348.8202
 286  417.3972
 287  407.1163
 288  308.7986
 289  280.5427
 290  255.4366
 291  260.8719
 292  364.9659
 293  419.2672
 294  303.2045
 295  232.8339
 296  275.3848
 297  227.7672
 298  266.7428
 299  315.4451
 300  404.8615
 301  218.9591
 302  305.1968
 303  195.7757
 304  132.1122
 305  157.6965
 306  312.3954
 307  265.518
 308  354.0434
 309  371.7029
 310  366.2084
 311  293.0958
 312  305.0476
 313  354.9318
 314  328.2272
 315  386.6375
 316  381.3918
 317  372.0333
 318  287.3734
 319  306.2791
 320  406.4324
 321  353.5912
 322  405.2658
 323  319.1033
 324  307.8666
 325  317.9612
 326  458.1056
 327  440.755
 328  400.1853
 329  402.5958
 330  394.2504
 331  304.8993
 332  255.465
 333  261.1223
 334  373.1056
 335  359.8285
 336  393.5114
 337  277.2766
 338  300.6402
 339  301.3183
 340  310.8043
 341  329.9283
 342  307.3723
 343  335.0251
 344  224.8964
 345  369.5797
 346  434.2272
 347  368.6527
 348  336.3392
 349  311.9646
 350  301.2701
 351  407.4331
 352  326.0961
 353  348.1209
 354  356.6945
 355  307.9698
 356  354.9135
 357  272.2893
 358  375.4171
 359  321.906
 360  326.9933
 361  369.9484
 362  354.071
 363  329.4915
 364  323.2962
 365  287.8715
 366  373.6134
 367  399.3162
 368  360.6475
 369  358.8469
 370  335.9232
 371  300.8164
 372  306.0923
 373  377.0407
 374  369.9066
 375  381.6616
 376  458.6018
 377  337.5723
 378  387.9514
 379  389.2642
 380  526.9637
 381  584.281
 382  726.1036
 383  926.5484
 384  894.623
 385  755.4069
 386  634.216
 387  489.8915
 388  461.3896
 389  497.7848
 390  518.4432
 391  416.8026
 392  358.1329
 393  342.7467
 394  280.507
 395  359.5402
 396  561.4372
 397  389.7604
 398  290.6342
 399  349.9739
 400  506.0043
 401  470.6041
 402  537.8294
 403  498.9657
 404  486.2142
 405  377.0699
 406  267.2837
 407  387.1179
 408  446.1659
 409  428.0259
 410  363.3035
 411  294.7226
 412  319.5823
 413  342.8717
 414  373.1419
 415  292.5121
 416  394.6745
 417  479.0009
 418  508.4548
 419  477.6516
 420  481.9387
 421  425.071
 422  418.8404
 423  519.5857
 424  585.5596
 425  393.3261
 426  325.2877
 427  429.394
 428  474.6985
 429  388.0293
 430  414.5624
 431  401.3387
 432  373.2651
 433  243.0691
 434  207.6927
 435  390.475
 436  455.0737
 437  438.8223
 438  322.6682
 439  347.3291
 440  594.7371
 441  529.9715
 442  464.1423
 443  544.6117
 444  536.1061
 445  542.2492
 446  483.4923
 447  448.0201
 448  459.4942
 449  396.0272
 450  418.4613
 451  481.7579
 452  499.474
 453  483.4321
 454  442.1267
 455  409.5998
 456  388.2004
 457  286.5258
 458  249.6906
 459  349.647
 460  460.0026
 461  424.8622
 462  347.3882
 463  248.6325
 464  309.9133
 465  320.1859
 466  305.214
 467  259.015
 468  314.6866
 469  295.2197
 470  308.7426
 471  401.1466
 472  437.3874
 473  528.8743
 474  377.3706
 475  276.5406
 476  285.7578
 477  388.2696
 478  362.1001
 479  364.5161
 480  370.0266
 481  404.3063
 482  440.6545
 483  428.7374
 484  486.3884
 485  396.0166
 486  341.587
 487  441.2883
 488  555.054
 489  564.9641
 490  518.7172
 491  528.2551
 492  496.6496
 493  465.1013
 494  522.5336
 495  512.9395
 496  453.6162
 497  431.0927
 498  332.0789
 499  348.7657
 500  272.7567
 501  404.5737
 502  432.381
 503  449.3084
 504  426.854
 505  286.286
 506  369.2776
 507  382.8128
 508  327.4446
 509  373.4739
 510  345.4925
 511  379.4376
