# Input file       =  1180681523.102148-PSRB0329-2ms-sampling-dd.dat
# Candidate        =  PSR_0332+5434
# Telescope        =  AR
# Epoch_topo       =  57909.295626182269
# Epoch_bary       =  N/A
# T_sample         =  0.002
# Data Folded      =  7340032
# Data Avg         =  -2.76243800699911e-10
# Data StdDev      =  3.2377174052603  
# Profile Bins     =  512
# Profile Avg      =  -0.400143005207637
# Profile StdDev   =  387.66173586172  
# Reduced chi-sqr  =  1.222
# Prob(Noise)      <  0.000419   (~3.3 sigma)
# P_topo (ms)      =  714.512414803766  +/- 0.000303
# P'_topo (s/s)    =  -0                +/- 1.6e-10
# P''_topo (s/s^2) =  0                 +/- 7.05e-14
# P_bary (ms)      =  N/A
# P'_bary (s/s)    =  N/A
# P''_bary (s/s^2) =  N/A
# P_orb (s)        =  N/A
# asin(i)/c (s)    =  N/A
# eccentricity     =  N/A
# w (rad)          =  N/A
# T_peri           =  N/A
######################################################
   0  -217.0229
   1  -296.0694
   2  -292.6088
   3  -389.6985
   4  -561.4474
   5  -555.0288
   6  -469.2943
   7  -379.3602
   8  -534.809
   9  -566.2964
  10  -525.4968
  11  -624.0502
  12  -765.5812
  13  -931.2087
  14  -914.7125
  15  -833.9882
  16  -833.2666
  17  -666.8058
  18  -592.7288
  19  -458.1113
  20  -382.2329
  21  -427.7253
  22  -448.9377
  23  -866.9926
  24  -865.0593
  25  -598.5728
  26  -688.917
  27  -479.5786
  28  -412.6792
  29  -354.7395
  30  -391.588
  31  -531.6429
  32  -614.3859
  33  -364.6237
  34  -173.4815
  35  -219.071
  36  -499.5707
  37  -783.3999
  38  -714.5071
  39  -394.0292
  40  -368.7471
  41  -460.9233
  42  -169.5756
  43  -1.731093
  44  -234.7962
  45  -150.3371
  46  1.112233
  47  34.92669
  48  -90.42622
  49  170.1532
  50  206.1687
  51  200.5792
  52  -106.511
  53  -262.6548
  54  -148.9496
  55  -28.69496
  56  -219.0824
  57  -179.4838
  58  -70.19757
  59  52.3901
  60  -199.2762
  61  -239.1055
  62  -83.68359
  63  -179.351
  64  147.3978
  65  317.7613
  66  83.24602
  67  -74.57156
  68  -7.942844
  69  223.0998
  70  82.49745
  71  -129.7465
  72  -145.8653
  73  -22.01499
  74  -178.528
  75  -211.9886
  76  185.4432
  77  180.5296
  78  -15.12992
  79  -151.3316
  80  -141.0932
  81  -59.58916
  82  -337.5625
  83  -135.8858
  84  -29.42514
  85  157.5354
  86  -213.6139
  87  -320.1866
  88  -495.4263
  89  -228.6672
  90  -130.0097
  91  -126.2705
  92  -101.5142
  93  -20.66584
  94  107.6471
  95  333.6383
  96  41.60708
  97  -183.3495
  98  -218.8488
  99  -177.1042
 100  136.7911
 101  70.03429
 102  -70.778
 103  23.28612
 104  -37.35973
 105  -272.0909
 106  -408.3324
 107  -462.8197
 108  -364.1924
 109  215.0498
 110  87.21848
 111  14.41848
 112  -401.6713
 113  -242.907
 114  -555.7704
 115  -629.9057
 116  -528.8209
 117  -392.2963
 118  -212.7484
 119  -209.2697
 120  -231.8606
 121  -218.3766
 122  -212.1173
 123  -278.4485
 124  -138.4779
 125  12.74028
 126  94.43198
 127  -193.249
 128  -274.8089
 129  -163.5731
 130  -37.15787
 131  -58.93205
 132  29.54121
 133  -10.13105
 134  248.7445
 135  238.2565
 136  311.6161
 137  556.1152
 138  872.522
 139  1192.81
 140  1433.588
 141  1392.427
 142  1265.147
 143  826.5989
 144  155.5104
 145  -3.884786
 146  -75.33903
 147  244.8957
 148  153.5728
 149  455.2472
 150  724.0281
 151  127.2365
 152  69.94086
 153  328.7333
 154  132.7023
 155  248.6862
 156  373.9316
 157  343.0617
 158  421.5668
 159  374.8776
 160  270.8479
 161  -80.83226
 162  -195.7728
 163  -232.8346
 164  -276.2844
 165  -247.1173
 166  -9.721894
 167  172.8357
 168  94.51945
 169  -52.53828
 170  -256.1609
 171  -255.5634
 172  -105.2108
 173  -312.7696
 174  -159.9329
 175  62.50753
 176  -1.640037
 177  227.5954
 178  78.98276
 179  -93.10685
 180  -270.7965
 181  -144.8877
 182  191.8164
 183  108.522
 184  487.0045
 185  98.23889
 186  113.5053
 187  267.1492
 188  420.5225
 189  462.6703
 190  420.1624
 191  513.1662
 192  456.1406
 193  415.2713
 194  216.3051
 195  35.36745
 196  171.3916
 197  88.15456
 198  69.67747
 199  528.6564
 200  379.7895
 201  394.5842
 202  411.3794
 203  395.4027
 204  199.4983
 205  180.7447
 206  49.68096
 207  -63.40265
 208  177.1368
 209  295.4869
 210  13.13104
 211  157.8382
 212  268.6041
 213  -68.38989
 214  194.4049
 215  181.7156
 216  170.3055
 217  172.0062
 218  344.7874
 219  298.3577
 220  54.96149
 221  28.39484
 222  274.5855
 223  373.0901
 224  446.2295
 225  342.6396
 226  473.2593
 227  175.7333
 228  287.1482
 229  257.0586
 230  36.51102
 231  62.7356
 232  164.0741
 233  235.1226
 234  56.7762
 235  84.44713
 236  -4.682175
 237  -34.90452
 238  109.294
 239  304.5461
 240  255.7329
 241  280.1054
 242  79.73711
 243  222.206
 244  105.2469
 245  -70.68788
 246  334.7114
 247  637.0933
 248  597.1851
 249  482.3275
 250  435.586
 251  310.8634
 252  259.6788
 253  310.4652
 254  248.565
 255  275.3241
 256  284.9879
 257  299.1407
 258  585.1357
 259  581.5406
 260  361.0651
 261  196.1282
 262  351.607
 263  262.2632
 264  128.5286
 265  202.8069
 266  557.9697
 267  251.7993
 268  140.0586
 269  296.394
 270  353.9466
 271  337.6063
 272  348.6445
 273  425.7845
 274  452.4119
 275  670.0344
 276  429.6908
 277  240.2169
 278  -46.6193
 279  -91.8594
 280  179.6811
 281  102.227
 282  159.2557
 283  200.168
 284  207.6631
 285  152.7567
 286  85.63046
 287  -84.02883
 288  114.9239
 289  21.27447
 290  -75.98278
 291  -36.52203
 292  27.99155
 293  -48.27052
 294  -150.4204
 295  -305.1495
 296  -143.6137
 297  -6.159023
 298  80.08164
 299  489.4743
 300  603.7684
 301  282.4798
 302  9.132012
 303  -59.01534
 304  -157.2329
 305  56.88316
 306  209.7161
 307  304.3333
 308  395.9261
 309  164.7944
 310  93.0159
 311  -136.4012
 312  162.8082
 313  -199.9921
 314  -25.02383
 315  169.797
 316  -124.031
 317  -49.18819
 318  -85.48634
 319  -352.5422
 320  -84.34827
 321  -28.93956
 322  -154.9127
 323  256.1371
 324  384.5897
 325  199.4132
 326  89.07632
 327  79.35066
 328  16.57352
 329  127.4949
 330  -9.110324
 331  -1.590783
 332  -11.94365
 333  138.6737
 334  213.8831
 335  223.6921
 336  489.3077
 337  24.83133
 338  92.1624
 339  29.37442
 340  58.50928
 341  -14.21205
 342  141.1997
 343  64.03042
 344  -137.9346
 345  -178.3831
 346  -301.9288
 347  -296.2668
 348  -265.0247
 349  70.2487
 350  -11.01694
 351  -74.67486
 352  202.2771
 353  -105.2301
 354  -244.0725
 355  -133.6632
 356  -134.8234
 357  34.33606
 358  133.4042
 359  177.1372
 360  212.9561
 361  170.9561
 362  189.8967
 363  45.28585
 364  62.42918
 365  -14.26565
 366  -91.07719
 367  -129.7481
 368  -124.4881
 369  -268.231
 370  -237.31
 371  44.67641
 372  -21.12833
 373  18.90179
 374  107.0749
 375  161.3408
 376  329.3355
 377  214.8103
 378  231.7238
 379  252.2847
 380  319.2054
 381  -105.4733
 382  192.5011
 383  222.6403
 384  82.67501
 385  114.3173
 386  -2.200335
 387  32.06583
 388  132.2927
 389  330.7371
 390  247.6953
 391  357.1321
 392  249.3863
 393  245.5464
 394  451.944
 395  255.6568
 396  90.28837
 397  19.75961
 398  90.83001
 399  81.54068
 400  350.3493
 401  480.9051
 402  193.3855
 403  138.0312
 404  246.0915
 405  261.7084
 406  13.74299
 407  203.4227
 408  251.3266
 409  157.3761
 410  157.2484
 411  142.6451
 412  78.40119
 413  -41.00422
 414  -11.77161
 415  167.884
 416  218.0429
 417  83.32576
 418  -67.57241
 419  -126.7739
 420  -193.3204
 421  10.45519
 422  -147.5042
 423  -104.36
 424  -64.04365
 425  -1.420102
 426  213.3963
 427  99.53307
 428  -111.5464
 429  -603.3297
 430  -287.9083
 431  -132.0985
 432  69.32968
 433  57.38297
 434  -244.7779
 435  176.4795
 436  -12.24559
 437  -250.5191
 438  -217.1167
 439  -21.06605
 440  -4.097607
 441  -323.4277
 442  -31.02155
 443  133.9031
 444  169.0114
 445  181.6476
 446  94.69836
 447  192.677
 448  -90.72979
 449  -22.24094
 450  150.0226
 451  -34.02006
 452  -105.5389
 453  -211.3538
 454  -148.2233
 455  133.0197
 456  199.054
 457  -252.8063
 458  -193.8521
 459  -74.03471
 460  70.41975
 461  -172.0171
 462  -414.5672
 463  -363.2265
 464  -398.885
 465  -184.6689
 466  -376.4872
 467  -149.7404
 468  -147.3709
 469  -238.131
 470  -124.1837
 471  -371.3011
 472  -402.9008
 473  -464.351
 474  -309.3499
 475  -423.6253
 476  -456.4659
 477  -134.2373
 478  -234.8339
 479  -208.074
 480  121.5895
 481  -210.7079
 482  -249.2747
 483  -105.6643
 484  -89.7353
 485  -275.0608
 486  -67.81835
 487  -227.7417
 488  -316.2149
 489  -438.7352
 490  -541.7321
 491  -443.098
 492  -290.4039
 493  -174.6689
 494  -227.3969
 495  -406.2013
 496  -294.5692
 497  -276.4954
 498  -166.5034
 499  47.81754
 500  -267.6107
 501  -187.601
 502  -122.2541
 503  -330.4451
 504  -373.7359
 505  -150.4568
 506  -54.93389
 507  2.197461
 508  -126.4848
 509  -588.1749
 510  -339.7033
 511  -166.0502
