# Input file       =  1180767674.113528-PSRB0329-2ms-sampling-dd.dat
# Candidate        =  PSR_0332+5434
# Telescope        =  AR
# Epoch_topo       =  57910.292744369537
# Epoch_bary       =  N/A
# T_sample         =  0.002
# Data Folded      =  7340032
# Data Avg         =  -6.05701136541173e-10
# Data StdDev      =  3.08476209161278 
# Profile Bins     =  512
# Profile Avg      =  -1.67293716818285
# Profile StdDev   =  369.347931728742 
# Reduced chi-sqr  =  1.034
# Prob(Noise)      <  0.286   (~0.6 sigma)
# P_topo (ms)      =  714.511455934935  +/- 0.000542
# P'_topo (s/s)    =  -0                +/- 2.86e-10
# P''_topo (s/s^2) =  0                 +/- 1.26e-13
# P_bary (ms)      =  N/A
# P'_bary (s/s)    =  N/A
# P''_bary (s/s^2) =  N/A
# P_orb (s)        =  N/A
# asin(i)/c (s)    =  N/A
# eccentricity     =  N/A
# w (rad)          =  N/A
# T_peri           =  N/A
######################################################
   0  -374.7982
   1  -444.5359
   2  -252.1327
   3  -38.04757
   4  -153.2659
   5  -295.3752
   6  -399.6449
   7  -448.7992
   8  -490.9607
   9  -9.987805
  10  36.34306
  11  -229.686
  12  -188.2678
  13  -45.39847
  14  -148.5069
  15  -175.2178
  16  -154.4417
  17  -71.38079
  18  -62.39705
  19  -318.7987
  20  -333.2074
  21  -49.69436
  22  -270.6591
  23  -146.1303
  24  -130.9372
  25  -189.4054
  26  -206.6922
  27  298.6188
  28  -41.59844
  29  -273.0762
  30  -43.15881
  31  -42.84619
  32  29.76794
  33  22.66995
  34  117.4501
  35  153.8184
  36  -92.91777
  37  283.5144
  38  174.3929
  39  351.5262
  40  79.72246
  41  -43.75581
  42  -35.39142
  43  -18.40922
  44  61.06575
  45  439.3069
  46  580.8008
  47  967.5854
  48  1504.916
  49  1922.146
  50  1538.958
  51  1015.594
  52  374.8496
  53  47.54021
  54  -69.29182
  55  -252.2189
  56  -299.7685
  57  54.22921
  58  80.02445
  59  164.1864
  60  83.52534
  61  215.1859
  62  22.64387
  63  29.03903
  64  92.32895
  65  -42.26603
  66  291.0314
  67  65.99155
  68  -13.92114
  69  53.78334
  70  153.3378
  71  -104.3674
  72  -223.6523
  73  -177.7493
  74  -389.5914
  75  -357.4681
  76  -95.10396
  77  -129.6546
  78  -265.7885
  79  -384.8346
  80  -127.1156
  81  -117.0399
  82  -159.0939
  83  -187.1856
  84  -162.6497
  85  -352.4486
  86  -307.7291
  87  4.458519
  88  -118.769
  89  -379.8975
  90  -476.6009
  91  -354.6797
  92  -0.6731211
  93  -62.27335
  94  -11.05978
  95  -270.6601
  96  -669.0877
  97  -475.6158
  98  -185.8473
  99  -103.7601
 100  16.09184
 101  -250.9425
 102  -254.2815
 103  -543.9596
 104  -460.8371
 105  -291.7511
 106  -290.3058
 107  -298.8701
 108  -406.7193
 109  -446.6471
 110  -419.3127
 111  -200.1766
 112  29.66608
 113  3.566871
 114  -212.7087
 115  -185.0431
 116  -63.5411
 117  101.594
 118  -107.4203
 119  -92.0662
 120  -247.7094
 121  -127.9072
 122  -125.6274
 123  -207.9174
 124  118.2145
 125  46.78401
 126  51.70883
 127  -109.2198
 128  -70.06564
 129  -55.76197
 130  15.09299
 131  190.4824
 132  195.2491
 133  147.0271
 134  234.0123
 135  370.2026
 136  -29.92742
 137  75.33543
 138  195.7944
 139  333.4099
 140  252.6463
 141  221.8166
 142  394.9872
 143  -9.776711
 144  -25.39524
 145  121.3896
 146  257.0483
 147  299.4004
 148  60.29491
 149  -108.0697
 150  107.4951
 151  204.751
 152  -40.24828
 153  -241.216
 154  -478.9769
 155  -80.02045
 156  321.8379
 157  110.5129
 158  70.14172
 159  237.1851
 160  284.7025
 161  198.1691
 162  82.67533
 163  23.84995
 164  233.2206
 165  79.46916
 166  -131.7073
 167  -278.3855
 168  -89.59906
 169  -2.4911
 170  56.86434
 171  -91.4853
 172  -117.8973
 173  -84.12839
 174  93.32011
 175  198.7198
 176  233.0189
 177  186.8831
 178  111.938
 179  121.0627
 180  199.7011
 181  175.4878
 182  107.4741
 183  359.3012
 184  625.4672
 185  117.9762
 186  -243.3312
 187  -296.8405
 188  96.46326
 189  -123.9355
 190  -64.65399
 191  146.4969
 192  -57.74704
 193  -161.8591
 194  -139.3727
 195  -39.56297
 196  33.33142
 197  48.4627
 198  -72.85177
 199  96.53032
 200  410.2798
 201  288.2787
 202  147.4544
 203  198.425
 204  225.4351
 205  132.5057
 206  29.30151
 207  306.2335
 208  257.9517
 209  134.0334
 210  30.59182
 211  71.84956
 212  206.1226
 213  201.1417
 214  395.1361
 215  126.2378
 216  125.4688
 217  271.0597
 218  -49.24907
 219  -112.1146
 220  176.3636
 221  152.5724
 222  12.55826
 223  95.97507
 224  69.98534
 225  -65.22433
 226  -27.56459
 227  -111.8801
 228  -214.1113
 229  -250.09
 230  -34.97216
 231  159.0526
 232  216.8802
 233  139.8137
 234  -264.087
 235  -549.7185
 236  -671.02
 237  -482.3884
 238  -115.6069
 239  39.71571
 240  -109.7305
 241  -214.1602
 242  48.57419
 243  -134.4566
 244  -333.8804
 245  -254.6581
 246  -207.273
 247  -22.6671
 248  -90.70918
 249  -133.9679
 250  1.503646
 251  -94.99621
 252  -12.59098
 253  297.0557
 254  -198.4454
 255  -331.4098
 256  -321.1219
 257  -219.1751
 258  143.5945
 259  212.2245
 260  132.2296
 261  -203.1213
 262  -187.2893
 263  -138.017
 264  -176.9991
 265  124.7632
 266  -40.52629
 267  -157.9762
 268  36.02468
 269  -90.2227
 270  121.501
 271  366.5106
 272  79.59798
 273  23.60717
 274  9.893717
 275  121.6455
 276  27.60012
 277  -201.763
 278  -131.4145
 279  -172.7696
 280  -129.4991
 281  -173.4318
 282  45.21915
 283  311.9486
 284  123.1467
 285  -49.43567
 286  -146.4019
 287  12.92519
 288  240.6396
 289  48.40016
 290  115.5338
 291  347.4561
 292  412.1182
 293  316.0434
 294  144.4412
 295  192.1371
 296  210.8777
 297  88.01046
 298  205.9785
 299  146.8047
 300  190.656
 301  83.04141
 302  -123.0091
 303  134.0892
 304  163.649
 305  174.3526
 306  119.1752
 307  363.9794
 308  516.8205
 309  317.0334
 310  404.9617
 311  241.5077
 312  279.7511
 313  364.4822
 314  592.1663
 315  257.6126
 316  253.7182
 317  276.8721
 318  221.283
 319  27.03374
 320  117.2317
 321  486.7338
 322  515.2049
 323  258.5471
 324  114.1089
 325  211.2949
 326  173.8629
 327  4.432649
 328  84.47649
 329  213.2973
 330  -88.98125
 331  -99.42574
 332  -43.8129
 333  -59.1581
 334  50.03184
 335  -25.05983
 336  -262.1969
 337  57.17356
 338  145.6384
 339  -289.7173
 340  -121.8073
 341  210.1977
 342  333.8578
 343  446.7909
 344  490.3369
 345  407.4583
 346  272.8875
 347  323.9515
 348  321.8728
 349  330.3924
 350  469.2926
 351  592.1924
 352  313.9281
 353  303.5945
 354  -1.421479
 355  186.0614
 356  452.4081
 357  214.9875
 358  92.72229
 359  -4.272069
 360  -42.70976
 361  99.04563
 362  -24.3242
 363  -290.7142
 364  -260.9758
 365  -24.99691
 366  197.7897
 367  22.14033
 368  137.0873
 369  78.49619
 370  228.8773
 371  185.1473
 372  304.1064
 373  337.1949
 374  123.2096
 375  291.9949
 376  41.12122
 377  -20.38183
 378  228.4519
 379  -20.22557
 380  -8.537181
 381  136.7926
 382  311.1981
 383  435.4464
 384  71.02411
 385  87.54595
 386  -30.31556
 387  127.4021
 388  -161.4939
 389  -67.76853
 390  24.30668
 391  29.65872
 392  130.4433
 393  87.5525
 394  -329.6324
 395  -275.2287
 396  -143.1924
 397  22.70111
 398  85.36823
 399  174.2269
 400  121.8087
 401  318.9656
 402  369.5559
 403  269.2007
 404  256.4006
 405  357.0481
 406  239.5398
 407  273.0781
 408  166.2252
 409  283.6224
 410  -35.7168
 411  -79.12019
 412  -155.4845
 413  -126.0193
 414  -15.59902
 415  98.50486
 416  291.6798
 417  -159.3721
 418  -65.35625
 419  49.86312
 420  40.31025
 421  -27.44214
 422  40.4375
 423  82.20135
 424  217.259
 425  -66.48929
 426  -247.7397
 427  -128.4224
 428  38.16398
 429  93.16953
 430  -28.04401
 431  -272.6273
 432  -174.9552
 433  -203.1779
 434  -531.3729
 435  -534.4949
 436  -454.0246
 437  -665.7441
 438  -489.0463
 439  -377.1689
 440  -224.8446
 441  -231.908
 442  -22.17567
 443  227.0378
 444  -83.24055
 445  -428.7587
 446  -676.3158
 447  -249.9315
 448  -51.19341
 449  -152.2505
 450  -214.7119
 451  -94.90087
 452  -440.0887
 453  -500.0685
 454  -474.2324
 455  -228.9718
 456  -215.0421
 457  -172.5238
 458  42.43868
 459  -45.60014
 460  -167.9509
 461  -426.1851
 462  -25.57909
 463  -17.35779
 464  -100.7498
 465  -68.86984
 466  -279.7249
 467  -514.0507
 468  -331.0166
 469  -56.77795
 470  -298.4808
 471  -269.9822
 472  -286.0023
 473  -205.334
 474  -243.2899
 475  -76.45503
 476  -352.2921
 477  -243.3441
 478  -290.3412
 479  -305.7118
 480  -400.7828
 481  -361.1533
 482  -78.31735
 483  -110.2161
 484  -72.24139
 485  -83.23787
 486  -136.5142
 487  -309.3965
 488  -209.7333
 489  -114.6674
 490  31.26949
 491  11.09548
 492  -127.1888
 493  92.33726
 494  55.15549
 495  -4.904624
 496  81.47993
 497  -256.4121
 498  -38.74269
 499  118.6481
 500  -160.6622
 501  -390.3919
 502  -162.0523
 503  -110.1713
 504  -58.68799
 505  -373.5757
 506  -312.2758
 507  -282.5847
 508  -211.9021
 509  -219.2035
 510  -276.8018
 511  -394.9893
