# Input file       =  1180954929.103668-PSRB0329-2ms-sampling-dd.dat
# Candidate        =  PSR_0332+5434
# Telescope        =  AR
# Epoch_topo       =  57912.460047496155
# Epoch_bary       =  N/A
# T_sample         =  0.002
# Data Folded      =  7340032
# Data Avg         =  2.51791934907396e-10
# Data StdDev      =  6.07102584239775 
# Profile Bins     =  512
# Profile Avg      =  0.222479132746273
# Profile StdDev   =  726.902358032097 
# Reduced chi-sqr  =  0.615
# Prob(Noise)      <  1   (~0.0 sigma)
# P_topo (ms)      =  714.509719118825  +/- 8.92e-05
# P'_topo (s/s)    =  -0                +/- 4.7e-11
# P''_topo (s/s^2) =  0                 +/- 2.08e-14
# P_bary (ms)      =  N/A
# P'_bary (s/s)    =  N/A
# P''_bary (s/s^2) =  N/A
# P_orb (s)        =  N/A
# asin(i)/c (s)    =  N/A
# eccentricity     =  N/A
# w (rad)          =  N/A
# T_peri           =  N/A
######################################################
   0  -418.2831
   1  -418.657
   2  -735.748
   3  -414.032
   4  -286.3824
   5  -552.3734
   6  -514.6067
   7  -723.455
   8  -836.6008
   9  -869.794
  10  -574.322
  11  -213.2129
  12  -566.7296
  13  -589.3649
  14  -1037.418
  15  -953.1984
  16  -707.3853
  17  -634.7116
  18  -469.6068
  19  -760.0486
  20  -821.6978
  21  -1047.963
  22  -800.4963
  23  -766.0044
  24  -742.8821
  25  -286.1219
  26  -9.021274
  27  -661.2955
  28  -148.2014
  29  -366.2252
  30  -227.0915
  31  173.984
  32  199.8748
  33  320.9387
  34  -97.24445
  35  -472.269
  36  -296.5755
  37  -165.59
  38  147.7138
  39  418.2927
  40  401.9684
  41  42.72847
  42  -330.4598
  43  -77.73972
  44  168.9978
  45  764.5712
  46  648.0374
  47  242.2794
  48  218.2959
  49  -86.71238
  50  -319.4707
  51  266.1903
  52  77.24343
  53  -181.6506
  54  -311.1268
  55  -299.6988
  56  -340.3603
  57  28.96824
  58  -37.764
  59  -60.03378
  60  -355.1742
  61  321.3478
  62  38.04095
  63  -53.93322
  64  -79.01656
  65  152.9009
  66  138.5115
  67  -340.7577
  68  -48.54118
  69  -271.2169
  70  191.727
  71  225.6698
  72  242.069
  73  128.2556
  74  -23.26648
  75  8.397851
  76  -305.1063
  77  -26.36898
  78  -140.5158
  79  -271.0211
  80  -278.9721
  81  -590.3312
  82  -390.9391
  83  -13.70939
  84  -224.4682
  85  154.68
  86  94.67046
  87  67.02485
  88  -135.9371
  89  -601.0117
  90  -414.1253
  91  -116.3694
  92  -44.02503
  93  153.2576
  94  235.0725
  95  572.7325
  96  71.47166
  97  286.4869
  98  349.1054
  99  568.4537
 100  228.7072
 101  -381.9567
 102  -46.11085
 103  63.2952
 104  -31.43729
 105  332.4163
 106  629.8172
 107  1035.761
 108  335.3719
 109  -43.22719
 110  171.9768
 111  -381.7535
 112  -15.31009
 113  75.17461
 114  154.9978
 115  216.843
 116  -181.3519
 117  -403.5821
 118  -427.5827
 119  -164.5825
 120  -86.66573
 121  88.83285
 122  -204.5631
 123  -282.3889
 124  -220.0132
 125  -393.0434
 126  -246.6939
 127  -71.36074
 128  -256.1792
 129  -40.68085
 130  328.2451
 131  169.0934
 132  174.4427
 133  -13.37399
 134  39.44335
 135  -350.1764
 136  -535.3564
 137  -27.1052
 138  -57.7357
 139  486.6741
 140  417.5873
 141  -149.2372
 142  -456.9027
 143  -825.4747
 144  221.6014
 145  -162.1459
 146  171.8193
 147  89.97424
 148  63.94567
 149  79.75583
 150  -175.5252
 151  517.5215
 152  420.9589
 153  234.1131
 154  208.445
 155  430.0004
 156  896.3028
 157  752.5383
 158  295.4951
 159  354.5965
 160  504.1752
 161  559.1538
 162  519.0959
 163  613.4119
 164  580.2786
 165  516.0026
 166  504.9609
 167  6.172199
 168  -232.7774
 169  122.2675
 170  -221.2251
 171  49.02609
 172  483.0693
 173  473.9945
 174  -2.03344
 175  -564.113
 176  -504.8087
 177  -719.2889
 178  -296.2039
 179  112.0648
 180  267.5224
 181  479.769
 182  249.8743
 183  -135.1807
 184  -30.48532
 185  -226.3203
 186  -380.5441
 187  -578.3102
 188  -150.0106
 189  -470.969
 190  -80.53048
 191  55.92075
 192  -123.9892
 193  -194.3341
 194  -537.3618
 195  -105.2046
 196  -92.11623
 197  292.9098
 198  387.7061
 199  84.97845
 200  -262.2532
 201  130.9582
 202  50.87288
 203  2.169887
 204  342.2804
 205  790.5269
 206  843.5396
 207  553.9226
 208  627.654
 209  362.3735
 210  99.9239
 211  21.68305
 212  271.4749
 213  854.2935
 214  916.9673
 215  669.9921
 216  320.8357
 217  -78.08789
 218  172.9514
 219  -263.5419
 220  426.3253
 221  396.9174
 222  720.5023
 223  803.3115
 224  351.3783
 225  131.9704
 226  51.01542
 227  192.2003
 228  64.02431
 229  -131.5844
 230  30.49352
 231  68.24789
 232  -110.9967
 233  21.2261
 234  -75.8989
 235  246.6216
 236  -14.72017
 237  -152.6872
 238  15.82939
 239  54.21669
 240  145.9309
 241  -374.9804
 242  -339.0116
 243  -426.2078
 244  -668.813
 245  -147.613
 246  -28.35261
 247  477.7222
 248  593.5446
 249  -245.6668
 250  -126.7166
 251  -405.4546
 252  -117.3312
 253  237.4753
 254  651.0506
 255  526.5087
 256  -284.1968
 257  -309.7838
 258  -126.2573
 259  162.4467
 260  197.1945
 261  -139.44
 262  -421.3242
 263  -572.0334
 264  16.85751
 265  209.9948
 266  -36.55769
 267  -415.7196
 268  -789.5804
 269  -543.4644
 270  -756.5557
 271  -668.439
 272  -339.6783
 273  105.828
 274  86.99854
 275  -266.0006
 276  -516.8787
 277  -733.0407
 278  -455.6667
 279  -541.1084
 280  -291.2157
 281  -199.7622
 282  251.3934
 283  -91.45341
 284  -427.6945
 285  -655.0012
 286  -153.8434
 287  516.5865
 288  571.8613
 289  267.6636
 290  68.24421
 291  -181.5834
 292  -134.9298
 293  -87.03094
 294  455.3981
 295  278.392
 296  287.6251
 297  67.0071
 298  90.37904
 299  410.4639
 300  176.619
 301  92.46278
 302  209.6352
 303  114.4264
 304  -124.1589
 305  123.6035
 306  295.6955
 307  328.1342
 308  182.2243
 309  484.1584
 310  500.6744
 311  212.3125
 312  41.19594
 313  393.6811
 314  237.8466
 315  363.9457
 316  330.0917
 317  452.1325
 318  530.886
 319  540.5139
 320  585.0932
 321  355.5906
 322  341.3384
 323  70.40023
 324  87.88862
 325  54.03616
 326  299.9239
 327  76.78608
 328  230.3322
 329  147.6132
 330  117.6663
 331  193.6356
 332  -207.4409
 333  168.5703
 334  119.2558
 335  409.0466
 336  764.791
 337  1189.521
 338  1768.594
 339  1666.312
 340  1317.249
 341  1235.879
 342  745.8484
 343  382.6321
 344  114.9109
 345  47.05997
 346  -245.2137
 347  23.13917
 348  0.7848444
 349  39.6508
 350  -8.935102
 351  97.58084
 352  23.29823
 353  484.8001
 354  289.257
 355  137.1335
 356  315.3861
 357  119.2151
 358  224.5765
 359  361.0045
 360  468.3363
 361  492.0537
 362  540.0171
 363  99.7826
 364  -19.09144
 365  -227.7918
 366  150.5045
 367  350.7077
 368  620.7491
 369  370.4803
 370  351.4551
 371  347.3669
 372  482.7687
 373  32.69524
 374  -8.144054
 375  745.2161
 376  433.5906
 377  154.717
 378  30.26991
 379  137.509
 380  458.7598
 381  638.6178
 382  503.3947
 383  10.53448
 384  -58.7801
 385  -453.9407
 386  -244.102
 387  134.101
 388  -145.3176
 389  3.352797
 390  75.80874
 391  -150.2824
 392  98.86102
 393  164.0953
 394  607.2886
 395  560.7205
 396  -26.31305
 397  -362.7237
 398  -411.9464
 399  -209.0676
 400  0.7289894
 401  422.5701
 402  847.7319
 403  416.2148
 404  60.04502
 405  -132.4707
 406  -306.516
 407  225.6832
 408  576.781
 409  1009.984
 410  738.4608
 411  476.9578
 412  367.6097
 413  -152.3546
 414  -156.0846
 415  246.8863
 416  361.9146
 417  103.1823
 418  -752.747
 419  -737.2033
 420  -253.8669
 421  -310.8104
 422  188.8323
 423  476.339
 424  615.1807
 425  319.4064
 426  214.5733
 427  403.1875
 428  157.5061
 429  -196.8468
 430  -263.1863
 431  -285.2137
 432  -106.8661
 433  -296.4088
 434  270.4818
 435  565.8423
 436  457.8264
 437  453.5682
 438  -3.540713
 439  -135.0802
 440  -167.9634
 441  -133.385
 442  -213.4485
 443  -175.5724
 444  -62.69675
 445  -293.9635
 446  -352.4745
 447  -408.8427
 448  -272.8398
 449  25.18412
 450  -457.5419
 451  -656.4918
 452  -477.9052
 453  -233.5292
 454  -21.7933
 455  -265.32
 456  -626.1449
 457  -891.6744
 458  -760.2291
 459  -472.7426
 460  -387.1371
 461  -514.9175
 462  -459.3019
 463  -822.7529
 464  -724.5938
 465  -829.0966
 466  -322.0989
 467  -140.8884
 468  -308.4379
 469  -0.2379691
 470  -344.6579
 471  -498.257
 472  -654.9398
 473  -532.3459
 474  48.8182
 475  320.2062
 476  691.866
 477  186.2056
 478  -333.2845
 479  -155.2782
 480  -691.6025
 481  -910.5293
 482  -121.9241
 483  -311.9221
 484  9.927429
 485  -69.69152
 486  -366.63
 487  -660.1434
 488  -566.3128
 489  -6.016698
 490  -217.9659
 491  -209.3549
 492  -416.4864
 493  -558.1942
 494  -399.0536
 495  -94.80086
 496  -256.5271
 497  -203.2395
 498  -286.7844
 499  -589.2081
 500  -661.6749
 501  -505.3277
 502  -515.3429
 503  103.867
 504  348.0262
 505  -387.2637
 506  -136.019
 507  -226.9861
 508  412.3293
 509  -109.0469
 510  -246.577
 511  -211.3672
