# Input file       =  1180524139.099545_cleaned.dat
# Candidate        =  PSR_0332+5434
# Telescope        =  AR
# Epoch_topo       =  57907.474052078069
# Epoch_bary       =  N/A
# T_sample         =  0.002
# Data Folded      =  7340032
# Data Avg         =  0.0270639371956151
# Data StdDev      =  1.00008471587305 
# Profile Bins     =  512
# Profile Avg      =  388.003765487809 
# Profile StdDev   =  119.743179665475 
# Reduced chi-sqr  =  1.178
# Prob(Noise)      <  0.00331   (~2.7 sigma)
# P_topo (ms)      =  714.514509462205  +/- 0.000509
# P'_topo (s/s)    =  -0                +/- 2.68e-10
# P''_topo (s/s^2) =  0                 +/- 1.18e-13
# P_bary (ms)      =  N/A
# P'_bary (s/s)    =  N/A
# P''_bary (s/s^2) =  N/A
# P_orb (s)        =  N/A
# asin(i)/c (s)    =  N/A
# eccentricity     =  N/A
# w (rad)          =  N/A
# T_peri           =  N/A
######################################################
   0  741.7059
   1  687.8217
   2  653.0132
   3  568.2986
   4  459.913
   5  326.9951
   6  405.5403
   7  378.0291
   8  380.6039
   9  358.963
  10  365.8359
  11  411.8977
  12  361.9922
  13  411.8854
  14  330.305
  15  215.7599
  16  237.1022
  17  403.8879
  18  354.0249
  19  286.1473
  20  353.0989
  21  281.8005
  22  380.1055
  23  420.3402
  24  434.3115
  25  345.8947
  26  469.7213
  27  481.9151
  28  396.4048
  29  305.3587
  30  397.5595
  31  313.2711
  32  157.5116
  33  152.5885
  34  336.2517
  35  331.3913
  36  350.3902
  37  250.378
  38  233.467
  39  364.4832
  40  428.667
  41  464.1288
  42  396.2912
  43  326.2224
  44  219.5632
  45  391.125
  46  439.0132
  47  241.4769
  48  348.0516
  49  441.1982
  50  385.847
  51  263.1393
  52  317.7722
  53  373.9755
  54  329.1326
  55  379.9331
  56  360.0512
  57  387.814
  58  378.369
  59  472.7419
  60  349.9292
  61  301.6223
  62  309.046
  63  358.6275
  64  598.439
  65  412.3653
  66  367.4836
  67  422.874
  68  434.2517
  69  379.6794
  70  348.5028
  71  421.7242
  72  461.0092
  73  392.0058
  74  371.5209
  75  424.3341
  76  379.0174
  77  444.5108
  78  496.3149
  79  483.1509
  80  369.0229
  81  329.834
  82  418.7648
  83  360.6071
  84  325.4548
  85  377.4072
  86  455.6728
  87  377.7613
  88  401.8911
  89  360.6021
  90  432.9859
  91  314.8591
  92  264.2191
  93  288.7592
  94  419.8215
  95  462.1475
  96  460.8014
  97  524.0654
  98  402.8139
  99  310.8489
 100  437.6318
 101  532.9432
 102  572.1456
 103  509.9879
 104  366.6049
 105  414.6712
 106  467.63
 107  483.5129
 108  428.5802
 109  478.2088
 110  496.3858
 111  525.5671
 112  561.7559
 113  587.1679
 114  478.9176
 115  394.7546
 116  379.2544
 117  468.9213
 118  504.9007
 119  390.1465
 120  373.3556
 121  295.5885
 122  259.0651
 123  401.6128
 124  371.0023
 125  524.0543
 126  420.2893
 127  350.153
 128  396.4354
 129  284.2614
 130  314.4479
 131  353.8291
 132  360.9527
 133  364.7514
 134  434.9294
 135  396.7533
 136  450.4117
 137  374.4203
 138  399.6043
 139  457.3611
 140  342.7953
 141  368.3689
 142  539.3434
 143  590.721
 144  421.7341
 145  327.2025
 146  300.1466
 147  330.1372
 148  319.6533
 149  308.6122
 150  343.212
 151  402.5125
 152  312.2924
 153  274.5434
 154  307.9675
 155  369.5971
 156  322.9241
 157  419.9132
 158  367.5807
 159  279.2667
 160  341.3876
 161  482.6541
 162  388.4862
 163  309.4043
 164  399.2627
 165  454.7137
 166  440.16
 167  503.6828
 168  503.4002
 169  461.5218
 170  343.4049
 171  386.8137
 172  454.5455
 173  481.4859
 174  373.6837
 175  254.9886
 176  214.7411
 177  264.8699
 178  207.4864
 179  250.3617
 180  310.62
 181  432.1423
 182  371.6168
 183  280.543
 184  312.1157
 185  348.6179
 186  385.9214
 187  317.4673
 188  271.0235
 189  311.9342
 190  279.3206
 191  338.4868
 192  371.3892
 193  242.7809
 194  346.3723
 195  354.5155
 196  338.9674
 197  382.5569
 198  427.9363
 199  341.9625
 200  381.341
 201  371.3215
 202  357.743
 203  442.9133
 204  372.2758
 205  239.335
 206  290.3087
 207  359.3122
 208  451.1325
 209  371.3064
 210  366.4883
 211  408.7935
 212  375.5997
 213  379.5079
 214  245.2585
 215  346.3242
 216  552.9902
 217  434.411
 218  400.4771
 219  292.4366
 220  291.8058
 221  366.8832
 222  460.9872
 223  404.3766
 224  383.4221
 225  350.3491
 226  273.8912
 227  390.8902
 228  389.7152
 229  347.3812
 230  445.82
 231  455.4631
 232  354.7411
 233  407.4965
 234  470.9414
 235  417.5511
 236  358.6272
 237  380.7998
 238  565.1177
 239  607.0342
 240  471.8003
 241  443.2439
 242  386.5142
 243  455.7437
 244  421.0976
 245  355.8682
 246  335.5275
 247  380.8351
 248  417.7639
 249  361.3934
 250  283.7495
 251  342.3083
 252  331.5755
 253  361.6898
 254  345.9819
 255  390.3252
 256  453.2823
 257  477.6971
 258  540.4971
 259  492.7695
 260  324.555
 261  423.1816
 262  438.8796
 263  371.7228
 264  347.0712
 265  289.1263
 266  210.0885
 267  244.0187
 268  334.9886
 269  285.8229
 270  227.881
 271  375.688
 272  411.1605
 273  363.8388
 274  472.7856
 275  403.075
 276  339.7382
 277  393.1823
 278  381.2607
 279  311.3384
 280  350.7828
 281  416.0729
 282  435.2902
 283  412.1384
 284  398.8645
 285  330.9485
 286  214.0497
 287  321.071
 288  459.2837
 289  370.3472
 290  288.233
 291  378.6165
 292  308.4055
 293  342.6965
 294  343.2604
 295  308.2501
 296  243.8386
 297  300.294
 298  299.3153
 299  330.6361
 300  299.0429
 301  349.7141
 302  303.3304
 303  359.3623
 304  374.8011
 305  142.7578
 306  101.4028
 307  241.5392
 308  328.663
 309  389.3199
 310  336.7663
 311  151.7522
 312  195.351
 313  278.6327
 314  323.1135
 315  392.5404
 316  379.2839
 317  444.6202
 318  472.8493
 319  407.1445
 320  405.8253
 321  459.9169
 322  483.6543
 323  544.511
 324  598.6367
 325  527.8342
 326  522.5119
 327  538.0602
 328  423.1831
 329  356.954
 330  366.2709
 331  398.4678
 332  388.8692
 333  426.2498
 334  455.1516
 335  446.1266
 336  305.9089
 337  419.8501
 338  418.6682
 339  326.7956
 340  274.029
 341  220.7719
 342  319.8886
 343  415.9383
 344  439.3972
 345  467.7887
 346  522.695
 347  456.6725
 348  346.0869
 349  311.2952
 350  314.6845
 351  338.9753
 352  419.073
 353  429.385
 354  381.6039
 355  522.1281
 356  415.9637
 357  420.1301
 358  437.95
 359  441.0999
 360  598.6561
 361  539.461
 362  516.0487
 363  546.1224
 364  454.2104
 365  413.683
 366  462.5516
 367  559.6197
 368  513.5981
 369  367.547
 370  461.994
 371  438.1299
 372  478.8734
 373  462.9834
 374  494.5483
 375  504.0275
 376  423.6285
 377  428.6744
 378  495.7852
 379  398.7809
 380  430.8857
 381  561.2266
 382  465.6859
 383  351.578
 384  293.5964
 385  450.2153
 386  379.642
 387  488.1096
 388  509.2012
 389  466.607
 390  416.9127
 391  328.8739
 392  408.63
 393  401.0614
 394  491.2624
 395  586.025
 396  491.4792
 397  524.9507
 398  510.2861
 399  460.6022
 400  550.5645
 401  585.916
 402  559.5266
 403  547.7026
 404  542.2097
 405  368.5153
 406  413.7135
 407  576.6568
 408  563.0098
 409  628.1976
 410  611.495
 411  436.512
 412  388.7259
 413  433.2166
 414  433.5551
 415  322.6184
 416  397.3928
 417  410.8326
 418  503.1918
 419  420.664
 420  411.2802
 421  370.5678
 422  414.0172
 423  472.9701
 424  465.1033
 425  464.3943
 426  484.8872
 427  521.155
 428  352.9366
 429  311.3384
 430  310.7264
 431  375.0143
 432  232.1894
 433  244.9621
 434  249.9262
 435  301.6798
 436  361.3264
 437  360.2831
 438  411.4484
 439  358.4478
 440  340.1501
 441  362.3607
 442  251.9261
 443  289.8568
 444  270.0962
 445  310.1902
 446  314.2711
 447  375.4503
 448  263.9694
 449  350.0873
 450  375.6778
 451  379.329
 452  398.6503
 453  363.7996
 454  386.5219
 455  411.178
 456  463.6833
 457  294.3301
 458  278.1347
 459  320.7923
 460  384.4304
 461  327.605
 462  260.416
 463  372.0169
 464  292.1151
 465  251.3944
 466  224.8775
 467  313.8479
 468  206.5592
 469  232.3562
 470  367.0933
 471  339.0782
 472  314.8471
 473  360.3495
 474  343.4388
 475  172.6275
 476  135.9579
 477  245.2447
 478  154.65
 479  229.5915
 480  269.085
 481  327.8024
 482  330.8051
 483  203.6805
 484  296.5041
 485  328.3551
 486  385.5532
 487  426.7526
 488  397.8434
 489  358.6854
 490  344.4653
 491  367.824
 492  482.1179
 493  397.8232
 494  458.6858
 495  379.4636
 496  338.2378
 497  368.5405
 498  353.7672
 499  345.2151
 500  376.0077
 501  440.2651
 502  489.0013
 503  547.9239
 504  448.4173
 505  526.7717
 506  555.0151
 507  423.7224
 508  409.1825
 509  499.212
 510  620.8665
 511  841.6702
