# Input file       =  1181456923.122051_cleaned.dat
# Candidate        =  PSR_0332+5434
# Telescope        =  AR
# Epoch_topo       =  57918.270163449663
# Epoch_bary       =  N/A
# T_sample         =  0.002
# Data Folded      =  7340032
# Data Avg         =  0.0186201177031286
# Data StdDev      =  1.00009824381454 
# Profile Bins     =  512
# Profile Avg      =  266.714223976612 
# Profile StdDev   =  119.744799406986 
# Reduced chi-sqr  =  1.334
# Prob(Noise)      <  5.89e-07   (~4.9 sigma)
# P_topo (ms)      =  714.503919179042  +/- 0.000261
# P'_topo (s/s)    =  -0                +/- 1.38e-10
# P''_topo (s/s^2) =  0                 +/- 6.08e-14
# P_bary (ms)      =  N/A
# P'_bary (s/s)    =  N/A
# P''_bary (s/s^2) =  N/A
# P_orb (s)        =  N/A
# asin(i)/c (s)    =  N/A
# eccentricity     =  N/A
# w (rad)          =  N/A
# T_peri           =  N/A
######################################################
   0  823.3989
   1  832.8131
   2  633.0518
   3  570.6078
   4  640.0276
   5  528.4869
   6  449.775
   7  427.3759
   8  351.1289
   9  446.3741
  10  344.666
  11  362.9883
  12  471.7578
  13  326.484
  14  391.0161
  15  444.9922
  16  356.0192
  17  369.1712
  18  301.7946
  19  228.2965
  20  275.9261
  21  338.7138
  22  242.0261
  23  206.6487
  24  345.5955
  25  353.1774
  26  242.6186
  27  190.9644
  28  167.965
  29  352.5371
  30  401.6015
  31  338.77
  32  277.2389
  33  261.3987
  34  303.4638
  35  347.0686
  36  271.1829
  37  337.3448
  38  115.7272
  39  81.58262
  40  249.7062
  41  253.5294
  42  241.9064
  43  285.5787
  44  311.9526
  45  120.4355
  46  170.9877
  47  61.08144
  48  185.2663
  49  184.5507
  50  302.0078
  51  294.7414
  52  231.7134
  53  178.1556
  54  189.3689
  55  216.6013
  56  147.7942
  57  174.8165
  58  239.082
  59  270.7771
  60  155.3953
  61  181.0275
  62  136.4395
  63  78.04247
  64  220.6514
  65  273.1752
  66  297.678
  67  240.5709
  68  184.6815
  69  175.1207
  70  187.8132
  71  226.3929
  72  215.2444
  73  196.2878
  74  216.7083
  75  209.5934
  76  218.6652
  77  318.5439
  78  249.7139
  79  215.7578
  80  269.1787
  81  239.8404
  82  149.6604
  83  270.7538
  84  298.2473
  85  318.0887
  86  313.1645
  87  221.9354
  88  182.5096
  89  96.52578
  90  120.9241
  91  242.7315
  92  255.6123
  93  321.3744
  94  323.7144
  95  301.9812
  96  171.212
  97  190.0481
  98  160.6107
  99  144.8625
 100  160.7952
 101  147.094
 102  172.1827
 103  197.1434
 104  145.3014
 105  191.6427
 106  224.4684
 107  139.8167
 108  -40.22691
 109  159.0838
 110  360.7259
 111  315.1
 112  282.3966
 113  248.8364
 114  226.0617
 115  151.8047
 116  119.0743
 117  236.2771
 118  126.3824
 119  253.6303
 120  404.6439
 121  229.2624
 122  139.7687
 123  142.4712
 124  219.2953
 125  161.864
 126  250.0462
 127  297.044
 128  290.8304
 129  266.4378
 130  330.5473
 131  368.9431
 132  389.6134
 133  348.5997
 134  268.0236
 135  258.4066
 136  303.6612
 137  378.9739
 138  250.2121
 139  310.2064
 140  365.2257
 141  351.0868
 142  181.0741
 143  131.0933
 144  316.9019
 145  356.1084
 146  257.1829
 147  228.9768
 148  250.6698
 149  194.8781
 150  212.8614
 151  417.9907
 152  378.6702
 153  314.3211
 154  380.4894
 155  368.654
 156  222.6967
 157  256.9467
 158  300.5937
 159  310.5598
 160  284.9488
 161  235.7185
 162  127.5268
 163  140.5557
 164  332.212
 165  286.2838
 166  132.8533
 167  177.2705
 168  228.8866
 169  330.4843
 170  167.168
 171  176.3503
 172  287.7365
 173  341.6619
 174  304.8627
 175  219.1356
 176  375.743
 177  295.522
 178  210.0889
 179  253.4024
 180  372.9071
 181  334.0764
 182  222.5685
 183  303.7056
 184  304.6704
 185  275.9739
 186  242.7582
 187  280.8583
 188  221.2128
 189  169.3956
 190  268.4426
 191  282.8412
 192  239.0201
 193  294.4893
 194  263.5175
 195  127.9869
 196  134.1826
 197  141.1763
 198  216.2217
 199  140.0403
 200  215.1677
 201  180.8853
 202  132.0235
 203  223.7495
 204  157.7716
 205  292.6281
 206  286.6149
 207  138.5887
 208  329.0989
 209  309.5187
 210  385.3132
 211  380.3342
 212  214.001
 213  179.7705
 214  197.4304
 215  224.347
 216  356.0363
 217  285.148
 218  143.2758
 219  136.607
 220  174.4161
 221  256.5054
 222  348.0497
 223  244.2175
 224  202.6377
 225  228.1444
 226  328.857
 227  344.0406
 228  174.0087
 229  147.7318
 230  137.0637
 231  196.0234
 232  328.9279
 233  191.3421
 234  176.4657
 235  230.4732
 236  222.1429
 237  241.7972
 238  196.8255
 239  120.1289
 240  235.486
 241  241.2339
 242  164.7007
 243  182.9902
 244  153.5878
 245  245.6456
 246  268.5327
 247  220.6771
 248  175.4371
 249  227.2381
 250  304.5716
 251  288.9397
 252  232.2492
 253  277.5497
 254  120.2179
 255  209.4834
 256  190.2279
 257  214.8054
 258  242.1801
 259  339.2337
 260  304.116
 261  190.7238
 262  228.4604
 263  431.5067
 264  395.3486
 265  276.7281
 266  264.0662
 267  306.8575
 268  311.3858
 269  303.3509
 270  339.5633
 271  317.4084
 272  306.1733
 273  308.5824
 274  297.2992
 275  158.8124
 276  173.3836
 277  238.1157
 278  302.4661
 279  234.2867
 280  309.3873
 281  257.7859
 282  229.8977
 283  242.181
 284  375.4444
 285  278.353
 286  225.0919
 287  241.5003
 288  259.1906
 289  292.7703
 290  250.7948
 291  228.374
 292  201.9654
 293  277.7886
 294  252.1372
 295  216.2708
 296  156.0576
 297  256.8201
 298  208.4016
 299  182.9955
 300  277.8828
 301  387.7852
 302  326.7249
 303  271.9804
 304  182.4694
 305  193.2752
 306  174.844
 307  192.1967
 308  185.634
 309  223.0264
 310  281.0939
 311  210.7388
 312  281.9695
 313  263.7397
 314  304.084
 315  345.488
 316  242.3635
 317  309.9317
 318  393.6974
 319  284.6457
 320  255.9953
 321  144.1812
 322  224.2729
 323  208.966
 324  183.6819
 325  146.936
 326  78.00088
 327  354.4991
 328  368.1783
 329  334.6949
 330  383.0479
 331  351.0689
 332  333.5609
 333  321.2592
 334  307.5486
 335  432.2898
 336  398.6739
 337  310.2293
 338  319.3285
 339  280.0164
 340  294.7553
 341  401.903
 342  307.4522
 343  250.5531
 344  279.0289
 345  404.3242
 346  347.4383
 347  334.0161
 348  371.6433
 349  317.4603
 350  200.8519
 351  203.4631
 352  155.8858
 353  211.7475
 354  290.2963
 355  293.2967
 356  251.8906
 357  151.4817
 358  181.7586
 359  156.6407
 360  271.1906
 361  315.8968
 362  221.5367
 363  259.0338
 364  330.2263
 365  370.8395
 366  308.1709
 367  245.1865
 368  191.2048
 369  238.3034
 370  106.7297
 371  16.17848
 372  112.8789
 373  170.1156
 374  236.2334
 375  305.7707
 376  262.7776
 377  59.2882
 378  125.9494
 379  286.0997
 380  265.6135
 381  211.9356
 382  254.3319
 383  245.1149
 384  288.2047
 385  304.0892
 386  260.2513
 387  205.9734
 388  138.1432
 389  142.2835
 390  229.7254
 391  235.8709
 392  232.3874
 393  238.7898
 394  310.525
 395  269.6373
 396  151.7648
 397  298.1086
 398  336.4065
 399  192.8204
 400  285.0036
 401  286.0952
 402  295.1867
 403  425.9096
 404  369.1704
 405  223.693
 406  220.221
 407  274.4864
 408  222.3755
 409  185.94
 410  226.3329
 411  218.7635
 412  212.5893
 413  298.8393
 414  308.4008
 415  183.2421
 416  189.1122
 417  277.1584
 418  236.6774
 419  280.0341
 420  127.3529
 421  188.9195
 422  234.8568
 423  208.6351
 424  83.03131
 425  91.59693
 426  228.4097
 427  235.3933
 428  173.4123
 429  263.873
 430  311.6576
 431  225.686
 432  141.0957
 433  295.0892
 434  275.7213
 435  220.424
 436  318.9649
 437  383.1302
 438  290.5331
 439  243.7685
 440  160.239
 441  313.6177
 442  303.8495
 443  310.9039
 444  258.8255
 445  246.2853
 446  230.0446
 447  278.9428
 448  171.265
 449  321.1692
 450  365.545
 451  279.1729
 452  308.3602
 453  224.7602
 454  220.1483
 455  222.6637
 456  191.5881
 457  151.0436
 458  100.783
 459  179.892
 460  367.2597
 461  332.4167
 462  359.4093
 463  331.1139
 464  259.7559
 465  311.0493
 466  318.3231
 467  277.648
 468  410.3511
 469  372.7199
 470  268.7453
 471  222.8723
 472  262.6581
 473  322.1075
 474  387.2157
 475  355.7563
 476  335.7011
 477  284.9581
 478  327.1616
 479  366.8543
 480  355.1102
 481  294.4746
 482  492.6363
 483  499.0927
 484  361.841
 485  294.1541
 486  315.5723
 487  474.9322
 488  491.6483
 489  306.8935
 490  301.7237
 491  302.8239
 492  331.543
 493  293.9854
 494  319.0835
 495  498.3687
 496  450.7095
 497  369.4226
 498  202.8026
 499  169.1721
 500  154.642
 501  230.2022
 502  387.815
 503  447.8738
 504  440.8871
 505  450.5211
 506  423.2599
 507  414.2754
 508  421.2845
 509  641.4079
 510  633.4742
 511  745.4833
