# Input file       =  1181198473.10547_cleaned.dat
# Candidate        =  PSR_0332+5434
# Telescope        =  AR
# Epoch_topo       =  57915.278843813307
# Epoch_bary       =  N/A
# T_sample         =  0.002
# Data Folded      =  7340032
# Data Avg         =  0.0297696347621457
# Data StdDev      =  1.00000571681125 
# Profile Bins     =  512
# Profile Avg      =  426.728778595337 
# Profile StdDev   =  119.733720867936 
# Reduced chi-sqr  =  1.268
# Prob(Noise)      <  3.58e-05   (~4.0 sigma)
# P_topo (ms)      =  714.506716910221  +/- 0.00025
# P'_topo (s/s)    =  -0                +/- 1.32e-10
# P''_topo (s/s^2) =  0                 +/- 5.83e-14
# P_bary (ms)      =  N/A
# P'_bary (s/s)    =  N/A
# P''_bary (s/s^2) =  N/A
# P_orb (s)        =  N/A
# asin(i)/c (s)    =  N/A
# eccentricity     =  N/A
# w (rad)          =  N/A
# T_peri           =  N/A
######################################################
   0  416.6369
   1  548.1335
   2  485.0558
   3  401.0783
   4  420.1152
   5  420.5507
   6  475.5824
   7  442.2128
   8  401.1148
   9  503.1136
  10  560.6883
  11  400.0356
  12  391.8447
  13  563.168
  14  490.8685
  15  599.0425
  16  555.1798
  17  412.4966
  18  377.2063
  19  479.4353
  20  478.6131
  21  547.4708
  22  440.7498
  23  363.3271
  24  417.9291
  25  477.0595
  26  440.7993
  27  399.7779
  28  450.4601
  29  440.2715
  30  617.2772
  31  568.7791
  32  366.1417
  33  368.7292
  34  510.7673
  35  527.4935
  36  411.1287
  37  432.1894
  38  311.5331
  39  317.1482
  40  444.8268
  41  416.0643
  42  355.8117
  43  353.698
  44  387.0117
  45  427.9129
  46  529.1219
  47  507.0234
  48  487.2722
  49  463.0871
  50  432.76
  51  337.264
  52  392.4005
  53  538.1534
  54  404.1888
  55  343.4537
  56  464.3233
  57  561.6468
  58  436.9959
  59  366.8453
  60  345.3747
  61  409.0354
  62  313.7123
  63  398.2241
  64  470.679
  65  589.0742
  66  545.4274
  67  519.6244
  68  510.9179
  69  410.065
  70  387.1368
  71  413.2345
  72  415.8374
  73  478.0253
  74  401.1581
  75  306.4583
  76  412.5909
  77  341.5398
  78  366.2361
  79  290.44
  80  362.7678
  81  522.7439
  82  478.3762
  83  374.734
  84  384.2259
  85  323.2498
  86  377.1411
  87  393.1736
  88  425.8056
  89  426.744
  90  476.433
  91  415.6539
  92  434.6859
  93  410.4331
  94  310.9901
  95  311.4342
  96  519.4578
  97  466.7152
  98  378.1925
  99  366.1205
 100  449.2569
 101  445.3761
 102  447.7158
 103  591.9247
 104  580.9974
 105  503.2633
 106  446.6348
 107  511.4483
 108  473.1023
 109  321.7288
 110  334.1737
 111  382.6857
 112  366.8795
 113  380.2507
 114  378.1147
 115  350.3403
 116  430.8241
 117  462.0965
 118  536.983
 119  515.5488
 120  551.8681
 121  562.3247
 122  517.4943
 123  400.8356
 124  377.1417
 125  462.3174
 126  417.7984
 127  349.4124
 128  419.3573
 129  441.3688
 130  292.7695
 131  379.3503
 132  394.9313
 133  448.1007
 134  429.9227
 135  459.0619
 136  477.3778
 137  362.5172
 138  385.7947
 139  443.3118
 140  393.5677
 141  538.1517
 142  476.7242
 143  316.0195
 144  307.3104
 145  451.6521
 146  514.0669
 147  561.6639
 148  553.1853
 149  457.3524
 150  459.2459
 151  488.4707
 152  541.7715
 153  641.3936
 154  807.4474
 155  830.4492
 156  929.8082
 157  1002.645
 158  882.7978
 159  611.1264
 160  437.3945
 161  445.6007
 162  422.4973
 163  326.7463
 164  285.0531
 165  364.3589
 166  333.3141
 167  511.5995
 168  482.3497
 169  428.2421
 170  396.0107
 171  449.732
 172  464.8703
 173  365.1663
 174  422.9216
 175  393.1878
 176  315.5139
 177  294.6055
 178  375.3939
 179  497.9948
 180  481.1018
 181  366.6952
 182  353.7631
 183  374.681
 184  418.9751
 185  488.5295
 186  489.2557
 187  454.8641
 188  496.192
 189  511.3007
 190  492.3643
 191  484.4582
 192  509.519
 193  421.7661
 194  397.3236
 195  359.8821
 196  363.8295
 197  443.951
 198  422.4056
 199  435.1848
 200  408.2453
 201  421.2758
 202  374.8176
 203  401.7687
 204  374.9537
 205  339.7034
 206  294.4902
 207  278.9005
 208  306.2516
 209  224.2604
 210  270.2247
 211  206.379
 212  319.7549
 213  398.9113
 214  439.4619
 215  443.9193
 216  379.6105
 217  396.8879
 218  450.7361
 219  354.0583
 220  340.1628
 221  425.2179
 222  463.3963
 223  448.5096
 224  407.8221
 225  465.065
 226  331.9292
 227  341.9947
 228  330.5572
 229  392.3294
 230  475.3724
 231  490.9131
 232  475.7651
 233  384.464
 234  384.0727
 235  338.3406
 236  367.6259
 237  435.1769
 238  423.7783
 239  314.1896
 240  368.1672
 241  317.7914
 242  365.1757
 243  426.769
 244  401.1299
 245  397.2898
 246  365.934
 247  329.8725
 248  303.9951
 249  306.8849
 250  144.6768
 251  201.549
 252  262.0352
 253  260.997
 254  265.108
 255  337.2077
 256  420.6997
 257  326.8694
 258  410.2801
 259  374.5723
 260  354.5052
 261  258.9607
 262  217.5284
 263  311.2089
 264  247.7088
 265  217.6998
 266  257.4892
 267  323.2133
 268  294.7913
 269  467.2917
 270  508.8452
 271  362.9287
 272  318.6787
 273  326.3223
 274  415.8286
 275  422.144
 276  416.5278
 277  510.809
 278  476.677
 279  353.5388
 280  254.9065
 281  300.6584
 282  402.4089
 283  432.9044
 284  330.0671
 285  300.6491
 286  339.0757
 287  373.7621
 288  445.635
 289  352.4845
 290  269.1238
 291  279.8797
 292  269.035
 293  252.4975
 294  337.9683
 295  333.6312
 296  358.8541
 297  343.0928
 298  278.9473
 299  280.0103
 300  329.425
 301  346.6385
 302  258.0086
 303  302.2208
 304  347.9846
 305  327.4802
 306  262.2352
 307  306.0928
 308  380.1609
 309  428.6135
 310  407.5317
 311  428.4291
 312  442.1663
 313  479.5391
 314  423.5192
 315  400.1504
 316  400.7789
 317  344.1792
 318  371.6885
 319  448.1993
 320  547.6066
 321  379.6213
 322  346.1305
 323  416.7848
 324  401.609
 325  411.6541
 326  464.4565
 327  538.5981
 328  578.825
 329  324.7676
 330  383.3659
 331  545.2542
 332  507.4958
 333  401.7338
 334  440.3036
 335  405.5046
 336  429.7997
 337  347.8888
 338  330.3449
 339  459.6531
 340  398.2765
 341  349.9245
 342  427.1848
 343  520.7421
 344  443.8153
 345  421.7215
 346  534.6055
 347  459.7723
 348  561.2202
 349  480.3787
 350  355.3315
 351  397.5999
 352  364.0952
 353  403.2035
 354  342.2661
 355  484.6537
 356  568.0179
 357  447.1595
 358  335.2111
 359  485.5797
 360  543.9177
 361  459.1734
 362  522.3195
 363  522.5173
 364  505.6877
 365  415.7408
 366  391.8758
 367  414.7449
 368  492.767
 369  562.3099
 370  582.8445
 371  578.7811
 372  451.289
 373  504.247
 374  496.2778
 375  517.5037
 376  561.7985
 377  546.4021
 378  428.3522
 379  323.1847
 380  371.2691
 381  352.1471
 382  297.4312
 383  359.6128
 384  401.761
 385  451.8576
 386  470.8413
 387  436.162
 388  258.1056
 389  403.1138
 390  391.6671
 391  233.2851
 392  348.9653
 393  405.2545
 394  405.9516
 395  344.5862
 396  439.255
 397  392.5965
 398  388.9906
 399  526.1922
 400  551.6154
 401  474.6509
 402  556.496
 403  575.2369
 404  511.2762
 405  536.809
 406  590.4286
 407  511.4358
 408  538.9655
 409  456.3815
 410  491.1483
 411  544.3684
 412  411.5312
 413  330.5183
 414  387.2044
 415  495.8159
 416  485.5052
 417  485.5304
 418  478.8325
 419  531.014
 420  539.905
 421  481.8596
 422  556.744
 423  618.3286
 424  460.8668
 425  421.3018
 426  421.5308
 427  514.8428
 428  522.285
 429  438.1145
 430  444.859
 431  437.6955
 432  499.4332
 433  538.9744
 434  479.079
 435  408.2527
 436  398.4368
 437  368.5573
 438  451.2775
 439  530.4683
 440  534.8659
 441  489.0551
 442  493.1943
 443  432.3816
 444  483.0602
 445  419.3267
 446  366.1281
 447  495.8512
 448  515.8818
 449  560.0967
 450  614.7505
 451  607.9032
 452  612.6069
 453  548.343
 454  506.2533
 455  484.743
 456  399.8801
 457  332.4044
 458  418.3858
 459  475.09
 460  417.9288
 461  440.089
 462  397.4193
 463  426.3371
 464  271.9408
 465  279.2451
 466  246.1298
 467  403.9041
 468  379.9543
 469  365.2986
 470  461.2792
 471  485.41
 472  437.7108
 473  364.834
 474  335.9833
 475  365.4881
 476  380.3972
 477  322.5554
 478  240.8977
 479  286.3457
 480  526.7134
 481  472.2074
 482  337.9686
 483  463.356
 484  421.881
 485  363.2271
 486  347.1587
 487  470.7022
 488  554.24
 489  538.0287
 490  389.0842
 491  366.1661
 492  545.6115
 493  650.7711
 494  632.9932
 495  553.593
 496  470.1021
 497  418.1978
 498  384.1876
 499  354.4757
 500  463.8462
 501  629.9204
 502  539.136
 503  397.5937
 504  456.4095
 505  509.1833
 506  447.321
 507  361.7492
 508  315.9676
 509  529.7074
 510  515.9646
 511  405.3931
