# Input file       =  1181127197.108836_cleaned.dat
# Candidate        =  PSR_0332+5434
# Telescope        =  AR
# Epoch_topo       =  57914.453890148565
# Epoch_bary       =  N/A
# T_sample         =  0.002
# Data Folded      =  7340032
# Data Avg         =  0.0247750561155478
# Data StdDev      =  1.00006709198541 
# Profile Bins     =  512
# Profile Avg      =  355.060962242318 
# Profile StdDev   =  119.741069503896 
# Reduced chi-sqr  =  1.028
# Prob(Noise)      <  0.32   (~0.5 sigma)
# P_topo (ms)      =  714.507827297554  +/- 0.000395
# P'_topo (s/s)    =  -0                +/- 2.08e-10
# P''_topo (s/s^2) =  0                 +/- 9.2e-14
# P_bary (ms)      =  N/A
# P'_bary (s/s)    =  N/A
# P''_bary (s/s^2) =  N/A
# P_orb (s)        =  N/A
# asin(i)/c (s)    =  N/A
# eccentricity     =  N/A
# w (rad)          =  N/A
# T_peri           =  N/A
######################################################
   0  330.8298
   1  279.4175
   2  270.105
   3  241.1426
   4  181.1647
   5  284.0585
   6  268.5982
   7  240.5885
   8  379.119
   9  308.7023
  10  286.189
  11  213.8601
  12  229.0844
  13  492.2181
  14  491.3974
  15  393.2443
  16  190.079
  17  201.1404
  18  265.7964
  19  250.2089
  20  280.1593
  21  308.6965
  22  391.7261
  23  393.9271
  24  324.468
  25  351.5915
  26  441.9808
  27  378.3323
  28  301.4535
  29  358.4939
  30  370.5345
  31  392.4465
  32  321.5358
  33  297.4019
  34  274.8419
  35  268.508
  36  216.6333
  37  340.8981
  38  371.5812
  39  153.9756
  40  166.0504
  41  323.9317
  42  265.239
  43  240.3326
  44  169.4527
  45  237.734
  46  368.097
  47  260.8701
  48  398.4939
  49  347.7902
  50  324.2978
  51  333.598
  52  320.9374
  53  385.0253
  54  392.625
  55  460.1691
  56  392.106
  57  339.8298
  58  311.7323
  59  271.485
  60  284.9807
  61  198.0083
  62  181.899
  63  314.7562
  64  450.6184
  65  407.0897
  66  327.1294
  67  274.6969
  68  254.8464
  69  252.756
  70  273.631
  71  332.0956
  72  221.1513
  73  254.3604
  74  355.3954
  75  367.8121
  76  291.1611
  77  327.5123
  78  412.8387
  79  265.9637
  80  187.3486
  81  492.0786
  82  448.6216
  83  320.6446
  84  294.4834
  85  370.7963
  86  340.4253
  87  450.4283
  88  478.2103
  89  383.4034
  90  354.7818
  91  439.709
  92  367.991
  93  318.2821
  94  358.0086
  95  351.7709
  96  296.2065
  97  314.618
  98  322.1674
  99  393.3737
 100  369.8721
 101  461.6977
 102  456.803
 103  421.7817
 104  402.7145
 105  360.2926
 106  452.5232
 107  463.5641
 108  379.132
 109  298.7806
 110  275.8679
 111  335.7228
 112  425.5551
 113  443.0333
 114  432.8002
 115  407.9854
 116  555.5499
 117  462.2792
 118  414.9051
 119  392.4759
 120  407.711
 121  423.7036
 122  418.2834
 123  479.1608
 124  470.3537
 125  506.9389
 126  512.7479
 127  470.6766
 128  430.4915
 129  360.7737
 130  450.3142
 131  459.7815
 132  474.9042
 133  368.6255
 134  355.3637
 135  261.313
 136  227.4945
 137  378.0003
 138  347.5004
 139  399.9636
 140  489.1388
 141  451.289
 142  447.7282
 143  294.3879
 144  330.042
 145  247.8518
 146  215.7501
 147  336.2123
 148  340.229
 149  334.5836
 150  316.536
 151  428.589
 152  339.1671
 153  327.4566
 154  396.0989
 155  340.333
 156  375.1355
 157  451.8951
 158  353.735
 159  288.2281
 160  276.8972
 161  318.8521
 162  376.8164
 163  362.8929
 164  399.267
 165  439.9594
 166  460.8221
 167  312.81
 168  340.5554
 169  483.0116
 170  489.038
 171  319.4915
 172  303.8157
 173  310.6675
 174  296.2024
 175  287.4587
 176  168.8147
 177  315.9104
 178  460.6832
 179  541.7656
 180  487.1965
 181  420.5343
 182  341.0733
 183  446.321
 184  429.1807
 185  477.8779
 186  469.2802
 187  417.7333
 188  453.4574
 189  460.4309
 190  543.011
 191  468.4963
 192  364.4712
 193  435.752
 194  436.4235
 195  442.0086
 196  531.0673
 197  466.4803
 198  340.0469
 199  382.9785
 200  304.5838
 201  385.4979
 202  415.9079
 203  383.873
 204  399.7946
 205  406.8928
 206  341.3754
 207  230.0762
 208  309.0055
 209  337.0891
 210  256.6582
 211  399.8407
 212  388.5551
 213  336.3032
 214  364.6303
 215  308.7288
 216  366.8392
 217  334.4047
 218  180.8828
 219  322.2445
 220  483.1536
 221  526.8583
 222  460.4071
 223  324.9572
 224  391.9706
 225  299.537
 226  430.0903
 227  396.5511
 228  351.4179
 229  350.5542
 230  358.189
 231  336.9224
 232  353.035
 233  337.8115
 234  334.5893
 235  418.9667
 236  497.4078
 237  424.1862
 238  382.2989
 239  282.2032
 240  340.2716
 241  268.8186
 242  295.7321
 243  362.8776
 244  330.6879
 245  377.324
 246  357.1586
 247  251.6041
 248  268.3457
 249  387.6493
 250  396.6974
 251  294.092
 252  346.2597
 253  390.7413
 254  247.1721
 255  208.3693
 256  323.9424
 257  377.9658
 258  453.2384
 259  285.0236
 260  317.8171
 261  344.6545
 262  328.9692
 263  338.3131
 264  338.4303
 265  428.3866
 266  425.7971
 267  399.4383
 268  485.2563
 269  367.5597
 270  360.2445
 271  350.2184
 272  312.6459
 273  297.8931
 274  366.1416
 275  340.8005
 276  375.6519
 277  320.9348
 278  412.9313
 279  443.0741
 280  412.3759
 281  380.0883
 282  361.1081
 283  381.7474
 284  292.7117
 285  292.3856
 286  273.0338
 287  345.0601
 288  317.3334
 289  312.4886
 290  315.4353
 291  387.4294
 292  229.392
 293  291.0532
 294  329.6252
 295  352.9048
 296  330.7317
 297  367.6538
 298  334.3943
 299  321.8905
 300  372.3465
 301  339.8323
 302  275.8905
 303  271.2983
 304  214.9894
 305  194.8762
 306  206.3001
 307  261.9281
 308  202.2041
 309  290.5287
 310  270.543
 311  168.1176
 312  156.9795
 313  219.0974
 314  220.9673
 315  274.1367
 316  234.5103
 317  314.6642
 318  436.1871
 319  349.2097
 320  273.1243
 321  258.2816
 322  256.417
 323  308.4396
 324  335.1442
 325  322.6358
 326  418.3689
 327  477.6017
 328  500.0516
 329  334.7732
 330  303.3009
 331  376.2762
 332  397.5073
 333  338.7995
 334  322.0736
 335  311.8709
 336  246.2763
 337  303.036
 338  401.0193
 339  382.291
 340  438.8156
 341  498.1657
 342  458.8345
 343  441.3002
 344  501.2228
 345  478.5782
 346  362.9663
 347  419.0102
 348  477.1408
 349  534.4932
 350  421.4971
 351  295.267
 352  297.0477
 353  393.7921
 354  457.7731
 355  467.7783
 356  465.4338
 357  364.0523
 358  290.4033
 359  330.6771
 360  286.4289
 361  282.0477
 362  394.899
 363  404.8572
 364  366.4641
 365  417.1569
 366  367.4627
 367  368.5059
 368  468.5917
 369  389.2746
 370  321.3727
 371  391.3503
 372  355.6898
 373  398.5498
 374  562.8812
 375  818.3001
 376  784.77
 377  731.7921
 378  740.807
 379  632.4832
 380  451.1748
 381  293.4593
 382  314.6711
 383  316.9472
 384  440.8036
 385  495.0515
 386  486.7838
 387  411.7593
 388  419.5201
 389  326.5698
 390  262.0491
 391  277.701
 392  351.6399
 393  288.3646
 394  268.5128
 395  327.2828
 396  462.8365
 397  303.5614
 398  252.1342
 399  203.7116
 400  220.1285
 401  368.3799
 402  279.2521
 403  330.7848
 404  383.0529
 405  301.9355
 406  326.592
 407  423.7999
 408  401.0946
 409  389.795
 410  389.9785
 411  323.3082
 412  360.1006
 413  350.2401
 414  424.6464
 415  366.6159
 416  269.6717
 417  300.7337
 418  316.7231
 419  381.5386
 420  395.0637
 421  275.6113
 422  237.6208
 423  299.1531
 424  389.2968
 425  447.5379
 426  548.1795
 427  323.7988
 428  217.3029
 429  248.0143
 430  307.2185
 431  403.045
 432  451.8694
 433  341.7667
 434  288.0309
 435  282.2015
 436  226.9138
 437  341.1251
 438  326.7829
 439  269.7486
 440  322.52
 441  265.743
 442  300.4153
 443  352.2256
 444  389.9182
 445  281.4936
 446  350.0891
 447  273.9177
 448  353.1348
 449  299.8957
 450  277.3771
 451  319.3985
 452  356.2128
 453  383.0992
 454  360.5388
 455  390.8674
 456  380.0295
 457  299.5362
 458  236.0529
 459  288.3635
 460  381.6005
 461  372.5912
 462  318.8858
 463  340.9734
 464  494.9749
 465  427.3695
 466  343.3797
 467  374.3287
 468  430.751
 469  457.8499
 470  438.7743
 471  367.3247
 472  317.0889
 473  267.4929
 474  313.2282
 475  355.5722
 476  228.599
 477  256.7118
 478  233.9631
 479  314.2588
 480  337.5815
 481  275.0133
 482  380.2253
 483  325.9046
 484  302.3056
 485  280.0591
 486  262.6357
 487  251.6929
 488  178.5692
 489  408.6299
 490  419.2789
 491  261.4128
 492  298.2648
 493  422.6961
 494  389.8326
 495  425.5935
 496  332.6483
 497  292.2347
 498  181.4189
 499  352.795
 500  469.3393
 501  330.8922
 502  312.7249
 503  253.8562
 504  370.1506
 505  353.6197
 506  374.7493
 507  505.1082
 508  494.2963
 509  448.3974
 510  430.2627
 511  407.836
