# Input file       =  1181385701.112891_cleaned.dat
# Candidate        =  PSR_0332+5434
# Telescope        =  AR
# Epoch_topo       =  57917.445834639941
# Epoch_bary       =  N/A
# T_sample         =  0.002
# Data Folded      =  7340032
# Data Avg         =  0.0290745604028752
# Data StdDev      =  1.00003320574813 
# Profile Bins     =  512
# Profile Avg      =  416.823018574888 
# Profile StdDev   =  119.737012201815 
# Reduced chi-sqr  =  0.927
# Prob(Noise)      <  0.88   (~0.0 sigma)
# P_topo (ms)      =  714.505020149335  +/- 0.0002
# P'_topo (s/s)    =  -0                +/- 1.06e-10
# P''_topo (s/s^2) =  0                 +/- 4.66e-14
# P_bary (ms)      =  N/A
# P'_bary (s/s)    =  N/A
# P''_bary (s/s^2) =  N/A
# P_orb (s)        =  N/A
# asin(i)/c (s)    =  N/A
# eccentricity     =  N/A
# w (rad)          =  N/A
# T_peri           =  N/A
######################################################
   0  762.0697
   1  793.8234
   2  703.7507
   3  585.6118
   4  408.4772
   5  252.4631
   6  290.146
   7  403.9283
   8  458.5815
   9  539.2194
  10  484.8015
  11  535.3899
  12  585.1296
  13  488.2209
  14  393.7577
  15  501.1907
  16  538.7448
  17  494.6674
  18  350.711
  19  353.2829
  20  412.7455
  21  423.9541
  22  551.2098
  23  462.4493
  24  400.3432
  25  373.6032
  26  417.0197
  27  363.2487
  28  357.8955
  29  408.7339
  30  444.6143
  31  394.2558
  32  416.6023
  33  372.808
  34  342.569
  35  373.8782
  36  470.1355
  37  508.6257
  38  440.3785
  39  496.9981
  40  478.4318
  41  390.8796
  42  455.7687
  43  450.9593
  44  448.9243
  45  446.5936
  46  402.2411
  47  444.4069
  48  400.3799
  49  394.9471
  50  465.0966
  51  506.9031
  52  567.8844
  53  380.276
  54  297.5489
  55  374.1387
  56  439.2858
  57  387.3402
  58  278.3985
  59  435.3087
  60  503.1452
  61  519.2475
  62  538.432
  63  555.2342
  64  567.5161
  65  555.2261
  66  525.6398
  67  582.752
  68  477.7887
  69  389.4124
  70  402.9494
  71  440.5728
  72  525.7116
  73  389.4801
  74  454.9013
  75  476.2286
  76  420.0409
  77  552.8085
  78  548.364
  79  453.728
  80  407.0289
  81  391.7128
  82  423.2721
  83  474.2287
  84  482.3102
  85  462.187
  86  432.0838
  87  553.4657
  88  542.4896
  89  397.3453
  90  426.1733
  91  466.6448
  92  447.297
  93  385.4666
  94  506.936
  95  386.1919
  96  332.1503
  97  424.678
  98  480.0948
  99  557.3105
 100  548.2017
 101  419.7798
 102  374.7707
 103  427.0547
 104  459.3354
 105  447.3509
 106  404.0015
 107  409.4448
 108  420.3291
 109  318.4375
 110  385.5018
 111  411.1647
 112  466.0711
 113  533.9433
 114  463.9765
 115  392.607
 116  450.6331
 117  520.5228
 118  373.6829
 119  318.0063
 120  377.5079
 121  425.6004
 122  410.2462
 123  449.3771
 124  478.9069
 125  397.3615
 126  404.0628
 127  478.6276
 128  520.6635
 129  384.8271
 130  395.8724
 131  397.6616
 132  483.9986
 133  435.8778
 134  534.0588
 135  555.7557
 136  410.6976
 137  431.9629
 138  436.2747
 139  486.8707
 140  422.1609
 141  444.7084
 142  471.0797
 143  359.1163
 144  405.5183
 145  404.26
 146  439.587
 147  384.9659
 148  428.5084
 149  453.7641
 150  460.2081
 151  338.3199
 152  431.2106
 153  410.0846
 154  450.8391
 155  362.3215
 156  468.2885
 157  489.0858
 158  323.8691
 159  283.6842
 160  436.3501
 161  453.6945
 162  337.8307
 163  406.9868
 164  393.2899
 165  350.8503
 166  329.5159
 167  406.8631
 168  408.754
 169  305.5637
 170  366.7142
 171  504.3042
 172  445.4785
 173  386.99
 174  324.063
 175  350.33
 176  384.3306
 177  259.2908
 178  320.2928
 179  446.6787
 180  489.1051
 181  423.6879
 182  382.4944
 183  469.5941
 184  379.6613
 185  415.3924
 186  536.5333
 187  485.1554
 188  409.1991
 189  359.2286
 190  372.65
 191  409.0426
 192  326.3157
 193  587.4097
 194  566.0238
 195  504.6782
 196  480.5863
 197  478.152
 198  542.0675
 199  493.9661
 200  349.3766
 201  225.0033
 202  341.3075
 203  291.4165
 204  339.3827
 205  261.4644
 206  334.6428
 207  362.339
 208  314.2853
 209  349.0776
 210  338.4534
 211  325.5977
 212  344.7896
 213  398.4556
 214  240.0508
 215  299.7139
 216  371.2376
 217  321.9355
 218  413.781
 219  423.1819
 220  415.6676
 221  497.7837
 222  459.3532
 223  313.4708
 224  290.4508
 225  296.8652
 226  332.9501
 227  351.2337
 228  363.0125
 229  387.7777
 230  348.7086
 231  361.1863
 232  338.8197
 233  365.7253
 234  383.7699
 235  328.192
 236  280.2331
 237  403.2111
 238  450.3802
 239  315.7188
 240  267.5834
 241  154.0905
 242  238.1595
 243  385.0003
 244  307.5272
 245  290.7667
 246  338.5212
 247  317.0631
 248  336.3116
 249  388.4218
 250  426.6017
 251  383.9862
 252  312.5684
 253  394.2756
 254  344.0564
 255  300.2204
 256  356.3474
 257  422.1588
 258  389.5866
 259  432.9414
 260  443.0134
 261  360.0209
 262  383.1039
 263  405.67
 264  362.2963
 265  458.4016
 266  376.5164
 267  331.1046
 268  264.058
 269  260.7933
 270  292.8933
 271  505.5505
 272  453.382
 273  426.8415
 274  310.5751
 275  361.216
 276  499.5031
 277  583.6412
 278  483.2709
 279  391.539
 280  477.9828
 281  408.9779
 282  453.6061
 283  344.6532
 284  363.0067
 285  406.3779
 286  520.52
 287  491.2817
 288  495.8697
 289  440.7213
 290  337.459
 291  401.6387
 292  346.4481
 293  274.9843
 294  218.1165
 295  332.3647
 296  333.9854
 297  398.4893
 298  362.9248
 299  321.588
 300  339.9883
 301  345.5797
 302  415.2552
 303  442.4632
 304  451.5012
 305  329.3301
 306  247.1468
 307  298.9847
 308  409.2971
 309  396.5171
 310  508.0643
 311  362.7413
 312  291.0367
 313  433.972
 314  488.9417
 315  444.5545
 316  395.8112
 317  416.094
 318  422.4768
 319  455.2721
 320  492.5671
 321  585.9806
 322  515.9972
 323  540.9753
 324  476.3535
 325  487.3876
 326  502.484
 327  525.0413
 328  630.7797
 329  587.8246
 330  402.118
 331  416.9172
 332  467.6946
 333  417.8422
 334  324.6832
 335  348.2929
 336  383.1846
 337  436.6891
 338  490.8361
 339  547.5977
 340  474.2979
 341  330.3206
 342  245.4774
 343  193.1434
 344  313.1234
 345  513.9547
 346  447.2271
 347  403.4875
 348  472.1288
 349  274.1151
 350  288.6103
 351  366.5818
 352  433.3682
 353  298.7862
 354  273.6578
 355  340.261
 356  449.9027
 357  292.5609
 358  339.4146
 359  375.0383
 360  478.9424
 361  394.3823
 362  362.4981
 363  548.2229
 364  485.6657
 365  454.3808
 366  449.4381
 367  419.239
 368  368.4617
 369  358.7312
 370  381.6935
 371  410.9251
 372  445.8782
 373  502.4678
 374  489.6187
 375  535.0841
 376  455.9643
 377  466.8304
 378  401.9697
 379  364.9531
 380  244.1195
 381  326.7845
 382  411.4843
 383  414.1369
 384  397.471
 385  366.755
 386  481.9571
 387  436.0765
 388  339.879
 389  440.0497
 390  415.7007
 391  278.9889
 392  343.446
 393  330.1866
 394  325.8692
 395  338.8094
 396  399.7928
 397  440.1264
 398  482.7274
 399  427.5165
 400  431.2771
 401  365.3871
 402  349.8618
 403  405.9492
 404  291.9056
 405  377.5391
 406  415.1206
 407  501.9396
 408  350.6396
 409  336.1973
 410  440.1801
 411  514.3295
 412  459.5435
 413  459.7474
 414  470.1931
 415  403.433
 416  414.4887
 417  369.9913
 418  346.4795
 419  437.4364
 420  473.3017
 421  488.584
 422  437.1776
 423  425.0884
 424  313.5093
 425  364.9967
 426  435.9674
 427  522.5425
 428  445.1302
 429  465.1198
 430  483.6281
 431  589.9658
 432  512.7358
 433  475.6665
 434  502.5552
 435  509.1859
 436  393.9486
 437  335.8221
 438  345.379
 439  378.9573
 440  452.9324
 441  482.0937
 442  513.328
 443  538.1724
 444  575.1632
 445  449.0307
 446  387.1486
 447  424.9243
 448  473.1133
 449  506.2511
 450  429.943
 451  314.6062
 452  392.9474
 453  290.8892
 454  344.0217
 455  399.3796
 456  539.392
 457  483.1826
 458  408.7382
 459  370.0338
 460  366.2261
 461  309.8252
 462  340.718
 463  498.8597
 464  479.9767
 465  370.8308
 466  534.1155
 467  542.6896
 468  408.2239
 469  349.8709
 470  401.4647
 471  354.0954
 472  317.5879
 473  399.4175
 474  301.5775
 475  330.2629
 476  406.4717
 477  422.4682
 478  457.5363
 479  587.0344
 480  345.1431
 481  267.9105
 482  330.4834
 483  393.0094
 484  372.339
 485  354.6583
 486  561.6431
 487  467.7392
 488  380.6355
 489  493.3535
 490  461.9568
 491  429.9346
 492  491.8058
 493  481.6991
 494  304.2823
 495  471.1947
 496  489.7852
 497  502.2165
 498  390.406
 499  489.2077
 500  428.9057
 501  346.4607
 502  409.2951
 503  440.8857
 504  371.2051
 505  373.131
 506  398.83
 507  298.6566
 508  465.6588
 509  598.1418
 510  645.2587
 511  680.853
