# Input file       =  1181543118.119314_cleaned.dat
# Candidate        =  PSR_0332+5434
# Telescope        =  AR
# Epoch_topo       =  57919.267790732803
# Epoch_bary       =  N/A
# T_sample         =  0.002
# Data Folded      =  7340032
# Data Avg         =  0.0190989870166885
# Data StdDev      =  1.00001828894686 
# Profile Bins     =  512
# Profile Avg      =  273.938879192574 
# Profile StdDev   =  119.735226167906 
# Reduced chi-sqr  =  1.196
# Prob(Noise)      <  0.00152   (~3.0 sigma)
# P_topo (ms)      =  714.502995351766  +/- 0.000119
# P'_topo (s/s)    =  -0                +/- 6.25e-11
# P''_topo (s/s^2) =  0                 +/- 2.76e-14
# P_bary (ms)      =  N/A
# P'_bary (s/s)    =  N/A
# P''_bary (s/s^2) =  N/A
# P_orb (s)        =  N/A
# asin(i)/c (s)    =  N/A
# eccentricity     =  N/A
# w (rad)          =  N/A
# T_peri           =  N/A
######################################################
   0  824.2363
   1  578.6451
   2  569.3562
   3  521.7565
   4  347.593
   5  259.7834
   6  262.5487
   7  364.3495
   8  390.7199
   9  290.1266
  10  352.5771
  11  393.7618
  12  280.3885
  13  285.8972
  14  348.9474
  15  401.6312
  16  488.9699
  17  370.1873
  18  236.5399
  19  282.5873
  20  232.3752
  21  251.1171
  22  225.9902
  23  235.5357
  24  303.265
  25  221.9527
  26  200.5673
  27  276.544
  28  346.7463
  29  388.0817
  30  180.3842
  31  275.8051
  32  274.3308
  33  229.1601
  34  223.2583
  35  337.3441
  36  472.6011
  37  213.6175
  38  261.7321
  39  332.4694
  40  278.845
  41  317.3711
  42  172.3077
  43  237.6438
  44  290.6475
  45  350.7554
  46  393.0974
  47  318.5643
  48  222.9844
  49  179.1363
  50  257.0717
  51  272.7609
  52  260.726
  53  248.1042
  54  347.2191
  55  461.3485
  56  445.6477
  57  362.3487
  58  188.0221
  59  238.987
  60  296.449
  61  233.81
  62  277.8459
  63  354.7648
  64  279.102
  65  191.0696
  66  269.8231
  67  302.2568
  68  379.1609
  69  499.3397
  70  312.8771
  71  172.898
  72  149.8187
  73  261.5112
  74  308.4232
  75  364.3864
  76  317.7125
  77  174.4536
  78  289.6333
  79  362.9902
  80  229.2174
  81  177.8198
  82  116.2258
  83  318.0542
  84  307.4836
  85  293.3396
  86  285.1696
  87  260.1141
  88  254.9987
  89  272.6179
  90  312.2059
  91  201.0257
  92  124.3883
  93  262.3466
  94  410.91
  95  325.5802
  96  310.9952
  97  205.7494
  98  196.3376
  99  130.7924
 100  128.1754
 101  139.1361
 102  170.602
 103  263.7497
 104  280.1293
 105  268.643
 106  235.0516
 107  289.4821
 108  288.6278
 109  324.0498
 110  316.7259
 111  315.5106
 112  421.0727
 113  359.9324
 114  326.8006
 115  156.3195
 116  247.4796
 117  221.2561
 118  172.9994
 119  156.9312
 120  138.532
 121  203.5864
 122  285.4713
 123  290.383
 124  284.1629
 125  170.1044
 126  200.5697
 127  255.9104
 128  358.0412
 129  326.8646
 130  239.5354
 131  206.8484
 132  290.5605
 133  322.9188
 134  229.4152
 135  200.9166
 136  289.0684
 137  368.5793
 138  209.5025
 139  278.1794
 140  217.3829
 141  244.881
 142  218.8298
 143  162.5347
 144  247.9344
 145  165.8253
 146  167.584
 147  467.4142
 148  391.7402
 149  341.8014
 150  294.8195
 151  236.2285
 152  310.2249
 153  275.2098
 154  233.3362
 155  314.782
 156  333.5826
 157  285.5674
 158  227.2225
 159  264.2975
 160  339.4404
 161  328.0029
 162  173.5128
 163  282.9319
 164  316.7588
 165  309.0486
 166  326.5797
 167  173.6498
 168  155.8451
 169  334.0587
 170  399.6648
 171  363.2847
 172  254.3493
 173  274.9103
 174  297.6797
 175  270.8943
 176  338.4661
 177  149.816
 178  146.1111
 179  259.6516
 180  280.0655
 181  203.8567
 182  169.9394
 183  250.7308
 184  250.2959
 185  246.8169
 186  243.8439
 187  169.277
 188  128.556
 189  263.7037
 190  269.6448
 191  271.5691
 192  262.247
 193  219.1729
 194  219.7736
 195  165.885
 196  205.3851
 197  137.8279
 198  235.5622
 199  233.1235
 200  166.9753
 201  204.4643
 202  208.1357
 203  139.2318
 204  179.7779
 205  230.6498
 206  252.7215
 207  183.3328
 208  181.7867
 209  87.55905
 210  154.4987
 211  242.5473
 212  169.7867
 213  93.61791
 214  172.0168
 215  168.5388
 216  221.9537
 217  259.897
 218  295.2635
 219  323.9393
 220  260.559
 221  350.493
 222  234.6429
 223  271.9
 224  300.6277
 225  307.0652
 226  266.5418
 227  292.8318
 228  294.6988
 229  262.7039
 230  226.4577
 231  259.9911
 232  194.7224
 233  206.774
 234  263.0021
 235  294.5302
 236  289.2284
 237  301.4939
 238  291.1758
 239  281.6534
 240  181.1015
 241  189.2848
 242  122.5131
 243  202.6405
 244  249.7061
 245  278.3328
 246  245.5066
 247  223.8478
 248  187.2326
 249  -20.0402
 250  120.7629
 251  275.6389
 252  325.8216
 253  287.6516
 254  194.3771
 255  211.1863
 256  151.8119
 257  149.1695
 258  193.8551
 259  156.04
 260  85.77253
 261  154.3891
 262  174.2319
 263  239.6438
 264  307.7396
 265  186.8107
 266  207.6776
 267  264.8934
 268  313.044
 269  329.8785
 270  334.5163
 271  195.3667
 272  287.7126
 273  255.7169
 274  186.5763
 275  149.5777
 276  160.3989
 277  138.6077
 278  176.7548
 279  229.9287
 280  305.4324
 281  286.2703
 282  187.1901
 283  367.8769
 284  495.529
 285  535.3692
 286  419.6412
 287  314.6603
 288  391.8085
 289  407.5378
 290  311.888
 291  196.7914
 292  203.1414
 293  287.5627
 294  316.3624
 295  225.6865
 296  268.7588
 297  316.1726
 298  426.0525
 299  373.7267
 300  272.833
 301  278.5306
 302  298.8671
 303  330.8136
 304  389.1473
 305  413.6567
 306  231.5586
 307  300.2481
 308  247.2845
 309  231.3809
 310  255.2625
 311  300.0271
 312  338.7252
 313  382.4223
 314  330.9525
 315  405.9439
 316  386.4052
 317  418.5538
 318  358.0386
 319  272.2661
 320  404.6024
 321  242.0416
 322  236.7909
 323  393.454
 324  309.2219
 325  202.9465
 326  255.2605
 327  262.8464
 328  265.312
 329  250.7044
 330  182.3895
 331  226.3659
 332  272.3525
 333  329.9984
 334  253.1835
 335  251.9035
 336  207.3528
 337  382.1802
 338  357.9327
 339  240.3106
 340  205.929
 341  168.4246
 342  230.28
 343  318.5414
 344  188.6897
 345  184.6616
 346  213.3241
 347  228.9749
 348  213.5676
 349  106.8595
 350  230.6989
 351  232.0812
 352  171.2207
 353  261.5712
 354  305.6212
 355  225.3982
 356  299.1262
 357  320.1866
 358  276.5356
 359  79.46309
 360  269.2393
 361  400.1511
 362  331.2703
 363  270.9335
 364  312.7975
 365  370.6828
 366  360.7373
 367  387.8994
 368  275.0585
 369  264.9055
 370  235.0421
 371  255.7867
 372  237.7425
 373  145.8236
 374  108.683
 375  210.6328
 376  282.0877
 377  248.8101
 378  198.2013
 379  268.7291
 380  315.1058
 381  328.2171
 382  301.9755
 383  179.6648
 384  120.4917
 385  221.4832
 386  309.3772
 387  342.0215
 388  277.4713
 389  211.1825
 390  290.0603
 391  355.0389
 392  403.6306
 393  402.7391
 394  280.1327
 395  238.9601
 396  192.8553
 397  152.2832
 398  193.2297
 399  199.6421
 400  312.8048
 401  254.0214
 402  133.5444
 403  179.4137
 404  208.2519
 405  273.6187
 406  375.841
 407  227.5657
 408  215.9136
 409  276.7671
 410  229.9644
 411  291.2651
 412  380.9292
 413  257.2765
 414  272.3461
 415  270.393
 416  376.446
 417  347.2577
 418  308.6406
 419  368.6098
 420  293.2704
 421  213.4884
 422  245.0077
 423  83.7615
 424  96.29906
 425  200.8022
 426  219.0546
 427  243.4565
 428  158.677
 429  164.868
 430  84.27296
 431  276.6979
 432  313.0765
 433  225.0229
 434  262.9726
 435  225.8049
 436  408.3664
 437  357.9408
 438  248.6007
 439  396.8219
 440  448.1763
 441  287.3259
 442  309.0357
 443  413.075
 444  445.2994
 445  290.139
 446  250.95
 447  260.7393
 448  348.1025
 449  323.9786
 450  334.6902
 451  322.0191
 452  299.7476
 453  303.2489
 454  273.1344
 455  284.6529
 456  302.8173
 457  399.6528
 458  338.2018
 459  174.9345
 460  200.7563
 461  179.8388
 462  219.0882
 463  245.4083
 464  320.1822
 465  342.5876
 466  235.1751
 467  309.3331
 468  230.2818
 469  275.5275
 470  281.0289
 471  296.8708
 472  265.7848
 473  201.7165
 474  249.0592
 475  189.1938
 476  259.0776
 477  247.9103
 478  277.8778
 479  167.7029
 480  260.1597
 481  219.5807
 482  319.3429
 483  285.6832
 484  169.7189
 485  149.8775
 486  196.8855
 487  202.6354
 488  150.2284
 489  236.215
 490  306.011
 491  316.5208
 492  350.9176
 493  344.7692
 494  344.9246
 495  309.2276
 496  324.8719
 497  372.3273
 498  440.5312
 499  423.7315
 500  327.5676
 501  315.9541
 502  324.8198
 503  291.5554
 504  396.8811
 505  493.3557
 506  401.6015
 507  396.9597
 508  538.1292
 509  652.783
 510  787.5518
 511  883.2822
