# Input file       =  1181270019.127795-PSRB0329-2ms-sampling-dd.dat
# Candidate        =  PSR_0332+5434
# Telescope        =  AR
# Epoch_topo       =  57916.106922775405
# Epoch_bary       =  N/A
# T_sample         =  0.002
# Data Folded      =  7208960
# Data Avg         =  5.70620072709494e-10
# Data StdDev      =  9.31023966613863 
# Profile Bins     =  512
# Profile Avg      =  -0.924771820994876
# Profile StdDev   =  1104.74536522424 
# Reduced chi-sqr  =  0.762
# Prob(Noise)      <  1   (~0.0 sigma)
# P_topo (ms)      =  714.505927707311  +/- 0.000138
# P'_topo (s/s)    =  -0                +/- 7.44e-11
# P''_topo (s/s^2) =  0                 +/- 3.34e-14
# P_bary (ms)      =  N/A
# P'_bary (s/s)    =  N/A
# P''_bary (s/s^2) =  N/A
# P_orb (s)        =  N/A
# asin(i)/c (s)    =  N/A
# eccentricity     =  N/A
# w (rad)          =  N/A
# T_peri           =  N/A
######################################################
   0  -92.81786
   1  -222.3389
   2  131.1664
   3  533.6411
   4  473.4608
   5  276.0049
   6  -572.6559
   7  -240.18
   8  -126.1787
   9  -60.05907
  10  121.0733
  11  219.0928
  12  -66.58557
  13  -162.4195
  14  -637.0983
  15  -262.4103
  16  -496.0087
  17  -303.2968
  18  -91.603
  19  -476.8058
  20  -21.10377
  21  -166.7068
  22  -651.4921
  23  -397.1457
  24  -433.2992
  25  161.2604
  26  -164.3408
  27  -543.4123
  28  -355.6238
  29  -522.7155
  30  -45.52925
  31  -215.4321
  32  74.12351
  33  -322.3174
  34  -394.5506
  35  204.4174
  36  338.043
  37  277.4248
  38  -395.954
  39  -235.4406
  40  -113.8873
  41  636.3334
  42  797.8196
  43  1081.283
  44  628.002
  45  -705.5916
  46  -205.6796
  47  85.67418
  48  652.2764
  49  502.4679
  50  945.0403
  51  682.5938
  52  140.6109
  53  -373.6769
  54  -479.424
  55  -401.6859
  56  -197.1135
  57  305.2052
  58  135.7926
  59  242.6944
  60  186.8125
  61  -441.4576
  62  59.24918
  63  -98.62379
  64  194.2408
  65  380.673
  66  199.5345
  67  99.84058
  68  -92.00652
  69  337.3894
  70  -244.3763
  71  29.58327
  72  -22.31125
  73  -180.4972
  74  -3.823201
  75  308.5078
  76  697.8129
  77  437.3383
  78  261.0486
  79  -122.3394
  80  -9.92247
  81  -187.9372
  82  134.818
  83  99.12428
  84  -111.5426
  85  -235.8442
  86  -419.8763
  87  -313.769
  88  -117.5173
  89  197.6777
  90  224.5752
  91  606.3218
  92  92.8532
  93  -120.4357
  94  246.0911
  95  112.8976
  96  80.0267
  97  774.3463
  98  447.1735
  99  160.9697
 100  -317.5572
 101  207.8185
 102  27.03907
 103  -21.44663
 104  498.4314
 105  482.3865
 106  889.8915
 107  684.9918
 108  589.1866
 109  -143.7476
 110  89.82096
 111  782.3851
 112  819.9899
 113  573.5257
 114  297.385
 115  233.766
 116  -15.99154
 117  0.8841752
 118  10.76959
 119  302.226
 120  -180.0989
 121  -62.0735
 122  -379.3469
 123  -680.5737
 124  148.273
 125  127.5548
 126  73.34439
 127  -865.7285
 128  -799.8445
 129  -759.0411
 130  -762.7771
 131  -157.2225
 132  158.1001
 133  32.5696
 134  -361.0432
 135  -886.3613
 136  -1202.99
 137  -1212.342
 138  -472.9785
 139  -313.466
 140  -54.3618
 141  -387.6252
 142  -796.0828
 143  -805.0842
 144  -973.5651
 145  -471.2565
 146  -60.1543
 147  -223.8311
 148  -588.6858
 149  -632.8892
 150  -688.4521
 151  -651.1505
 152  -455.6825
 153  -371.4156
 154  -479.5542
 155  -658.7981
 156  -744.9008
 157  -386.949
 158  321.981
 159  -228.7293
 160  -645.1291
 161  -136.3438
 162  -567.3475
 163  -474.0189
 164  185.6105
 165  829.2385
 166  563.9896
 167  327.4427
 168  -244.3371
 169  82.23668
 170  604.2754
 171  772.5663
 172  303.8578
 173  461.821
 174  -396.3503
 175  -512.6235
 176  -228.9055
 177  98.45631
 178  1415.526
 179  2059.283
 180  2792.795
 181  2479.283
 182  177.9663
 183  432.4799
 184  942.3804
 185  2441.63
 186  1647.134
 187  1583.168
 188  1375.804
 189  510.8152
 190  687.5994
 191  1881.104
 192  2625.134
 193  3358.882
 194  3611.502
 195  2793.468
 196  38.48965
 197  333.4875
 198  4302.843
 199  4480.089
 200  4223.229
 201  2775.464
 202  276.9642
 203  -800.0839
 204  -607.3896
 205  -95.87317
 206  -462.6416
 207  -191.2842
 208  -149.3802
 209  -568.7319
 210  -198.0696
 211  -580.472
 212  -197.9752
 213  -36.41096
 214  132.6893
 215  274.4855
 216  475.9733
 217  490.5365
 218  -193.9498
 219  17.70627
 220  156.2882
 221  365.4301
 222  536.414
 223  279.4698
 224  396.5782
 225  93.48758
 226  -80.56209
 227  137.8224
 228  -79.64927
 229  -127.9634
 230  -339.4287
 231  10.83748
 232  852.566
 233  95.08169
 234  64.50851
 235  -491.3291
 236  -612.4086
 237  -176.2493
 238  -199.4184
 239  23.10801
 240  307.3726
 241  -271.7372
 242  -478.2992
 243  -362.0702
 244  -363.0452
 245  -455.4126
 246  54.50168
 247  181.8031
 248  -372.6744
 249  -252.4531
 250  -488.4658
 251  20.2876
 252  132.7283
 253  30.18339
 254  -99.17736
 255  -487.4007
 256  -274.8991
 257  -433.8987
 258  -564.8666
 259  -700.2958
 260  -612.2949
 261  -429.0528
 262  80.97348
 263  -285.6053
 264  -199.4806
 265  -23.78553
 266  -274.568
 267  -325.9244
 268  -713.6038
 269  -123.1842
 270  -761.4362
 271  -514.8511
 272  -567.2858
 273  89.97748
 274  383.5233
 275  -314.9282
 276  -403.1
 277  -728.3224
 278  -520.0316
 279  -475.1836
 280  -311.7499
 281  300.1732
 282  682.5256
 283  406.469
 284  3.673694
 285  -320.6357
 286  -227.1095
 287  -17.09058
 288  -32.62696
 289  240.4123
 290  -63.41581
 291  -755.47
 292  -902.4631
 293  -709.6716
 294  55.85591
 295  -31.3336
 296  -168.6426
 297  -304.1286
 298  20.81945
 299  496.4273
 300  76.62885
 301  -267.1504
 302  -484.7611
 303  -305.182
 304  215.5571
 305  216.1731
 306  1128.638
 307  1071.572
 308  1229.322
 309  1161.369
 310  -928.3376
 311  -460.965
 312  629.9143
 313  1293.312
 314  758.965
 315  1099.062
 316  768.9948
 317  -185.9095
 318  -193.0018
 319  -232.761
 320  -171.1036
 321  -295.0212
 322  -341.3961
 323  -38.53802
 324  -698.217
 325  -611.621
 326  -264.0997
 327  49.26427
 328  307.3403
 329  36.38367
 330  79.26344
 331  -301.2504
 332  -701.8766
 333  -460.5134
 334  -290.3434
 335  -317.3556
 336  -121.2828
 337  114.5629
 338  -219.715
 339  -459.4459
 340  -713.0384
 341  -670.299
 342  -667.4935
 343  -310.6487
 344  -547.3395
 345  -231.4953
 346  -368.6718
 347  -286.3319
 348  -354.612
 349  -258.2406
 350  -638.371
 351  -673.8046
 352  -41.69244
 353  -424.1247
 354  -648.3103
 355  110.1048
 356  -90.69556
 357  -17.00802
 358  -184.8835
 359  -379.654
 360  297.4929
 361  -84.86901
 362  -35.90107
 363  -349.0526
 364  -397.6751
 365  -89.42915
 366  -118.5807
 367  -184.3861
 368  -236.4366
 369  478.1381
 370  143.864
 371  -301.348
 372  -879.0364
 373  -839.7011
 374  -1042.957
 375  -610.9511
 376  -578.375
 377  -367.626
 378  -176.3843
 379  -468.9666
 380  -570.8747
 381  -788.403
 382  -509.472
 383  -697.125
 384  -387.416
 385  -242.4815
 386  -670.9261
 387  -637.0908
 388  -778.7604
 389  -661.3726
 390  -99.11275
 391  335.732
 392  -137.4047
 393  -79.75888
 394  763.0336
 395  1454.458
 396  1356.622
 397  1523.37
 398  1244.672
 399  277.5956
 400  173.1853
 401  1453.977
 402  1351.495
 403  911.2195
 404  535.481
 405  -328.2791
 406  -460.1469
 407  -826.1278
 408  -658.9448
 409  -1055.828
 410  -520.2492
 411  -280.7539
 412  -397.8051
 413  -419.2356
 414  -369.7339
 415  -448.0649
 416  -531.3942
 417  -50.5757
 418  -314.5511
 419  152.188
 420  -452.2442
 421  -483.0465
 422  -93.63557
 423  84.6898
 424  331.1564
 425  112.0896
 426  -32.45005
 427  -65.28864
 428  -265.4409
 429  -38.28133
 430  56.66625
 431  728.2822
 432  333.8513
 433  245.9139
 434  220.0566
 435  324.3483
 436  718.4607
 437  968.6118
 438  1159.843
 439  627.8155
 440  310.5824
 441  136.063
 442  -303.5938
 443  244.0961
 444  440.688
 445  90.62797
 446  -151.5592
 447  -66.76595
 448  -522.6915
 449  -626.9409
 450  -576.3652
 451  523.8423
 452  42.32647
 453  -226.7757
 454  -26.91638
 455  -389.6025
 456  -42.28201
 457  -679.0864
 458  -262.3144
 459  -176.0077
 460  -347.3626
 461  -403.2286
 462  -440.1847
 463  65.59908
 464  446.9557
 465  495.3988
 466  121.2169
 467  -93.95196
 468  -362.3476
 469  -684.4494
 470  -739.0182
 471  -357.9969
 472  -212.7752
 473  -160.5571
 474  -467.3864
 475  -270.8418
 476  -494.0147
 477  -582.046
 478  -375.0497
 479  -373.4658
 480  -202.431
 481  -124.3075
 482  -21.61351
 483  19.35163
 484  -305.0063
 485  -97.86818
 486  -49.35024
 487  -246.5417
 488  -100.0084
 489  19.35761
 490  -41.04607
 491  -154.438
 492  -460.1078
 493  -213.1895
 494  -359.3919
 495  -442.9546
 496  -234.0469
 497  -383.9981
 498  -282.2197
 499  -769.0794
 500  -418.7745
 501  -752.8685
 502  -556.505
 503  -633.2177
 504  -1048.949
 505  -479.0413
 506  -552.0867
 507  -257.0453
 508  -292.2488
 509  -213.0209
 510  -170.9679
 511  -380.683
