# Input file       =  1181700809.115506_cleaned.dat
# Candidate        =  PSR_0332+5434
# Telescope        =  AR
# Epoch_topo       =  57921.092918003538
# Epoch_bary       =  N/A
# T_sample         =  0.002
# Data Folded      =  7208960
# Data Avg         =  0.16535883681764 
# Data StdDev      =  6.90606565473542 
# Profile Bins     =  512
# Profile Avg      =  2328.25182920366 
# Profile StdDev   =  819.468058566914 
# Reduced chi-sqr  =  0.426
# Prob(Noise)      <  1   (~0.0 sigma)
# P_topo (ms)      =  714.501305784302  +/- 5.52e-05
# P'_topo (s/s)    =  -0                +/- 2.97e-11
# P''_topo (s/s^2) =  0                 +/- 1.33e-14
# P_bary (ms)      =  N/A
# P'_bary (s/s)    =  N/A
# P''_bary (s/s^2) =  N/A
# P_orb (s)        =  N/A
# asin(i)/c (s)    =  N/A
# eccentricity     =  N/A
# w (rad)          =  N/A
# T_peri           =  N/A
######################################################
   0  2550.649
   1  2199.983
   2  1833.152
   3  2121.383
   4  2781.848
   5  2580.687
   6  2353.209
   7  2364.389
   8  2618.574
   9  2215.717
  10  2179.978
  11  2475.619
  12  2182.176
  13  2038.653
  14  2216.409
  15  1891.198
  16  1852.398
  17  2079.492
  18  2230.923
  19  2554.166
  20  2269.663
  21  2640.542
  22  2140.003
  23  2236.441
  24  2271.5
  25  2490.843
  26  1836.167
  27  1816.94
  28  2117.039
  29  2692.543
  30  2648.609
  31  2423.094
  32  1886.929
  33  2254.038
  34  2478.465
  35  2289.174
  36  2037.436
  37  1933.548
  38  2376.812
  39  2781.098
  40  3156.351
  41  2737.272
  42  2546.711
  43  2579.256
  44  2123.184
  45  1728.227
  46  2225.855
  47  2602.022
  48  2708.576
  49  2183.917
  50  1923.236
  51  2191.828
  52  2216.67
  53  2595.307
  54  2487.754
  55  1850.098
  56  1939.561
  57  2221.372
  58  2459.914
  59  2309.652
  60  2559.192
  61  2694.257
  62  2374.204
  63  2061.394
  64  2013.522
  65  1990.813
  66  2127.869
  67  2273.434
  68  2180.63
  69  2006.432
  70  2082.665
  71  2116.819
  72  2426.357
  73  1960.766
  74  2446.777
  75  2416.865
  76  2569.411
  77  2310.406
  78  2475.153
  79  2390.373
  80  2030.93
  81  1764.469
  82  2326.773
  83  1912.92
  84  1667.494
  85  2190.038
  86  2461.561
  87  2073.645
  88  2203.166
  89  2080.745
  90  1932.17
  91  2045.173
  92  2186.73
  93  2012.519
  94  2356.206
  95  2695.637
  96  2459.01
  97  2244.194
  98  1538.049
  99  1554.449
 100  2232.389
 101  2366.542
 102  2473.301
 103  2735.165
 104  2426.182
 105  2333.407
 106  2050.729
 107  2403.337
 108  2172.339
 109  2061.677
 110  2337.288
 111  2924.516
 112  2387.804
 113  1899.087
 114  2186.288
 115  2421.942
 116  2429.109
 117  2063.411
 118  1922.982
 119  2042.398
 120  2098.14
 121  2369.975
 122  2649.448
 123  2143.599
 124  2211.138
 125  2610.409
 126  1946.754
 127  1559.672
 128  1877.166
 129  2476.083
 130  2108.769
 131  1601.793
 132  1947.009
 133  2516.8
 134  2125.642
 135  2214.584
 136  2471.454
 137  2471.664
 138  2128.179
 139  2028.105
 140  2172.544
 141  2015.876
 142  1727.744
 143  2285.6
 144  2531.312
 145  2409.937
 146  2621.774
 147  2198.922
 148  2490.892
 149  2347.184
 150  2799.805
 151  2288.089
 152  2359.105
 153  2898.737
 154  2615.765
 155  2271.966
 156  1980.24
 157  2109.408
 158  3028.553
 159  2813.132
 160  2659.764
 161  2751.185
 162  2256.13
 163  1718.68
 164  2112.182
 165  2550.109
 166  2530.696
 167  2084.018
 168  2700.398
 169  2892.136
 170  2556.254
 171  1993.587
 172  2032.977
 173  2145.389
 174  2079.106
 175  2127.398
 176  2390.327
 177  2393.849
 178  2276.604
 179  2577.021
 180  2249.628
 181  2159.275
 182  1860.635
 183  2006.506
 184  2226.617
 185  2136.675
 186  2578.916
 187  2565.796
 188  2576.987
 189  2556.743
 190  2488.896
 191  2068.77
 192  2077.283
 193  2163.618
 194  2585.713
 195  2822.293
 196  2195.746
 197  2462.315
 198  2356.942
 199  2410.363
 200  2050.303
 201  1505.265
 202  1472.697
 203  2057.045
 204  2402.093
 205  2415.493
 206  2054.926
 207  2039.475
 208  1704.668
 209  1629.413
 210  1669.59
 211  1985.076
 212  1923.093
 213  1469.243
 214  1768.528
 215  2755.951
 216  2517.744
 217  2314.611
 218  2271.589
 219  2088.957
 220  1682.749
 221  1398.228
 222  2017.202
 223  2035.641
 224  1770.309
 225  2026.265
 226  2337.695
 227  2099.966
 228  2102.438
 229  2186.349
 230  1982.663
 231  1368.516
 232  1975.321
 233  2269.774
 234  2354.089
 235  2301.217
 236  2317.035
 237  1562.08
 238  1249.49
 239  2191.011
 240  2378.165
 241  2065.072
 242  2013.208
 243  1912.503
 244  1676.612
 245  1414.606
 246  2041.64
 247  1928.93
 248  2272.638
 249  2170.735
 250  2311.833
 251  2230.717
 252  2181.741
 253  2123.949
 254  2857.45
 255  2579.707
 256  2062.236
 257  3050.052
 258  3435.282
 259  3103.645
 260  2891.813
 261  2444.507
 262  2636.332
 263  2390.133
 264  2418.186
 265  2426.778
 266  2556.253
 267  2432.293
 268  2964.561
 269  3096.086
 270  2865.129
 271  2703.637
 272  2814.656
 273  2577.393
 274  2988.279
 275  2749.171
 276  2716.635
 277  2565.469
 278  2400.915
 279  2638.197
 280  2632.691
 281  2991.365
 282  3250.93
 283  3815.25
 284  2867.845
 285  2657.131
 286  2672.952
 287  2531.126
 288  1929.971
 289  2419.329
 290  2813.646
 291  3053.962
 292  2898.621
 293  3220.571
 294  2731.953
 295  2513.951
 296  2308.514
 297  2512.625
 298  2282.275
 299  2220.75
 300  2111.975
 301  2590.93
 302  2439.545
 303  2130.306
 304  2336.518
 305  2633.748
 306  2555.406
 307  2483.779
 308  2679.862
 309  2819.743
 310  1842.348
 311  1630.805
 312  1475.123
 313  1960.43
 314  2207.367
 315  2403.058
 316  2360.601
 317  1972.631
 318  1892.764
 319  1693.779
 320  1944.037
 321  2282.622
 322  2807.36
 323  3061.221
 324  3043.035
 325  3009.279
 326  3044.976
 327  2799.864
 328  2863.896
 329  2748.267
 330  3109.903
 331  1849.855
 332  1930.236
 333  2144.493
 334  2238.506
 335  2378.892
 336  2430.713
 337  2175.08
 338  1807.579
 339  2011.95
 340  2525.34
 341  2607.729
 342  2230.407
 343  2653.584
 344  2126.779
 345  2132.647
 346  2184.178
 347  2351.128
 348  2557.79
 349  2350.958
 350  2238.217
 351  2338.3
 352  2329.579
 353  1986.406
 354  2040.215
 355  2072.075
 356  2219.782
 357  2436.889
 358  3086.623
 359  2959.339
 360  3136.959
 361  2557.668
 362  2157.098
 363  2411.914
 364  2550.835
 365  3158.783
 366  2882.398
 367  2307.339
 368  2505.714
 369  2465.43
 370  2167.518
 371  2347.243
 372  2699.465
 373  2710.584
 374  2081.314
 375  2531.433
 376  2558.619
 377  2705.269
 378  2257.012
 379  2346.971
 380  2279.111
 381  2117.52
 382  2656.595
 383  3269.283
 384  2413.875
 385  2407.513
 386  1878.995
 387  2047
 388  2109.331
 389  2348.578
 390  2145.542
 391  2265.516
 392  2546.855
 393  2688.796
 394  2947.697
 395  2850.897
 396  2328.138
 397  2962.173
 398  3156.753
 399  3010.664
 400  2610.211
 401  3276.1
 402  3040.167
 403  2226.981
 404  2607.807
 405  2690.029
 406  2298.355
 407  3088.342
 408  3256.183
 409  2772.469
 410  2776.672
 411  2389.012
 412  2374.457
 413  2258.262
 414  1883.114
 415  1901.058
 416  2366.808
 417  2269.671
 418  2385.503
 419  2396.995
 420  2038.254
 421  1738.281
 422  2077.588
 423  2376.492
 424  2725.09
 425  2521.321
 426  3104.901
 427  2662.329
 428  2212.457
 429  2400.354
 430  2356.662
 431  2499.067
 432  2696.348
 433  2781.184
 434  3316.307
 435  2700.711
 436  2749.247
 437  2856.433
 438  2269.365
 439  2253.546
 440  2667.85
 441  3076.913
 442  2633.974
 443  2536.258
 444  2678.936
 445  2048.792
 446  1654.916
 447  2178.617
 448  2139.123
 449  1985.264
 450  1981.259
 451  2534.502
 452  2452.574
 453  1807.512
 454  2201.664
 455  2607.413
 456  1867.514
 457  1811.764
 458  1806.736
 459  2034.815
 460  1682.214
 461  1801.51
 462  1710.595
 463  1993.612
 464  2071.741
 465  2247.833
 466  1914
 467  1359.359
 468  1403.219
 469  2178.226
 470  2043.284
 471  1998.407
 472  2014.37
 473  2285.908
 474  2460.084
 475  2361.405
 476  1931.864
 477  2041.497
 478  2558.026
 479  2155.642
 480  2160.238
 481  1694.691
 482  1914.188
 483  2311.606
 484  2204.087
 485  2248.411
 486  2468.456
 487  2419.28
 488  2343.314
 489  1720.625
 490  1829.22
 491  2649.249
 492  2722.419
 493  2172.333
 494  2073.648
 495  1779.366
 496  1771.556
 497  2129.797
 498  2635.861
 499  2950.969
 500  3307.074
 501  2963.366
 502  2659.598
 503  2079.858
 504  2643.149
 505  2662.884
 506  2532.746
 507  2563.404
 508  2959.814
 509  2999.151
 510  1963.757
 511  1658.392
