# Input file       =  1181270019.127795_cleaned.dat
# Candidate        =  PSR_0332+5434
# Telescope        =  AR
# Epoch_topo       =  57916.106922775405
# Epoch_bary       =  N/A
# T_sample         =  0.002
# Data Folded      =  7143424
# Data Avg         =  0.0267051252506387
# Data StdDev      =  1.00006985168448 
# Profile Bins     =  512
# Profile Avg      =  372.628265039226 
# Profile StdDev   =  118.126835263961 
# Reduced chi-sqr  =  0.990
# Prob(Noise)      <  0.556   (~0.0 sigma)
# P_topo (ms)      =  714.505927125094  +/- 0.000148
# P'_topo (s/s)    =  -0                +/- 8.03e-11
# P''_topo (s/s^2) =  0                 +/- 3.64e-14
# P_bary (ms)      =  N/A
# P'_bary (s/s)    =  N/A
# P''_bary (s/s^2) =  N/A
# P_orb (s)        =  N/A
# asin(i)/c (s)    =  N/A
# eccentricity     =  N/A
# w (rad)          =  N/A
# T_peri           =  N/A
######################################################
   0  962.826
   1  907.8622
   2  741.1174
   3  519.6451
   4  439.835
   5  367.5626
   6  370.4148
   7  290.6756
   8  306.1881
   9  438.1206
  10  410.1709
  11  327.037
  12  270.8037
  13  484.7798
  14  505.7783
  15  358.7436
  16  444.4406
  17  404.7176
  18  361.2383
  19  336.7827
  20  335.055
  21  426.7149
  22  357.7556
  23  268.0359
  24  280.8867
  25  286.8641
  26  393.9698
  27  433.7845
  28  415.7213
  29  426.9703
  30  425.6989
  31  318.0518
  32  271.5991
  33  297.6844
  34  460.8643
  35  438.7506
  36  397.1925
  37  327.6549
  38  453.8295
  39  376.5317
  40  380.6243
  41  389.6292
  42  411.3211
  43  405.1512
  44  410.6555
  45  449.0332
  46  400.7025
  47  386.2285
  48  436.9246
  49  427.6529
  50  371.5142
  51  381.4733
  52  360.3345
  53  478.2611
  54  442.8368
  55  426.1268
  56  415.3753
  57  360.0696
  58  464.9123
  59  469.8822
  60  313.0948
  61  209.0929
  62  334.4032
  63  298.2251
  64  279.1734
  65  358.235
  66  320.8149
  67  344.8765
  68  368.0464
  69  435.0844
  70  387.9372
  71  394.1786
  72  351.1225
  73  314.1324
  74  387.3617
  75  404.9259
  76  315.1882
  77  392.4648
  78  437.0697
  79  388.8985
  80  350.4516
  81  325.8802
  82  366.8078
  83  276.4059
  84  304.1714
  85  302.5098
  86  316.0447
  87  430.8104
  88  288.2208
  89  415.8475
  90  393.2175
  91  310.3051
  92  424.6249
  93  347.54
  94  191.7413
  95  401.4272
  96  296.8089
  97  337.9406
  98  353.4575
  99  355.8924
 100  505.3833
 101  401.0573
 102  384.9464
 103  296.0344
 104  197.1375
 105  339.0976
 106  332.8331
 107  361.0282
 108  311.9749
 109  283.5615
 110  359.2037
 111  430.6531
 112  337.369
 113  277.2816
 114  333.0259
 115  368.1453
 116  505.1147
 117  445.7888
 118  393.8018
 119  354.8489
 120  434.1584
 121  508.4702
 122  361.6934
 123  407.8452
 124  420.769
 125  422.4991
 126  449.7636
 127  519.7986
 128  409.9935
 129  369.9203
 130  336.3506
 131  342.4985
 132  252.3982
 133  340.9695
 134  425.1962
 135  417.2849
 136  341.8788
 137  402.3054
 138  276.2397
 139  325.7335
 140  386.3793
 141  438.6057
 142  345.2137
 143  418.3449
 144  312.9196
 145  325.2565
 146  453.1936
 147  399.0497
 148  410.9729
 149  368.1478
 150  395.4504
 151  410.6291
 152  323.7434
 153  310.0936
 154  351.9845
 155  366.622
 156  348.8308
 157  334.2668
 158  324.8671
 159  239.4468
 160  296.8631
 161  301.8137
 162  290.1175
 163  417.9539
 164  334.4962
 165  316.7882
 166  232.7553
 167  158.6214
 168  267.0115
 169  327.5809
 170  287.8481
 171  344.5174
 172  407.3874
 173  383.3694
 174  221.5761
 175  261.4525
 176  393.6735
 177  349.4538
 178  285.2081
 179  322.1719
 180  324.7784
 181  371.4986
 182  389.5488
 183  315.5083
 184  242.9886
 185  351.3627
 186  422.1157
 187  355.7612
 188  301.7672
 189  310.2711
 190  351.9826
 191  339.8504
 192  309.4853
 193  382.29
 194  426.3632
 195  471.208
 196  444.0848
 197  327.2894
 198  255.0416
 199  393.4948
 200  374.3655
 201  352.3633
 202  304.9476
 203  347.3794
 204  300.6412
 205  264.2432
 206  312.9142
 207  330.5154
 208  312.8874
 209  235.1504
 210  217.314
 211  155.1637
 212  272.9716
 213  319.2207
 214  401.3433
 215  385.8158
 216  313.7001
 217  278.4064
 218  266.6895
 219  272.8495
 220  375.9205
 221  342.5162
 222  378.9058
 223  292.5284
 224  214.9305
 225  261.8363
 226  323.2368
 227  264.6362
 228  250.1217
 229  279.146
 230  356.6159
 231  317.9929
 232  375.2381
 233  347.839
 234  273.8166
 235  289.6089
 236  343.6528
 237  262.7447
 238  254.6111
 239  376.3163
 240  437.2405
 241  311.4647
 242  356.6556
 243  372.3096
 244  362.2166
 245  460.4829
 246  319.9519
 247  397.5685
 248  336.5661
 249  346.1007
 250  456.4808
 251  470.2065
 252  340.2045
 253  378.5624
 254  457.3636
 255  514.7625
 256  398.5793
 257  322.3588
 258  472.5197
 259  454.4996
 260  401.2262
 261  326.4783
 262  460.5736
 263  400.2321
 264  500.282
 265  413.5283
 266  394.3701
 267  368.1017
 268  204.53
 269  362.9228
 270  335.2953
 271  310.1145
 272  378.4705
 273  398.6572
 274  404.6034
 275  408.4702
 276  402.2902
 277  335.1022
 278  339.7097
 279  398.3386
 280  395.3408
 281  350.5475
 282  401.818
 283  299.7161
 284  351.7219
 285  430.1858
 286  413.768
 287  341.5907
 288  345.8562
 289  318.6436
 290  351.0026
 291  473.3759
 292  428.6348
 293  418.9498
 294  497.5555
 295  530.6736
 296  597.0262
 297  488.5488
 298  432.6215
 299  499.192
 300  498.176
 301  465.804
 302  368.5603
 303  286.8069
 304  291.8754
 305  299.8069
 306  499.0142
 307  452.2199
 308  345.1957
 309  240.3564
 310  252.4689
 311  319.8571
 312  416.271
 313  377.7442
 314  499.844
 315  473.1328
 316  348.0669
 317  370.3568
 318  406.3499
 319  288.1127
 320  415.5389
 321  462.7715
 322  320.6645
 323  268.4434
 324  297.5186
 325  335.1526
 326  511.5182
 327  546.9507
 328  435.8307
 329  252.8476
 330  244.201
 331  322.6599
 332  359.2433
 333  428.8156
 334  447.6646
 335  427.1286
 336  478.1853
 337  340.1543
 338  286.3855
 339  291.7036
 340  441.6778
 341  398.6746
 342  394.4655
 343  431.0222
 344  410.6135
 345  353.8508
 346  370.4955
 347  416.2651
 348  508.7086
 349  416.0827
 350  231.1317
 351  335.9325
 352  295.941
 353  314.4655
 354  283.775
 355  346.5229
 356  417.5324
 357  400.9795
 358  441.7757
 359  394.0696
 360  446.3362
 361  428.073
 362  405.0559
 363  394.5691
 364  435.2897
 365  283.1638
 366  238.1197
 367  275.5207
 368  329.2334
 369  318.2106
 370  272.1698
 371  283.9857
 372  268.8102
 373  454.0555
 374  546.5858
 375  407.8843
 376  263.1238
 377  331.6559
 378  401.0919
 379  369.9322
 380  325.215
 381  368.6565
 382  361.9564
 383  348.3751
 384  320.7962
 385  243.9042
 386  233.6651
 387  330.4349
 388  226.9373
 389  308.7946
 390  359.1505
 391  339.3492
 392  384.8563
 393  416.8333
 394  374.2279
 395  337.0148
 396  317.733
 397  339.4192
 398  428.2457
 399  312.1938
 400  409.2382
 401  447.9605
 402  367.2202
 403  374.3485
 404  342.5286
 405  321.7271
 406  249.6895
 407  343.7852
 408  460.5392
 409  378.3043
 410  318.7196
 411  451.7054
 412  560.2217
 413  480.5552
 414  359.0373
 415  346.3132
 416  417.4355
 417  403.7113
 418  387.1372
 419  387.0167
 420  430.5672
 421  431.541
 422  401.8875
 423  369.9053
 424  385.3495
 425  249.0332
 426  370.5913
 427  408.3096
 428  290.0745
 429  447.7109
 430  375.024
 431  301.1047
 432  354.3752
 433  337.0013
 434  438.3195
 435  416.705
 436  393.4022
 437  327.0386
 438  247.3526
 439  344.5311
 440  491.833
 441  432.265
 442  390.9809
 443  473.136
 444  520.5398
 445  409.4876
 446  249.0489
 447  289.3825
 448  316.296
 449  382.7037
 450  426.9182
 451  280.6687
 452  305.6267
 453  367.4165
 454  354.9933
 455  436.845
 456  304.7333
 457  363.562
 458  347.413
 459  316.5574
 460  247.9897
 461  303.7664
 462  319.505
 463  321.4371
 464  332.4546
 465  456.215
 466  455.2726
 467  380.8931
 468  400.8144
 469  419.8073
 470  348.1462
 471  389.9055
 472  415.2897
 473  453.7438
 474  438.7756
 475  400.9182
 476  354.2233
 477  307.14
 478  202.1319
 479  313.0512
 480  301.7278
 481  387.1649
 482  449.6859
 483  304.2972
 484  241.7484
 485  390.2573
 486  375.0806
 487  411.5562
 488  395.1772
 489  394.9994
 490  445.2213
 491  488.1058
 492  530.6946
 493  373.3253
 494  418.9923
 495  332.6118
 496  423.0415
 497  443.8056
 498  530.5657
 499  564.9685
 500  419.4601
 501  373.1833
 502  384.355
 503  374.0972
 504  360.3073
 505  476.2209
 506  516.7928
 507  560.4686
 508  485.2017
 509  581.8472
 510  672.4168
 511  773.2031
