# Input file       =  1181629295.118561_cleaned.dat
# Candidate        =  PSR_0332+5434
# Telescope        =  AR
# Epoch_topo       =  57920.265209705569
# Epoch_bary       =  N/A
# T_sample         =  0.002
# Data Folded      =  7340032
# Data Avg         =  0.177763830496197
# Data StdDev      =  4.01909273703362 
# Profile Bins     =  256
# Profile Avg      =  5100.54550775008 
# Profile StdDev   =  680.545272210999 
# Reduced chi-sqr  =  1.403
# Prob(Noise)      <  2.25e-05   (~4.1 sigma)
# P_topo (ms)      =  714.50207658646   +/- 0.000198
# P'_topo (s/s)    =  -0                +/- 1.05e-10
# P''_topo (s/s^2) =  0                 +/- 4.61e-14
# P_bary (ms)      =  N/A
# P'_bary (s/s)    =  N/A
# P''_bary (s/s^2) =  N/A
# P_orb (s)        =  N/A
# asin(i)/c (s)    =  N/A
# eccentricity     =  N/A
# w (rad)          =  N/A
# T_peri           =  N/A
######################################################
   0  4662.635
   1  4998.467
   2  5143.56
   3  5394.291
   4  5603.864
   5  6233.167
   6  6018.76
   7  6026.172
   8  5838.676
   9  5804.794
  10  4757.63
  11  4627.317
  12  4780.235
  13  4198.535
  14  4243.394
  15  4052.471
  16  4712.064
  17  4359.791
  18  4875.447
  19  4733.521
  20  4795.683
  21  4727.962
  22  3937.667
  23  4408.678
  24  4574.356
  25  3991.641
  26  4439.619
  27  5572.589
  28  5664.854
  29  5868.213
  30  5821.89
  31  5019.581
  32  4596.303
  33  5046.433
  34  4681.604
  35  4845.846
  36  4519.276
  37  4287.983
  38  4757.299
  39  4199.581
  40  4733.145
  41  4625.205
  42  5359.755
  43  5086.923
  44  4637.763
  45  5128.201
  46  5204.587
  47  5080.819
  48  5486.38
  49  5718.962
  50  5900.05
  51  5570.144
  52  4829.991
  53  4862.221
  54  4881.613
  55  4516.984
  56  4634.237
  57  4852.236
  58  4605.24
  59  4043.328
  60  3966.245
  61  3991.058
  62  4908.733
  63  5125.28
  64  5567.808
  65  5818.076
  66  6156.132
  67  5374.311
  68  5529.479
  69  6199.062
  70  5661.015
  71  6850.285
  72  6135.642
  73  5504.093
  74  6018.756
  75  5046.31
  76  4943.999
  77  4872.167
  78  3584.693
  79  4586.071
  80  4083.974
  81  3592.338
  82  4144.789
  83  4391.223
  84  3953.466
  85  4217.509
  86  4691.418
  87  4204.873
  88  4772.468
  89  4040.005
  90  5378.133
  91  4901.671
  92  4944.159
  93  4736.266
  94  5015.737
  95  4840.696
  96  4853.288
  97  4555.649
  98  4379.188
  99  3961.979
 100  3553.446
 101  3878.891
 102  4032.006
 103  4078.567
 104  3967.97
 105  4343.485
 106  5108.65
 107  4638.243
 108  4921.125
 109  5182.297
 110  5118.863
 111  5203.289
 112  6380.406
 113  5759.764
 114  5924.605
 115  6195.764
 116  5092.911
 117  5035.531
 118  5741.782
 119  4896.88
 120  4666.697
 121  4998.064
 122  5192.198
 123  4834.267
 124  5355.616
 125  5202.361
 126  4887.636
 127  5059.568
 128  5255.054
 129  5647.548
 130  5295.879
 131  6207.633
 132  6028.048
 133  6289.304
 134  5863.013
 135  5854.191
 136  5985.715
 137  5633.887
 138  5227.219
 139  5219.859
 140  5265.397
 141  6052.525
 142  5663.932
 143  5564.206
 144  5579.996
 145  5702.898
 146  5847.063
 147  5801.413
 148  5456.446
 149  5031.794
 150  5269.487
 151  4854.038
 152  5811.715
 153  5855.128
 154  6224.211
 155  6528.913
 156  6364.814
 157  5109.804
 158  4710.905
 159  4555.277
 160  4649.49
 161  4678.022
 162  4392.492
 163  6873.09
 164  7500.495
 165  5873.276
 166  4994.552
 167  5159.131
 168  5197.916
 169  4729.887
 170  4745.343
 171  5385.014
 172  5609.437
 173  5932.53
 174  5980.572
 175  6477.64
 176  5928.974
 177  5563.264
 178  5751.971
 179  5875.646
 180  5867.982
 181  5600.37
 182  5435.646
 183  4940.991
 184  4477.27
 185  4858.583
 186  4888.912
 187  4995.665
 188  4567.975
 189  5307.441
 190  5453.045
 191  4549.508
 192  4672.675
 193  4233.204
 194  4722.853
 195  4680.125
 196  5117.344
 197  5354.359
 198  5841.224
 199  5731.938
 200  6013.864
 201  6110.141
 202  5518.047
 203  4927.849
 204  5140.628
 205  4692.671
 206  4507.699
 207  4445.829
 208  5438.445
 209  4978.122
 210  4779.25
 211  4906.577
 212  5481.805
 213  4401.217
 214  5468.333
 215  4217.364
 216  5329.477
 217  5713.247
 218  5688.898
 219  6372.151
 220  6617.449
 221  5868.23
 222  5715.585
 223  6244.912
 224  5580.957
 225  5926.717
 226  5302.148
 227  4529.814
 228  4656.172
 229  5009.032
 230  4952.422
 231  4995.921
 232  3701.627
 233  3967.57
 234  3695.514
 235  4304.562
 236  4928.168
 237  5034.731
 238  5366.553
 239  5487.328
 240  5252.011
 241  6130.925
 242  5669.55
 243  5674.982
 244  5595.295
 245  4495.619
 246  4578.689
 247  4004.447
 248  3890.341
 249  4303.151
 250  4314.415
 251  4969.925
 252  4533.304
 253  4454.177
 254  3845.213
 255  4328.854
