# Input file       =  1181112274.121032_cleaned.dat
# Candidate        =  PSR_0332+5434
# Telescope        =  AR
# Epoch_topo       =  57914.281170382317
# Epoch_bary       =  N/A
# T_sample         =  0.002
# Data Folded      =  7340032
# Data Avg         =  0.0257218676856748
# Data StdDev      =  1.00004760457018 
# Profile Bins     =  512
# Profile Avg      =  368.692736482273 
# Profile StdDev   =  119.738736216499 
# Reduced chi-sqr  =  1.146
# Prob(Noise)      <  0.0125   (~2.2 sigma)
# P_topo (ms)      =  714.507657082862  +/- 0.00046
# P'_topo (s/s)    =  -0                +/- 2.43e-10
# P''_topo (s/s^2) =  0                 +/- 1.07e-13
# P_bary (ms)      =  N/A
# P'_bary (s/s)    =  N/A
# P''_bary (s/s^2) =  N/A
# P_orb (s)        =  N/A
# asin(i)/c (s)    =  N/A
# eccentricity     =  N/A
# w (rad)          =  N/A
# T_peri           =  N/A
######################################################
   0  324.0229
   1  343.176
   2  329.2799
   3  393.5259
   4  301.6088
   5  373.6992
   6  364.0499
   7  392.7184
   8  387.2522
   9  445.567
  10  512.9843
  11  470.1542
  12  446.9175
  13  417.875
  14  380.4572
  15  341.0402
  16  281.3545
  17  319.9274
  18  299.1073
  19  418.0989
  20  418.7794
  21  277.3878
  22  293.8604
  23  281.2138
  24  386.3646
  25  329.8145
  26  302.4189
  27  345.6864
  28  372.913
  29  388.0569
  30  245.6265
  31  232.9177
  32  323.8479
  33  277.7778
  34  182.2157
  35  144.4039
  36  263.3941
  37  195.9478
  38  351.881
  39  322.5659
  40  163.8611
  41  209.7466
  42  331.1512
  43  278.2509
  44  310.4538
  45  365.4901
  46  364.6661
  47  322.6051
  48  266.5201
  49  296.386
  50  415.3234
  51  381.2198
  52  359.0747
  53  264.3275
  54  213.4136
  55  251.512
  56  336.6831
  57  406.5182
  58  416.2481
  59  312.7197
  60  231.7568
  61  191.4716
  62  222.206
  63  224.578
  64  163.9673
  65  364.0671
  66  350.0351
  67  288.8039
  68  340.0569
  69  217.6153
  70  363.4514
  71  428.8438
  72  318.7954
  73  290.2895
  74  278.3488
  75  210.9547
  76  244.1128
  77  303.1624
  78  436.2242
  79  431.2678
  80  402.6944
  81  469.0507
  82  364.4727
  83  247.1743
  84  335.9823
  85  325.518
  86  359.013
  87  369.6456
  88  379.8302
  89  325.478
  90  353.5378
  91  339.8904
  92  434.4255
  93  464.8203
  94  496.9702
  95  431.6005
  96  257.3412
  97  339.4123
  98  288.0681
  99  349.3083
 100  415.762
 101  487.4228
 102  368.8287
 103  389.6432
 104  283.9942
 105  208.1039
 106  246.0481
 107  212.9512
 108  277.7815
 109  390.2804
 110  331.0665
 111  280.5884
 112  358.6486
 113  225.6279
 114  334.7083
 115  341.1238
 116  343.8388
 117  289.3484
 118  298.4485
 119  346.7293
 120  290.6328
 121  307.6665
 122  379.7669
 123  339.0054
 124  386.9248
 125  409.0054
 126  396.2323
 127  365.2728
 128  422.4996
 129  374.8682
 130  387.1103
 131  346.6586
 132  269.045
 133  349.8954
 134  434.1986
 135  403.7666
 136  376.8244
 137  296.876
 138  321.9026
 139  413.0113
 140  398.8821
 141  406.0171
 142  493.1766
 143  441.0632
 144  437.6328
 145  396.9308
 146  385.3499
 147  418.2634
 148  388.0657
 149  403.3169
 150  341.874
 151  274.1846
 152  318.8779
 153  386.6707
 154  414.4672
 155  281.5252
 156  250.3279
 157  284.4755
 158  265.7706
 159  261.7601
 160  387.4923
 161  455.3163
 162  395.0591
 163  292.2053
 164  332.0966
 165  379.1829
 166  331.5017
 167  383.653
 168  468.4441
 169  324.7676
 170  201.2418
 171  289.4639
 172  372.0041
 173  268.9254
 174  229.0236
 175  265.675
 176  346.8121
 177  275.7411
 178  229.9985
 179  266.9976
 180  257.5965
 181  317.2873
 182  261.9733
 183  308.4821
 184  331.3886
 185  287.127
 186  377.7916
 187  490.0058
 188  437.6392
 189  306.4297
 190  376.4828
 191  366.8279
 192  373.4279
 193  338.2866
 194  373.8803
 195  511.6281
 196  520.4894
 197  398.6548
 198  343.8243
 199  365.5409
 200  562.9786
 201  488.4395
 202  418.0532
 203  397.2903
 204  380.6889
 205  478.2679
 206  476.4892
 207  385.19
 208  439.5217
 209  566.8727
 210  565.5437
 211  481.5096
 212  408.8467
 213  463.2841
 214  421.1728
 215  540.8455
 216  699.9841
 217  787.1465
 218  889.9144
 219  814.3841
 220  676.471
 221  650.647
 222  563.7568
 223  310.0965
 224  361.0297
 225  297.3203
 226  324.8318
 227  306.8673
 228  265.9729
 229  219.5285
 230  356.9002
 231  406.8969
 232  429.5248
 233  360.2276
 234  428.7531
 235  435.2272
 236  494.1295
 237  465.2697
 238  440.3911
 239  359.1062
 240  265.0731
 241  301.0616
 242  260.1457
 243  270.9108
 244  287.3969
 245  409.4643
 246  466.6418
 247  303.361
 248  273.7431
 249  285.4438
 250  290.9206
 251  291.0975
 252  334.1574
 253  404.7979
 254  312.8325
 255  358.1438
 256  387.1795
 257  410.1449
 258  352.6549
 259  402.8647
 260  355.3951
 261  268.4479
 262  220.8925
 263  293.9886
 264  237.6867
 265  188.4348
 266  203.5263
 267  438.5353
 268  333.1381
 269  355.9708
 270  376.5933
 271  373.2688
 272  360.4806
 273  431.6146
 274  363.0075
 275  485.7121
 276  403.7699
 277  424.7158
 278  396.1784
 279  352.3065
 280  443.2514
 281  360.7252
 282  451.5596
 283  419.486
 284  440.6922
 285  455.0291
 286  398.1641
 287  327.4899
 288  386.0843
 289  419.4922
 290  393.4586
 291  387.589
 292  412.8364
 293  272.9898
 294  248.0291
 295  296.8586
 296  463.4949
 297  395.8806
 298  367.5757
 299  399.4283
 300  398.2126
 301  452.7563
 302  402.6341
 303  403.9822
 304  411.6566
 305  407.5644
 306  450.3849
 307  499.9024
 308  406.3102
 309  449.2484
 310  629.3745
 311  442.6775
 312  386.4598
 313  392.0029
 314  480.4787
 315  389.2171
 316  379.8223
 317  306.3033
 318  355.063
 319  421.134
 320  423.2375
 321  341.7063
 322  336.9818
 323  313.4135
 324  327.7342
 325  431.5352
 326  431.59
 327  377.721
 328  268.2869
 329  317.5389
 330  414.6368
 331  567.8832
 332  477.5873
 333  387.0586
 334  392.0006
 335  459.6658
 336  429.1537
 337  376.7492
 338  394.4258
 339  429.9637
 340  541.407
 341  486.7478
 342  361.3195
 343  465.1759
 344  440.8051
 345  282.719
 346  231.2304
 347  382.0916
 348  405.0876
 349  463.6977
 350  447.8253
 351  522.986
 352  440.8841
 353  419.3974
 354  426.7191
 355  519.5792
 356  465.6085
 357  399.1141
 358  519.8703
 359  587.7147
 360  554.1923
 361  585.6299
 362  600.6013
 363  518.6154
 364  446.063
 365  402.939
 366  391.8244
 367  460.577
 368  561.5509
 369  578.9692
 370  529.5549
 371  469.4299
 372  418.633
 373  388.0045
 374  383.8533
 375  396.2403
 376  371.1475
 377  363.0279
 378  444.2281
 379  471.7228
 380  379.6495
 381  336.9313
 382  332.4619
 383  388.6994
 384  379.5184
 385  351.1215
 386  469.4175
 387  453.205
 388  422.9459
 389  465.2574
 390  345.449
 391  247.3042
 392  347.619
 393  377.102
 394  384.1924
 395  353.2123
 396  243.9473
 397  352.6764
 398  308.5406
 399  340.3214
 400  333.1461
 401  342.2159
 402  467.4755
 403  420.9624
 404  363.3961
 405  382.908
 406  356.7699
 407  367.1277
 408  501.4698
 409  467.7199
 410  311.4286
 411  313.5693
 412  266.5993
 413  243.9582
 414  446.0822
 415  498.0019
 416  489.5774
 417  455.7178
 418  497.1703
 419  351.1421
 420  385.7406
 421  465.2228
 422  474.7465
 423  455.5466
 424  299.0959
 425  242.0873
 426  350.3078
 427  447.4017
 428  439.2173
 429  443.766
 430  372.3602
 431  297.313
 432  234.6304
 433  268.6383
 434  295.7997
 435  290.865
 436  265.3734
 437  231.6576
 438  389.1349
 439  313.5945
 440  243.3575
 441  372.3234
 442  433.1496
 443  387.8761
 444  327.4946
 445  355.2701
 446  300.2103
 447  235.6922
 448  280.1427
 449  308.5793
 450  372.0415
 451  340.309
 452  313.8943
 453  396.9351
 454  339.1828
 455  320.6595
 456  405.6272
 457  365.5135
 458  444.8311
 459  322.0477
 460  227.022
 461  317.7462
 462  242.7135
 463  398.0034
 464  398.5933
 465  386.6894
 466  456.178
 467  466.7221
 468  359.688
 469  370.114
 470  485.0504
 471  380.1639
 472  199.9038
 473  247.2986
 474  281.0164
 475  374.4565
 476  328.613
 477  270.9944
 478  319.8767
 479  301.0421
 480  367.8818
 481  339.7854
 482  242.9392
 483  260.8324
 484  233.7174
 485  268.1424
 486  369.668
 487  348.4034
 488  285.1511
 489  199.2175
 490  170.3223
 491  278.8065
 492  413.6463
 493  343.3573
 494  379.8631
 495  274.0678
 496  374.2877
 497  298.9798
 498  338.9361
 499  435.5382
 500  517.3881
 501  357.547
 502  380.6618
 503  400.7391
 504  269.6611
 505  395.3332
 506  317.6146
 507  371.4382
 508  428.7547
 509  366.2127
 510  281.1085
 511  291.7087
