# Input file       =  1181299537.125484_cleaned.dat
# Candidate        =  PSR_0332+5434
# Telescope        =  AR
# Epoch_topo       =  57916.448566267172
# Epoch_bary       =  N/A
# T_sample         =  0.002
# Data Folded      =  7340032
# Data Avg         =  0.0597910963271196
# Data StdDev      =  3.8249598352089  
# Profile Bins     =  256
# Profile Avg      =  1714.49954144777 
# Profile StdDev   =  647.673119921495 
# Reduced chi-sqr  =  0.918
# Prob(Noise)      <  0.822   (~0.0 sigma)
# P_topo (ms)      =  714.505952341281  +/- 0.000523
# P'_topo (s/s)    =  -0                +/- 2.76e-10
# P''_topo (s/s^2) =  0                 +/- 1.22e-13
# P_bary (ms)      =  N/A
# P'_bary (s/s)    =  N/A
# P''_bary (s/s^2) =  N/A
# P_orb (s)        =  N/A
# asin(i)/c (s)    =  N/A
# eccentricity     =  N/A
# w (rad)          =  N/A
# T_peri           =  N/A
######################################################
   0  1258.958
   1  1361.619
   2  1305.482
   3  1606.025
   4  1254.477
   5  1283.697
   6  1580.568
   7  1436.754
   8  1800.528
   9  1214.344
  10  1572.645
  11  1068.788
  12  1559.587
  13  1629.661
  14  1651.499
  15  1208.82
  16  1327.765
  17  2133.62
  18  1960.342
  19  1661.55
  20  1280.466
  21  1650.018
  22  1822.73
  23  2156.243
  24  2047.864
  25  2292.056
  26  1221.204
  27  1307
  28  1536.785
  29  1544.389
  30  562.0539
  31  513.0848
  32  760.6155
  33  1373.858
  34  1295.213
  35  1526.618
  36  1268.541
  37  1506.389
  38  1671.3
  39  2213.953
  40  1206.461
  41  1491.219
  42  1804.355
  43  1450.551
  44  1649.064
  45  1249.321
  46  1695.225
  47  1097.075
  48  906.5492
  49  1717.837
  50  1339.993
  51  1770.288
  52  1670.244
  53  1282.858
  54  2347.25
  55  1968.896
  56  2431.36
  57  1626.237
  58  2586.985
  59  2061.624
  60  2060.153
  61  1883.151
  62  1685.253
  63  2006.195
  64  2066.939
  65  1786.767
  66  1953.529
  67  1086.641
  68  1384.331
  69  1384.896
  70  1309.385
  71  1110.339
  72  866.216
  73  1881.686
  74  2266.096
  75  2232.647
  76  1975.619
  77  1751.973
  78  1493.547
  79  1134.181
  80  1685.807
  81  821.2086
  82  1767.817
  83  1487.103
  84  848.7201
  85  756.6954
  86  1870.969
  87  1870.848
  88  1390.217
  89  634.575
  90  1623.562
  91  1704.073
  92  1221.909
  93  1704.338
  94  1368.711
  95  1410.238
  96  1741.661
  97  2027.303
  98  2433.447
  99  2193.65
 100  1734.097
 101  1745.422
 102  2491.267
 103  2584.733
 104  2500.475
 105  2381.938
 106  1995.833
 107  1859.786
 108  2207.938
 109  1498.057
 110  2022.418
 111  1056.951
 112  2011.075
 113  2198.373
 114  1628.329
 115  1904.414
 116  2299.534
 117  2255.87
 118  1938.347
 119  2103.213
 120  1627.615
 121  914.9254
 122  873.3798
 123  1046.595
 124  1451.012
 125  442.1249
 126  1191.151
 127  1080.936
 128  1670.052
 129  1736.464
 130  2098.254
 131  2139.357
 132  2328.966
 133  2145.404
 134  1600.822
 135  2013.489
 136  2264.008
 137  1810.259
 138  2423.011
 139  1661.168
 140  1618.282
 141  1876.439
 142  1738.098
 143  1607.144
 144  1796.89
 145  2509.687
 146  2364.369
 147  2358.31
 148  2012.074
 149  1616.37
 150  1709.455
 151  2167.133
 152  1829.992
 153  2027.538
 154  2215.307
 155  1854.441
 156  2231.01
 157  1776.278
 158  1739.18
 159  1854.582
 160  2220.901
 161  1872.597
 162  2754.162
 163  3518.906
 164  4249.42
 165  3492.029
 166  2173.765
 167  1489.722
 168  1817.259
 169  1993.727
 170  2517.571
 171  2519.312
 172  2665.04
 173  2790.451
 174  2293.497
 175  1322.431
 176  1223.856
 177  1236.988
 178  893.0756
 179  940.3442
 180  1176.486
 181  1407.938
 182  1995.866
 183  838.076
 184  1013.063
 185  1063.398
 186  1587.551
 187  880.2275
 188  1254.398
 189  515.0887
 190  2017.183
 191  1427.534
 192  1186.447
 193  822.7451
 194  1729.505
 195  2148.437
 196  1964.368
 197  1318.058
 198  1989.381
 199  1369.736
 200  2081.13
 201  1793.898
 202  2126.977
 203  1905.087
 204  994.8303
 205  1011.475
 206  966.1369
 207  2044.617
 208  1594.769
 209  1506.933
 210  1347.368
 211  962.0518
 212  1498.037
 213  1323.484
 214  1379.09
 215  1616.859
 216  1426.714
 217  1417.674
 218  1264.913
 219  1590.429
 220  1224.273
 221  1110.849
 222  847.1605
 223  1101.214
 224  1204.69
 225  1357.084
 226  2152.559
 227  2544.617
 228  1743.903
 229  2346.087
 230  2121.098
 231  2036.172
 232  2112.757
 233  1590.485
 234  2445.953
 235  2060.189
 236  1860.725
 237  2217.904
 238  2391.182
 239  2397.248
 240  2138.422
 241  1998.481
 242  2228.066
 243  2047.789
 244  2122.6
 245  2072.432
 246  1394.675
 247  1316.037
 248  1075.347
 249  1652.277
 250  2350.708
 251  2581.829
 252  2479.042
 253  2688.897
 254  2371.155
 255  1482.418
