# Input file       =  1181183852.10865_cleaned.dat
# Candidate        =  PSR_0332+5434
# Telescope        =  AR
# Epoch_topo       =  57915.109619313080
# Epoch_bary       =  N/A
# T_sample         =  0.002
# Data Folded      =  7143424
# Data Avg         =  0.17008755722301 
# Data StdDev      =  4.30054462443663 
# Profile Bins     =  512
# Profile Avg      =  2373.09988572334 
# Profile StdDev   =  507.974243539558 
# Reduced chi-sqr  =  0.671
# Prob(Noise)      <  1   (~0.0 sigma)
# P_topo (ms)      =  714.506864777303  +/- 5.86e-05
# P'_topo (s/s)    =  -0                +/- 3.18e-11
# P''_topo (s/s^2) =  0                 +/- 1.44e-14
# P_bary (ms)      =  N/A
# P'_bary (s/s)    =  N/A
# P''_bary (s/s^2) =  N/A
# P_orb (s)        =  N/A
# asin(i)/c (s)    =  N/A
# eccentricity     =  N/A
# w (rad)          =  N/A
# T_peri           =  N/A
######################################################
   0  2571.277
   1  2353.833
   2  2350.701
   3  2187.728
   4  2145.536
   5  1944.621
   6  1799.47
   7  1555.091
   8  1677.735
   9  2209.434
  10  2244.179
  11  2214.335
  12  2587.446
  13  2301.411
  14  2154.079
  15  1973.861
  16  2285.224
  17  2255.094
  18  2510.127
  19  2566.824
  20  2356.105
  21  2431.473
  22  1800.13
  23  2160.416
  24  2206.631
  25  2225.387
  26  2297.925
  27  2487.769
  28  2339.073
  29  1792.253
  30  1547.097
  31  1952.588
  32  2451.58
  33  2294.193
  34  2539.17
  35  2327.569
  36  1818.074
  37  2034.903
  38  1803.614
  39  2021.996
  40  1898.375
  41  2071.521
  42  2134.563
  43  2824.864
  44  2589.446
  45  1800.586
  46  1875.501
  47  1607.447
  48  1925.486
  49  2199.542
  50  2237.558
  51  2211.84
  52  2272.371
  53  2162.158
  54  2220.028
  55  2463.107
  56  2742.566
  57  2422.082
  58  2272.866
  59  2442.921
  60  2403.199
  61  2672.319
  62  2692.641
  63  2412.41
  64  2332.175
  65  2417.219
  66  2428.861
  67  2337.259
  68  2165.942
  69  2126.195
  70  2312.761
  71  2535.492
  72  2430.852
  73  2557.642
  74  2462.38
  75  2382.446
  76  2780.358
  77  2663.188
  78  2178.118
  79  2093.719
  80  2515.634
  81  2323.035
  82  2175.185
  83  2542.879
  84  2530.924
  85  2304.437
  86  2390.406
  87  2392.562
  88  2429.072
  89  2403.448
  90  2292.319
  91  2106.083
  92  2200.218
  93  2038.199
  94  1993.99
  95  1886.836
  96  1773.496
  97  1955.081
  98  2306.666
  99  2716.511
 100  2836.784
 101  2707.51
 102  2266.978
 103  2094.574
 104  1458.067
 105  1957.607
 106  1965.563
 107  2379.104
 108  2661.055
 109  2577.718
 110  2712.168
 111  2329.035
 112  1983.229
 113  1929.799
 114  1847.243
 115  2187.483
 116  2581.033
 117  2720.455
 118  2708.867
 119  2504.925
 120  2159.505
 121  1981.308
 122  2027.084
 123  2058.155
 124  2284.315
 125  2394.365
 126  2219.374
 127  2248.331
 128  2294.926
 129  2482.53
 130  2207.932
 131  2304.988
 132  2436.819
 133  2141.915
 134  2452.875
 135  2616.438
 136  2864.05
 137  2466.633
 138  2574.397
 139  2034.451
 140  1967.953
 141  2341.934
 142  2276.983
 143  2492.757
 144  2541.498
 145  2541.19
 146  2313.862
 147  2719.536
 148  2953.662
 149  2597.548
 150  2688.702
 151  2342.808
 152  2531.101
 153  2640.662
 154  2254.131
 155  2031.245
 156  2443.009
 157  2796.928
 158  2645.078
 159  2489.346
 160  2131.082
 161  2099.344
 162  2268.568
 163  2113.927
 164  2645.173
 165  2735.145
 166  2529.275
 167  2392.523
 168  2308.384
 169  2464.962
 170  2075.27
 171  2092.056
 172  2043.694
 173  2226.255
 174  2596.9
 175  2656.728
 176  2098.122
 177  1885.396
 178  2074.151
 179  1684.44
 180  1955.637
 181  2499.62
 182  2649.399
 183  2535.926
 184  2648.845
 185  2248.942
 186  1882.522
 187  1799.147
 188  2082.87
 189  2109.776
 190  2327.126
 191  2753.398
 192  2712.868
 193  2757.629
 194  2460.498
 195  2002.025
 196  2232.162
 197  2324.005
 198  2242.891
 199  2355.498
 200  2286.112
 201  2468.787
 202  2363.814
 203  2450.231
 204  2381.122
 205  2426.33
 206  2263.838
 207  2431.871
 208  2611.229
 209  2354.973
 210  2051.547
 211  2152.49
 212  2732.87
 213  2611.579
 214  2856.444
 215  2847.304
 216  2685.139
 217  2480.21
 218  2193.28
 219  2284.783
 220  2197.285
 221  2367.734
 222  2330.634
 223  2643.766
 224  2424.748
 225  2501.04
 226  2781.123
 227  2542.295
 228  2279.63
 229  2102.884
 230  2272.832
 231  2334.419
 232  2529.23
 233  2457.659
 234  2424.833
 235  1925.373
 236  1777.922
 237  1903.647
 238  2334.638
 239  2702.504
 240  2614.963
 241  2370.431
 242  2302.186
 243  2139.624
 244  2021.913
 245  2266.569
 246  2489.938
 247  2836.135
 248  2948.212
 249  2248.922
 250  1986.85
 251  1599.133
 252  1720.314
 253  2535.741
 254  2382.069
 255  2386.526
 256  2167.51
 257  2215.867
 258  2391.012
 259  2164.908
 260  2247.497
 261  2106.539
 262  2314.842
 263  2328.307
 264  2492.159
 265  2571.394
 266  2727.802
 267  2536.461
 268  2328.451
 269  1967.713
 270  2257.08
 271  2206.679
 272  2531.668
 273  2776.733
 274  2677.356
 275  2430.225
 276  2232.215
 277  2222.844
 278  2166.8
 279  2576.424
 280  2778.719
 281  2887.649
 282  2724.349
 283  2570.984
 284  2440.809
 285  2334.492
 286  2593.248
 287  2578.692
 288  2882.914
 289  2609.149
 290  2351.417
 291  2048.397
 292  2249.976
 293  2501.417
 294  2102.104
 295  2213.88
 296  2262.74
 297  2773.531
 298  2568.473
 299  2520.958
 300  2357.598
 301  2360.802
 302  1902.152
 303  1603.061
 304  2009.854
 305  2717.436
 306  2775.433
 307  2491.52
 308  2375.779
 309  2309.811
 310  2424.587
 311  2085.664
 312  1953.229
 313  2452.691
 314  2688.636
 315  2507.193
 316  2473.373
 317  2603.274
 318  2146.982
 319  2267.124
 320  2183.34
 321  2238.614
 322  2594.155
 323  2689.777
 324  2989.591
 325  3111.506
 326  2910.494
 327  3073.941
 328  3507.918
 329  3535.364
 330  3630.403
 331  3341.119
 332  2802.837
 333  2582.907
 334  2304.396
 335  2426.975
 336  2379.348
 337  2526.17
 338  2294.55
 339  2419.345
 340  2740.148
 341  2870.259
 342  2470.28
 343  2585.482
 344  2516.125
 345  2399.33
 346  2969.816
 347  2811.375
 348  2785.163
 349  2678.808
 350  2091.594
 351  2318.676
 352  2525.079
 353  2531.614
 354  2537.297
 355  2749.172
 356  2519.23
 357  2547.374
 358  2664.886
 359  2605.38
 360  1970.228
 361  2242.746
 362  2817.214
 363  2741.058
 364  3171.219
 365  2838.47
 366  2484.671
 367  2454.117
 368  2329.875
 369  2156.757
 370  2426.757
 371  2877.423
 372  2689.245
 373  2812.919
 374  2851.328
 375  2397.687
 376  1967.198
 377  2014.599
 378  2192.184
 379  2361.563
 380  2247.31
 381  2380.892
 382  2273.089
 383  2033.748
 384  1992.896
 385  2082.172
 386  2061.046
 387  1661.22
 388  2435.714
 389  2503.897
 390  2602.535
 391  2384.984
 392  2515.385
 393  2366.623
 394  2322.255
 395  2505.038
 396  2719.588
 397  2724.115
 398  2403.02
 399  2319.872
 400  2075.96
 401  1880.087
 402  1665.587
 403  2131.133
 404  2572.524
 405  2322.361
 406  2480.677
 407  2685.603
 408  2517.236
 409  2085.249
 410  2092.923
 411  2323.044
 412  2262.235
 413  2889.783
 414  2492.271
 415  2329.781
 416  2194.827
 417  2184.562
 418  1982.575
 419  2270.769
 420  2661.225
 421  2696.355
 422  2509.862
 423  2248.973
 424  2221.915
 425  2318.421
 426  2322.798
 427  2605.635
 428  2745.004
 429  3024.598
 430  2763.428
 431  2607.555
 432  2615.955
 433  2494.688
 434  2368.33
 435  2597.523
 436  2578.78
 437  2521.015
 438  2582.179
 439  2575.526
 440  2501.134
 441  2235.4
 442  2587.019
 443  2447.57
 444  2257.002
 445  2513.102
 446  2275.612
 447  2337.557
 448  2559.507
 449  2509.148
 450  2560.023
 451  2134.698
 452  2043.502
 453  2103.673
 454  2181.166
 455  2531.634
 456  2372.994
 457  2231.357
 458  1943.25
 459  2188.309
 460  2298.824
 461  2473.011
 462  2776.131
 463  2549.572
 464  2112.627
 465  1801.192
 466  2117.503
 467  2071.337
 468  2312.152
 469  2588.997
 470  2835.174
 471  2542.021
 472  2146.913
 473  2320.622
 474  2111.48
 475  2135.009
 476  1947.484
 477  2025.923
 478  2201.549
 479  2618.049
 480  2497.832
 481  2519.513
 482  2558.877
 483  2307.438
 484  2290.436
 485  1843.169
 486  2029.498
 487  2357.412
 488  2500.752
 489  2493.837
 490  2318.732
 491  2505.897
 492  2312.95
 493  2253.45
 494  2292.62
 495  2695.161
 496  2810.407
 497  2767.51
 498  2244.785
 499  2511.074
 500  2471.267
 501  2332.168
 502  2374.268
 503  2547.181
 504  2899.22
 505  2966.116
 506  2760.611
 507  2205.456
 508  2314.706
 509  2356.878
 510  1988.163
 511  2368.177
