# Input file       =  1181629295.118561-PSRB0329-2ms-sampling-dd.dat
# Candidate        =  PSR_0332+5434
# Telescope        =  AR
# Epoch_topo       =  57920.265209705569
# Epoch_bary       =  N/A
# T_sample         =  0.002
# Data Folded      =  7340032
# Data Avg         =  -8.2857606797771e-10
# Data StdDev      =  7.9561353314429  
# Profile Bins     =  512
# Profile Avg      =  0.623026532599023
# Profile StdDev   =  952.612241058127 
# Reduced chi-sqr  =  0.834
# Prob(Noise)      <  0.997   (~0.0 sigma)
# P_topo (ms)      =  714.502076423764  +/- 0.0005
# P'_topo (s/s)    =  -0                +/- 2.64e-10
# P''_topo (s/s^2) =  0                 +/- 1.17e-13
# P_bary (ms)      =  N/A
# P'_bary (s/s)    =  N/A
# P''_bary (s/s^2) =  N/A
# P_orb (s)        =  N/A
# asin(i)/c (s)    =  N/A
# eccentricity     =  N/A
# w (rad)          =  N/A
# T_peri           =  N/A
######################################################
   0  -388.549
   1  -869.4868
   2  -1284.672
   3  -694.113
   4  -611.8463
   5  -843.9159
   6  -1023.654
   7  -899.1496
   8  -1206.04
   9  -1174.902
  10  -664.1608
  11  -535.6306
  12  -783.7994
  13  -981.9334
  14  -880.3124
  15  -891.1464
  16  -720.569
  17  -506.3242
  18  -590.9821
  19  -746.254
  20  -1099.093
  21  -866.9367
  22  -853.0814
  23  -1467.236
  24  -1193.172
  25  -729.7957
  26  -534.9457
  27  -910.5173
  28  -1037.768
  29  -834.1802
  30  -966.2745
  31  -916.6418
  32  -1013.451
  33  -494.9436
  34  -770.6802
  35  -672.7923
  36  -645.5773
  37  -407.5281
  38  -392.9422
  39  -375.1455
  40  -284.2643
  41  22.62138
  42  -233.5145
  43  -356.9378
  44  388.2702
  45  306.9376
  46  520.1637
  47  1064.503
  48  1002.475
  49  160.4722
  50  -78.07969
  51  1954.891
  52  2139.843
  53  2116.904
  54  1620.946
  55  384.3504
  56  -89.73354
  57  -287.9738
  58  -128.887
  59  -549.1083
  60  -645.8789
  61  -614.3307
  62  -575.1387
  63  -541.3765
  64  -423.7969
  65  -465.6022
  66  -351.1812
  67  -378.4861
  68  -492.5748
  69  124.4157
  70  575.4139
  71  -94.79428
  72  712.3978
  73  1327.742
  74  1257.138
  75  1174.253
  76  1166.845
  77  1178.069
  78  973.2085
  79  1360.84
  80  1821.423
  81  1495.546
  82  1228.381
  83  577.0662
  84  -147.0635
  85  -317.7014
  86  -260.946
  87  -256.5721
  88  -177.2728
  89  145.1421
  90  -287.3783
  91  -322.3847
  92  -303.6083
  93  -0.9705545
  94  13.35141
  95  105.492
  96  -208.1989
  97  -111.2356
  98  -296.0636
  99  -74.90203
 100  -19.16213
 101  -85.73846
 102  66.6413
 103  50.39589
 104  170.5025
 105  -27.21462
 106  -77.47021
 107  315.5536
 108  303.3016
 109  344.2771
 110  83.59082
 111  342.7803
 112  272.5812
 113  131.7723
 114  -94.25031
 115  -112.5235
 116  -240.5149
 117  -91.27061
 118  -167.5555
 119  -162.2784
 120  -258.0814
 121  -462.5954
 122  -360.7404
 123  -323.2439
 124  -412.1419
 125  -323.6304
 126  -278.9859
 127  73.12296
 128  -6.605937
 129  -181.2196
 130  205.4183
 131  40.16906
 132  114.9812
 133  45.38516
 134  -75.18071
 135  202.3242
 136  -32.26986
 137  -80.86202
 138  48.18149
 139  -160.8425
 140  134.3192
 141  247.0227
 142  -206.7763
 143  -313.8256
 144  -426.1531
 145  -117.5633
 146  -181.2963
 147  -302.4586
 148  -348.2787
 149  35.87302
 150  284.7992
 151  57.53851
 152  -219.7976
 153  -308.3932
 154  -248.4512
 155  -92.94178
 156  34.43742
 157  -105.8517
 158  -221.17
 159  -794.0486
 160  -991.3749
 161  -890.3641
 162  -756.8829
 163  -1044.193
 164  -725.6016
 165  -592.4785
 166  -717.3112
 167  -424.4063
 168  -582.7524
 169  -640.2672
 170  -344.5104
 171  105.9203
 172  905.5938
 173  1155.717
 174  1042.969
 175  652.4973
 176  24.93868
 177  -288.5596
 178  -216.1989
 179  -7.187652
 180  -171.4269
 181  -215.0089
 182  112.9841
 183  0.2688165
 184  -292.8927
 185  -308.107
 186  -168.6847
 187  28.47556
 188  132.2519
 189  223.7757
 190  22.55024
 191  316.871
 192  -48.25909
 193  -155.8776
 194  -33.25185
 195  156.6764
 196  84.15005
 197  26.3915
 198  -235.8474
 199  121.2681
 200  -277.7798
 201  -352.3284
 202  -291.0851
 203  -137.271
 204  -31.19932
 205  -313.3323
 206  -17.34697
 207  -40.92605
 208  41.07347
 209  154.6024
 210  -78.29052
 211  -256.9328
 212  -37.82077
 213  -250.5122
 214  -489.7391
 215  -56.80966
 216  278.9454
 217  599.1718
 218  568.2503
 219  1018.402
 220  644.0251
 221  -230.9568
 222  -63.67203
 223  800.6255
 224  2522.71
 225  1377.1
 226  738.5399
 227  265.9909
 228  274.0771
 229  760.9855
 230  1797.657
 231  2206.092
 232  1975.076
 233  1879.418
 234  2516.405
 235  2554.885
 236  1599.741
 237  3240.283
 238  3574.506
 239  3483.506
 240  2575.691
 241  1657.09
 242  754.924
 243  -191.1433
 244  -254.4602
 245  -122.862
 246  159.6868
 247  386.2921
 248  97.54021
 249  6.260985
 250  13.88001
 251  -355.5056
 252  -228.6397
 253  131.4069
 254  107.6229
 255  -172.3335
 256  141.6068
 257  106.8247
 258  -213.0221
 259  -452.2812
 260  -54.14748
 261  327.5763
 262  289.7271
 263  364.164
 264  204.2917
 265  28.98112
 266  196.7509
 267  363.7125
 268  157.9036
 269  145.3035
 270  426.3385
 271  -203.4652
 272  -219.6468
 273  278.74
 274  414.7039
 275  -119.7112
 276  -443.9858
 277  -120.4921
 278  172.9916
 279  66.39983
 280  94.90646
 281  93.87879
 282  -170.5003
 283  75.33069
 284  216.7366
 285  235.4597
 286  281.0111
 287  38.07268
 288  -32.02925
 289  -45.18072
 290  228.2028
 291  469.9676
 292  194.7827
 293  -99.55196
 294  40.46591
 295  355.5778
 296  510.4102
 297  284.8169
 298  246.8369
 299  -73.32868
 300  -208.9081
 301  -184.0265
 302  -27.32428
 303  126.8275
 304  174.5092
 305  211.8419
 306  262.9806
 307  246.8858
 308  97.31889
 309  -299.3193
 310  -561.3907
 311  -422.5699
 312  -262.6521
 313  -228.6255
 314  -449.8795
 315  -216.6807
 316  -299.2925
 317  -376.6657
 318  -250.3267
 319  -19.0111
 320  -210.905
 321  125.3392
 322  141.5414
 323  136.9794
 324  -122.9337
 325  -383.4985
 326  -522.5205
 327  -150.2218
 328  284.8751
 329  -44.06203
 330  -222.2468
 331  158.0963
 332  218.6679
 333  677.6721
 334  327.9549
 335  -18.56569
 336  -347.6525
 337  -440.568
 338  23.40646
 339  -79.14917
 340  165.046
 341  277.0926
 342  69.86945
 343  -293.9088
 344  -261.079
 345  -373.1376
 346  -238.5086
 347  60.45973
 348  174.8746
 349  -155.1832
 350  -299.1891
 351  -144.8114
 352  -224.4286
 353  -457.286
 354  -235.3497
 355  -232.0631
 356  147.8551
 357  -74.72633
 358  -186.7263
 359  -367.802
 360  -13.22638
 361  -207.0912
 362  63.19905
 363  210.8973
 364  -152.9947
 365  -266.4116
 366  -60.74439
 367  107.7805
 368  92.58279
 369  68.32094
 370  -244.6541
 371  -36.84132
 372  -237.2702
 373  -193.8588
 374  -183.9871
 375  35.39214
 376  -1.950684
 377  -270.3436
 378  -505.3359
 379  -95.7772
 380  -493.1631
 381  -223.1089
 382  47.95314
 383  -123.5894
 384  -79.46669
 385  -49.40063
 386  -92.64783
 387  -395.8598
 388  -351.0349
 389  36.63966
 390  -130.2948
 391  -226.2121
 392  -290.3241
 393  -269.4258
 394  -34.83145
 395  -91.2316
 396  -303.7402
 397  -286.2748
 398  -151.9664
 399  48.26556
 400  -161.7964
 401  -524.3564
 402  -623.598
 403  -323.1223
 404  -377.0968
 405  -292.6631
 406  -501.7149
 407  -802.4109
 408  -725.1405
 409  -704.9374
 410  -382.791
 411  70.82559
 412  37.6317
 413  -117.768
 414  109.2251
 415  82.91926
 416  101.1042
 417  170.9588
 418  112.8337
 419  -219.2397
 420  -142.8922
 421  -195.5513
 422  -150.5463
 423  -48.54702
 424  -19.99859
 425  -196.5654
 426  -178.2229
 427  -103.218
 428  130.2815
 429  -53.63337
 430  -101.9602
 431  -248.1043
 432  -202.9882
 433  -293.9796
 434  77.29515
 435  -222.0467
 436  -238.8782
 437  -52.18283
 438  -165.1433
 439  -505.9637
 440  -141.0896
 441  248.4024
 442  105.9493
 443  1.434146
 444  -26.31436
 445  -283.833
 446  -244.8805
 447  -319.8947
 448  -298.6272
 449  -501.5526
 450  -123.6228
 451  -143.9575
 452  -440.1844
 453  -533.9788
 454  -285.3785
 455  -395.6828
 456  -330.2972
 457  -293.5357
 458  -160.5655
 459  -306.1674
 460  -399.4048
 461  -549.6224
 462  -153.1765
 463  237.5711
 464  324.2144
 465  425.5976
 466  -41.39545
 467  599.2039
 468  916.8293
 469  1493.374
 470  2002.657
 471  1754.304
 472  1188.535
 473  655.7514
 474  1101.61
 475  742.4075
 476  45.22299
 477  118.4928
 478  263.7953
 479  -134.032
 480  68.84567
 481  -13.8282
 482  149.8228
 483  -177.9232
 484  -211.5668
 485  46.98257
 486  121.2238
 487  37.10749
 488  298.9608
 489  266.7511
 490  234.9051
 491  -155.2271
 492  -270.6494
 493  -382.0016
 494  -228.8
 495  -213.0952
 496  -186.9365
 497  -521.6879
 498  -495.4032
 499  -130.0246
 500  202.886
 501  132.0306
 502  -152.9335
 503  -263.3187
 504  -317.3048
 505  -229.8384
 506  -8.117102
 507  -330.4902
 508  -376.0659
 509  -342.6624
 510  -310.7684
 511  -266.0136
