# Input file       =  1181370785.111264_cleaned.dat
# Candidate        =  PSR_0332+5434
# Telescope        =  AR
# Epoch_topo       =  57917.273195732225
# Epoch_bary       =  N/A
# T_sample         =  0.002
# Data Folded      =  7340032
# Data Avg         =  0.014959803051729
# Data StdDev      =  0.999971741117867
# Profile Bins     =  512
# Profile Avg      =  214.450525683671 
# Profile StdDev   =  119.729652855004 
# Reduced chi-sqr  =  1.227
# Prob(Noise)      <  0.000331   (~3.4 sigma)
# P_topo (ms)      =  714.504847453028  +/- 0.000397
# P'_topo (s/s)    =  -0                +/- 2.1e-10
# P''_topo (s/s^2) =  0                 +/- 9.26e-14
# P_bary (ms)      =  N/A
# P'_bary (s/s)    =  N/A
# P''_bary (s/s^2) =  N/A
# P_orb (s)        =  N/A
# asin(i)/c (s)    =  N/A
# eccentricity     =  N/A
# w (rad)          =  N/A
# T_peri           =  N/A
######################################################
   0  651.4886
   1  650.0422
   2  687.0521
   3  534.3229
   4  507.3696
   5  378.8751
   6  239.2767
   7  204.0775
   8  194.4468
   9  301.9576
  10  303.688
  11  204.7754
  12  110.8066
  13  288.7289
  14  289.8627
  15  281.6682
  16  156.8804
  17  113.4928
  18  74.34802
  19  196.568
  20  210.8457
  21  217.6947
  22  26.16897
  23  28.23756
  24  117.7078
  25  209.8376
  26  199.2867
  27  161.7397
  28  80.94504
  29  126.5574
  30  102.2558
  31  121.1212
  32  177.1831
  33  32.6177
  34  128.7476
  35  155.8404
  36  109.4723
  37  122.6777
  38  214.6766
  39  211.6238
  40  143.0164
  41  152.8944
  42  69.65842
  43  69.66061
  44  121.6861
  45  174.0028
  46  105.2126
  47  64.56052
  48  117.5434
  49  114.6667
  50  53.93074
  51  224.0773
  52  142.6311
  53  141.4586
  54  86.96091
  55  113.7446
  56  157.0003
  57  338.1226
  58  295.0707
  59  242.7298
  60  170.7234
  61  238.5001
  62  210.4872
  63  304.3148
  64  249.8115
  65  186.83
  66  180.0654
  67  195.7669
  68  150.5414
  69  131.9019
  70  140.7789
  71  -22.61674
  72  48.2219
  73  170.5847
  74  158.6264
  75  142.8686
  76  144.0292
  77  53.71056
  78  32.5697
  79  95.94691
  80  93.32184
  81  172.3613
  82  235.6485
  83  153.7726
  84  76.22758
  85  135.0275
  86  214.6955
  87  228.999
  88  208.0824
  89  172.1249
  90  114.5987
  91  183.0555
  92  97.99552
  93  -36.2103
  94  15.32963
  95  203.7381
  96  230.4082
  97  302.1205
  98  218.8212
  99  120.0993
 100  134.5177
 101  246.9575
 102  142.1441
 103  168.1892
 104  128.5791
 105  223.6371
 106  316.7355
 107  262.0166
 108  261.9567
 109  263.5039
 110  213.8457
 111  211.9641
 112  162.9122
 113  251.0736
 114  314.632
 115  184.5923
 116  195.0267
 117  218.6273
 118  230.8837
 119  203.1989
 120  162.0353
 121  220.2305
 122  264.664
 123  253.6834
 124  193.6722
 125  212.2833
 126  151.2624
 127  4.113431
 128  136.5051
 129  229.1826
 130  202.4144
 131  146.8541
 132  148.8981
 133  171.1371
 134  162.2037
 135  125.7234
 136  125.9722
 137  258.4018
 138  299.5537
 139  329.9484
 140  325.207
 141  286.2709
 142  344.371
 143  280.8271
 144  259.0164
 145  268.9086
 146  93.47458
 147  129.4557
 148  278.5669
 149  306.6549
 150  305.6437
 151  227.8637
 152  157.6248
 153  284.4033
 154  342.815
 155  284.267
 156  291.1824
 157  230.4618
 158  216.4392
 159  329.5646
 160  200.5215
 161  70.70648
 162  132.782
 163  194.9358
 164  76.5753
 165  121.3645
 166  141.9388
 167  93.88853
 168  258.3343
 169  311.0719
 170  226.2415
 171  193.4185
 172  243.2469
 173  117.0449
 174  167.9478
 175  248.6799
 176  221.7356
 177  138.0223
 178  38.72125
 179  140.7262
 180  189.1344
 181  126.3954
 182  127.7636
 183  173.688
 184  202.465
 185  102.94
 186  79.8963
 187  209.134
 188  144.9299
 189  176.0093
 190  166.3481
 191  142.2208
 192  96.17516
 193  188.5491
 194  258.6562
 195  100.6394
 196  87.47933
 197  183.1881
 198  145.2948
 199  186.5483
 200  204.5651
 201  209.3924
 202  194.9208
 203  223.1709
 204  166.9796
 205  103.3232
 206  140.5114
 207  213.2682
 208  167.7384
 209  260.7291
 210  206.0613
 211  123.7056
 212  86.94652
 213  184.3793
 214  165.4417
 215  216.1995
 216  311.9044
 217  353.0396
 218  390.0889
 219  341.7687
 220  280.2326
 221  296.1101
 222  326.1647
 223  258.5503
 224  182.5803
 225  173.8148
 226  139.1433
 227  199.5883
 228  152.796
 229  210.9931
 230  238.5203
 231  279.7761
 232  270.0293
 233  190.6385
 234  180.9844
 235  242.0109
 236  107.5683
 237  156.8375
 238  274.3397
 239  233.2634
 240  173.8625
 241  92.51334
 242  225.7795
 243  215.5557
 244  135.9442
 245  220.2177
 246  143.5576
 247  101.0468
 248  127.3069
 249  127.1807
 250  89.35301
 251  30.75916
 252  89.78618
 253  116.6405
 254  105.0574
 255  152.5169
 256  53.52128
 257  234.8637
 258  326.6255
 259  300.2631
 260  282.4131
 261  216.3941
 262  187.0986
 263  203.2349
 264  247.7996
 265  270.2348
 266  196.2846
 267  238.967
 268  282.0181
 269  148.4602
 270  63.5346
 271  134.7741
 272  257.1318
 273  268.8992
 274  284.9066
 275  140.3642
 276  141.9577
 277  246.3391
 278  245.789
 279  126.9848
 280  275.7658
 281  292.9865
 282  204.9878
 283  262.3715
 284  165.1998
 285  158.5984
 286  293.7406
 287  243.361
 288  168.0301
 289  257.303
 290  311.6987
 291  329.0424
 292  248.6118
 293  260.2521
 294  292.4514
 295  255.6121
 296  322.9731
 297  249.9792
 298  185.1465
 299  212.0486
 300  322.0563
 301  284.8578
 302  276.0307
 303  201.6519
 304  67.66812
 305  219.5258
 306  202.5481
 307  289.5293
 308  255.4233
 309  248.686
 310  348.4992
 311  364.3163
 312  318.7571
 313  291.4257
 314  346.0061
 315  319.7011
 316  344.3495
 317  365.4855
 318  304.8635
 319  271.7614
 320  365.1143
 321  291.7846
 322  210.4946
 323  238.1638
 324  157.7901
 325  146.5145
 326  224.1113
 327  336.9805
 328  243.9821
 329  185.6566
 330  165.452
 331  182.413
 332  76.86296
 333  71.82761
 334  161.0114
 335  314.8419
 336  278.597
 337  238.0215
 338  242.9244
 339  128.1444
 340  212.6173
 341  250.831
 342  206.783
 343  222.6199
 344  158.0242
 345  308.6138
 346  115.4976
 347  82.78487
 348  185.5381
 349  282.9069
 350  273.4459
 351  257.6834
 352  116.5311
 353  124.6087
 354  186.7395
 355  318.1794
 356  364.281
 357  176.0511
 358  139.0627
 359  273.8907
 360  321.7693
 361  274.4158
 362  271.446
 363  296.4944
 364  271.5518
 365  267.1024
 366  274.9718
 367  286.7432
 368  245.3697
 369  239.2549
 370  210.7851
 371  246.7873
 372  154.2987
 373  172.6785
 374  295.259
 375  266.8528
 376  217.9793
 377  230.9037
 378  311.4161
 379  238.7198
 380  218.987
 381  248.8827
 382  267.2829
 383  262.5849
 384  284.4833
 385  325.4661
 386  299.3488
 387  176.1953
 388  110.5707
 389  206.9663
 390  289.6445
 391  254.3772
 392  226.845
 393  259.7463
 394  155.5332
 395  184.5452
 396  400.9795
 397  348.7449
 398  317.2571
 399  355.4836
 400  315.024
 401  252.7426
 402  176.6103
 403  202.3703
 404  145.7742
 405  160.3833
 406  186.0549
 407  227.9754
 408  328.9177
 409  201.8184
 410  183.2202
 411  219.1906
 412  281.317
 413  216.4561
 414  194.5582
 415  323.93
 416  284.4711
 417  261.1265
 418  114.0158
 419  -33.25106
 420  71.81399
 421  206.8754
 422  256.263
 423  206.794
 424  230.9882
 425  146.2735
 426  10.51904
 427  47.84841
 428  121.5857
 429  169.183
 430  120.9412
 431  53.00134
 432  258.9072
 433  205.7835
 434  172.9902
 435  188.3234
 436  262.6935
 437  321.2994
 438  280.9319
 439  150.2853
 440  172.2567
 441  139.8012
 442  88.14922
 443  165.9057
 444  178.4234
 445  228.6638
 446  117.1539
 447  77.52535
 448  122.3005
 449  82.77393
 450  180.5103
 451  206.8021
 452  223.168
 453  225.2869
 454  132.2322
 455  179.6182
 456  303.1797
 457  168.531
 458  119.3845
 459  224.6881
 460  391.4853
 461  288.0826
 462  121.5285
 463  233.3693
 464  285.6075
 465  299.4385
 466  284.4974
 467  368.7579
 468  285.8326
 469  236.178
 470  206.2073
 471  235.1335
 472  302.7503
 473  281.3766
 474  424.6659
 475  399.278
 476  341.668
 477  402.7386
 478  407.8869
 479  283.7016
 480  276.3788
 481  357.2708
 482  355.2023
 483  219.8532
 484  320.193
 485  203.4261
 486  224.7066
 487  189.5508
 488  176.6313
 489  276.0002
 490  173.53
 491  212.5655
 492  324.7934
 493  306.9193
 494  265.0084
 495  250.621
 496  284.2274
 497  202.7704
 498  196.7375
 499  201.1299
 500  227.5585
 501  193.439
 502  150.7776
 503  214.7757
 504  219.6389
 505  358.7267
 506  365.3127
 507  391.5882
 508  397.2059
 509  532.8736
 510  591.6765
 511  672.0298
