# Input file       =  1181370785.111264_cleaned.dat
# Candidate        =  PSR_0332+5434
# Telescope        =  AR
# Epoch_topo       =  57917.273195732225
# Epoch_bary       =  N/A
# T_sample         =  0.002
# Data Folded      =  7340032
# Data Avg         =  0.0364742281703262
# Data StdDev      =  2.44888522871373 
# Profile Bins     =  512
# Profile Avg      =  522.859680057709 
# Profile StdDev   =  293.212464172106 
# Reduced chi-sqr  =  1.076
# Prob(Noise)      <  0.114   (~1.2 sigma)
# P_topo (ms)      =  714.504848052373  +/- 0.000463
# P'_topo (s/s)    =  -0                +/- 2.44e-10
# P''_topo (s/s^2) =  0                 +/- 1.08e-13
# P_bary (ms)      =  N/A
# P'_bary (s/s)    =  N/A
# P''_bary (s/s^2) =  N/A
# P_orb (s)        =  N/A
# asin(i)/c (s)    =  N/A
# eccentricity     =  N/A
# w (rad)          =  N/A
# T_peri           =  N/A
######################################################
   0  355.2147
   1  442.7623
   2  336.2219
   3  275.5456
   4  306.2914
   5  345.4456
   6  684.1074
   7  786.7299
   8  666.0311
   9  449.6941
  10  542.7376
  11  536.418
  12  615.5773
  13  655.9884
  14  566.0021
  15  412.0299
  16  524.967
  17  380.6597
  18  376.3906
  19  355.2767
  20  168.9115
  21  9.693347
  22  355.338
  23  464.4062
  24  291.6128
  25  403.405
  26  245.5199
  27  66.30148
  28  156.0889
  29  259.544
  30  241.642
  31  519.5744
  32  472.7155
  33  325.4639
  34  148.6387
  35  530.7659
  36  510.606
  37  521.6611
  38  468.2318
  39  369.6369
  40  416.5682
  41  439.6648
  42  75.97138
  43  -39.64335
  44  383.8669
  45  625.7293
  46  670.3854
  47  554.0615
  48  356.9382
  49  290.7323
  50  534.7687
  51  459.2127
  52  367.1693
  53  398.737
  54  427.7206
  55  731.3519
  56  759.4692
  57  674.8488
  58  580.0394
  59  579.8905
  60  503.2691
  61  513.0661
  62  427.2534
  63  801.8849
  64  577.5966
  65  477.0164
  66  549.5677
  67  516.7399
  68  576.0162
  69  398.0328
  70  559.7798
  71  585.6741
  72  645.3372
  73  481.6028
  74  441.6358
  75  503.5523
  76  129.7913
  77  174.8837
  78  577.5245
  79  571.2767
  80  437.2443
  81  368.2108
  82  378.6271
  83  462.2966
  84  370.7545
  85  348.7854
  86  526.6835
  87  716.9197
  88  784.8085
  89  768.5914
  90  687.8633
  91  774.8046
  92  813.8739
  93  585.6288
  94  634.8379
  95  378.043
  96  165.0357
  97  584.0109
  98  652.6409
  99  682.8296
 100  623.2781
 101  395.7585
 102  510.8646
 103  790.7479
 104  755.4614
 105  688.2676
 106  671.041
 107  493.2201
 108  657.3873
 109  697.5787
 110  222.8418
 111  229.8457
 112  456.3933
 113  425.7835
 114  263.9647
 115  373.5738
 116  290.033
 117  444.2317
 118  806.2883
 119  604.8152
 120  451.5111
 121  595.9214
 122  458.176
 123  350.7918
 124  504.4225
 125  599.2328
 126  503.303
 127  206.9268
 128  218.2721
 129  467.3989
 130  401.8498
 131  242.2775
 132  361.928
 133  455.0197
 134  354.7549
 135  214.2537
 136  454.2378
 137  526.2462
 138  330.696
 139  516.4859
 140  412.454
 141  404.2956
 142  343.1108
 143  685.6281
 144  470.338
 145  186.8942
 146  445.5851
 147  443.8858
 148  388.75
 149  483.3996
 150  489.4316
 151  451.8737
 152  564.3287
 153  431.6446
 154  348.632
 155  259.5921
 156  544.481
 157  508.6547
 158  560.9332
 159  566.0715
 160  364.8409
 161  152.3312
 162  399.4544
 163  432.1663
 164  486.2036
 165  641.8228
 166  771.0764
 167  831.4451
 168  912.3205
 169  722.3276
 170  703.5542
 171  768.8506
 172  750.2179
 173  598.8406
 174  446.1439
 175  348.2641
 176  319.8651
 177  462.3214
 178  418.2161
 179  603.0313
 180  588.3922
 181  737.6049
 182  583.8761
 183  383.2151
 184  585.8577
 185  348.7458
 186  274.7629
 187  572.2816
 188  641.7291
 189  474.2783
 190  313.2789
 191  387.928
 192  590.3121
 193  339.9979
 194  474.0428
 195  567.3115
 196  241.4086
 197  346.0526
 198  297.089
 199  365.5536
 200  98.00019
 201  95.75497
 202  266.3633
 203  207.5978
 204  352.9136
 205  212.2963
 206  262.5233
 207  770.3362
 208  774.8994
 209  696.4841
 210  595.4427
 211  398.9672
 212  454.0921
 213  527.334
 214  625.2948
 215  568.2232
 216  490.4075
 217  693.4048
 218  554.5109
 219  166.1774
 220  305.7354
 221  615.765
 222  674.8068
 223  698.1593
 224  532.4916
 225  325.1428
 226  566.7328
 227  681.5944
 228  423.9767
 229  470.2382
 230  866.9487
 231  572.0567
 232  614.0805
 233  622.4645
 234  378.8506
 235  604.3681
 236  734.7162
 237  501.2831
 238  491.5265
 239  679.3218
 240  768.9013
 241  655.4957
 242  588.8779
 243  689.335
 244  624.7598
 245  681.1342
 246  755.1067
 247  477.3705
 248  456.8319
 249  659.7883
 250  765.9304
 251  656.313
 252  678.6853
 253  238.8684
 254  370.2075
 255  513.4528
 256  506.2155
 257  751.043
 258  561.8375
 259  754.4054
 260  887.7659
 261  787.2526
 262  765.0286
 263  788.777
 264  840.4251
 265  751.5425
 266  869.3444
 267  728.3545
 268  571.4779
 269  749.7396
 270  800.4089
 271  524.0451
 272  582.6375
 273  538.2812
 274  346.7095
 275  533.9349
 276  589.7095
 277  796.067
 278  401.2108
 279  512.4171
 280  331.4854
 281  370.2589
 282  157.1973
 283  282.993
 284  585.2325
 285  724.4011
 286  546.5787
 287  696.8125
 288  375.4739
 289  423.5103
 290  577.7968
 291  525.234
 292  562.9406
 293  472.2933
 294  581.7779
 295  467.6433
 296  146.9929
 297  353.6339
 298  646.6108
 299  626.6007
 300  745.1595
 301  370.1993
 302  299.4312
 303  357.1363
 304  619.3647
 305  884.8253
 306  604.0887
 307  371.0905
 308  430.0804
 309  762.9167
 310  659.9949
 311  666.4296
 312  686.1166
 313  701.4474
 314  542.1249
 315  704.0541
 316  690.3918
 317  751.9686
 318  613.1281
 319  532.9841
 320  527.652
 321  391.9424
 322  273.8551
 323  588.7484
 324  684.7661
 325  595.3696
 326  530.9185
 327  749.3613
 328  663.1119
 329  512.7992
 330  496.5265
 331  656.3961
 332  623.3583
 333  633.4199
 334  760.4789
 335  711.5063
 336  601.5716
 337  283.192
 338  391.0061
 339  526.4039
 340  702.0233
 341  516.3365
 342  647.126
 343  600.3561
 344  369.6078
 345  773.1601
 346  850.0699
 347  744.2571
 348  737.4974
 349  830.6391
 350  738.5167
 351  500.8138
 352  494.719
 353  427.7144
 354  392.4749
 355  413.3177
 356  529.869
 357  653.4963
 358  732.7672
 359  396.0794
 360  500.4294
 361  557.5643
 362  679.968
 363  472.8039
 364  650.6288
 365  795.4736
 366  587.1625
 367  489.7758
 368  -12.67239
 369  25.48559
 370  322.6818
 371  561.8298
 372  558.9146
 373  494.6962
 374  474.3139
 375  164.1418
 376  69.53495
 377  229.3125
 378  323.1327
 379  433.2817
 380  122.0451
 381  448.2463
 382  606.1937
 383  495.5505
 384  431.278
 385  564.0107
 386  787.2128
 387  773.6078
 388  523.055
 389  364.0551
 390  464.4513
 391  323.0297
 392  381.9802
 393  464.0655
 394  461.7597
 395  426.7728
 396  109.8104
 397  292.5958
 398  160.5945
 399  305.8101
 400  499.5945
 401  527.0281
 402  540.5413
 403  384.1215
 404  199.3751
 405  569.8627
 406  597.0637
 407  300.0637
 408  476.7705
 409  749.7747
 410  900.6514
 411  309.8502
 412  409.1733
 413  689.9444
 414  701.0172
 415  663.9484
 416  807.7013
 417  828.4753
 418  548.8354
 419  593.0163
 420  476.0279
 421  676.5037
 422  601.5281
 423  884.5876
 424  999.0053
 425  834.2474
 426  876.7729
 427  1045.266
 428  772.7073
 429  622.0367
 430  625.911
 431  985.9207
 432  646.2517
 433  739.1771
 434  693.1788
 435  495.9586
 436  628.1959
 437  437.9955
 438  617.0272
 439  627.7584
 440  435.9678
 441  675.2333
 442  850.0462
 443  701.8851
 444  715.7061
 445  705.4482
 446  651.8023
 447  524.0404
 448  597.9573
 449  504.7183
 450  596.471
 451  279.4839
 452  493.559
 453  490.8932
 454  725.336
 455  891.8326
 456  927.8944
 457  930.5343
 458  1124.656
 459  1312.836
 460  1454.817
 461  1569.657
 462  1444.471
 463  1556.316
 464  1337.822
 465  1095.274
 466  1123.154
 467  621.5469
 468  644.5205
 469  439.8796
 470  603.9953
 471  733.7386
 472  666.1624
 473  255.6045
 474  516.7071
 475  628.6089
 476  672.7683
 477  493.5127
 478  302.1567
 479  147.9967
 480  425.7345
 481  458.3772
 482  567.4817
 483  246.4557
 484  22.7118
 485  142.6004
 486  359.2
 487  503.2623
 488  433.4882
 489  273.9004
 490  282.2554
 491  329.3271
 492  166.6232
 493  418.7888
 494  198.1826
 495  159.487
 496  434.5703
 497  262.367
 498  328.8408
 499  383.6029
 500  611.0158
 501  380.0152
 502  417.3518
 503  212.5505
 504  172.2554
 505  271.5829
 506  448.048
 507  321.1619
 508  215.1002
 509  183.6754
 510  291.317
 511  60.36116
