# Input file       =  1181614677.117078_cleaned.dat
# Candidate        =  PSR_0332+5434
# Telescope        =  AR
# Epoch_topo       =  57920.096019873592
# Epoch_bary       =  N/A
# T_sample         =  0.002
# Data Folded      =  7208960
# Data Avg         =  0.208521666248667
# Data StdDev      =  4.95091817836139 
# Profile Bins     =  512
# Profile Avg      =  2935.8582534113  
# Profile StdDev   =  587.471870465571 
# Reduced chi-sqr  =  0.595
# Prob(Noise)      <  1   (~0.0 sigma)
# P_topo (ms)      =  714.502220797123  +/- 4.8e-05
# P'_topo (s/s)    =  -0                +/- 2.58e-11
# P''_topo (s/s^2) =  0                 +/- 1.16e-14
# P_bary (ms)      =  N/A
# P'_bary (s/s)    =  N/A
# P''_bary (s/s^2) =  N/A
# P_orb (s)        =  N/A
# asin(i)/c (s)    =  N/A
# eccentricity     =  N/A
# w (rad)          =  N/A
# T_peri           =  N/A
######################################################
   0  3192.428
   1  3801.416
   2  3573.527
   3  3520.013
   4  3336.819
   5  3088.391
   6  2633.983
   7  2931.589
   8  2806.923
   9  2351.825
  10  2515.342
  11  3131.563
  12  3031.193
  13  2811.916
  14  2451.924
  15  2451.536
  16  2951.152
  17  2988.811
  18  3088.513
  19  2845.653
  20  2982.263
  21  2799.483
  22  2851.76
  23  2628.185
  24  2748.331
  25  2707.948
  26  2949.658
  27  2978.642
  28  2893.451
  29  2861.056
  30  2559.279
  31  2752.01
  32  2710.167
  33  2826.4
  34  3256.918
  35  3163.57
  36  3326.865
  37  3205.807
  38  2996.274
  39  2231.215
  40  2444.177
  41  3156.33
  42  3163.1
  43  3130.032
  44  2769.752
  45  2876.271
  46  2402.281
  47  2618.828
  48  2638.717
  49  2823.906
  50  3017.053
  51  3308.864
  52  3286.793
  53  3114.278
  54  2983.976
  55  2784.724
  56  2557.086
  57  2342.743
  58  2775.839
  59  2970.668
  60  3215.342
  61  3030.221
  62  3001.457
  63  3242.324
  64  3044.524
  65  3072.622
  66  2866.279
  67  3485.835
  68  3413.181
  69  3304.944
  70  3460.647
  71  3068.18
  72  2331.747
  73  2421.12
  74  2774.894
  75  2715.827
  76  2902.972
  77  3116.911
  78  3334.241
  79  3055.156
  80  2642.06
  81  2481.953
  82  2786.852
  83  3278.036
  84  3475.915
  85  3708.009
  86  3402.56
  87  2803.001
  88  3015.27
  89  2603.228
  90  2502.332
  91  2656.535
  92  2898.071
  93  2728.4
  94  3039.382
  95  2734.167
  96  2706.452
  97  2794.016
  98  2986.795
  99  2900.172
 100  3220.462
 101  3000.602
 102  3103.778
 103  2959.031
 104  2772.144
 105  2283.927
 106  2120.541
 107  2311.041
 108  2676.906
 109  3114.948
 110  3398.272
 111  3491.081
 112  3309.896
 113  2854.523
 114  2411.625
 115  2945.086
 116  3471.488
 117  3474.053
 118  3194.15
 119  3089.235
 120  2772.777
 121  2470.198
 122  2577.58
 123  2730.166
 124  2726.47
 125  3043.917
 126  2823.771
 127  2984.738
 128  3051.29
 129  2889.175
 130  2738.501
 131  2490.127
 132  2445.383
 133  3097.384
 134  3337.915
 135  3091.599
 136  2913.099
 137  2532.272
 138  2353.938
 139  2521.423
 140  2697.366
 141  3024.512
 142  2778.36
 143  2950.862
 144  3188.281
 145  3031.862
 146  2730.562
 147  2563.34
 148  2947.257
 149  3364.305
 150  3415.924
 151  3378.65
 152  3504.478
 153  2885.825
 154  2686.553
 155  2748.54
 156  2770.184
 157  2894.394
 158  3062.021
 159  3343.533
 160  3287.141
 161  3293.432
 162  3141.762
 163  2550.983
 164  2488.333
 165  2849.045
 166  2951.492
 167  3174.375
 168  3434.862
 169  3323.49
 170  3124.248
 171  3301.366
 172  3313.487
 173  3615.238
 174  3661.245
 175  4140.4
 176  4170.586
 177  4099.069
 178  3849.555
 179  3033.108
 180  2762.227
 181  2705.944
 182  3136.375
 183  3151.085
 184  2991.882
 185  3234.564
 186  3203.152
 187  2954.257
 188  2551.302
 189  2708.061
 190  2777.044
 191  3281.581
 192  3134.842
 193  2870.381
 194  3058.623
 195  2936.649
 196  2822.831
 197  2861.883
 198  2830.149
 199  2759.521
 200  3100.91
 201  3142.75
 202  3080.912
 203  3157.523
 204  2540.565
 205  2533.443
 206  2783.083
 207  3245.204
 208  2982.15
 209  2881.701
 210  2663.762
 211  2752.106
 212  2940.35
 213  2854.066
 214  2833.469
 215  2677.797
 216  3107.697
 217  2886.661
 218  2864.717
 219  3128.128
 220  2977.465
 221  2832.678
 222  2686.003
 223  2979.459
 224  3366.563
 225  3432.625
 226  3193.862
 227  2973.257
 228  2404.698
 229  2436.062
 230  2338.582
 231  2689.78
 232  3189.965
 233  3597.483
 234  2987.136
 235  2427.373
 236  2881.139
 237  2336.26
 238  2264.707
 239  2596.037
 240  3022.306
 241  2905.162
 242  3102.258
 243  3110.868
 244  2874.173
 245  2705.576
 246  2205.932
 247  2490.037
 248  2773.481
 249  3149.48
 250  2974.968
 251  2856.623
 252  2848.194
 253  2927.888
 254  2917.589
 255  2738.321
 256  2831.298
 257  2881.606
 258  3207.041
 259  2984.321
 260  2970.464
 261  2978.702
 262  2561.812
 263  2838.463
 264  2815.769
 265  3009.823
 266  3130.887
 267  3184.938
 268  3126.99
 269  3071.346
 270  2884.969
 271  2399.99
 272  2539.126
 273  2847.056
 274  2974.753
 275  2605.76
 276  2623.322
 277  2732.865
 278  2759.668
 279  2433.585
 280  2683.465
 281  2790.856
 282  2790.97
 283  2702.182
 284  2557.525
 285  3088.128
 286  3043.507
 287  2987.159
 288  3004.886
 289  3050.964
 290  3027.293
 291  3097.528
 292  2913.201
 293  2832.764
 294  2460.13
 295  2389.393
 296  2712.82
 297  2698.587
 298  3147.89
 299  2977.862
 300  3125.618
 301  3217.892
 302  2840.148
 303  2694.804
 304  2552.081
 305  2953.823
 306  2899.392
 307  3049.417
 308  2422.819
 309  2159.442
 310  2303.901
 311  2300.714
 312  2436.557
 313  2621.201
 314  3267.292
 315  3221.388
 316  3575.474
 317  2928.647
 318  3011.086
 319  2792.9
 320  2343.423
 321  2793.905
 322  3065.639
 323  3441.229
 324  3440.353
 325  3514.124
 326  3239.13
 327  2963.313
 328  2721.002
 329  2558.539
 330  2810.745
 331  3177.225
 332  3589.875
 333  3564.614
 334  3206.473
 335  3266.025
 336  3221.488
 337  2679.431
 338  2971.404
 339  3199.201
 340  2790.706
 341  2998.758
 342  3079.849
 343  3192.225
 344  2813.948
 345  2435.213
 346  2708.517
 347  3029.71
 348  3292.116
 349  3102.59
 350  2958.021
 351  3432.305
 352  3240.37
 353  2581.591
 354  2981.509
 355  2922.886
 356  2991.638
 357  3007.873
 358  2907.01
 359  2605.652
 360  2716.556
 361  2888.464
 362  2777.015
 363  2763.828
 364  2557.571
 365  2673.538
 366  2827.266
 367  3097.482
 368  2972.447
 369  2709.796
 370  2674.917
 371  2992.121
 372  3275.914
 373  2802.438
 374  2982.533
 375  2568.153
 376  2560.645
 377  2733.573
 378  2433.256
 379  2541.548
 380  2508.011
 381  3245.882
 382  2588.983
 383  2716.376
 384  2802.424
 385  2631.453
 386  2857.553
 387  2884.506
 388  3037.37
 389  2650.483
 390  2973.101
 391  2793.624
 392  2814.63
 393  2518.653
 394  2314.903
 395  2465.875
 396  3081.083
 397  3455.199
 398  3431.715
 399  3237.758
 400  2825.256
 401  3031.72
 402  3034.831
 403  3179.509
 404  3155.495
 405  3421.426
 406  3416.962
 407  3179.012
 408  3353.535
 409  3127.808
 410  2922.598
 411  2501.903
 412  2716.496
 413  3173.743
 414  3767.695
 415  3712.469
 416  3160.359
 417  3163.33
 418  2859.593
 419  2481.344
 420  2528.458
 421  2429.964
 422  2850.4
 423  3104.86
 424  3024.987
 425  3103.09
 426  2803.761
 427  2616.481
 428  2586.592
 429  2868.171
 430  3259.368
 431  3517.43
 432  3359.184
 433  3025.699
 434  3263.117
 435  3118.608
 436  2717.454
 437  2719.872
 438  2949.292
 439  2494.462
 440  2465.213
 441  3016.301
 442  2945.616
 443  2834.39
 444  2662.456
 445  2655.451
 446  2819.97
 447  3082.688
 448  3169.478
 449  2899.927
 450  3318.623
 451  2791.706
 452  2524.562
 453  2597.554
 454  2764.581
 455  3073.56
 456  2961.396
 457  3284.01
 458  2979.62
 459  2730.192
 460  2542.506
 461  2823.954
 462  2935.893
 463  3069.31
 464  3215.099
 465  3433.057
 466  3673.049
 467  3147.081
 468  2748.031
 469  2907.876
 470  3117.172
 471  3452.441
 472  3443.265
 473  3079.499
 474  2975.917
 475  2752.823
 476  2460.171
 477  2595.688
 478  3069.952
 479  3401.444
 480  3330.112
 481  3867.557
 482  3460.5
 483  3137.744
 484  3071.559
 485  2875.416
 486  2889.679
 487  3182.308
 488  3489.521
 489  3344.494
 490  2988.787
 491  2676.86
 492  2414.98
 493  2425.509
 494  2738.396
 495  3067.178
 496  3353.062
 497  3614.988
 498  3146.524
 499  2873.743
 500  2616.884
 501  2845.724
 502  2261.417
 503  2427.794
 504  2667.925
 505  3056.723
 506  3069.536
 507  3129.968
 508  3071.416
 509  2693.951
 510  2700.021
 511  2848.041
