# Input file       =  1181456923.122051-PSRB0329-2ms-sampling-dd.dat
# Candidate        =  PSR_0332+5434
# Telescope        =  AR
# Epoch_topo       =  57918.270163449663
# Epoch_bary       =  N/A
# T_sample         =  0.002
# Data Folded      =  7340032
# Data Avg         =  2.00338521441869e-10
# Data StdDev      =  17.332327233693  
# Profile Bins     =  512
# Profile Avg      =  -1.74848585312488
# Profile StdDev   =  2075.25216716578 
# Reduced chi-sqr  =  1.257
# Prob(Noise)      <  6.49e-05   (~3.8 sigma)
# P_topo (ms)      =  714.503919814615  +/- 0.00054
# P'_topo (s/s)    =  -0                +/- 2.85e-10
# P''_topo (s/s^2) =  0                 +/- 1.26e-13
# P_bary (ms)      =  N/A
# P'_bary (s/s)    =  N/A
# P''_bary (s/s^2) =  N/A
# P_orb (s)        =  N/A
# asin(i)/c (s)    =  N/A
# eccentricity     =  N/A
# w (rad)          =  N/A
# T_peri           =  N/A
######################################################
   0  -495.6512
   1  -199.1815
   2  -344.2774
   3  -519.3023
   4  -922.3447
   5  -805.0176
   6  -954.3503
   7  -1257.166
   8  -919.0523
   9  -1023.256
  10  -675.945
  11  -594.4279
  12  -774.8621
  13  -1139.935
  14  -1236.657
  15  -1405.252
  16  -1204.522
  17  -1491.283
  18  -1322.563
  19  -1353.432
  20  -1057.73
  21  -791.236
  22  -956.7886
  23  -712.5856
  24  -897.505
  25  -1307.249
  26  -686.7716
  27  -796.389
  28  -675.835
  29  -762.731
  30  -1222.026
  31  -1029.969
  32  -609.0049
  33  -174.3083
  34  75.96573
  35  -231.6151
  36  -1130.149
  37  -1436.207
  38  -1169.681
  39  -488.3213
  40  -265.0627
  41  -595.6143
  42  -581.145
  43  -640.068
  44  -762.9291
  45  -731.0084
  46  -973.5761
  47  -1298.837
  48  -1019.929
  49  -709.7495
  50  307.673
  51  -38.68307
  52  -333.6792
  53  -353.6638
  54  -645.3889
  55  -305.9143
  56  -525.5325
  57  -166.6934
  58  111.8941
  59  -279.6833
  60  -578.6411
  61  -577.7626
  62  -333.3477
  63  208.6798
  64  197.7649
  65  45.36999
  66  -954.293
  67  -577.921
  68  -380.8891
  69  107.895
  70  -146.1875
  71  -96.86057
  72  -629.2414
  73  -816.3421
  74  -1015.637
  75  -606.4521
  76  -296.5473
  77  268.074
  78  48.30718
  79  -216.4141
  80  -166.4005
  81  -144.4877
  82  -47.93839
  83  -176.6883
  84  -51.98285
  85  -54.39364
  86  194.8453
  87  -229.7789
  88  -148.6455
  89  -57.4631
  90  144.0429
  91  -159.0222
  92  -329.5556
  93  -570.6942
  94  -840.9144
  95  -497.0457
  96  -261.0667
  97  -255.9546
  98  145.4228
  99  326.9816
 100  214.5741
 101  -190.4103
 102  -595.5027
 103  -1078.503
 104  -786.3136
 105  -319.4052
 106  165.7539
 107  356.6698
 108  -310.3324
 109  -884.9492
 110  -1055.971
 111  -345.0406
 112  -209.3288
 113  -89.7573
 114  -335.8709
 115  -35.66531
 116  -767.1236
 117  -495.8049
 118  -94.54933
 119  481.5107
 120  650.3839
 121  654.9006
 122  640.8421
 123  297.8258
 124  -465.5328
 125  -568.7827
 126  -64.28548
 127  244.4917
 128  391.988
 129  180.6901
 130  -260.7043
 131  -516.6249
 132  -692.2707
 133  -231.0567
 134  -468.8602
 135  246.768
 136  773.7526
 137  283.1786
 138  -133.7219
 139  -741.7836
 140  -116.9443
 141  -109.8505
 142  16.81173
 143  8.636045
 144  -260.0097
 145  812.7825
 146  98.8083
 147  453.6888
 148  386.0276
 149  623.4073
 150  937.2487
 151  1191.025
 152  909.3371
 153  559.3019
 154  -67.57824
 155  -756.0922
 156  -160.5244
 157  -378.8507
 158  -147.1068
 159  -100.7362
 160  -49.36804
 161  -153.3565
 162  -362.6198
 163  -324.5598
 164  -563.9693
 165  -290.8812
 166  308.1433
 167  218.7145
 168  -462.6069
 169  -498.4185
 170  -671.9444
 171  -829.3585
 172  -515.2909
 173  246.0337
 174  167.5493
 175  -326.0952
 176  -542.3792
 177  -703.8898
 178  -339.8
 179  -208.6436
 180  27.46577
 181  385.9028
 182  499.008
 183  489.0896
 184  213.5718
 185  409.3378
 186  58.65438
 187  201.0645
 188  -145.424
 189  -401.2523
 190  -368.7515
 191  -508.9853
 192  -638.9452
 193  -467.5617
 194  -12.48474
 195  -97.75714
 196  411.799
 197  181.0764
 198  38.93447
 199  -649.9326
 200  -141.7655
 201  7.289928
 202  -72.68502
 203  -593.5248
 204  -1075.861
 205  -662.7344
 206  -360.0488
 207  -33.68198
 208  -155.9249
 209  -466.6908
 210  -156.851
 211  -236.3606
 212  222.2839
 213  238.6091
 214  305.6169
 215  338.4083
 216  58.24557
 217  -633.421
 218  -477.0385
 219  -405.8684
 220  -351.6351
 221  662.6594
 222  457.0322
 223  8.712713
 224  -491.506
 225  -538.5511
 226  -789.1177
 227  -640.4514
 228  192.0775
 229  -22.35329
 230  -274.2248
 231  -188.2718
 232  -307.2432
 233  -907.6105
 234  -689.6281
 235  175.5252
 236  225.4662
 237  463.456
 238  -299.3542
 239  -382.5036
 240  -342.7297
 241  -662.0695
 242  -561.9739
 243  -268.7723
 244  259.2863
 245  -122.9576
 246  -800.3085
 247  -429.2194
 248  -421.7864
 249  -800.5506
 250  -610.6847
 251  -544.9598
 252  -874.0152
 253  -910.9833
 254  -391.1936
 255  -351.5127
 256  -289.1471
 257  -157.1594
 258  -293.6483
 259  -198.9762
 260  -153.4915
 261  -105.9266
 262  -240.6244
 263  -61.75489
 264  -295.649
 265  -195.6726
 266  -302.6837
 267  367.7394
 268  83.61799
 269  -205.1313
 270  -313.6395
 271  -512.1414
 272  -667.7906
 273  -818.5654
 274  -616.6354
 275  -923.98
 276  -1032.815
 277  -561.0359
 278  -387.565
 279  -569.9852
 280  -572.239
 281  -787.6945
 282  -630.0153
 283  -326.445
 284  -283.5749
 285  -556.679
 286  -94.16718
 287  -412.9862
 288  -819.2023
 289  -849.188
 290  -699.4667
 291  -298.2264
 292  -381.0762
 293  -695.4661
 294  -868.1198
 295  -510.1915
 296  -357.4559
 297  -301.2208
 298  -421.425
 299  -482.1795
 300  -171.1274
 301  -374.6635
 302  -784.1308
 303  -630.6685
 304  -751.204
 305  -200.4875
 306  398.4135
 307  -49.59181
 308  -390.2238
 309  -679.168
 310  -763.2736
 311  -850.5122
 312  -457.3579
 313  621.8652
 314  453.9981
 315  -1.098443
 316  -1137.495
 317  -1434.552
 318  -1384.727
 319  -589.1464
 320  203.8781
 321  931.3746
 322  456.6687
 323  -171.305
 324  -962.3422
 325  -1155.274
 326  -278.8726
 327  812.4695
 328  939.9845
 329  664.5768
 330  380.9196
 331  177.4981
 332  -411.0464
 333  -40.60457
 334  385.9761
 335  566.0146
 336  10.51249
 337  -205.5044
 338  -351.5132
 339  -34.90608
 340  -160.399
 341  282.6263
 342  463.2304
 343  362.0672
 344  851.016
 345  671.5331
 346  435.9103
 347  450.1608
 348  251.0388
 349  58.6124
 350  415.7094
 351  589.124
 352  -42.93707
 353  -290.4302
 354  136.2267
 355  283.4298
 356  477.0049
 357  534.2809
 358  273.5766
 359  284.8634
 360  120.2254
 361  332.5833
 362  72.18143
 363  -72.44961
 364  172.8017
 365  192.2335
 366  259.9731
 367  426.5269
 368  -63.82394
 369  -27.06445
 370  198.3283
 371  86.04865
 372  10.69499
 373  336.6811
 374  227.6918
 375  -367.0583
 376  38.84454
 377  -354.6546
 378  168.837
 379  97.63029
 380  617.2216
 381  638.1536
 382  563.1704
 383  303.8425
 384  31.24595
 385  -335.6219
 386  -694.0797
 387  -605.3177
 388  -428.9244
 389  -186.6569
 390  -284.1468
 391  52.27797
 392  -228.1226
 393  -530.8285
 394  -630.6431
 395  -470.5433
 396  79.2645
 397  289.9686
 398  215.7596
 399  -133.0719
 400  -782.6571
 401  -882.577
 402  -203.2024
 403  482.0464
 404  304.92
 405  40.18016
 406  11.92175
 407  -606.6407
 408  -536.5987
 409  155.5773
 410  -41.19852
 411  216.9456
 412  -122.7032
 413  -274.3484
 414  1458.466
 415  3003.975
 416  3744.78
 417  7324.499
 418  5705.291
 419  3389.089
 420  -181.9951
 421  9654.8
 422  17225.47
 423  20795.41
 424  16336.1
 425  10802.47
 426  1532.476
 427  -312.4774
 428  -313.62
 429  -132.007
 430  478.1957
 431  203.8949
 432  387.2828
 433  -200.8997
 434  45.47878
 435  -3.649078
 436  116.3853
 437  -325.678
 438  -664.6461
 439  372.05
 440  665.078
 441  352.0193
 442  32.08234
 443  -239.4682
 444  -397.0721
 445  -421.4308
 446  -453.9833
 447  -274.4574
 448  -551.8174
 449  -186.9281
 450  356.7319
 451  -219.5594
 452  -538.5322
 453  -542.7706
 454  116.0719
 455  147.3598
 456  579.3216
 457  268.1031
 458  180.1532
 459  372.5773
 460  396.048
 461  301.2457
 462  423.4778
 463  374.0016
 464  187.9741
 465  189.2504
 466  -76.20467
 467  -115.6832
 468  -257.739
 469  -144.8051
 470  -239.4087
 471  201.859
 472  183.4711
 473  294.9949
 474  451.879
 475  495.8089
 476  169.1398
 477  -231.867
 478  -230.5826
 479  -66.75146
 480  424.5706
 481  977.4269
 482  750.4526
 483  436.5041
 484  109.4004
 485  -88.59328
 486  -233.8528
 487  277.834
 488  602.5992
 489  618.3748
 490  5.263175
 491  -527.5086
 492  -957.4188
 493  -684.9355
 494  -119.1788
 495  -169.7765
 496  -716.2476
 497  -672.874
 498  -384.8344
 499  -306.92
 500  -100.7406
 501  206.4961
 502  193.5147
 503  88.34328
 504  -169.3886
 505  -468.4081
 506  -93.93895
 507  -295.2956
 508  -687.6646
 509  -178.6657
 510  -154.9854
 511  -311.9486
