# Input file       =  1181112274.121032-PSRB0329-2ms-sampling-dd.dat
# Candidate        =  PSR_0332+5434
# Telescope        =  AR
# Epoch_topo       =  57914.281170382317
# Epoch_bary       =  N/A
# T_sample         =  0.002
# Data Folded      =  7340032
# Data Avg         =  -5.86668750600943e-10
# Data StdDev      =  3.39216346760849 
# Profile Bins     =  512
# Profile Avg      =  -0.115699849710619
# Profile StdDev   =  406.154031863104 
# Reduced chi-sqr  =  0.670
# Prob(Noise)      <  1   (~0.0 sigma)
# P_topo (ms)      =  714.507657082862  +/- 0.000665
# P'_topo (s/s)    =  -0                +/- 3.51e-10
# P''_topo (s/s^2) =  0                 +/- 1.55e-13
# P_bary (ms)      =  N/A
# P'_bary (s/s)    =  N/A
# P''_bary (s/s^2) =  N/A
# P_orb (s)        =  N/A
# asin(i)/c (s)    =  N/A
# eccentricity     =  N/A
# w (rad)          =  N/A
# T_peri           =  N/A
######################################################
   0  -113.6833
   1  -179.2238
   2  -191.6812
   3  36.00245
   4  -245.379
   5  18.04394
   6  37.86333
   7  80.94958
   8  66.87923
   9  218.0966
  10  368.9084
  11  307.1295
  12  275.1647
  13  171.3769
  14  61.71529
  15  -119.7756
  16  -188.0118
  17  -82.57778
  18  -221.6472
  19  -80.44029
  20  -72.33094
  21  -353.1342
  22  -277.3329
  23  -277.4389
  24  -63.8894
  25  -71.85589
  26  -62.84869
  27  5.407791
  28  -96.37031
  29  -114.3446
  30  -450.9247
  31  -367.0096
  32  -122.2657
  33  -223.2798
  34  -453.8806
  35  -617.2783
  36  -283.3417
  37  -399.9542
  38  -140.9071
  39  -147.1262
  40  -388.877
  41  -304.128
  42  41.14846
  43  -56.95692
  44  -55.57185
  45  -3.359981
  46  3.958413
  47  -57.93166
  48  -264.0078
  49  -146.9028
  50  151.9404
  51  136.9159
  52  72.2466
  53  -117.7389
  54  -256.8725
  55  -279.283
  56  -43.98848
  57  159.8987
  58  147.2178
  59  -112.0744
  60  -265.2318
  61  -416.8195
  62  -395.5012
  63  -392.5723
  64  -579.5046
  65  -171.4489
  66  -167.4956
  67  -266.995
  68  -143.7895
  69  -405.7662
  70  -110.69
  71  48.23458
  72  -175.1535
  73  -243.5668
  74  -289.4331
  75  -472.4826
  76  -412.3804
  77  -267.1282
  78  204.3877
  79  168.1316
  80  36.36172
  81  201.7323
  82  3.139347
  83  -182.7134
  84  -16.83233
  85  -79.63029
  86  -0.7825587
  87  34.54012
  88  110.7733
  89  -14.13395
  90  88.38713
  91  82.00964
  92  303.2378
  93  434.994
  94  530.4913
  95  342.7975
  96  -148.8861
  97  -19.35486
  98  -98.99957
  99  -101.4859
 100  105.5471
 101  251.4446
 102  -133.8556
 103  -127.2751
 104  -288.6238
 105  -438.6304
 106  -279.9378
 107  -390.2177
 108  -181.7634
 109  1.582773
 110  -194.9585
 111  -305.765
 112  -184.5873
 113  -483.1922
 114  -193.179
 115  -194.3195
 116  -208.4707
 117  -286.1487
 118  -183.5446
 119  -25.41436
 120  -47.21211
 121  92.35463
 122  266.9398
 123  98.72446
 124  189.174
 125  290.0522
 126  157.924
 127  110.0726
 128  326.5706
 129  114.6451
 130  82.2669
 131  31.82894
 132  -144.1549
 133  18.88682
 134  233.7656
 135  116.0825
 136  17.86106
 137  -217.0223
 138  -111.5682
 139  146.4177
 140  90.09024
 141  133.0303
 142  371.0244
 143  288.3296
 144  190.4659
 145  108.2488
 146  141.3637
 147  248.0303
 148  127.1732
 149  166.8936
 150  -44.39584
 151  -218.7082
 152  -198.1911
 153  30.97017
 154  111.376
 155  -233.8511
 156  -278.6745
 157  -142.0655
 158  -32.40872
 159  54.75393
 160  514.965
 161  688.8495
 162  536.2299
 163  137.0972
 164  140.9605
 165  332.0515
 166  144.4478
 167  284.5799
 168  454.5507
 169  31.90926
 170  -329.5084
 171  -157.5691
 172  122.2661
 173  -189.4608
 174  -304.3102
 175  -262.2197
 176  -99.27386
 177  -142.5876
 178  -261.4825
 179  -154.9489
 180  -180.3921
 181  -72.31821
 182  -251.198
 183  -128.346
 184  3.630921
 185  -114.3147
 186  137.1597
 187  487.9586
 188  407.5823
 189  63.91876
 190  148.8647
 191  219.066
 192  288.9981
 193  117.4694
 194  221.5641
 195  513.0901
 196  507.2408
 197  270.6409
 198  114.9125
 199  68.26125
 200  411.2798
 201  351.1133
 202  198.3098
 203  77.18742
 204  35.72101
 205  212.1217
 206  209.8054
 207  -77.68864
 208  -2.461951
 209  308.4199
 210  390.2099
 211  174.8267
 212  -84.81274
 213  84.51363
 214  25.60301
 215  247.2386
 216  594.2807
 217  873.1627
 218  1151.406
 219  983.4964
 220  669.3353
 221  700.8413
 222  461.9371
 223  -195.8128
 224  -96.57039
 225  -164.8068
 226  -42.30779
 227  -133.5876
 228  -190.4328
 229  -291.8576
 230  -11.81309
 231  -41.35966
 232  100.3749
 233  -27.44898
 234  75.09853
 235  65.70453
 236  190.6845
 237  19.93237
 238  -56.13027
 239  -258.7007
 240  -467.0046
 241  -360.9637
 242  -441.4521
 243  -355.1596
 244  -333.3831
 245  -185.9612
 246  -7.477189
 247  -342.8286
 248  -411.1981
 249  -402.2169
 250  -371.9748
 251  -272.2533
 252  -183.0209
 253  -73.3775
 254  -227.1115
 255  -61.40725
 256  14.5889
 257  94.19826
 258  -28.70078
 259  98.41836
 260  -5.954039
 261  -168.2243
 262  -243.298
 263  -100.0996
 264  -245.0205
 265  -331.4685
 266  -386.9786
 267  164.9684
 268  -16.19634
 269  51.99162
 270  75.70932
 271  71.11229
 272  13.02851
 273  19.9662
 274  -263.6726
 275  -12.30235
 276  -145.2366
 277  -14.72174
 278  -25.39215
 279  -55.61842
 280  125.8954
 281  -106.764
 282  51.77108
 283  7.958336
 284  131.5457
 285  254.863
 286  89.6527
 287  -144.642
 288  14.80623
 289  52.88035
 290  -42.42056
 291  -125.551
 292  -15.96571
 293  -236.6644
 294  -401.2585
 295  -238.6875
 296  155.1445
 297  27.87551
 298  -204.9494
 299  -155.7069
 300  -90.24117
 301  4.743853
 302  -32.27549
 303  -115.9336
 304  47.81612
 305  99.38836
 306  96.87357
 307  221.6935
 308  2.114397
 309  135.7173
 310  511.4755
 311  87.57401
 312  7.290622
 313  10.88309
 314  128.9466
 315  -116.2615
 316  -119.2503
 317  -162.0562
 318  -3.471216
 319  129.7659
 320  136.5889
 321  -58.68092
 322  -125.8834
 323  -146.5525
 324  -187.012
 325  21.44028
 326  -7.692978
 327  -135.2429
 328  -373.9994
 329  -266.9142
 330  1.512692
 331  343.8164
 332  67.36948
 333  -245.878
 334  -254.9741
 335  -121.1384
 336  -223.7861
 337  -179.881
 338  -64.16599
 339  61.66842
 340  275.8567
 341  116.2992
 342  -224.8735
 343  39.5812
 344  -50.97431
 345  -386.2339
 346  -439.4321
 347  -132.3186
 348  -97.77419
 349  -64.1531
 350  1.539077
 351  214.089
 352  80.59866
 353  41.59804
 354  117.569
 355  323.9551
 356  109.5232
 357  10.3156
 358  313.9772
 359  623.9665
 360  534.863
 361  585.7567
 362  673.4721
 363  300.093
 364  177.4085
 365  27.89933
 366  -21.22392
 367  195.3378
 368  391.3124
 369  438.4876
 370  235.8312
 371  84.87572
 372  -8.866067
 373  -5.825284
 374  -42.92873
 375  -53.4184
 376  -17.8162
 377  -109.1193
 378  32.61868
 379  205.2311
 380  38.39897
 381  47.4225
 382  -13.64464
 383  187.5296
 384  193.7592
 385  241.7318
 386  529.5258
 387  508.7879
 388  404.9955
 389  433.7498
 390  125.5198
 391  -86.74148
 392  106.1632
 393  117.4369
 394  177.0069
 395  121.788
 396  -213.7594
 397  -69.51163
 398  -182.3242
 399  9.923269
 400  -21.30859
 401  -103.8638
 402  113.2103
 403  -22.31101
 404  -139.9138
 405  -64.78378
 406  -139.3192
 407  -182.9102
 408  134.754
 409  56.75811
 410  -319.1797
 411  -247.234
 412  -264.3908
 413  -174.8183
 414  244.2341
 415  471.3378
 416  343.6229
 417  297.2195
 418  360.127
 419  1.04696
 420  209.6949
 421  379.9034
 422  323.2707
 423  204.2779
 424  -146.3432
 425  -302.586
 426  56.55082
 427  269.5325
 428  108.9617
 429  228.36
 430  62.07678
 431  -97.34606
 432  -173.1682
 433  -2.83799
 434  47.63939
 435  15.27099
 436  89.59
 437  -65.86749
 438  205.0145
 439  32.33626
 440  -100.8638
 441  170.504
 442  152.4996
 443  39.33399
 444  -152.6071
 445  -188.2306
 446  -340.9845
 447  -487.3505
 448  -370.0772
 449  -380.5395
 450  -117.3315
 451  -216.2239
 452  -414.4445
 453  -184.7796
 454  -199.4729
 455  -137.4261
 456  73.82501
 457  -69.25404
 458  -0.113508
 459  -301.9825
 460  -422.0174
 461  -135.0739
 462  -213.7367
 463  245.8172
 464  209.8608
 465  140.0853
 466  290.0983
 467  416.8768
 468  243.0557
 469  205.1188
 470  450.4897
 471  261.426
 472  -175.1075
 473  -94.35208
 474  -137.272
 475  138.2502
 476  -14.45827
 477  -216.8258
 478  -8.438955
 479  -28.56431
 480  108.9227
 481  28.89217
 482  -133.8625
 483  -104.1275
 484  -370.4478
 485  -224.3474
 486  101.7518
 487  277.0061
 488  86.43227
 489  -182.9951
 490  -351.4081
 491  -111.3944
 492  156.2116
 493  16.91092
 494  214.6295
 495  -162.2116
 496  92.53408
 497  -169.391
 498  -171.2415
 499  -5.895841
 500  206.039
 501  -32.50941
 502  -7.705727
 503  53.23607
 504  -232.7053
 505  60.704
 506  -83.08106
 507  127.0931
 508  307.3061
 509  102.632
 510  -98.16246
 511  -37.28897
