# Input file       =  1181528503.117767-PSRB0329-2ms-sampling-dd.dat
# Candidate        =  PSR_0332+5434
# Telescope        =  AR
# Epoch_topo       =  57919.098635622307
# Epoch_bary       =  N/A
# T_sample         =  0.002
# Data Folded      =  7208960
# Data Avg         =  -2.53066913510824e-10
# Data StdDev      =  5.81257008866306 
# Profile Bins     =  512
# Profile Avg      =  0.0293153504517926
# Profile StdDev   =  689.714775962888 
# Reduced chi-sqr  =  0.549
# Prob(Noise)      <  1   (~0.0 sigma)
# P_topo (ms)      =  714.503141343447  +/- 6.25e-05
# P'_topo (s/s)    =  -0                +/- 3.36e-11
# P''_topo (s/s^2) =  0                 +/- 1.51e-14
# P_bary (ms)      =  N/A
# P'_bary (s/s)    =  N/A
# P''_bary (s/s^2) =  N/A
# P_orb (s)        =  N/A
# asin(i)/c (s)    =  N/A
# eccentricity     =  N/A
# w (rad)          =  N/A
# T_peri           =  N/A
######################################################
   0  -66.3756
   1  -274.1242
   2  6.064887
   3  279.5289
   4  213.6219
   5  38.82854
   6  58.81876
   7  448.0229
   8  -79.78757
   9  -143.8984
  10  189.5895
  11  123.827
  12  72.06816
  13  -45.17333
  14  438.955
  15  169.1536
  16  56.95171
  17  -27.78879
  18  -406.6134
  19  -64.03309
  20  63.90185
  21  266.2496
  22  197.8331
  23  116.9145
  24  -268.4718
  25  -503.1243
  26  -601.2324
  27  -778.4136
  28  -172.8503
  29  108.3002
  30  440.6167
  31  229.1951
  32  75.39751
  33  -625.6008
  34  -925.2078
  35  -971.7564
  36  -892.9724
  37  -416.9607
  38  123.7339
  39  167.0865
  40  106.7831
  41  110.9618
  42  -269.5074
  43  -398.8531
  44  118.3369
  45  -550.5588
  46  -453.8095
  47  -109.1315
  48  24.61164
  49  441.2283
  50  148.3783
  51  -79.87177
  52  -188.8944
  53  -193.4331
  54  -93.99078
  55  -108.3429
  56  72.1262
  57  131.7037
  58  40.59575
  59  -262.2275
  60  -21.79486
  61  -349.2663
  62  -346.0829
  63  107.3411
  64  581.6021
  65  500.9698
  66  450.8244
  67  267.7409
  68  8.674727
  69  -146.1301
  70  -345.7603
  71  -36.33354
  72  297.5288
  73  357.8412
  74  597.2645
  75  69.61868
  76  108.8671
  77  -191.0387
  78  -468.7575
  79  -274.4996
  80  142.7762
  81  681.9438
  82  630.328
  83  529.6417
  84  88.92158
  85  33.9565
  86  63.14323
  87  306.5148
  88  531.8477
  89  316.6392
  90  764.4171
  91  287.0276
  92  12.53222
  93  81.49686
  94  364.9231
  95  91.0128
  96  -208.1883
  97  466.5729
  98  276.2715
  99  -241.3964
 100  -455.1771
 101  -294.79
 102  -202.4401
 103  75.17083
 104  378.5879
 105  324.4045
 106  83.29139
 107  -345.3182
 108  -163.6387
 109  -223.4747
 110  289.6383
 111  341.6835
 112  774.0493
 113  655.9041
 114  503.4214
 115  358.0305
 116  -74.93654
 117  -211.2247
 118  -206.0784
 119  -193.0975
 120  33.17361
 121  -52.54828
 122  196.5097
 123  29.16706
 124  -292.4931
 125  -397.9044
 126  -213.5125
 127  435.1781
 128  501.7999
 129  774.2446
 130  1378.386
 131  1034.743
 132  661.2351
 133  47.50516
 134  -217.5813
 135  -676.577
 136  -218.145
 137  -177.5825
 138  120.6743
 139  283.1767
 140  18.76759
 141  -343.3704
 142  -551.3135
 143  -391.9956
 144  -830.8816
 145  -628.6232
 146  209.0791
 147  447.5469
 148  241.209
 149  -43.97229
 150  -283.531
 151  -608.6312
 152  -582.4583
 153  -617.1864
 154  -482.7559
 155  151.5308
 156  -203.9528
 157  16.24417
 158  -281.3669
 159  -314.7562
 160  -631.3016
 161  -672.0938
 162  -142.866
 163  -15.08077
 164  312.3253
 165  276.546
 166  315.7486
 167  150.3564
 168  -272.5733
 169  -663.7609
 170  -480.8065
 171  -374.0104
 172  -245.4892
 173  -186.9226
 174  -627.8356
 175  -387.8604
 176  -308.6184
 177  -453.4049
 178  -475.9793
 179  -225.4671
 180  -311.6271
 181  -53.54543
 182  -8.844934
 183  -457.5796
 184  -513.6812
 185  -368.4812
 186  -398.6345
 187  -148.9063
 188  -101.5142
 189  -267.7956
 190  -598.1665
 191  -618.4313
 192  -650.1246
 193  -872.7568
 194  -512.7917
 195  -385.0214
 196  -227.2561
 197  -55.42353
 198  -141.3204
 199  -155.7017
 200  -614.147
 201  -518.3581
 202  -331.7945
 203  -169.322
 204  -394.1135
 205  -141.168
 206  -253.2305
 207  -322.5753
 208  -52.84218
 209  121.9855
 210  -228.718
 211  -277.8022
 212  70.91592
 213  321.0635
 214  144.5838
 215  -339.3888
 216  -465.2268
 217  -585.5778
 218  -389.8343
 219  -683.9468
 220  -610.9116
 221  -31.68594
 222  155.3395
 223  110.9321
 224  39.77105
 225  -337.2149
 226  -300.1608
 227  -473.3751
 228  -183.8114
 229  273.4299
 230  568.7349
 231  463.3677
 232  114.0511
 233  219.8813
 234  -71.81706
 235  -303.4787
 236  -602.8821
 237  -98.47053
 238  569.3272
 239  391.7565
 240  232.7353
 241  264.1935
 242  51.4792
 243  -191.1993
 244  -128.9765
 245  -192.0104
 246  160.5771
 247  431.6143
 248  709.8425
 249  213.6248
 250  -108.6526
 251  -224.8885
 252  -472.4799
 253  -415.9044
 254  -290.293
 255  271.6986
 256  215.6898
 257  -440.2071
 258  -179.5895
 259  -456.7163
 260  -476.824
 261  24.40374
 262  153.2789
 263  291.1942
 264  154.6339
 265  141.7803
 266  -225.2357
 267  -268.4873
 268  115.1975
 269  63.90625
 270  342.7944
 271  621.3826
 272  407.1749
 273  -87.58938
 274  -230.5564
 275  -242.7143
 276  -314.9035
 277  21.30872
 278  401.4735
 279  290.9948
 280  -23.70571
 281  147.8897
 282  0.08623563
 283  47.14989
 284  -300.108
 285  -281.004
 286  -315.9226
 287  -189.4285
 288  -82.28419
 289  -610.4426
 290  -261.4443
 291  -92.72319
 292  -265.1552
 293  -363.5198
 294  -195.5224
 295  528.4968
 296  791.2007
 297  659.7625
 298  -64.81985
 299  -226.8592
 300  -115.057
 301  -81.01762
 302  205.1449
 303  717.9246
 304  998.5388
 305  630.3837
 306  -32.72605
 307  59.75944
 308  244.8789
 309  235.1433
 310  505.3542
 311  949.8676
 312  1014.29
 313  708.9481
 314  690.2953
 315  353.4336
 316  348.1786
 317  312.1033
 318  137.2521
 319  115.2296
 320  513.3527
 321  497.7894
 322  71.93327
 323  -134.9298
 324  -47.38311
 325  79.71345
 326  -186.4217
 327  4.462121
 328  97.28147
 329  458.9854
 330  529.0951
 331  38.54372
 332  -32.23427
 333  17.71199
 334  61.9365
 335  -26.80079
 336  -42.66846
 337  515.1371
 338  670.9411
 339  284.2099
 340  29.31368
 341  193.9067
 342  122.9457
 343  127.7573
 344  573.6036
 345  407.8358
 346  520.8753
 347  274.6047
 348  -23.78249
 349  -360.1296
 350  -51.09867
 351  -38.61984
 352  51.48651
 353  169.4842
 354  -301.5235
 355  -277.0699
 356  -248.8996
 357  -339.2776
 358  -293.7499
 359  -372.7223
 360  -476.9538
 361  -230.8855
 362  292.0708
 363  14.08652
 364  -8.20431
 365  131.7109
 366  127.1763
 367  -99.82465
 368  46.05058
 369  254.968
 370  141.3057
 371  237.8194
 372  -234.0077
 373  137.7376
 374  -18.50632
 375  -262.4451
 376  31.43705
 377  581.8792
 378  975.3365
 379  620.6603
 380  -84.8917
 381  -193.7482
 382  -280.6085
 383  71.88622
 384  166.7829
 385  671.8018
 386  583.5355
 387  315.0536
 388  149.9631
 389  59.80739
 390  -104.0848
 391  -286.9493
 392  112.5597
 393  158.7529
 394  480.0984
 395  300.3249
 396  133.1881
 397  -114.7507
 398  -302.4458
 399  395.7695
 400  4.624695
 401  -376.703
 402  -329.9741
 403  353.566
 404  409.5828
 405  -101.8759
 406  -83.86336
 407  -73.46647
 408  -292.7173
 409  -450.8816
 410  3.747158
 411  578.4908
 412  551.6826
 413  906.2622
 414  446.4329
 415  125.6397
 416  -322.6525
 417  64.39326
 418  348.9138
 419  422.397
 420  489.5472
 421  -343.006
 422  -417.3203
 423  -388.5033
 424  183.2993
 425  120.2457
 426  369.2234
 427  475.4637
 428  361.8087
 429  613.0597
 430  208.6394
 431  368.2643
 432  174.4241
 433  462.374
 434  -11.14996
 435  -81.41758
 436  123.3647
 437  204.1946
 438  -245.9214
 439  -261.0264
 440  441.0238
 441  -203.4943
 442  -365.253
 443  418.3026
 444  454.0695
 445  469.7735
 446  202.9029
 447  348.5777
 448  226.8275
 449  472.2754
 450  782.3504
 451  508.9474
 452  507.5739
 453  161.7017
 454  9.17783
 455  -126.7692
 456  -54.59986
 457  204.503
 458  74.44088
 459  203.1353
 460  396.9158
 461  458.2017
 462  333.8023
 463  -549.192
 464  -349.9295
 465  -304.4455
 466  -282.518
 467  95.57735
 468  234.0291
 469  162.8345
 470  -1.861459
 471  -439.9699
 472  -477.7414
 473  -250.1238
 474  -63.14074
 475  -290.3663
 476  165.625
 477  537.1159
 478  238.9487
 479  17.8511
 480  -284.4506
 481  -267.7449
 482  -449.3479
 483  -761.4877
 484  -598.3049
 485  -127.1516
 486  29.30887
 487  202.0936
 488  -419.0246
 489  -801.6919
 490  -929.9835
 491  -498.4904
 492  -264.5313
 493  -251.5537
 494  39.89772
 495  217.9818
 496  149.9523
 497  -108.3698
 498  -229.8231
 499  -372.0944
 500  -169.7517
 501  -23.18793
 502  113.1743
 503  -287.267
 504  -678.57
 505  -783.4005
 506  -561.8963
 507  -472.103
 508  -441.5166
 509  235.4444
 510  451.4476
 511  -66.15984
