# Input file       =  1181183852.10865_cleaned.dat
# Candidate        =  PSR_0332+5434
# Telescope        =  AR
# Epoch_topo       =  57915.109619313080
# Epoch_bary       =  N/A
# T_sample         =  0.002
# Data Folded      =  7143424
# Data Avg         =  0.0286019501727496
# Data StdDev      =  1.00005592969384 
# Profile Bins     =  512
# Profile Avg      =  399.073320891756 
# Profile StdDev   =  118.125190818134 
# Reduced chi-sqr  =  0.979
# Prob(Noise)      <  0.623   (~0.0 sigma)
# P_topo (ms)      =  714.506864171098  +/- 0.000384
# P'_topo (s/s)    =  -0                +/- 2.08e-10
# P''_topo (s/s^2) =  0                 +/- 9.45e-14
# P_bary (ms)      =  N/A
# P'_bary (s/s)    =  N/A
# P''_bary (s/s^2) =  N/A
# P_orb (s)        =  N/A
# asin(i)/c (s)    =  N/A
# eccentricity     =  N/A
# w (rad)          =  N/A
# T_peri           =  N/A
######################################################
   0  874.0203
   1  864.7546
   2  778.6612
   3  592.9581
   4  501.95
   5  546.0077
   6  489.1935
   7  484.043
   8  465.9455
   9  451.1296
  10  386.8495
  11  404.6344
  12  512.2818
  13  541.4301
  14  484.5813
  15  515.8066
  16  414.3135
  17  454.1747
  18  575.8017
  19  537.2816
  20  485.9579
  21  459.1833
  22  311.116
  23  416.674
  24  458.8069
  25  493.5108
  26  458.8614
  27  448.9399
  28  443.5103
  29  449.4012
  30  530.5621
  31  474.8736
  32  255.368
  33  384.4783
  34  499.8772
  35  439.9897
  36  496.7323
  37  395.0041
  38  384.3113
  39  475.3211
  40  420.2716
  41  407.9177
  42  509.4295
  43  559.1946
  44  466.7192
  45  470.9741
  46  484.4021
  47  336.221
  48  255.8641
  49  309.3197
  50  425.3698
  51  386.1086
  52  300.8895
  53  366.4439
  54  352.3256
  55  334.9742
  56  353.8075
  57  404.7086
  58  254.999
  59  234.6214
  60  393.6938
  61  404.9417
  62  445.3457
  63  435.971
  64  396.4971
  65  361.656
  66  417.4139
  67  445.1907
  68  478.5618
  69  452.2632
  70  425.0146
  71  393.1361
  72  339.9859
  73  258.4643
  74  271.7586
  75  329.4064
  76  431.0845
  77  423.3357
  78  462.5984
  79  425.378
  80  334.2215
  81  415.5636
  82  371.2034
  83  370.1554
  84  381.4141
  85  498.8223
  86  353.7661
  87  345.3988
  88  327.0433
  89  316.0045
  90  266.31
  91  368.2328
  92  506.3853
  93  479.5411
  94  343.4731
  95  356.5704
  96  393.3559
  97  425.7804
  98  448.4024
  99  509.2163
 100  455.5429
 101  452.9933
 102  410.3655
 103  406.0664
 104  425.7779
 105  398.9413
 106  442.3107
 107  495.1551
 108  436.2503
 109  417.9175
 110  477.6935
 111  461.4351
 112  386.5246
 113  339.7803
 114  425.2122
 115  415.8603
 116  387.2738
 117  430.0863
 118  343.1704
 119  386.6165
 120  362.3199
 121  408.3507
 122  465.7486
 123  313.5732
 124  286.1941
 125  393.1602
 126  392.7467
 127  475.4386
 128  408.5632
 129  389.1429
 130  303.0979
 131  394.8907
 132  400.2608
 133  434.5908
 134  426.8516
 135  361.5478
 136  296.4603
 137  351.2535
 138  365.511
 139  372.3409
 140  419.455
 141  419.9112
 142  512.8074
 143  385.313
 144  300.2721
 145  327.7277
 146  370.736
 147  302.9991
 148  346.5521
 149  339.4004
 150  399.8249
 151  447.6943
 152  362.3497
 153  413.0113
 154  422.0062
 155  439.176
 156  380.1906
 157  325.3304
 158  327.2485
 159  447.3788
 160  488.755
 161  468.3816
 162  446.4156
 163  480.709
 164  408.5202
 165  337.2228
 166  426.1597
 167  485.8772
 168  527.9781
 169  464.9937
 170  405.8848
 171  409.4106
 172  504.7466
 173  477.6496
 174  394.9479
 175  391.0283
 176  509.1338
 177  575.5908
 178  491.739
 179  409.1737
 180  467.2342
 181  424.2745
 182  321.9467
 183  417.7437
 184  352.7706
 185  298.1385
 186  334.8428
 187  359.8822
 188  371.702
 189  332.8307
 190  259.4739
 191  128.3934
 192  192.2115
 193  328.2233
 194  364.2439
 195  391.3958
 196  491.0342
 197  387.2986
 198  376.0811
 199  343.1124
 200  331.591
 201  346.9505
 202  456.6782
 203  414.3471
 204  469.2894
 205  358.2326
 206  292.7787
 207  382.4512
 208  372.3733
 209  383.5508
 210  399.977
 211  444.1342
 212  382.9109
 213  230.9914
 214  225.0232
 215  409.8267
 216  462.6083
 217  321.2061
 218  418.7463
 219  297.0254
 220  232.254
 221  351.4346
 222  283.1664
 223  336.926
 224  335.4351
 225  290.7617
 226  349.1261
 227  487.8672
 228  396.8345
 229  249.7331
 230  280.8088
 231  286.5286
 232  390.3655
 233  421.8723
 234  356.9196
 235  328.4825
 236  387.8248
 237  266.9797
 238  316.7437
 239  453.225
 240  503.6363
 241  399.5936
 242  411.9424
 243  464.4587
 244  419.083
 245  500.9793
 246  468.799
 247  385.9051
 248  313.0459
 249  346.759
 250  323.3254
 251  375.1097
 252  349.4519
 253  373.182
 254  446.1103
 255  461.3571
 256  411.4872
 257  432.325
 258  438.5825
 259  425.3252
 260  544.3954
 261  563.1746
 262  401.2199
 263  467.8054
 264  460.2737
 265  348.0887
 266  311.514
 267  409.9956
 268  470.2723
 269  401.9461
 270  454.0063
 271  474.2508
 272  394.7621
 273  445.6346
 274  321.5726
 275  341.6584
 276  343.6863
 277  300.8846
 278  349.2719
 279  305.5662
 280  279.9039
 281  247.0518
 282  312.3172
 283  423.2963
 284  486.1085
 285  458.9648
 286  339.7787
 287  317.4808
 288  241.7918
 289  385.4997
 290  314.7921
 291  396.9721
 292  412.2401
 293  451.1883
 294  466.3516
 295  345.1888
 296  323.4174
 297  330.4933
 298  356.1259
 299  372.9763
 300  400.4852
 301  403.1764
 302  438.7173
 303  398.2394
 304  376.1024
 305  402.976
 306  412.1149
 307  319.3026
 308  374.5333
 309  312.1411
 310  261.3883
 311  285.4351
 312  410.5384
 313  491.6268
 314  475.461
 315  511.2668
 316  457.3753
 317  440.7673
 318  493.2532
 319  538.3778
 320  507.9423
 321  423.1325
 322  399.3931
 323  229.4466
 324  337.4431
 325  388.5594
 326  422.7697
 327  498.5962
 328  464.6301
 329  435.1176
 330  455.0892
 331  588.3217
 332  572.4235
 333  389.357
 334  474.2531
 335  402.019
 336  509.8778
 337  441.1776
 338  305.5688
 339  313.07
 340  431.4841
 341  509.3506
 342  444.5149
 343  322.9224
 344  307.3434
 345  369.7701
 346  469.4512
 347  390.9953
 348  506.4524
 349  442.9718
 350  427.7384
 351  390.2082
 352  423.4141
 353  408.6448
 354  327.8898
 355  335.7302
 356  306.0813
 357  409.001
 358  424.7061
 359  413.9137
 360  347.1634
 361  327.6706
 362  345.0247
 363  237.2979
 364  314.3153
 365  386.6669
 366  361.2736
 367  409.4309
 368  468.7535
 369  352.9147
 370  260.2433
 371  349.7954
 372  445.4966
 373  286.2091
 374  275.4951
 375  413.5768
 376  479.4994
 377  526.0884
 378  375.384
 379  362.5152
 380  415.4661
 381  391.7038
 382  342.8634
 383  332.3849
 384  336.9224
 385  361.0376
 386  438.3006
 387  505.3231
 388  431.3965
 389  375.6421
 390  363.997
 391  434.2242
 392  415.9843
 393  395.9016
 394  260.7578
 395  343.7632
 396  462.2852
 397  445.178
 398  555.3981
 399  452.3154
 400  426.3812
 401  412.386
 402  317.0755
 403  367.2
 404  369.0295
 405  390.1089
 406  348.2147
 407  404.6735
 408  348.3621
 409  504.5695
 410  503.9365
 411  449.5911
 412  399.2863
 413  378.8658
 414  338.5925
 415  275.6701
 416  332.6857
 417  356.5544
 418  362.6284
 419  251.574
 420  261.9053
 421  262.3484
 422  339.9293
 423  509.1645
 424  408.3382
 425  335.3411
 426  327.4493
 427  305.9522
 428  298.3809
 429  351.5238
 430  403.9872
 431  488.7151
 432  418.6654
 433  249.8511
 434  208.486
 435  142.0441
 436  281.7578
 437  447.3454
 438  397.8242
 439  398.7357
 440  249.8824
 441  374.826
 442  390.2231
 443  364.989
 444  364.9477
 445  352.8432
 446  392.5728
 447  305.4416
 448  378.757
 449  361.9909
 450  425.9065
 451  371.6924
 452  368.4895
 453  372.3106
 454  423.9846
 455  383.7383
 456  471.9913
 457  560.9708
 458  452.7645
 459  354.8784
 460  332.2674
 461  350.4167
 462  380.5744
 463  417.2631
 464  485.3197
 465  454.2139
 466  403.6256
 467  448.0072
 468  405.837
 469  480.3628
 470  457.0325
 471  453.3288
 472  441.106
 473  334.7285
 474  232.2913
 475  264.5224
 476  394.5881
 477  458.6459
 478  350.7166
 479  343.3994
 480  455.362
 481  443.4324
 482  355.4886
 483  374.3697
 484  391.2957
 485  398.9146
 486  299.8167
 487  208.9682
 488  374.7978
 489  546.0762
 490  506.8731
 491  400.9747
 492  361.8361
 493  346.8124
 494  378.5999
 495  272.7888
 496  303.7645
 497  452.6555
 498  435.1001
 499  373.5813
 500  423.948
 501  478.1561
 502  356.0976
 503  397.2279
 504  353.4456
 505  332.5516
 506  427.6388
 507  470.2375
 508  601.373
 509  583.7604
 510  648.2339
 511  739.7408
