# Input file       =  1181471836.140327-PSRB0329-2ms-sampling-dd.dat
# Candidate        =  PSR_0332+5434
# Telescope        =  AR
# Epoch_topo       =  57918.442767827859
# Epoch_bary       =  N/A
# T_sample         =  0.002
# Data Folded      =  7340032
# Data Avg         =  6.37871487263054e-10
# Data StdDev      =  6.79848421316445 
# Profile Bins     =  512
# Profile Avg      =  0.841317730532896
# Profile StdDev   =  814.00315760169  
# Reduced chi-sqr  =  0.530
# Prob(Noise)      <  1   (~0.0 sigma)
# P_topo (ms)      =  714.504092719683  +/- 0.000111
# P'_topo (s/s)    =  -0                +/- 5.85e-11
# P''_topo (s/s^2) =  0                 +/- 2.58e-14
# P_bary (ms)      =  N/A
# P'_bary (s/s)    =  N/A
# P''_bary (s/s^2) =  N/A
# P_orb (s)        =  N/A
# asin(i)/c (s)    =  N/A
# eccentricity     =  N/A
# w (rad)          =  N/A
# T_peri           =  N/A
######################################################
   0  -102.7694
   1  -242.9816
   2  -20.42098
   3  -13.67352
   4  -574.677
   5  -388.463
   6  355.7409
   7  -99.30566
   8  -318.56
   9  7.729553
  10  136.278
  11  -273.9439
  12  -18.09978
  13  -23.42551
  14  55.63466
  15  290.2353
  16  245.4158
  17  -181.5421
  18  -663.1144
  19  -271.47
  20  -213.1431
  21  -66.34888
  22  112.0247
  23  -221.3097
  24  -314.2045
  25  -237.5349
  26  -353.7813
  27  157.8531
  28  326.7925
  29  231.5531
  30  147.4368
  31  -298.0377
  32  -594.0794
  33  -314.8264
  34  -733.0116
  35  -559.29
  36  -584.6475
  37  -498.8315
  38  -499.7752
  39  -758.4222
  40  -439.2252
  41  -534.0687
  42  -598.3317
  43  -444.7003
  44  -518.5159
  45  -549.3132
  46  -444.0619
  47  -499.4319
  48  -615.6783
  49  -126.64
  50  -159.7218
  51  -303.6299
  52  -96.1517
  53  -285.1051
  54  13.46961
  55  -53.82196
  56  -280.6023
  57  -78.18427
  58  -421.47
  59  -38.51092
  60  63.26152
  61  56.22478
  62  -72.70089
  63  461.2564
  64  170.3729
  65  -249.796
  66  -304.2954
  67  -142.9274
  68  -494.2961
  69  -265.8681
  70  -202.5353
  71  -27.30937
  72  353.8715
  73  -16.08208
  74  -121.3351
  75  -259.2853
  76  -250.4012
  77  -476.5829
  78  -813.4284
  79  -536.4259
  80  -209.6624
  81  139.4503
  82  434.1515
  83  491.923
  84  116.327
  85  -90.47672
  86  -250.8332
  87  -2.999028
  88  125.6879
  89  751.4988
  90  689.6242
  91  907.629
  92  735.8834
  93  591.1211
  94  63.81549
  95  369.2121
  96  679.6476
  97  813.7711
  98  625.3383
  99  84.80195
 100  -244.8188
 101  -254.9787
 102  -515.2649
 103  -665.6443
 104  -99.1835
 105  301.3051
 106  58.02628
 107  -324.7082
 108  -715.2893
 109  -335.3678
 110  -803.9473
 111  -539.2097
 112  78.93378
 113  305.5938
 114  309.5816
 115  64.67135
 116  -69.11381
 117  -404.9991
 118  -385.1897
 119  -86.81276
 120  109.9752
 121  238.0641
 122  622.734
 123  841.5571
 124  800.3553
 125  442.5503
 126  59.36032
 127  131.5212
 128  291.7536
 129  -166.4432
 130  376.0795
 131  447.154
 132  363.8362
 133  403.6114
 134  132.9443
 135  180.6394
 136  -84.7334
 137  -63.46786
 138  246.5689
 139  457.9647
 140  269.3953
 141  277.0109
 142  173.3604
 143  -136.2369
 144  29.37986
 145  -122.2134
 146  294.2162
 147  259.331
 148  315.8711
 149  233.4122
 150  222.9852
 151  316.3289
 152  454.1853
 153  155.0101
 154  500.4935
 155  782.1783
 156  899.1982
 157  603.1927
 158  720.9025
 159  792.6841
 160  647.4445
 161  -37.93316
 162  191.1478
 163  512.0591
 164  295.3481
 165  514.8123
 166  597.6105
 167  257.7549
 168  -253.9909
 169  -69.7542
 170  -313.2383
 171  -142.9896
 172  349.7956
 173  253.3967
 174  262.7163
 175  -86.84368
 176  -136.1019
 177  75.36987
 178  6.393346
 179  211.0176
 180  503.0119
 181  686.1944
 182  720.9571
 183  323.0891
 184  371.3129
 185  379.5666
 186  382.8814
 187  270.4574
 188  280.2619
 189  175.5485
 190  89.94807
 191  -119.1808
 192  -146.9607
 193  -102.3779
 194  -129.4463
 195  126.1321
 196  72.14418
 197  -519.4711
 198  -549.5826
 199  -506.0338
 200  -292.4407
 201  -406.0966
 202  -962.8524
 203  -1093.925
 204  -824.0638
 205  -455.1036
 206  -554.7686
 207  -457.5304
 208  -160.863
 209  -532.081
 210  -1274.666
 211  -1139.381
 212  -742.3829
 213  -544.7642
 214  -320.0298
 215  -398.6599
 216  -219.3561
 217  -562.011
 218  -411.5631
 219  124.0107
 220  214.6741
 221  -17.59289
 222  24.32743
 223  67.56284
 224  -28.7106
 225  421.703
 226  472.7334
 227  63.75079
 228  -105.0726
 229  13.86563
 230  147.4821
 231  -57.24635
 232  -450.2593
 233  -535.9927
 234  -162.1017
 235  98.04536
 236  -600.8251
 237  -218.021
 238  -531.9294
 239  -157.4743
 240  75.8395
 241  -40.20036
 242  -180.6314
 243  228.8029
 244  592.46
 245  138.3878
 246  31.69822
 247  63.28577
 248  201.8148
 249  563.2665
 250  798.7913
 251  586.3682
 252  271.9868
 253  -90.55502
 254  278.1846
 255  437.6538
 256  174.1851
 257  248.3938
 258  -39.0592
 259  20.84642
 260  173.3761
 261  32.27469
 262  55.32977
 263  -78.48026
 264  358.9243
 265  84.16469
 266  19.58896
 267  154.7616
 268  -39.68491
 269  184.3649
 270  -239.2338
 271  107.8245
 272  102.6431
 273  206.9271
 274  144.2499
 275  195.8044
 276  -207.7204
 277  -619.419
 278  -779.2925
 279  -432.8686
 280  -100.8644
 281  247.9618
 282  115.8729
 283  168.1699
 284  -115.3731
 285  -543.7318
 286  -462.1542
 287  -597.4673
 288  -480.4956
 289  -183.9127
 290  -20.15803
 291  19.85007
 292  -214.3555
 293  -435.3042
 294  -348.0586
 295  -438.2056
 296  -387.0976
 297  -36.931
 298  -2.280319
 299  350.3862
 300  34.59058
 301  -339.0954
 302  -280.7037
 303  -233.6242
 304  -434.5539
 305  -607.5425
 306  -283.0071
 307  -17.07578
 308  96.24887
 309  235.4209
 310  169.6582
 311  98.47509
 312  -209.5541
 313  32.05642
 314  172.126
 315  296.5945
 316  784.0341
 317  531.0021
 318  252.4702
 319  228.0979
 320  254.2315
 321  -5.696995
 322  96.06934
 323  -49.46631
 324  -43.95387
 325  -150.5686
 326  -302.4862
 327  -193.8325
 328  -64.36154
 329  -329.7734
 330  -234.8504
 331  165.1926
 332  569.285
 333  359.5096
 334  99.08032
 335  -152.53
 336  -225.9173
 337  -37.461
 338  266.7068
 339  516.1025
 340  344.7155
 341  591.5386
 342  919.6229
 343  1022.316
 344  433.3437
 345  255.5792
 346  393.346
 347  444.8232
 348  330.8519
 349  422.475
 350  244.8611
 351  -5.207459
 352  424.938
 353  316.4635
 354  -137.4687
 355  -122.3847
 356  338.9879
 357  556.1488
 358  565.3134
 359  312.6295
 360  74.97633
 361  148.6495
 362  -101.4895
 363  -313.2027
 364  167.699
 365  338.032
 366  -96.51338
 367  -261.329
 368  -241.8621
 369  -213.279
 370  63.13271
 371  301.4642
 372  -38.07345
 373  -134.9484
 374  528.9615
 375  141.7503
 376  -249.0108
 377  -251.7395
 378  -117.4198
 379  -242.1182
 380  -248.3788
 381  -211.8951
 382  -400.3445
 383  -88.95844
 384  111.7682
 385  345.7347
 386  74.6097
 387  -263.9347
 388  -35.16373
 389  216.2552
 390  655.6635
 391  459.2125
 392  476.8715
 393  -1.468514
 394  -328.5214
 395  -610.1038
 396  -499.5512
 397  -258.9484
 398  24.42924
 399  57.19513
 400  324.455
 401  720.0161
 402  513.9847
 403  337.0777
 404  757.9309
 405  1032.02
 406  1586.598
 407  2237.431
 408  2415.155
 409  1906.652
 410  1367.178
 411  605.1804
 412  -230.7072
 413  -216.3411
 414  73.55885
 415  704.1886
 416  816.6797
 417  628.6539
 418  490.3223
 419  -221.646
 420  -78.27155
 421  -67.35379
 422  -105.3465
 423  179.6073
 424  69.86729
 425  21.97452
 426  -369.5591
 427  -187.341
 428  -52.2714
 429  -55.41704
 430  136.0458
 431  173.3182
 432  -18.26898
 433  -362.152
 434  -292.3105
 435  -219.1829
 436  -606.6082
 437  -846.0669
 438  -722.9637
 439  -261.9692
 440  -146.7265
 441  100.7143
 442  145.8362
 443  -238.8199
 444  -515.5726
 445  -352.1956
 446  -399.3122
 447  -321.5778
 448  93.76001
 449  24.69886
 450  506.4058
 451  164.8251
 452  -83.49581
 453  101.3276
 454  -470.3835
 455  -208.5567
 456  466.2576
 457  739.0223
 458  553.5842
 459  307.3326
 460  434.0665
 461  315.218
 462  76.33039
 463  -89.52584
 464  -319.1577
 465  -274.5428
 466  -46.82635
 467  -628.5192
 468  -915.9957
 469  -646.4868
 470  -423.4383
 471  -318.4845
 472  -221.2952
 473  -320.8337
 474  -605.8536
 475  -464.8794
 476  -632.8316
 477  147.3806
 478  184.5668
 479  -145.5377
 480  -311.7874
 481  -393.879
 482  154.874
 483  122.3936
 484  53.10741
 485  297.232
 486  166.4574
 487  -113.8491
 488  73.216
 489  122.9254
 490  219.3042
 491  224.3161
 492  443.6748
 493  -174.9244
 494  -766.5489
 495  -791.7224
 496  -335.199
 497  -214.3278
 498  -210.0935
 499  -3.304655
 500  -289.0186
 501  -173.6001
 502  -538.888
 503  -667.6087
 504  -517.0286
 505  -776.0852
 506  -553.8564
 507  -400.8473
 508  -560.4907
 509  -484.5898
 510  -470.0198
 511  23.39071
