# Input file       =  1181041046.106092_cleaned.dat
# Candidate        =  PSR_0332+5434
# Telescope        =  AR
# Epoch_topo       =  57913.456772061247
# Epoch_bary       =  N/A
# T_sample         =  0.002
# Data Folded      =  7340032
# Data Avg         =  0.0261047809108713
# Data StdDev      =  1.00006916968922 
# Profile Bins     =  512
# Profile Avg      =  374.223097388119 
# Profile StdDev   =  119.741318273682 
# Reduced chi-sqr  =  1.283
# Prob(Noise)      <  1.46e-05   (~4.2 sigma)
# P_topo (ms)      =  714.50877096492   +/- 0.000278
# P'_topo (s/s)    =  -0                +/- 1.47e-10
# P''_topo (s/s^2) =  0                 +/- 6.47e-14
# P_bary (ms)      =  N/A
# P'_bary (s/s)    =  N/A
# P''_bary (s/s^2) =  N/A
# P_orb (s)        =  N/A
# asin(i)/c (s)    =  N/A
# eccentricity     =  N/A
# w (rad)          =  N/A
# T_peri           =  N/A
######################################################
   0  323.6451
   1  286.4528
   2  270.5042
   3  278.2184
   4  283.5482
   5  260.0244
   6  250.4241
   7  393.4762
   8  369.578
   9  290.4218
  10  375.0258
  11  566.5023
  12  549.7297
  13  336.2755
  14  269.0301
  15  382.7319
  16  373.183
  17  336.397
  18  292.8611
  19  314.3459
  20  344.7075
  21  357.8362
  22  355.8004
  23  415.0016
  24  348.0498
  25  392.3436
  26  382.6249
  27  308.6905
  28  425.3474
  29  348.6203
  30  442.1203
  31  390.2083
  32  434.0017
  33  378.4565
  34  425.297
  35  444.4854
  36  353.3954
  37  232.8032
  38  220.0656
  39  355.7899
  40  397.0393
  41  391.8474
  42  444.2831
  43  433.0317
  44  423.8241
  45  524.8138
  46  437.6784
  47  452.8019
  48  476.6144
  49  457.7241
  50  415.5164
  51  483.0334
  52  496.2209
  53  449.8079
  54  468.0848
  55  397.0141
  56  419.2772
  57  476.2116
  58  309.1728
  59  269.0882
  60  423.2558
  61  377.5531
  62  340.8168
  63  322.6015
  64  327.0188
  65  262.6308
  66  345.9285
  67  293.7424
  68  192.0029
  69  188.5653
  70  315.0038
  71  335.5742
  72  345.435
  73  369.9198
  74  322.5039
  75  357.5654
  76  276.4489
  77  390.9039
  78  420.4845
  79  332.0376
  80  336.1193
  81  341.7185
  82  465.1166
  83  377.2305
  84  293.6356
  85  352.2005
  86  355.8098
  87  266.3294
  88  298.6079
  89  214.5225
  90  209.3496
  91  301.2936
  92  325.6305
  93  297.5341
  94  250.9103
  95  208.0337
  96  219.3764
  97  191.2634
  98  321.0068
  99  429.6685
 100  365.5603
 101  352.0027
 102  332.456
 103  275.8512
 104  382.4989
 105  373.2919
 106  328.0361
 107  360.7797
 108  391.8276
 109  327.8227
 110  347.3724
 111  378.4973
 112  290.7613
 113  314.0965
 114  401.8945
 115  397.7107
 116  328.5194
 117  367.252
 118  367.6484
 119  265.6907
 120  245.8433
 121  350.3282
 122  393.4063
 123  303.9507
 124  347.1189
 125  254.3844
 126  231.8765
 127  308.4251
 128  310.0625
 129  349.1251
 130  275.6774
 131  392.5336
 132  473.8761
 133  427.345
 134  360.866
 135  456.5052
 136  304.5242
 137  269.7751
 138  364.7599
 139  380.0052
 140  377.433
 141  221.7072
 142  231.3717
 143  268.4702
 144  138.7065
 145  314.1455
 146  362.8803
 147  288.4793
 148  301.5299
 149  346.8222
 150  302.1966
 151  332.7787
 152  467.7139
 153  491.1882
 154  416.6943
 155  230.3762
 156  389.6683
 157  369.5307
 158  332.6018
 159  505.8034
 160  444.0744
 161  426.1325
 162  299.1667
 163  308.0576
 164  359.7743
 165  294.2022
 166  194.6686
 167  324.0494
 168  418.3929
 169  503.7272
 170  413.1182
 171  503.153
 172  456.4918
 173  457.1674
 174  333.8728
 175  326.7421
 176  318.4272
 177  273.2561
 178  347.0137
 179  387.7722
 180  282.9446
 181  350.9746
 182  308.0141
 183  340.3593
 184  434.284
 185  268.1267
 186  298.9867
 187  333.6747
 188  442.7091
 189  500.7213
 190  375.8428
 191  278.0085
 192  302.3796
 193  209.5039
 194  330.0626
 195  288.2842
 196  403.6572
 197  353.5541
 198  355.535
 199  353.6382
 200  350.6295
 201  407.5726
 202  331.1606
 203  410.7477
 204  442.9573
 205  328.74
 206  370.6002
 207  416.1852
 208  307.8141
 209  371.4017
 210  357.8386
 211  367.5392
 212  400.5066
 213  441.0419
 214  522.2013
 215  426.1949
 216  361.77
 217  476.1306
 218  463.7757
 219  387.5121
 220  349.2732
 221  341.5527
 222  246.3873
 223  242.1636
 224  402.988
 225  393.7318
 226  393.9455
 227  427.239
 228  401.9391
 229  240.7441
 230  364.3075
 231  419.2181
 232  307.0211
 233  352.0394
 234  344.1003
 235  371.8147
 236  258.9404
 237  334.7372
 238  321.8206
 239  281.2484
 240  332.5164
 241  221.0769
 242  314.0875
 243  362.8875
 244  434.8627
 245  380.4788
 246  214.5559
 247  335.1591
 248  303.0619
 249  305.7533
 250  327.3189
 251  326.4566
 252  297.9585
 253  513.4587
 254  507.875
 255  376.2803
 256  375.4633
 257  343.7896
 258  413.0832
 259  401.4989
 260  431.4831
 261  445.6005
 262  536.8417
 263  544.5507
 264  404.1006
 265  280.5533
 266  192.4813
 267  242.0535
 268  327.594
 269  404.9904
 270  512.9835
 271  500.999
 272  333.998
 273  359.1689
 274  474.4156
 275  524.3176
 276  351.5594
 277  393.6353
 278  467.1745
 279  377.2261
 280  508.6603
 281  510.2884
 282  309.2193
 283  248.2158
 284  288.1412
 285  383.9909
 286  367.5353
 287  347.4227
 288  532.5154
 289  797.6525
 290  751.1207
 291  827.0132
 292  912.4613
 293  895.3268
 294  784.9708
 295  595.1224
 296  541.765
 297  490.7212
 298  477.3173
 299  483.2729
 300  369.5746
 301  384.1678
 302  437.5114
 303  519.3026
 304  469.8362
 305  431.7256
 306  433.97
 307  634.361
 308  608.5777
 309  454.9194
 310  467.6629
 311  578.3469
 312  474.4027
 313  364.9978
 314  354.4968
 315  257.837
 316  277.9533
 317  421.9373
 318  383.9789
 319  341.0584
 320  398.7871
 321  508.8414
 322  446.5306
 323  419.9524
 324  397.5053
 325  310.9604
 326  365.0565
 327  339.658
 328  352.5784
 329  361.6461
 330  333.7735
 331  406.8683
 332  382.7408
 333  345.5115
 334  232.9875
 335  243.8288
 336  356.76
 337  377.8812
 338  458.7005
 339  458.3041
 340  448.7586
 341  503.6591
 342  410.3564
 343  536.4193
 344  579.5896
 345  522.8926
 346  594.8405
 347  437.7043
 348  416.8952
 349  478.5363
 350  505.1592
 351  480.9753
 352  383.5124
 353  347.2051
 354  357.1065
 355  395.2795
 356  349.4209
 357  340.5976
 358  312.0679
 359  382.223
 360  367.8727
 361  364.4231
 362  290.9166
 363  207.6698
 364  263.2679
 365  386.939
 366  417.4379
 367  373.7389
 368  319.4196
 369  195.9109
 370  345.1476
 371  399.0368
 372  450.5666
 373  370.8819
 374  350.0689
 375  459.9118
 376  495.8599
 377  460.1352
 378  348.7514
 379  393.2413
 380  454.2337
 381  420.2176
 382  449.2607
 383  467.4528
 384  551.7509
 385  438.4903
 386  413.7108
 387  444.9264
 388  435.5715
 389  512.7645
 390  482.939
 391  548.3215
 392  539.1006
 393  342.2987
 394  551.4933
 395  544.5934
 396  580.798
 397  565.238
 398  352.688
 399  397.8729
 400  324.081
 401  424.3457
 402  388.7459
 403  209.959
 404  346.6611
 405  401.2276
 406  457.3961
 407  444.7926
 408  298.0548
 409  327.6944
 410  330.0099
 411  260.736
 412  273.8296
 413  325.0354
 414  263.1437
 415  334.9171
 416  368.1093
 417  310.1337
 418  331.9102
 419  232.7003
 420  217.0451
 421  273.0924
 422  381.7397
 423  271.6797
 424  163.4601
 425  242.5756
 426  386.6992
 427  349.1721
 428  308.7416
 429  346.3517
 430  401.3659
 431  358.2415
 432  246.3111
 433  281.5125
 434  426.7213
 435  330.494
 436  378.149
 437  390.5711
 438  401.076
 439  267.7043
 440  320.5027
 441  332.8463
 442  209.2971
 443  299.0421
 444  462.461
 445  433.5634
 446  384.3447
 447  337.025
 448  482.29
 449  348.3618
 450  290.8893
 451  224.4455
 452  232.2887
 453  320.8226
 454  224.2308
 455  364.0313
 456  363.3792
 457  204.3093
 458  172.6176
 459  399.7995
 460  334.2891
 461  374.4162
 462  429.0362
 463  387.5191
 464  297.1309
 465  289.6898
 466  341.2463
 467  356.4756
 468  383.6562
 469  346.1092
 470  292.6811
 471  344.4435
 472  417.0134
 473  314.4228
 474  336.2365
 475  419.4958
 476  458.236
 477  522.5494
 478  569.1669
 479  533.1367
 480  418.7014
 481  449.8457
 482  464.525
 483  381.6707
 484  368.2217
 485  415.2809
 486  304.7207
 487  386.4241
 488  328.5553
 489  379.7444
 490  339.1552
 491  215.6728
 492  242.0671
 493  258.2681
 494  294.0563
 495  309.9442
 496  439.8441
 497  443.8674
 498  410.5782
 499  473.4383
 500  388.8424
 501  369.189
 502  284.4419
 503  358.1013
 504  411.8259
 505  346.3708
 506  353.0132
 507  381.1407
 508  202.1163
 509  436.0755
 510  419.2039
 511  393.3753
