# Input file       =  1181299537.125484_cleaned.dat
# Candidate        =  PSR_0332+5434
# Telescope        =  AR
# Epoch_topo       =  57916.448566267172
# Epoch_bary       =  N/A
# T_sample         =  0.002
# Data Folded      =  7340032
# Data Avg         =  0.0122642288043545
# Data StdDev      =  1.00005272845129 
# Profile Bins     =  512
# Profile Avg      =  175.858145042643 
# Profile StdDev   =  119.739349714343 
# Reduced chi-sqr  =  0.946
# Prob(Noise)      <  0.805   (~0.0 sigma)
# P_topo (ms)      =  714.505952226507  +/- 0.000366
# P'_topo (s/s)    =  -0                +/- 1.93e-10
# P''_topo (s/s^2) =  0                 +/- 8.53e-14
# P_bary (ms)      =  N/A
# P'_bary (s/s)    =  N/A
# P''_bary (s/s^2) =  N/A
# P_orb (s)        =  N/A
# asin(i)/c (s)    =  N/A
# eccentricity     =  N/A
# w (rad)          =  N/A
# T_peri           =  N/A
######################################################
   0  298.7173
   1  231.1968
   2  187.1266
   3  226.5261
   4  199.1561
   5  78.85165
   6  41.66878
   7  133.6605
   8  115.0305
   9  174.5284
  10  133.7133
  11  149.7062
  12  115.2788
  13  66.13823
  14  134.7225
  15  16.98258
  16  58.02203
  17  149.675
  18  285.4158
  19  325.2093
  20  175.5773
  21  357.2567
  22  242.032
  23  209.7816
  24  323.1919
  25  213.9256
  26  185.9358
  27  211.8539
  28  165.6456
  29  77.49992
  30  108.8729
  31  249.6745
  32  114.7708
  33  70.48822
  34  65.43616
  35  121.6297
  36  261.6896
  37  234.2611
  38  154.1619
  39  125.7017
  40  76.43273
  41  128.8808
  42  114.7056
  43  284.5548
  44  337.2633
  45  264.0658
  46  273.6247
  47  129.1879
  48  213.0927
  49  117.3089
  50  27.8954
  51  248.1803
  52  202.7015
  53  250.7647
  54  152.2599
  55  121.0513
  56  192.3962
  57  255.4704
  58  205.944
  59  128.8176
  60  138.8936
  61  146.3352
  62  153.3726
  63  239.8226
  64  178.5689
  65  198.7706
  66  272.6075
  67  314.3587
  68  261.6106
  69  288.3001
  70  210.8077
  71  162.7171
  72  140.9775
  73  153.7485
  74  199.4517
  75  267.7035
  76  359.7085
  77  346.2055
  78  229.4145
  79  212.2891
  80  409.8529
  81  320.0876
  82  249.0078
  83  209.0914
  84  155.3974
  85  175.3958
  86  165.4957
  87  189.0677
  88  273.4197
  89  83.88599
  90  197.1013
  91  217.5282
  92  180.3317
  93  60.48556
  94  63.15654
  95  191.4529
  96  274.1947
  97  259.6469
  98  259.3624
  99  137.9322
 100  108.0959
 101  138.6513
 102  248.7569
 103  252.8638
 104  270.7524
 105  235.4609
 106  257.3475
 107  252.3669
 108  129.6958
 109  222.3936
 110  272.5209
 111  185.6503
 112  116.4837
 113  118.9974
 114  29.14693
 115  70.30054
 116  122.0346
 117  141.8957
 118  92.32422
 119  154.8966
 120  182.1934
 121  -26.91281
 122  -6.040955
 123  99.68986
 124  139.4924
 125  110.3497
 126  70.70837
 127  145.7938
 128  213.6724
 129  186.5222
 130  78.6725
 131  188.9836
 132  245.2367
 133  177.7002
 134  218.713
 135  264.9961
 136  243.2767
 137  300.6562
 138  188.8393
 139  148.3344
 140  75.80933
 141  138.2483
 142  139.9722
 143  198.5793
 144  230.8975
 145  118.6367
 146  228.9845
 147  308.2776
 148  288.5052
 149  187.0574
 150  85.91989
 151  68.65227
 152  179.7951
 153  201.2637
 154  196.143
 155  180.3385
 156  184.8625
 157  139.8157
 158  122.0043
 159  106.803
 160  156.0009
 161  235.5577
 162  204.7338
 163  187.9619
 164  240.437
 165  220.0521
 166  238.0025
 167  233.5538
 168  168.1317
 169  157.4549
 170  117.8482
 171  199.1193
 172  138.3659
 173  262.1191
 174  306.1838
 175  190.561
 176  208.5408
 177  233.6726
 178  155.1645
 179  196.2127
 180  183.0884
 181  199.0658
 182  212.3111
 183  274.9499
 184  184.2118
 185  209.1081
 186  100.2374
 187  216.5404
 188  183.3409
 189  197.1693
 190  221.1049
 191  221.7298
 192  230.2311
 193  182.6861
 194  191.8691
 195  279.6831
 196  342.8532
 197  431.4094
 198  439.8752
 199  512.181
 200  553.2374
 201  449.7675
 202  369.1453
 203  266.0466
 204  206.2961
 205  167.0223
 206  139.2462
 207  153.3663
 208  170.6255
 209  177.3123
 210  201.063
 211  290.5067
 212  245.7524
 213  222.1389
 214  278.2207
 215  275.03
 216  264.4167
 217  223.8831
 218  304.9091
 219  303.3593
 220  160.7858
 221  108.0139
 222  124.7734
 223  121.9184
 224  -16.1176
 225  60.98703
 226  151.0061
 227  104.9467
 228  -20.37429
 229  37.39425
 230  157.6706
 231  211.9395
 232  119.392
 233  65.82839
 234  231.8931
 235  219.5048
 236  237.6738
 237  79.78539
 238  32.35152
 239  86.6657
 240  112.9376
 241  135.4397
 242  42.78075
 243  143.3733
 244  248.3458
 245  56.49899
 246  20.86815
 247  151.503
 248  96.37202
 249  31.79416
 250  -3.45541
 251  206.474
 252  197.2126
 253  140.2711
 254  74.29782
 255  135.8357
 256  44.04604
 257  36.30622
 258  83.55555
 259  225.0101
 260  232.1378
 261  236.9658
 262  325.5698
 263  237.7533
 264  158.8741
 265  146.0081
 266  130.4438
 267  265.2551
 268  248.4392
 269  76.60471
 270  202.6119
 271  233.9291
 272  275.2626
 273  252.6226
 274  172.071
 275  239.7566
 276  324.706
 277  254.1627
 278  207.2574
 279  111.2012
 280  124.5979
 281  85.8053
 282  86.84618
 283  88.87811
 284  68.57427
 285  265.8824
 286  255.6475
 287  270.5552
 288  59.8848
 289  129.9947
 290  262.8292
 291  184.9556
 292  33.00345
 293  53.34318
 294  130.0338
 295  189.543
 296  141.0728
 297  133.4732
 298  147.6101
 299  135.4945
 300  117.5806
 301  148.8897
 302  209.7669
 303  126.6124
 304  139.0994
 305  104.3579
 306  123.1507
 307  132.5063
 308  76.04697
 309  235.948
 310  82.82864
 311  51.96103
 312  107.2211
 313  142.4509
 314  62.82343
 315  53.13785
 316  60.07932
 317  70.76113
 318  118.3018
 319  108.2778
 320  1.438418
 321  61.06186
 322  173.7548
 323  196.2166
 324  250.6776
 325  311.8859
 326  206.5468
 327  70.78255
 328  174.6761
 329  266.9842
 330  250.4432
 331  223.9568
 332  190.3668
 333  257.7683
 334  162.7923
 335  195.31
 336  269.9964
 337  118.6694
 338  192.5349
 339  352.9701
 340  275.1894
 341  235.8069
 342  256.4413
 343  229.9443
 344  127.1418
 345  225.53
 346  229.7636
 347  159.2119
 348  319.6689
 349  327.4607
 350  244.451
 351  192.2227
 352  242.3294
 353  183.9934
 354  210.419
 355  277.1117
 356  184.7724
 357  211.0018
 358  153.2678
 359  215.84
 360  208.838
 361  192.5125
 362  229.0682
 363  91.36537
 364  104.1055
 365  107.0152
 366  79.70786
 367  53.15483
 368  87.1473
 369  152.9766
 370  184.1504
 371  244.2616
 372  368.8341
 373  329.9955
 374  188.8583
 375  248.724
 376  349.8283
 377  322.7172
 378  306.3912
 379  288.7999
 380  295.7771
 381  115.8522
 382  181.486
 383  80.60387
 384  134.1872
 385  129.1267
 386  145.267
 387  81.80094
 388  141.1448
 389  144.8097
 390  182.1142
 391  126.2953
 392  86.46352
 393  114.1111
 394  119.7827
 395  176.535
 396  182.4746
 397  135.4072
 398  101.6062
 399  146.6528
 400  148.4873
 401  56.42702
 402  128.5284
 403  172.7023
 404  75.5295
 405  47.09955
 406  18.53957
 407  115.0238
 408  121.4661
 409  124.1173
 410  222.9068
 411  232.7468
 412  60.09607
 413  39.22566
 414  97.11634
 415  99.61668
 416  140.1111
 417  280.0137
 418  277.2148
 419  197.3907
 420  215.3184
 421  117.9242
 422  197.0681
 423  138.2836
 424  73.925
 425  111.0698
 426  201.8506
 427  181.1953
 428  207.3257
 429  269.071
 430  208.1252
 431  186.5826
 432  253.0768
 433  279.5514
 434  162.3167
 435  56.03854
 436  93.72778
 437  129.7076
 438  88.43865
 439  129.1492
 440  128.3765
 441  139.0706
 442  87.82594
 443  10.96896
 444  2.539372
 445  61.16567
 446  29.39705
 447  3.047251
 448  119.7422
 449  126.3735
 450  152.6854
 451  111.5811
 452  116.9503
 453  151.5714
 454  149.7015
 455  111.3697
 456  58.72224
 457  160.0426
 458  140.0003
 459  171.0835
 460  229.771
 461  268.4765
 462  172.9315
 463  64.84023
 464  135.1476
 465  224.1761
 466  147.0131
 467  195.2729
 468  314.4191
 469  252.9084
 470  135.268
 471  218.2786
 472  173.5316
 473  63.61256
 474  128.9488
 475  201.1105
 476  180.7061
 477  74.75252
 478  47.09532
 479  -11.2787
 480  81.01512
 481  164.7919
 482  115.7158
 483  73.07693
 484  157.8492
 485  216.6632
 486  121.9916
 487  190.2879
 488  128.9674
 489  104.009
 490  146.3185
 491  287.2618
 492  244.4445
 493  154.8857
 494  254.9226
 495  305.6172
 496  206.6848
 497  130.6465
 498  165.8618
 499  266.9409
 500  315.0659
 501  210.9385
 502  221.7362
 503  217.2198
 504  239.2818
 505  230.9465
 506  172.1431
 507  179.0845
 508  149.0801
 509  215.6956
 510  235.4543
 511  274.5384
