# Input file       =  1181026120.100374_cleaned.dat
# Candidate        =  PSR_0332+5434
# Telescope        =  AR
# Epoch_topo       =  57913.284017365440
# Epoch_bary       =  N/A
# T_sample         =  0.002
# Data Folded      =  7340032
# Data Avg         =  0.0283745712070268
# Data StdDev      =  0.999980649505807
# Profile Bins     =  512
# Profile Avg      =  406.906230161542 
# Profile StdDev   =  119.730719483341 
# Reduced chi-sqr  =  1.193
# Prob(Noise)      <  0.0017   (~2.9 sigma)
# P_topo (ms)      =  714.508600524532  +/- 0.000353
# P'_topo (s/s)    =  -0                +/- 1.86e-10
# P''_topo (s/s^2) =  0                 +/- 8.21e-14
# P_bary (ms)      =  N/A
# P'_bary (s/s)    =  N/A
# P''_bary (s/s^2) =  N/A
# P_orb (s)        =  N/A
# asin(i)/c (s)    =  N/A
# eccentricity     =  N/A
# w (rad)          =  N/A
# T_peri           =  N/A
######################################################
   0  906.6212
   1  809.4601
   2  530.5836
   3  488.9751
   4  587.3513
   5  495.8512
   6  432.2255
   7  495.3787
   8  358.9108
   9  176.8087
  10  285.8137
  11  344.8913
  12  342.3916
  13  420.5008
  14  332.752
  15  401.056
  16  465.9816
  17  425.1721
  18  352.3
  19  347.0133
  20  353.4254
  21  554.519
  22  441.8578
  23  349.2003
  24  396.4245
  25  383.0493
  26  363.2838
  27  261.8355
  28  368.9416
  29  342.3495
  30  189.7412
  31  252.7531
  32  305.7914
  33  280.2619
  34  342.5184
  35  271.2834
  36  289.438
  37  257.0431
  38  257.5232
  39  299.6719
  40  258.7178
  41  268.8104
  42  321.5123
  43  339.3253
  44  389.5698
  45  310.0654
  46  292.1179
  47  330.3213
  48  243.749
  49  367.6443
  50  430.7001
  51  326.2042
  52  295.601
  53  310.5745
  54  364.562
  55  324.9085
  56  449.2572
  57  455.4375
  58  510.8195
  59  391.6394
  60  181.3121
  61  230.2499
  62  424.841
  63  430.7634
  64  419.1622
  65  373.0181
  66  424.172
  67  409.9019
  68  333.8201
  69  317.995
  70  408.9991
  71  341.9382
  72  224.9928
  73  295.0443
  74  350.4763
  75  370.8984
  76  288.0003
  77  339.5022
  78  373.6409
  79  363.669
  80  374.9902
  81  301.9816
  82  345.0163
  83  396.5404
  84  262.7173
  85  241.3992
  86  377.3563
  87  389.5162
  88  363.3369
  89  322.5011
  90  357.2809
  91  442.8802
  92  392.2104
  93  342.7784
  94  357.7698
  95  411.1754
  96  299.3811
  97  226.4688
  98  270.2747
  99  417.4401
 100  300.868
 101  268.4908
 102  256.5818
 103  338.3586
 104  336.0508
 105  510.4
 106  528.9778
 107  481.02
 108  447.1877
 109  484.9074
 110  569.243
 111  507.5141
 112  456.4239
 113  423.6674
 114  476.1727
 115  544.0453
 116  536.1796
 117  454.459
 118  495.2504
 119  449.4691
 120  480.4456
 121  465.6583
 122  432.0345
 123  352.1358
 124  384.6612
 125  429.2324
 126  523.72
 127  545.5539
 128  545.9625
 129  400.5551
 130  387.0739
 131  539.5424
 132  396.6978
 133  321.0478
 134  412.6155
 135  480.3813
 136  429.0175
 137  498.5227
 138  497.5572
 139  471.9694
 140  517.5367
 141  322.3674
 142  537.3102
 143  543.0409
 144  420.699
 145  476.3814
 146  480.269
 147  473.2593
 148  481.0789
 149  365.0889
 150  283.0877
 151  193.3827
 152  294.3863
 153  373.0432
 154  397.1411
 155  485.6662
 156  417.5997
 157  290.7744
 158  263.566
 159  356.5669
 160  543.5118
 161  487.9098
 162  459.2262
 163  405.2013
 164  349.0268
 165  386.1557
 166  456.3366
 167  469.0326
 168  329.0627
 169  395.7814
 170  402.5363
 171  361.5439
 172  397.6916
 173  396.3633
 174  406.4336
 175  493.8481
 176  528.9006
 177  442.3219
 178  430.2213
 179  471.8665
 180  544.8815
 181  415.8461
 182  331.7201
 183  311.1027
 184  328.1461
 185  355.5446
 186  508.7639
 187  485.8691
 188  518.5848
 189  522.1114
 190  468.5753
 191  535.5979
 192  436.3308
 193  365.4168
 194  271.7005
 195  339.4739
 196  489.2395
 197  538.886
 198  452.6964
 199  406.3806
 200  353.7336
 201  351.515
 202  318.4502
 203  325.1689
 204  298.9045
 205  416.424
 206  327.2928
 207  359.4912
 208  350.3209
 209  435.2721
 210  364.1598
 211  319.1791
 212  398.8126
 213  352.833
 214  280.2957
 215  323.2856
 216  335.3001
 217  297.9461
 218  239.7515
 219  321.683
 220  364.6588
 221  485.0751
 222  451.4218
 223  248.4973
 224  212.6373
 225  332.678
 226  462.3721
 227  325.9637
 228  281.9753
 229  420.5882
 230  443.6343
 231  501.9364
 232  539.2421
 233  469.9189
 234  474.6172
 235  483.4336
 236  555.4128
 237  509.6105
 238  582.0485
 239  526.7161
 240  523.5872
 241  438.4569
 242  319.4695
 243  325.6137
 244  317.7691
 245  408.1297
 246  430.5193
 247  490.8326
 248  518.5541
 249  508.9039
 250  467.7124
 251  457.2838
 252  383.7966
 253  478.2919
 254  499.0734
 255  401.8237
 256  429.9946
 257  440.4204
 258  441.8229
 259  384.5007
 260  387.5848
 261  362.7259
 262  361.8723
 263  410.1344
 264  477.2653
 265  413.0772
 266  390.5974
 267  459.3715
 268  416.4826
 269  302.1707
 270  354.24
 271  398.241
 272  235.7187
 273  242.5724
 274  385.9832
 275  356.3794
 276  386.1859
 277  463.8741
 278  455.4943
 279  413.493
 280  454.4237
 281  415.7662
 282  390.352
 283  364.3068
 284  444.8128
 285  468.743
 286  371.2751
 287  344.7297
 288  376.734
 289  460.1687
 290  483.3124
 291  337.7163
 292  353.7277
 293  513.3502
 294  401.3362
 295  394.5527
 296  399.1393
 297  439.2332
 298  447.5679
 299  402.3613
 300  520.457
 301  429.2043
 302  500.899
 303  403.4664
 304  384.7048
 305  390.6032
 306  419.6022
 307  440.7145
 308  393.5396
 309  460.417
 310  448.907
 311  445.1727
 312  482.5171
 313  485.0603
 314  470.5284
 315  462.83
 316  493.8861
 317  468.2663
 318  476.6006
 319  481.1733
 320  482.91
 321  393.5218
 322  289.0647
 323  208.0455
 324  325.8339
 325  351.9895
 326  358.3342
 327  417.9491
 328  485.5691
 329  387.3604
 330  432.4876
 331  358.6957
 332  512.5152
 333  499.5633
 334  413.1111
 335  260.4784
 336  275.3738
 337  460.0977
 338  487.3142
 339  397.4105
 340  376.1245
 341  303.731
 342  300.1543
 343  302.6664
 344  179.6561
 345  273.4798
 346  402.6778
 347  491.5719
 348  441.4081
 349  355.8878
 350  332.2682
 351  371.317
 352  244.9968
 353  319.7535
 354  325.4734
 355  345.7279
 356  387.676
 357  364.4024
 358  370.9307
 359  411.9697
 360  417.6273
 361  392.2579
 362  281.0691
 363  278.4076
 364  318.6335
 365  331.4807
 366  409.5276
 367  419.0383
 368  332.3944
 369  373.9932
 370  428.7683
 371  422.9883
 372  308.8811
 373  246.8346
 374  413.8291
 375  322.5128
 376  242.3302
 377  305.984
 378  367.4591
 379  451.0328
 380  570.6478
 381  497.3057
 382  365.9854
 383  351.2509
 384  357.54
 385  316.9467
 386  385.1421
 387  430.3607
 388  298.5207
 389  346.1128
 390  354.7686
 391  437.8685
 392  573.4586
 393  431.798
 394  366.6296
 395  311.4195
 396  401.2153
 397  398.0973
 398  391.7304
 399  479.5425
 400  445.8543
 401  479.617
 402  445.5128
 403  419.0823
 404  187.7862
 405  340.8835
 406  430.3706
 407  402.939
 408  384.787
 409  459.8706
 410  384.3679
 411  443.2082
 412  455.1828
 413  469.1329
 414  320.2878
 415  268.3811
 416  358.1189
 417  452.3336
 418  566.3084
 419  496.0795
 420  515.1648
 421  546.6376
 422  369.9841
 423  411.0524
 424  463.601
 425  468.2799
 426  413.9721
 427  315.7729
 428  364.6908
 429  382.1668
 430  446.7229
 431  465.8096
 432  419.8228
 433  450.8628
 434  483.4364
 435  431.7839
 436  510.6643
 437  534.3127
 438  571.769
 439  446.197
 440  436.7257
 441  427.5707
 442  353.3859
 443  432.8295
 444  555.3871
 445  475.2624
 446  469.9345
 447  390.3066
 448  373.0494
 449  322.1529
 450  408.0818
 451  640.0638
 452  491.9391
 453  473.7557
 454  469.8065
 455  426.8953
 456  424.4408
 457  379.9397
 458  378.1337
 459  442.3361
 460  394.4298
 461  316.3733
 462  368.8398
 463  565.8676
 464  523.9184
 465  566.7055
 466  455.8276
 467  392.4415
 468  540.9854
 469  582.8275
 470  359.1385
 471  307.507
 472  442.9479
 473  483.6438
 474  455.6677
 475  473.2255
 476  461.0965
 477  401.1086
 478  335.7213
 479  348.677
 480  345.7839
 481  288.9266
 482  243.5825
 483  295.1543
 484  363.4248
 485  419.9494
 486  446.6742
 487  316.4996
 488  337.2937
 489  467.6787
 490  511.3236
 491  512.037
 492  464.0349
 493  505.5121
 494  458.3353
 495  436.2131
 496  553.997
 497  284.6497
 498  405.3708
 499  444.254
 500  415.2993
 501  331.6098
 502  424.9129
 503  664.0452
 504  680.3689
 505  585.8915
 506  519.6985
 507  568.5769
 508  586.2736
 509  746.1158
 510  748.3922
 511  847.3895
