# Input file       =  1181558042.121278_cleaned.dat
# Candidate        =  PSR_0332+5434
# Telescope        =  AR
# Epoch_topo       =  57919.440522237011
# Epoch_bary       =  N/A
# T_sample         =  0.002
# Data Folded      =  7340032
# Data Avg         =  0.150773626346823
# Data StdDev      =  4.87763243983825 
# Profile Bins     =  256
# Profile Avg      =  4323.23707901366 
# Profile StdDev   =  825.920155045966 
# Reduced chi-sqr  =  1.448
# Prob(Noise)      <  3.74e-06   (~4.5 sigma)
# P_topo (ms)      =  714.503170169543  +/- 0.00014
# P'_topo (s/s)    =  -0                +/- 7.4e-11
# P''_topo (s/s^2) =  0                 +/- 3.27e-14
# P_bary (ms)      =  N/A
# P'_bary (s/s)    =  N/A
# P''_bary (s/s^2) =  N/A
# P_orb (s)        =  N/A
# asin(i)/c (s)    =  N/A
# eccentricity     =  N/A
# w (rad)          =  N/A
# T_peri           =  N/A
######################################################
   0  4000.54
   1  3576.548
   2  3565.925
   3  2619.778
   4  3785.93
   5  3550.398
   6  3632.541
   7  3744.766
   8  3339.662
   9  4298.751
  10  3342.732
  11  3802.597
  12  3021.743
  13  3368.032
  14  4327.726
  15  4936.657
  16  4215.179
  17  4586.959
  18  4803.869
  19  4442.63
  20  5805.69
  21  5333.477
  22  4570.9
  23  5119.149
  24  4956.472
  25  3774.469
  26  4509.908
  27  4281.43
  28  4666.31
  29  4161.077
  30  4361.261
  31  4901.181
  32  3485.1
  33  4518.795
  34  4152.557
  35  4659.685
  36  4968.296
  37  5126.166
  38  5390.369
  39  4734.04
  40  4943.286
  41  4554.136
  42  4944.372
  43  4991.772
  44  3760.064
  45  3786.759
  46  3095.959
  47  3284.88
  48  2902.007
  49  2870.005
  50  3798.891
  51  3178.044
  52  3392.715
  53  2879.685
  54  3869.794
  55  4117.592
  56  5178.386
  57  4582.841
  58  4893.685
  59  4977.144
  60  6837.767
  61  5238.235
  62  4539.268
  63  4469.588
  64  5089.581
  65  4373.612
  66  4314.131
  67  3672.828
  68  4150.846
  69  4197.156
  70  3877.577
  71  3663.982
  72  3719.542
  73  4120.366
  74  3666.501
  75  3148.668
  76  3387.657
  77  3489.802
  78  4023.977
  79  4850.425
  80  4770.513
  81  4788.4
  82  4055.179
  83  4191.756
  84  3368.683
  85  3221.841
  86  3133.826
  87  2120.579
  88  3108.045
  89  2035.08
  90  3020.338
  91  2679.642
  92  3264.64
  93  3551.996
  94  3445.852
  95  4117.245
  96  3601.716
  97  4521.816
  98  4578.971
  99  4643.111
 100  5057.043
 101  5179.958
 102  6070.196
 103  5880.134
 104  5634.368
 105  5674.141
 106  5642.757
 107  4744.654
 108  4792.218
 109  5260.266
 110  4465.414
 111  3726.683
 112  3370.413
 113  3529.437
 114  3822.134
 115  3151.344
 116  3451.693
 117  4077.488
 118  4943.548
 119  5470.88
 120  4545.835
 121  6085.781
 122  5988.908
 123  5261.079
 124  5976.191
 125  5732.201
 126  6326.09
 127  5451.455
 128  5119.021
 129  4656.814
 130  4553.257
 131  5426.445
 132  4960.172
 133  4845.568
 134  4135.475
 135  4310.7
 136  4369.639
 137  4030.746
 138  4272.301
 139  4641.135
 140  4391.583
 141  4971.888
 142  4720.269
 143  6294.795
 144  5757.45
 145  5473.462
 146  5399.075
 147  5745.156
 148  5326.935
 149  4978.053
 150  5049.389
 151  5152.328
 152  5205.245
 153  5008.49
 154  4378.696
 155  4662.157
 156  4889.518
 157  4384.381
 158  3922.97
 159  4327.95
 160  5062.943
 161  4163.203
 162  5798.105
 163  6687.311
 164  7047.436
 165  5936.253
 166  5172.999
 167  5306.839
 168  4495.915
 169  5052.478
 170  3734.482
 171  4241.247
 172  4060.407
 173  3429.931
 174  3748.775
 175  3155.772
 176  4001.106
 177  4145.753
 178  3872.318
 179  4160.375
 180  3518.512
 181  3525.374
 182  3059.008
 183  3957.788
 184  3893.542
 185  4321.428
 186  4962.454
 187  5785.898
 188  6064.038
 189  4794.961
 190  5208.64
 191  4692.827
 192  3844.192
 193  3854.39
 194  4294.054
 195  3365.056
 196  4259.26
 197  3839.064
 198  3963.621
 199  2815.615
 200  3358.569
 201  3560.812
 202  3579.921
 203  3554.673
 204  3411.98
 205  4502.949
 206  4867.952
 207  4713.488
 208  4076.759
 209  4060.807
 210  4704.088
 211  4745.266
 212  4721.291
 213  3056.849
 214  4370.081
 215  3962.503
 216  3226.436
 217  3918.093
 218  3239.209
 219  3416.676
 220  4270.562
 221  3955.345
 222  4039.353
 223  3200.672
 224  3952.751
 225  3557.351
 226  3966.639
 227  4515.375
 228  4412.234
 229  5073.426
 230  4161.442
 231  4875.072
 232  4162.331
 233  4401.813
 234  4232.349
 235  4212.085
 236  4228.394
 237  3701.697
 238  4232.455
 239  3773.439
 240  2502.469
 241  3471.449
 242  3857.983
 243  3291.134
 244  3207.457
 245  3060.427
 246  3941.967
 247  3229.917
 248  4661.646
 249  4800.057
 250  5095.089
 251  5139.909
 252  5436.651
 253  4760.081
 254  4642.048
 255  4218.428
