# Input file       =  1181629295.118561_cleaned.dat
# Candidate        =  PSR_0332+5434
# Telescope        =  AR
# Epoch_topo       =  57920.265209705569
# Epoch_bary       =  N/A
# T_sample         =  0.002
# Data Folded      =  7340032
# Data Avg         =  0.177763830496197
# Data StdDev      =  4.01909273703362 
# Profile Bins     =  512
# Profile Avg      =  2550.27275387504 
# Profile StdDev   =  481.218176884842 
# Reduced chi-sqr  =  1.079
# Prob(Noise)      <  0.105   (~1.3 sigma)
# P_topo (ms)      =  714.50207658646   +/- 0.000197
# P'_topo (s/s)    =  -0                +/- 1.04e-10
# P''_topo (s/s^2) =  0                 +/- 4.6e-14
# P_bary (ms)      =  N/A
# P'_bary (s/s)    =  N/A
# P''_bary (s/s^2) =  N/A
# P_orb (s)        =  N/A
# asin(i)/c (s)    =  N/A
# eccentricity     =  N/A
# w (rad)          =  N/A
# T_peri           =  N/A
######################################################
   0  2314.981
   1  2347.653
   2  2377.368
   3  2621.099
   4  2414.573
   5  2728.987
   6  2898.856
   7  2495.434
   8  2623.368
   9  2980.496
  10  3059.472
  11  3173.695
  12  3023.362
  13  2995.398
  14  3156.512
  15  2869.66
  16  2846.987
  17  2991.689
  18  3061.642
  19  2743.152
  20  2416.228
  21  2341.402
  22  2510.107
  23  2117.211
  24  2328.147
  25  2452.089
  26  2067.325
  27  2131.21
  28  2200.077
  29  2043.317
  30  1938.639
  31  2113.833
  32  2437.132
  33  2274.932
  34  2238.461
  35  2121.33
  36  2308.455
  37  2566.992
  38  2433.363
  39  2300.158
  40  2350.981
  41  2444.701
  42  2491.613
  43  2236.348
  44  1982.855
  45  1954.812
  46  2181.183
  47  2227.495
  48  2396.218
  49  2178.138
  50  1991.734
  51  1999.907
  52  2014.517
  53  2425.101
  54  2787.568
  55  2785.021
  56  2745.178
  57  2919.676
  58  2900.759
  59  2967.455
  60  3036.236
  61  2785.654
  62  2511.549
  63  2508.031
  64  2308.344
  65  2287.959
  66  2543.184
  67  2503.249
  68  2306.312
  69  2375.291
  70  2371.777
  71  2474.069
  72  2278.795
  73  2240.48
  74  2109.244
  75  2178.739
  76  2308.53
  77  2448.77
  78  2143.311
  79  2056.27
  80  2425.143
  81  2308.002
  82  2096.799
  83  2528.406
  84  2781.217
  85  2578.538
  86  2558.085
  87  2528.838
  88  2318.589
  89  2319.174
  90  2533.684
  91  2594.516
  92  2423.544
  93  2781.043
  94  2711.216
  95  2369.604
  96  2626.809
  97  2859.571
  98  2848.373
  99  2870.589
 100  2897.642
 101  3002.408
 102  2828.639
 103  2741.504
 104  2374.784
 105  2455.207
 106  2414.429
 107  2447.791
 108  2402.775
 109  2478.838
 110  2330.745
 111  2186.239
 112  2146.344
 113  2487.892
 114  2582.715
 115  2269.522
 116  2265.652
 117  2339.588
 118  2122.39
 119  1920.938
 120  1834.189
 121  2132.056
 122  1928.794
 123  2062.264
 124  2283.387
 125  2625.345
 126  2543.178
 127  2582.102
 128  2757.069
 129  2810.738
 130  2840.331
 131  2977.745
 132  3091.179
 133  3064.954
 134  2675.226
 135  2699.085
 136  2648.628
 137  2880.851
 138  3078.147
 139  3120.915
 140  2760.784
 141  2900.231
 142  3327.634
 143  3522.652
 144  3229.024
 145  2906.618
 146  2724.051
 147  2780.043
 148  2847.049
 149  3171.707
 150  2607.801
 151  2438.508
 152  2503.143
 153  2440.855
 154  2437.447
 155  2434.72
 156  1895.432
 157  1689.261
 158  2307.133
 159  2278.938
 160  2082.126
 161  2001.848
 162  1951.732
 163  1640.606
 164  1851.243
 165  2293.547
 166  2373.228
 167  2017.995
 168  2017.357
 169  1936.109
 170  2059.757
 171  2157.752
 172  2367.576
 173  2323.842
 174  2205.449
 175  1999.424
 176  2438.829
 177  2333.639
 178  1836.071
 179  2203.935
 180  2641.102
 181  2737.032
 182  2458.613
 183  2443.058
 184  2567.234
 185  2376.925
 186  2411.305
 187  2324.961
 188  2684.391
 189  2331.346
 190  2491.139
 191  2349.557
 192  2476.802
 193  2376.486
 194  2273.585
 195  2282.064
 196  2355.315
 197  2023.872
 198  1944.879
 199  2017.1
 200  1844.19
 201  1709.255
 202  1927.731
 203  1951.161
 204  1907.383
 205  2124.623
 206  2007.341
 207  2071.227
 208  2094.724
 209  1873.246
 210  2069.289
 211  2274.196
 212  2654.72
 213  2453.93
 214  2233.814
 215  2404.428
 216  2323.248
 217  2597.878
 218  2577.35
 219  2604.948
 220  2507.051
 221  2611.812
 222  2539.324
 223  2663.964
 224  3184.752
 225  3195.654
 226  2869.537
 227  2890.227
 228  2839.381
 229  3085.225
 230  3085.235
 231  3110.529
 232  2583.256
 233  2509.655
 234  2486.479
 235  2549.052
 236  2926.41
 237  2815.372
 238  2504.318
 239  2392.562
 240  2302.649
 241  2364.048
 242  2400.022
 243  2598.042
 244  2783.04
 245  2409.158
 246  2345.925
 247  2488.342
 248  2667.259
 249  2688.357
 250  2683.473
 251  2518.888
 252  2582.941
 253  2304.695
 254  2541.598
 255  2517.97
 256  2539.244
 257  2715.811
 258  2701.077
 259  2946.471
 260  2642.327
 261  2653.552
 262  3101.077
 263  3106.556
 264  3085.065
 265  2942.983
 266  3152.326
 267  3136.978
 268  3018.034
 269  2844.979
 270  2972.71
 271  2881.482
 272  3090.705
 273  2895.01
 274  2951.098
 275  2682.79
 276  2611.122
 277  2616.096
 278  2706.944
 279  2512.915
 280  2558.396
 281  2707.002
 282  3095.79
 283  2956.735
 284  2752.843
 285  2911.089
 286  2768.659
 287  2795.547
 288  2822.757
 289  2757.238
 290  3073.327
 291  2629.571
 292  2894.163
 293  2952.9
 294  2859.003
 295  2942.409
 296  2938.079
 297  2518.367
 298  2487.886
 299  2543.907
 300  2653.216
 301  2616.271
 302  2528.129
 303  2325.908
 304  2793.604
 305  3018.111
 306  2973.802
 307  2881.325
 308  3040.269
 309  3183.942
 310  3249.062
 311  3279.85
 312  3177.595
 313  3187.219
 314  2636.945
 315  2472.859
 316  2378.765
 317  2332.14
 318  2162.741
 319  2392.536
 320  2418.634
 321  2230.856
 322  2563.371
 323  2114.651
 324  2082.999
 325  2309.493
 326  3113.73
 327  3759.361
 328  3858.345
 329  3642.151
 330  3199.918
 331  2673.358
 332  2448.974
 333  2545.578
 334  2626.525
 335  2532.606
 336  2468.509
 337  2729.407
 338  2517.798
 339  2212.089
 340  2187.911
 341  2557.432
 342  2640.333
 343  2744.681
 344  2747.933
 345  2861.504
 346  3141.338
 347  2791.192
 348  2810.341
 349  3170.231
 350  3239.318
 351  3238.322
 352  3072.771
 353  2856.203
 354  2956.367
 355  2606.897
 356  2875.862
 357  2876.109
 358  2947.076
 359  2928.57
 360  2867.709
 361  3000.272
 362  2766.855
 363  2833.514
 364  2856.729
 365  2578.917
 366  2444.15
 367  2496.841
 368  2274.271
 369  2202.999
 370  2423.677
 371  2434.906
 372  2416.395
 373  2472.516
 374  2546.089
 375  2449.576
 376  2452.113
 377  2115.862
 378  2411.57
 379  2895.871
 380  2884.158
 381  2568.887
 382  2150.787
 383  2398.721
 384  2303.131
 385  2369.544
 386  2282.281
 387  1950.923
 388  2225.002
 389  2497.851
 390  2334.094
 391  2346.03
 392  2645.536
 393  2471.809
 394  2720.205
 395  2634.155
 396  2839.493
 397  3001.73
 398  3002.104
 399  2729.834
 400  2851.736
 401  3162.128
 402  3249.491
 403  2860.65
 404  2777.279
 405  2740.768
 406  2351.839
 407  2576.01
 408  2693.848
 409  2446.78
 410  2237.603
 411  2455.068
 412  2481.75
 413  2025.949
 414  1985.206
 415  2460.623
 416  2694.415
 417  2744.03
 418  2624.309
 419  2353.813
 420  2309.815
 421  2469.434
 422  2614.526
 423  2292.05
 424  2598.555
 425  2883.25
 426  2128.891
 427  2272.326
 428  2752.997
 429  2715.336
 430  2106.046
 431  2111.319
 432  2531.85
 433  2797.627
 434  2777.014
 435  2936.233
 436  2974.92
 437  2713.978
 438  3133.81
 439  3238.34
 440  3340.576
 441  3276.873
 442  3052.205
 443  2816.025
 444  2782.746
 445  2932.84
 446  3250.421
 447  2994.491
 448  2751.924
 449  2829.033
 450  2978.947
 451  2947.77
 452  2741.862
 453  2560.287
 454  2269.062
 455  2260.753
 456  2261.106
 457  2395.066
 458  2504.599
 459  2504.432
 460  2432.426
 461  2519.996
 462  2539.14
 463  2456.781
 464  1920.661
 465  1780.966
 466  1961.964
 467  2005.605
 468  1911.626
 469  1783.889
 470  2156.526
 471  2148.035
 472  2406.869
 473  2521.299
 474  2685.79
 475  2348.941
 476  2672.791
 477  2693.761
 478  2802.646
 479  2684.681
 480  2667.065
 481  2584.946
 482  2923.13
 483  3207.794
 484  2791.678
 485  2877.873
 486  2843.923
 487  2831.059
 488  3037.132
 489  2558.164
 490  2307.51
 491  2188.109
 492  2380.994
 493  2197.696
 494  1943.13
 495  2061.316
 496  2009.233
 497  1881.108
 498  2073.644
 499  2229.508
 500  2113.257
 501  2201.158
 502  2408.062
 503  2561.864
 504  2263.322
 505  2269.981
 506  2303.242
 507  2150.935
 508  1882.077
 509  1963.136
 510  2029.166
 511  2299.689
