# Input file       =  1181097647.101202-PSRB0329-2ms-sampling-dd.dat
# Candidate        =  PSR_0332+5434
# Telescope        =  AR
# Epoch_topo       =  57914.111876171322
# Epoch_bary       =  N/A
# T_sample         =  0.002
# Data Folded      =  7208960
# Data Avg         =  1.08512643159222e-09
# Data StdDev      =  8.17964699339606 
# Profile Bins     =  512
# Profile Avg      =  1.45880339089715 
# Profile StdDev   =  970.590170518407 
# Reduced chi-sqr  =  0.588
# Prob(Noise)      <  1   (~0.0 sigma)
# P_topo (ms)      =  714.507806811079  +/- 0.000235
# P'_topo (s/s)    =  -0                +/- 1.26e-10
# P''_topo (s/s^2) =  0                 +/- 5.66e-14
# P_bary (ms)      =  N/A
# P'_bary (s/s)    =  N/A
# P''_bary (s/s^2) =  N/A
# P_orb (s)        =  N/A
# asin(i)/c (s)    =  N/A
# eccentricity     =  N/A
# w (rad)          =  N/A
# T_peri           =  N/A
######################################################
   0  -802.4283
   1  -243.4709
   2  -521.4603
   3  -740.4214
   4  -662.3953
   5  -990.9717
   6  -714.7386
   7  -722.3946
   8  -279.7188
   9  -349.7917
  10  -446.6459
  11  -329.3621
  12  -152.302
  13  255.7994
  14  27.50656
  15  -563.9687
  16  -232.8667
  17  -422.0247
  18  -381.7375
  19  -276.4851
  20  509.2902
  21  174.0422
  22  -68.91222
  23  -376.0985
  24  -604.8955
  25  -446.8931
  26  -796.3329
  27  -409.287
  28  -116.3417
  29  396.7696
  30  213.4839
  31  -43.80495
  32  -246.5143
  33  -19.09842
  34  -255.0603
  35  -703.0263
  36  -911.765
  37  -922.3235
  38  -1171.599
  39  -844.2911
  40  -773.4851
  41  -591.137
  42  -448.995
  43  -101.7413
  44  -179.4536
  45  -56.22942
  46  6.927426
  47  -300.5468
  48  -673.6144
  49  -744.2368
  50  -499.8236
  51  -751.8747
  52  -302.2611
  53  333.8115
  54  747.4747
  55  750.2308
  56  236.5161
  57  156.1029
  58  -336.6079
  59  -285.8152
  60  -264.3751
  61  -346.9758
  62  -444.28
  63  -770.5439
  64  -438.7678
  65  -356.1702
  66  -183.5177
  67  -303.5993
  68  5.640352
  69  538.5256
  70  416.3742
  71  672.6536
  72  25.49818
  73  453.1672
  74  301.1143
  75  62.38406
  76  -527.8754
  77  -512.2049
  78  -423.0361
  79  -447.666
  80  24.59339
  81  7.97492
  82  285.3801
  83  446.7998
  84  592.4024
  85  992.2375
  86  903.0027
  87  1147.137
  88  314.5316
  89  658.8594
  90  619.768
  91  175.685
  92  16.9024
  93  -123.723
  94  97.27171
  95  -17.11162
  96  719.8962
  97  740.3398
  98  468.0063
  99  838.7979
 100  370.5413
 101  304.8308
 102  87.94501
 103  361.2383
 104  264.2574
 105  508.2143
 106  432.1206
 107  167.862
 108  572.4959
 109  136.7838
 110  85.71274
 111  350.0978
 112  210.3915
 113  -266.8139
 114  75.47112
 115  596.6223
 116  539.7508
 117  459.3692
 118  674.691
 119  400.386
 120  521.8831
 121  444.3843
 122  286.1099
 123  -56.07323
 124  85.02953
 125  257.2055
 126  598.9582
 127  197.8733
 128  -197.7401
 129  -164.4682
 130  58.10521
 131  -2.774653
 132  -388.1295
 133  39.32749
 134  -474.4008
 135  -1.208908
 136  543.1252
 137  126.344
 138  155.8082
 139  48.85945
 140  -339.8992
 141  236.9481
 142  304.1434
 143  618.1292
 144  641.7928
 145  978.2864
 146  235.058
 147  175.3861
 148  658.3713
 149  1189.357
 150  990.4679
 151  1029.485
 152  1345.412
 153  417.1161
 154  356.2414
 155  221.0639
 156  772.0005
 157  706.0806
 158  678.3657
 159  687.4072
 160  676.2633
 161  832.3853
 162  759.5869
 163  921.5826
 164  425.2625
 165  388.3253
 166  328.8495
 167  -287.0127
 168  58.10421
 169  480.1365
 170  826.3942
 171  656.1049
 172  903.6763
 173  1402.589
 174  767.1206
 175  412.4694
 176  -111.3786
 177  373.3246
 178  172.4614
 179  -4.589988
 180  120.7927
 181  786.2822
 182  723.2056
 183  259.2595
 184  25.33509
 185  93.97512
 186  399.1685
 187  -205.9722
 188  235.8219
 189  -129.998
 190  -581.9453
 191  -164.5307
 192  -448.9871
 193  -202.9549
 194  -472.6503
 195  -1099.664
 196  -1589.983
 197  -1203.919
 198  -1054.535
 199  -941.0964
 200  -268.6199
 201  -295.5193
 202  -180.8694
 203  -493.8801
 204  126.799
 205  133.9543
 206  182.4084
 207  389.8606
 208  -77.91011
 209  -650.8462
 210  -542.7175
 211  -133.1253
 212  82.83972
 213  372.5703
 214  772.3098
 215  1060.893
 216  685.3162
 217  1096.179
 218  1668.909
 219  1285.751
 220  823.0588
 221  334.8727
 222  602.0031
 223  581.6614
 224  459.9762
 225  200.6698
 226  -301.5858
 227  -280.1251
 228  -430.8424
 229  -756.2016
 230  -180.391
 231  -144.2797
 232  455.5853
 233  101.7414
 234  329.2366
 235  726.0004
 236  567.6744
 237  70.80151
 238  -232.7328
 239  -184.4591
 240  -128.422
 241  -327.8754
 242  -347.0879
 243  -148.6964
 244  453.3288
 245  847.111
 246  1156.76
 247  1430.056
 248  1269.343
 249  958.9485
 250  465.593
 251  550.8498
 252  843.7365
 253  658.7952
 254  269.611
 255  11.96254
 256  17.41306
 257  -33.09079
 258  -25.80349
 259  9.685881
 260  283.5019
 261  52.57288
 262  124.7296
 263  -396.4594
 264  -167.9662
 265  355.9175
 266  405.4019
 267  921.1019
 268  720.9068
 269  117.6573
 270  -784.632
 271  -1149.885
 272  -944.2511
 273  -501.1107
 274  211.5658
 275  57.34239
 276  545.2438
 277  388.4713
 278  -278.3917
 279  -398.5933
 280  -170.0553
 281  93.94798
 282  -238.0728
 283  -23.47071
 284  -113.0802
 285  44.43604
 286  185.9968
 287  6.518398
 288  226.7999
 289  387.5438
 290  185.7648
 291  -390.8813
 292  -567.2643
 293  -848.3209
 294  -624.3265
 295  -788.8541
 296  -1034.947
 297  -885.6844
 298  -1050.258
 299  -462.908
 300  -503.1888
 301  -14.51725
 302  135.8338
 303  -281.1871
 304  7.955011
 305  -179.9843
 306  -215.6664
 307  -337.2143
 308  -125.6366
 309  24.74553
 310  12.52135
 311  -313.128
 312  -1048.915
 313  -576.3139
 314  148.5576
 315  364.2279
 316  95.16702
 317  85.19618
 318  515.7115
 319  452.5695
 320  521.6907
 321  917.1307
 322  704.4103
 323  754.183
 324  81.09145
 325  -166.4074
 326  -386.3991
 327  -436.9554
 328  -21.95083
 329  298.9634
 330  224.8191
 331  219.4073
 332  -74.4181
 333  314.6709
 334  901.7544
 335  1223.042
 336  1348.256
 337  933.3314
 338  788.2882
 339  120.8795
 340  -903.0771
 341  -529.1986
 342  -666.7311
 343  -424.8431
 344  -748.0599
 345  -973.8149
 346  -887.6766
 347  -147.0907
 348  210.2122
 349  563.9414
 350  660.3089
 351  538.3293
 352  -138.2812
 353  -458.4186
 354  -748.5385
 355  -256.2058
 356  115.8262
 357  3.175235
 358  -37.4883
 359  3.098181
 360  44.2992
 361  -326.9919
 362  -190.8311
 363  154.7102
 364  527.678
 365  550.3674
 366  690.4653
 367  469.1486
 368  544.8544
 369  185.0457
 370  66.102
 371  -162.0081
 372  -550.0707
 373  -819.0764
 374  -800.4771
 375  14.73699
 376  89.65926
 377  282.0134
 378  417.9141
 379  -326.8341
 380  -359.1907
 381  -395.9145
 382  113.5906
 383  -116.4267
 384  236.9954
 385  385.884
 386  64.76688
 387  -546.7747
 388  -947.9767
 389  -654.7782
 390  -249.7985
 391  -77.43444
 392  -60.37833
 393  -370.8741
 394  -314.6566
 395  370.8673
 396  791.6133
 397  646.9752
 398  98.07542
 399  158.5977
 400  247.9325
 401  229.6678
 402  -94.2463
 403  397.7528
 404  584.5033
 405  106.9917
 406  -192.131
 407  -559.7374
 408  -298.3439
 409  -421.1759
 410  -324.6905
 411  -916.566
 412  -635.1409
 413  -697.6363
 414  -575.3663
 415  -660.8488
 416  -516.3394
 417  -109.1746
 418  -814.9357
 419  -874.4749
 420  -919.6093
 421  -579.3813
 422  -232.5513
 423  -415.2466
 424  -432.3645
 425  -772.3268
 426  -506.3232
 427  -772.7686
 428  -555.7446
 429  -143.7805
 430  35.30279
 431  -23.71694
 432  -136.6208
 433  -115.7218
 434  -281.1268
 435  -613.9837
 436  -276.6133
 437  70.04459
 438  356.0324
 439  872.0523
 440  484.8501
 441  -103.8255
 442  11.89583
 443  -194.2151
 444  -235.2996
 445  -357.6878
 446  -100.8784
 447  -30.58033
 448  235.7279
 449  722.5146
 450  388.0202
 451  170.5077
 452  -68.04279
 453  -272.9503
 454  344.8722
 455  599.5199
 456  1272.342
 457  1380.547
 458  1569.803
 459  1372.251
 460  244.6619
 461  44.99863
 462  -523.3691
 463  -333.6816
 464  -4.807718
 465  -14.64327
 466  141.7089
 467  -56.56699
 468  -48.09254
 469  54.3984
 470  39.0215
 471  185.2118
 472  579.7537
 473  88.95447
 474  -356.6767
 475  -410.16
 476  -660.0189
 477  -524.3885
 478  -642.0432
 479  -266.5531
 480  -358.2816
 481  -277.7202
 482  125.9805
 483  -156.3721
 484  -203.4161
 485  -204.0986
 486  -312.3536
 487  -601.9352
 488  -268.9058
 489  -625.4032
 490  -1030.351
 491  -826.0878
 492  -890.7872
 493  -443.0368
 494  -422.1955
 495  -335.495
 496  -547.8127
 497  -765.8141
 498  -538.4093
 499  -407.4099
 500  -212.228
 501  -459.882
 502  -698.2659
 503  -393.2497
 504  -69.62947
 505  -45.21234
 506  -227.0842
 507  -718.978
 508  -800.603
 509  -782.6678
 510  -1016.593
 511  -802.9758
